Criado como novo conjunto de dados;"2706_e01_daniel.spp","5582.0 Secs"
cm-1;Abs
10000.000000;0.849888
9999.000000;0.850063
9998.000000;0.850570
9997.000000;0.850984
9996.000000;0.851298
9995.000000;0.851702
9994.000000;0.852040
9993.000000;0.851851
9992.000000;0.851031
9991.000000;0.850185
9990.000000;0.850047
9989.000000;0.850665
9988.000000;0.851411
9987.000000;0.851768
9986.000000;0.851831
9985.000000;0.851957
9984.000000;0.852192
9983.000000;0.852311
9982.000000;0.852260
9981.000000;0.852264
9980.000000;0.852463
9979.000000;0.852685
9978.000000;0.852670
9977.000000;0.852344
9976.000000;0.851818
9975.000000;0.851255
9974.000000;0.850848
9973.000000;0.850760
9972.000000;0.850915
9971.000000;0.850951
9970.000000;0.850592
9969.000000;0.850030
9968.000000;0.849773
9967.000000;0.850086
9966.000000;0.850733
9965.000000;0.851252
9964.000000;0.851351
9963.000000;0.851018
9962.000000;0.850409
9961.000000;0.849760
9960.000000;0.849301
9959.000000;0.849103
9958.000000;0.849064
9957.000000;0.849116
9956.000000;0.849413
9955.000000;0.850167
9954.000000;0.851306
9953.000000;0.852391
9952.000000;0.852936
9951.000000;0.852785
9950.000000;0.852143
9949.000000;0.851309
9948.000000;0.850488
9947.000000;0.849849
9946.000000;0.849564
9945.000000;0.849667
9944.000000;0.849900
9943.000000;0.849893
9942.000000;0.849564
9941.000000;0.849255
9940.000000;0.849354
9939.000000;0.849828
9938.000000;0.850263
9937.000000;0.850345
9936.000000;0.850186
9935.000000;0.850123
9934.000000;0.850289
9933.000000;0.850486
9932.000000;0.850475
9931.000000;0.850251
9930.000000;0.849943
9929.000000;0.849503
9928.000000;0.848711
9927.000000;0.847615
9926.000000;0.846781
9925.000000;0.846862
9924.000000;0.847903
9923.000000;0.849230
9922.000000;0.850093
9921.000000;0.850281
9920.000000;0.850064
9919.000000;0.849779
9918.000000;0.849627
9917.000000;0.849686
9916.000000;0.849864
9915.000000;0.849922
9914.000000;0.849740
9913.000000;0.849532
9912.000000;0.849638
9911.000000;0.850129
9910.000000;0.850724
9909.000000;0.851076
9908.000000;0.851001
9907.000000;0.850516
9906.000000;0.849833
9905.000000;0.849287
9904.000000;0.849077
9903.000000;0.849083
9902.000000;0.849082
9901.000000;0.849070
9900.000000;0.849165
9899.000000;0.849238
9898.000000;0.848981
9897.000000;0.848408
9896.000000;0.847986
9895.000000;0.848076
9894.000000;0.848490
9893.000000;0.848756
9892.000000;0.848699
9891.000000;0.848549
9890.000000;0.848600
9889.000000;0.848942
9888.000000;0.849458
9887.000000;0.849912
9886.000000;0.850070
9885.000000;0.849892
9884.000000;0.849623
9883.000000;0.849585
9882.000000;0.849869
9881.000000;0.850239
9880.000000;0.850306
9879.000000;0.849788
9878.000000;0.848719
9877.000000;0.847483
9876.000000;0.846548
9875.000000;0.846107
9874.000000;0.846030
9873.000000;0.846163
9872.000000;0.846490
9871.000000;0.846930
9870.000000;0.847200
9869.000000;0.847100
9868.000000;0.846841
9867.000000;0.846862
9866.000000;0.847329
9865.000000;0.847999
9864.000000;0.848520
9863.000000;0.848739
9862.000000;0.848745
9861.000000;0.848792
9860.000000;0.849125
9859.000000;0.849700
9858.000000;0.850077
9857.000000;0.849798
9856.000000;0.848888
9855.000000;0.847815
9854.000000;0.846939
9853.000000;0.846248
9852.000000;0.845659
9851.000000;0.845308
9850.000000;0.845370
9849.000000;0.845781
9848.000000;0.846319
9847.000000;0.846859
9846.000000;0.847356
9845.000000;0.847663
9844.000000;0.847601
9843.000000;0.847223
9842.000000;0.846813
9841.000000;0.846574
9840.000000;0.846417
9839.000000;0.846164
9838.000000;0.845867
9837.000000;0.845828
9836.000000;0.846277
9835.000000;0.847084
9834.000000;0.847826
9833.000000;0.848154
9832.000000;0.848069
9831.000000;0.847840
9830.000000;0.847696
9829.000000;0.847679
9828.000000;0.847743
9827.000000;0.847884
9826.000000;0.848102
9825.000000;0.848316
9824.000000;0.848366
9823.000000;0.848129
9822.000000;0.847609
9821.000000;0.846978
9820.000000;0.846472
9819.000000;0.846201
9818.000000;0.846059
9817.000000;0.845940
9816.000000;0.845990
9815.000000;0.846462
9814.000000;0.847252
9813.000000;0.847809
9812.000000;0.847742
9811.000000;0.847400
9810.000000;0.847557
9809.000000;0.848496
9808.000000;0.849595
9807.000000;0.849921
9806.000000;0.849120
9805.000000;0.847646
9804.000000;0.846242
9803.000000;0.845380
9802.000000;0.845138
9801.000000;0.845416
9800.000000;0.846092
9799.000000;0.846977
9798.000000;0.847749
9797.000000;0.848084
9796.000000;0.847912
9795.000000;0.847471
9794.000000;0.847046
9793.000000;0.846715
9792.000000;0.846412
9791.000000;0.846161
9790.000000;0.846109
9789.000000;0.846309
9788.000000;0.846590
9787.000000;0.846713
9786.000000;0.846617
9785.000000;0.846440
9784.000000;0.846339
9783.000000;0.846319
9782.000000;0.846271
9781.000000;0.846127
9780.000000;0.845956
9779.000000;0.845837
9778.000000;0.845717
9777.000000;0.845506
9776.000000;0.845338
9775.000000;0.845523
9774.000000;0.846113
9773.000000;0.846645
9772.000000;0.846560
9771.000000;0.845838
9770.000000;0.845009
9769.000000;0.844566
9768.000000;0.844577
9767.000000;0.844867
9766.000000;0.845269
9765.000000;0.845617
9764.000000;0.845736
9763.000000;0.845632
9762.000000;0.845510
9761.000000;0.845452
9760.000000;0.845265
9759.000000;0.844845
9758.000000;0.844496
9757.000000;0.844631
9756.000000;0.845236
9755.000000;0.845869
9754.000000;0.846150
9753.000000;0.846038
9752.000000;0.845694
9751.000000;0.845340
9750.000000;0.845250
9749.000000;0.845588
9748.000000;0.846152
9747.000000;0.846493
9746.000000;0.846397
9745.000000;0.846109
9744.000000;0.845961
9743.000000;0.845969
9742.000000;0.845906
9741.000000;0.845654
9740.000000;0.845324
9739.000000;0.845114
9738.000000;0.845161
9737.000000;0.845485
9736.000000;0.845953
9735.000000;0.846307
9734.000000;0.846346
9733.000000;0.846095
9732.000000;0.845782
9731.000000;0.845652
9730.000000;0.845810
9729.000000;0.846156
9728.000000;0.846440
9727.000000;0.846443
9726.000000;0.846176
9725.000000;0.845863
9724.000000;0.845690
9723.000000;0.845629
9722.000000;0.845545
9721.000000;0.845382
9720.000000;0.845152
9719.000000;0.844821
9718.000000;0.844362
9717.000000;0.843930
9716.000000;0.843824
9715.000000;0.844197
9714.000000;0.844855
9713.000000;0.845428
9712.000000;0.845690
9711.000000;0.845666
9710.000000;0.845450
9709.000000;0.845067
9708.000000;0.844571
9707.000000;0.844174
9706.000000;0.844120
9705.000000;0.844421
9704.000000;0.844799
9703.000000;0.844940
9702.000000;0.844764
9701.000000;0.844444
9700.000000;0.844239
9699.000000;0.844316
9698.000000;0.844642
9697.000000;0.844984
9696.000000;0.845108
9695.000000;0.845028
9694.000000;0.844950
9693.000000;0.844919
9692.000000;0.844688
9691.000000;0.844098
9690.000000;0.843441
9689.000000;0.843192
9688.000000;0.843447
9687.000000;0.843856
9686.000000;0.844107
9685.000000;0.844216
9684.000000;0.844274
9683.000000;0.844202
9682.000000;0.843947
9681.000000;0.843719
9680.000000;0.843763
9679.000000;0.843959
9678.000000;0.843918
9677.000000;0.843501
9676.000000;0.843096
9675.000000;0.843234
9674.000000;0.844009
9673.000000;0.844920
9672.000000;0.845305
9671.000000;0.844924
9670.000000;0.844122
9669.000000;0.843488
9668.000000;0.843371
9667.000000;0.843713
9666.000000;0.844196
9665.000000;0.844456
9664.000000;0.844276
9663.000000;0.843775
9662.000000;0.843394
9661.000000;0.843520
9660.000000;0.844019
9659.000000;0.844306
9658.000000;0.843971
9657.000000;0.843257
9656.000000;0.842794
9655.000000;0.842955
9654.000000;0.843554
9653.000000;0.844113
9652.000000;0.844322
9651.000000;0.844269
9650.000000;0.844294
9649.000000;0.844621
9648.000000;0.845094
9647.000000;0.845327
9646.000000;0.845101
9645.000000;0.844559
9644.000000;0.843997
9643.000000;0.843604
9642.000000;0.843458
9641.000000;0.843595
9640.000000;0.843921
9639.000000;0.844150
9638.000000;0.844040
9637.000000;0.843678
9636.000000;0.843391
9635.000000;0.843354
9634.000000;0.843403
9633.000000;0.843285
9632.000000;0.842969
9631.000000;0.842644
9630.000000;0.842449
9629.000000;0.842307
9628.000000;0.842045
9627.000000;0.841662
9626.000000;0.841391
9625.000000;0.841455
9624.000000;0.841809
9623.000000;0.842210
9622.000000;0.842506
9621.000000;0.842720
9620.000000;0.842859
9619.000000;0.842816
9618.000000;0.842574
9617.000000;0.842340
9616.000000;0.842318
9615.000000;0.842445
9614.000000;0.842500
9613.000000;0.842429
9612.000000;0.842400
9611.000000;0.842544
9610.000000;0.842767
9609.000000;0.842831
9608.000000;0.842539
9607.000000;0.841894
9606.000000;0.841190
9605.000000;0.840874
9604.000000;0.841161
9603.000000;0.841760
9602.000000;0.842128
9601.000000;0.842037
9600.000000;0.841771
9599.000000;0.841731
9598.000000;0.841984
9597.000000;0.842297
9596.000000;0.842481
9595.000000;0.842566
9594.000000;0.842659
9593.000000;0.842768
9592.000000;0.842806
9591.000000;0.842746
9590.000000;0.842709
9589.000000;0.842819
9588.000000;0.842999
9587.000000;0.842996
9586.000000;0.842701
9585.000000;0.842358
9584.000000;0.842306
9583.000000;0.842545
9582.000000;0.842708
9581.000000;0.842533
9580.000000;0.842193
9579.000000;0.842068
9578.000000;0.842262
9577.000000;0.842516
9576.000000;0.842547
9575.000000;0.842348
9574.000000;0.842116
9573.000000;0.841972
9572.000000;0.841851
9571.000000;0.841639
9570.000000;0.841349
9569.000000;0.841097
9568.000000;0.840954
9567.000000;0.840853
9566.000000;0.840672
9565.000000;0.840371
9564.000000;0.840037
9563.000000;0.839835
9562.000000;0.839924
9561.000000;0.840361
9560.000000;0.841049
9559.000000;0.841768
9558.000000;0.842299
9557.000000;0.842516
9556.000000;0.842384
9555.000000;0.841934
9554.000000;0.841296
9553.000000;0.840709
9552.000000;0.840418
9551.000000;0.840523
9550.000000;0.840927
9549.000000;0.841399
9548.000000;0.841689
9547.000000;0.841667
9546.000000;0.841430
9545.000000;0.841236
9544.000000;0.841268
9543.000000;0.841475
9542.000000;0.841696
9541.000000;0.841876
9540.000000;0.842083
9539.000000;0.842322
9538.000000;0.842460
9537.000000;0.842375
9536.000000;0.842118
9535.000000;0.841868
9534.000000;0.841751
9533.000000;0.841716
9532.000000;0.841576
9531.000000;0.841205
9530.000000;0.840718
9529.000000;0.840426
9528.000000;0.840566
9527.000000;0.841073
9526.000000;0.841652
9525.000000;0.842017
9524.000000;0.842036
9523.000000;0.841740
9522.000000;0.841281
9521.000000;0.840865
9520.000000;0.840613
9519.000000;0.840485
9518.000000;0.840390
9517.000000;0.840338
9516.000000;0.840396
9515.000000;0.840556
9514.000000;0.840756
9513.000000;0.840997
9512.000000;0.841319
9511.000000;0.841651
9510.000000;0.841825
9509.000000;0.841779
9508.000000;0.841629
9507.000000;0.841511
9506.000000;0.841448
9505.000000;0.841403
9504.000000;0.841342
9503.000000;0.841215
9502.000000;0.840983
9501.000000;0.840742
9500.000000;0.840685
9499.000000;0.840855
9498.000000;0.841024
9497.000000;0.840938
9496.000000;0.840615
9495.000000;0.840303
9494.000000;0.840169
9493.000000;0.840144
9492.000000;0.840051
9491.000000;0.839800
9490.000000;0.839488
9489.000000;0.839332
9488.000000;0.839483
9487.000000;0.839843
9486.000000;0.840087
9485.000000;0.839961
9484.000000;0.839543
9483.000000;0.839158
9482.000000;0.839043
9481.000000;0.839167
9480.000000;0.839338
9479.000000;0.839401
9478.000000;0.839340
9477.000000;0.839262
9476.000000;0.839302
9475.000000;0.839500
9474.000000;0.839753
9473.000000;0.839908
9472.000000;0.839916
9471.000000;0.839872
9470.000000;0.839883
9469.000000;0.839963
9468.000000;0.840040
9467.000000;0.840068
9466.000000;0.840084
9465.000000;0.840176
9464.000000;0.840385
9463.000000;0.840674
9462.000000;0.840975
9461.000000;0.841254
9460.000000;0.841478
9459.000000;0.841571
9458.000000;0.841465
9457.000000;0.841200
9456.000000;0.840898
9455.000000;0.840621
9454.000000;0.840345
9453.000000;0.840080
9452.000000;0.839896
9451.000000;0.839794
9450.000000;0.839664
9449.000000;0.839472
9448.000000;0.839353
9447.000000;0.839416
9446.000000;0.839531
9445.000000;0.839485
9444.000000;0.839275
9443.000000;0.839094
9442.000000;0.839062
9441.000000;0.839139
9440.000000;0.839296
9439.000000;0.839581
9438.000000;0.839925
9437.000000;0.840050
9436.000000;0.839705
9435.000000;0.838971
9434.000000;0.838225
9433.000000;0.837840
9432.000000;0.837938
9431.000000;0.838369
9430.000000;0.838874
9429.000000;0.839278
9428.000000;0.839562
9427.000000;0.839759
9426.000000;0.839799
9425.000000;0.839563
9424.000000;0.839079
9423.000000;0.838577
9422.000000;0.838295
9421.000000;0.838295
9420.000000;0.838468
9419.000000;0.838646
9418.000000;0.838695
9417.000000;0.838593
9416.000000;0.838466
9415.000000;0.838460
9414.000000;0.838535
9413.000000;0.838486
9412.000000;0.838230
9411.000000;0.837967
9410.000000;0.837950
9409.000000;0.838172
9408.000000;0.838387
9407.000000;0.838394
9406.000000;0.838196
9405.000000;0.837929
9404.000000;0.837772
9403.000000;0.837896
9402.000000;0.838337
9401.000000;0.838893
9400.000000;0.839211
9399.000000;0.839077
9398.000000;0.838586
9397.000000;0.838032
9396.000000;0.837671
9395.000000;0.837577
9394.000000;0.837678
9393.000000;0.837906
9392.000000;0.838269
9391.000000;0.838734
9390.000000;0.839083
9389.000000;0.839029
9388.000000;0.838556
9387.000000;0.838031
9386.000000;0.837839
9385.000000;0.838011
9384.000000;0.838286
9383.000000;0.838451
9382.000000;0.838442
9381.000000;0.838223
9380.000000;0.837817
9379.000000;0.837456
9378.000000;0.837449
9377.000000;0.837799
9376.000000;0.838137
9375.000000;0.838128
9374.000000;0.837826
9373.000000;0.837540
9372.000000;0.837500
9371.000000;0.837749
9370.000000;0.838218
9369.000000;0.838746
9368.000000;0.839120
9367.000000;0.839236
9366.000000;0.839172
9365.000000;0.839021
9364.000000;0.838732
9363.000000;0.838235
9362.000000;0.837660
9361.000000;0.837281
9360.000000;0.837242
9359.000000;0.837461
9358.000000;0.837767
9357.000000;0.838026
9356.000000;0.838149
9355.000000;0.838076
9354.000000;0.837821
9353.000000;0.837484
9352.000000;0.837203
9351.000000;0.837106
9350.000000;0.837269
9349.000000;0.837623
9348.000000;0.837958
9347.000000;0.838076
9346.000000;0.837961
9345.000000;0.837761
9344.000000;0.837616
9343.000000;0.837570
9342.000000;0.837582
9341.000000;0.837577
9340.000000;0.837492
9339.000000;0.837360
9338.000000;0.837285
9337.000000;0.837285
9336.000000;0.837197
9335.000000;0.836852
9334.000000;0.836312
9333.000000;0.835831
9332.000000;0.835600
9331.000000;0.835633
9330.000000;0.835880
9329.000000;0.836269
9328.000000;0.836648
9327.000000;0.836824
9326.000000;0.836766
9325.000000;0.836664
9324.000000;0.836703
9323.000000;0.836867
9322.000000;0.837035
9321.000000;0.837185
9320.000000;0.837387
9319.000000;0.837636
9318.000000;0.837793
9317.000000;0.837708
9316.000000;0.837360
9315.000000;0.836883
9314.000000;0.836482
9313.000000;0.836298
9312.000000;0.836317
9311.000000;0.836423
9310.000000;0.836523
9309.000000;0.836589
9308.000000;0.836590
9307.000000;0.836475
9306.000000;0.836270
9305.000000;0.836111
9304.000000;0.836108
9303.000000;0.836225
9302.000000;0.836368
9301.000000;0.836532
9300.000000;0.836770
9299.000000;0.837036
9298.000000;0.837164
9297.000000;0.837044
9296.000000;0.836768
9295.000000;0.836544
9294.000000;0.836507
9293.000000;0.836593
9292.000000;0.836614
9291.000000;0.836451
9290.000000;0.836202
9289.000000;0.836108
9288.000000;0.836319
9287.000000;0.836754
9286.000000;0.837231
9285.000000;0.837650
9284.000000;0.837961
9283.000000;0.838003
9282.000000;0.837574
9281.000000;0.836736
9280.000000;0.835931
9279.000000;0.835627
9278.000000;0.835869
9277.000000;0.836260
9276.000000;0.836393
9275.000000;0.836215
9274.000000;0.835970
9273.000000;0.835895
9272.000000;0.836025
9271.000000;0.836209
9270.000000;0.836255
9269.000000;0.836118
9268.000000;0.835960
9267.000000;0.835988
9266.000000;0.836194
9265.000000;0.836339
9264.000000;0.836256
9263.000000;0.836061
9262.000000;0.835969
9261.000000;0.835985
9260.000000;0.835949
9259.000000;0.835829
9258.000000;0.835746
9257.000000;0.835719
9256.000000;0.835587
9255.000000;0.835295
9254.000000;0.835055
9253.000000;0.835086
9252.000000;0.835317
9251.000000;0.835527
9250.000000;0.835656
9249.000000;0.835783
9248.000000;0.835890
9247.000000;0.835861
9246.000000;0.835721
9245.000000;0.835647
9244.000000;0.835712
9243.000000;0.835775
9242.000000;0.835697
9241.000000;0.835513
9240.000000;0.835324
9239.000000;0.835159
9238.000000;0.835032
9237.000000;0.834999
9236.000000;0.835064
9235.000000;0.835118
9234.000000;0.835085
9233.000000;0.835036
9232.000000;0.835070
9231.000000;0.835161
9230.000000;0.835234
9229.000000;0.835311
9228.000000;0.835461
9227.000000;0.835654
9226.000000;0.835786
9225.000000;0.835821
9224.000000;0.835795
9223.000000;0.835701
9222.000000;0.835503
9221.000000;0.835270
9220.000000;0.835129
9219.000000;0.835060
9218.000000;0.834859
9217.000000;0.834415
9216.000000;0.833947
9215.000000;0.833840
9214.000000;0.834246
9213.000000;0.834908
9212.000000;0.835374
9211.000000;0.835379
9210.000000;0.835012
9209.000000;0.834590
9208.000000;0.834394
9207.000000;0.834522
9206.000000;0.834904
9205.000000;0.835357
9204.000000;0.835638
9203.000000;0.835547
9202.000000;0.835109
9201.000000;0.834625
9200.000000;0.834426
9199.000000;0.834569
9198.000000;0.834802
9197.000000;0.834843
9196.000000;0.834633
9195.000000;0.834318
9194.000000;0.834062
9193.000000;0.833906
9192.000000;0.833748
9191.000000;0.833436
9190.000000;0.832954
9189.000000;0.832531
9188.000000;0.832481
9187.000000;0.832894
9186.000000;0.833566
9185.000000;0.834252
9184.000000;0.834867
9183.000000;0.835353
9182.000000;0.835513
9181.000000;0.835180
9180.000000;0.834525
9179.000000;0.833996
9178.000000;0.833880
9177.000000;0.834085
9176.000000;0.834371
9175.000000;0.834630
9174.000000;0.834855
9173.000000;0.834983
9172.000000;0.834952
9171.000000;0.834857
9170.000000;0.834875
9169.000000;0.835040
9168.000000;0.835197
9167.000000;0.835213
9166.000000;0.835099
9165.000000;0.834930
9164.000000;0.834745
9163.000000;0.834561
9162.000000;0.834405
9161.000000;0.834248
9160.000000;0.833983
9159.000000;0.833558
9158.000000;0.833099
9157.000000;0.832823
9156.000000;0.832858
9155.000000;0.833167
9154.000000;0.833621
9153.000000;0.834089
9152.000000;0.834471
9151.000000;0.834723
9150.000000;0.834875
9149.000000;0.834983
9148.000000;0.835034
9147.000000;0.834929
9146.000000;0.834611
9145.000000;0.834199
9144.000000;0.833944
9143.000000;0.833990
9142.000000;0.834189
9141.000000;0.834199
9140.000000;0.833813
9139.000000;0.833155
9138.000000;0.832540
9137.000000;0.832194
9136.000000;0.832158
9135.000000;0.832406
9134.000000;0.832905
9133.000000;0.833535
9132.000000;0.834045
9131.000000;0.834188
9130.000000;0.833906
9129.000000;0.833384
9128.000000;0.832948
9127.000000;0.832869
9126.000000;0.833179
9125.000000;0.833618
9124.000000;0.833833
9123.000000;0.833701
9122.000000;0.833416
9121.000000;0.833254
9120.000000;0.833286
9119.000000;0.833381
9118.000000;0.833393
9117.000000;0.833273
9116.000000;0.833055
9115.000000;0.832820
9114.000000;0.832665
9113.000000;0.832614
9112.000000;0.832575
9111.000000;0.832469
9110.000000;0.832375
9109.000000;0.832468
9108.000000;0.832798
9107.000000;0.833222
9106.000000;0.833546
9105.000000;0.833665
9104.000000;0.833573
9103.000000;0.833328
9102.000000;0.833045
9101.000000;0.832854
9100.000000;0.832799
9099.000000;0.832839
9098.000000;0.832934
9097.000000;0.833075
9096.000000;0.833194
9095.000000;0.833146
9094.000000;0.832856
9093.000000;0.832443
9092.000000;0.832121
9091.000000;0.832019
9090.000000;0.832130
9089.000000;0.832411
9088.000000;0.832825
9087.000000;0.833299
9086.000000;0.833696
9085.000000;0.833882
9084.000000;0.833804
9083.000000;0.833510
9082.000000;0.833112
9081.000000;0.832718
9080.000000;0.832376
9079.000000;0.832082
9078.000000;0.831838
9077.000000;0.831679
9076.000000;0.831631
9075.000000;0.831669
9074.000000;0.831737
9073.000000;0.831806
9072.000000;0.831874
9071.000000;0.831924
9070.000000;0.831919
9069.000000;0.831856
9068.000000;0.831799
9067.000000;0.831840
9066.000000;0.832020
9065.000000;0.832301
9064.000000;0.832600
9063.000000;0.832863
9062.000000;0.833102
9061.000000;0.833361
9060.000000;0.833634
9059.000000;0.833845
9058.000000;0.833881
9057.000000;0.833666
9056.000000;0.833223
9055.000000;0.832686
9054.000000;0.832248
9053.000000;0.832030
9052.000000;0.831974
9051.000000;0.831905
9050.000000;0.831709
9049.000000;0.831464
9048.000000;0.831357
9047.000000;0.831503
9046.000000;0.831843
9045.000000;0.832193
9044.000000;0.832364
9043.000000;0.832272
9042.000000;0.831993
9041.000000;0.831711
9040.000000;0.831581
9039.000000;0.831607
9038.000000;0.831683
9037.000000;0.831725
9036.000000;0.831732
9035.000000;0.831716
9034.000000;0.831642
9033.000000;0.831491
9032.000000;0.831346
9031.000000;0.831339
9030.000000;0.831506
9029.000000;0.831733
9028.000000;0.831883
9027.000000;0.831917
9026.000000;0.831876
9025.000000;0.831769
9024.000000;0.831562
9023.000000;0.831263
9022.000000;0.830941
9021.000000;0.830661
9020.000000;0.830447
9019.000000;0.830315
9018.000000;0.830275
9017.000000;0.830283
9016.000000;0.830253
9015.000000;0.830177
9014.000000;0.830160
9013.000000;0.830286
9012.000000;0.830491
9011.000000;0.830633
9010.000000;0.830646
9009.000000;0.830557
9008.000000;0.830426
9007.000000;0.830371
9006.000000;0.830596
9005.000000;0.831195
9004.000000;0.831904
9003.000000;0.832224
9002.000000;0.831888
9001.000000;0.831150
9000.000000;0.830501
8999.000000;0.830199
8998.000000;0.830144
8997.000000;0.830101
8996.000000;0.829931
8995.000000;0.829677
8994.000000;0.829541
8993.000000;0.829744
8992.000000;0.830269
8991.000000;0.830765
8990.000000;0.830834
8989.000000;0.830446
8988.000000;0.829938
8987.000000;0.829616
8986.000000;0.829500
8985.000000;0.829484
8984.000000;0.829572
8983.000000;0.829827
8982.000000;0.830182
8981.000000;0.830450
8980.000000;0.830521
8979.000000;0.830466
8978.000000;0.830441
8977.000000;0.830539
8976.000000;0.830702
8975.000000;0.830740
8974.000000;0.830456
8973.000000;0.829831
8972.000000;0.829087
8971.000000;0.828533
8970.000000;0.828344
8969.000000;0.828514
8968.000000;0.828941
8967.000000;0.829490
8966.000000;0.830005
8965.000000;0.830336
8964.000000;0.830420
8963.000000;0.830284
8962.000000;0.830002
8961.000000;0.829677
8960.000000;0.829447
8959.000000;0.829418
8958.000000;0.829576
8957.000000;0.829787
8956.000000;0.829906
8955.000000;0.829866
8954.000000;0.829675
8953.000000;0.829397
8952.000000;0.829136
8951.000000;0.828979
8950.000000;0.828943
8949.000000;0.828991
8948.000000;0.829101
8947.000000;0.829249
8946.000000;0.829333
8945.000000;0.829224
8944.000000;0.828929
8943.000000;0.828650
8942.000000;0.828595
8941.000000;0.828777
8940.000000;0.829044
8939.000000;0.829251
8938.000000;0.829358
8937.000000;0.829394
8936.000000;0.829415
8935.000000;0.829467
8934.000000;0.829536
8933.000000;0.829520
8932.000000;0.829319
8931.000000;0.828979
8930.000000;0.828704
8929.000000;0.828676
8928.000000;0.828881
8927.000000;0.829103
8926.000000;0.829109
8925.000000;0.828848
8924.000000;0.828519
8923.000000;0.828412
8922.000000;0.828648
8921.000000;0.829075
8920.000000;0.829412
8919.000000;0.829486
8918.000000;0.829316
8917.000000;0.829018
8916.000000;0.828709
8915.000000;0.828488
8914.000000;0.828431
8913.000000;0.828539
8912.000000;0.828724
8911.000000;0.828863
8910.000000;0.828872
8909.000000;0.828755
8908.000000;0.828600
8907.000000;0.828529
8906.000000;0.828588
8905.000000;0.828676
8904.000000;0.828636
8903.000000;0.828429
8902.000000;0.828187
8901.000000;0.828073
8900.000000;0.828115
8899.000000;0.828215
8898.000000;0.828298
8897.000000;0.828384
8896.000000;0.828522
8895.000000;0.828688
8894.000000;0.828782
8893.000000;0.828727
8892.000000;0.828563
8891.000000;0.828420
8890.000000;0.828415
8889.000000;0.828568
8888.000000;0.828801
8887.000000;0.829000
8886.000000;0.829089
8885.000000;0.829073
8884.000000;0.829008
8883.000000;0.828919
8882.000000;0.828749
8881.000000;0.828454
8880.000000;0.828120
8879.000000;0.827921
8878.000000;0.827916
8877.000000;0.827961
8876.000000;0.827897
8875.000000;0.827754
8874.000000;0.827684
8873.000000;0.827731
8872.000000;0.827767
8871.000000;0.827681
8870.000000;0.827513
8869.000000;0.827371
8868.000000;0.827304
8867.000000;0.827307
8866.000000;0.827379
8865.000000;0.827511
8864.000000;0.827638
8863.000000;0.827678
8862.000000;0.827616
8861.000000;0.827526
8860.000000;0.827501
8859.000000;0.827579
8858.000000;0.827707
8857.000000;0.827773
8856.000000;0.827697
8855.000000;0.827519
8854.000000;0.827364
8853.000000;0.827343
8852.000000;0.827477
8851.000000;0.827715
8850.000000;0.827954
8849.000000;0.828063
8848.000000;0.827967
8847.000000;0.827737
8846.000000;0.827523
8845.000000;0.827362
8844.000000;0.827136
8843.000000;0.826790
8842.000000;0.826495
8841.000000;0.826478
8840.000000;0.826710
8839.000000;0.826906
8838.000000;0.826851
8837.000000;0.826644
8836.000000;0.826551
8835.000000;0.826693
8834.000000;0.826954
8833.000000;0.827151
8832.000000;0.827216
8831.000000;0.827199
8830.000000;0.827179
8829.000000;0.827209
8828.000000;0.827308
8827.000000;0.827432
8826.000000;0.827465
8825.000000;0.827306
8824.000000;0.826995
8823.000000;0.826707
8822.000000;0.826581
8821.000000;0.826584
8820.000000;0.826591
8819.000000;0.826564
8818.000000;0.826587
8817.000000;0.826736
8816.000000;0.826993
8815.000000;0.827285
8814.000000;0.827532
8813.000000;0.827641
8812.000000;0.827524
8811.000000;0.827188
8810.000000;0.826778
8809.000000;0.826475
8808.000000;0.826364
8807.000000;0.826428
8806.000000;0.826599
8805.000000;0.826790
8804.000000;0.826906
8803.000000;0.826869
8802.000000;0.826666
8801.000000;0.826342
8800.000000;0.826005
8799.000000;0.825812
8798.000000;0.825892
8797.000000;0.826212
8796.000000;0.826567
8795.000000;0.826753
8794.000000;0.826752
8793.000000;0.826692
8792.000000;0.826688
8791.000000;0.826752
8790.000000;0.826849
8789.000000;0.826934
8788.000000;0.826953
8787.000000;0.826869
8786.000000;0.826696
8785.000000;0.826476
8784.000000;0.826226
8783.000000;0.825983
8782.000000;0.825864
8781.000000;0.825988
8780.000000;0.826306
8779.000000;0.826591
8778.000000;0.826671
8777.000000;0.826592
8776.000000;0.826508
8775.000000;0.826444
8774.000000;0.826276
8773.000000;0.825935
8772.000000;0.825545
8771.000000;0.825326
8770.000000;0.825393
8769.000000;0.825648
8768.000000;0.825859
8767.000000;0.825821
8766.000000;0.825488
8765.000000;0.824989
8764.000000;0.824538
8763.000000;0.824306
8762.000000;0.824356
8761.000000;0.824640
8760.000000;0.825029
8759.000000;0.825369
8758.000000;0.825553
8757.000000;0.825574
8756.000000;0.825486
8755.000000;0.825326
8754.000000;0.825091
8753.000000;0.824799
8752.000000;0.824545
8751.000000;0.824445
8750.000000;0.824529
8749.000000;0.824699
8748.000000;0.824822
8747.000000;0.824867
8746.000000;0.824919
8745.000000;0.825069
8744.000000;0.825303
8743.000000;0.825514
8742.000000;0.825623
8741.000000;0.825621
8740.000000;0.825512
8739.000000;0.825250
8738.000000;0.824814
8737.000000;0.824329
8736.000000;0.824023
8735.000000;0.824028
8734.000000;0.824240
8733.000000;0.824412
8732.000000;0.824385
8731.000000;0.824201
8730.000000;0.824030
8729.000000;0.824012
8728.000000;0.824157
8727.000000;0.824347
8726.000000;0.824430
8725.000000;0.824336
8724.000000;0.824121
8723.000000;0.823896
8722.000000;0.823730
8721.000000;0.823664
8720.000000;0.823750
8719.000000;0.824007
8718.000000;0.824308
8717.000000;0.824423
8716.000000;0.824219
8715.000000;0.823798
8714.000000;0.823392
8713.000000;0.823145
8712.000000;0.823034
8711.000000;0.822962
8710.000000;0.822893
8709.000000;0.822891
8708.000000;0.823058
8707.000000;0.823424
8706.000000;0.823878
8705.000000;0.824213
8704.000000;0.824283
8703.000000;0.824111
8702.000000;0.823850
8701.000000;0.823641
8700.000000;0.823513
8699.000000;0.823390
8698.000000;0.823189
8697.000000;0.822930
8696.000000;0.822739
8695.000000;0.822708
8694.000000;0.822782
8693.000000;0.822837
8692.000000;0.822871
8691.000000;0.823006
8690.000000;0.823275
8689.000000;0.823501
8688.000000;0.823498
8687.000000;0.823300
8686.000000;0.823102
8685.000000;0.823028
8684.000000;0.823070
8683.000000;0.823207
8682.000000;0.823424
8681.000000;0.823608
8680.000000;0.823572
8679.000000;0.823263
8678.000000;0.822862
8677.000000;0.822601
8676.000000;0.822523
8675.000000;0.822487
8674.000000;0.822375
8673.000000;0.822228
8672.000000;0.822171
8671.000000;0.822230
8670.000000;0.822251
8669.000000;0.822054
8668.000000;0.821652
8667.000000;0.821275
8666.000000;0.821136
8665.000000;0.821221
8664.000000;0.821366
8663.000000;0.821469
8662.000000;0.821530
8661.000000;0.821535
8660.000000;0.821430
8659.000000;0.821232
8658.000000;0.821050
8657.000000;0.820959
8656.000000;0.820940
8655.000000;0.820963
8654.000000;0.821040
8653.000000;0.821172
8652.000000;0.821334
8651.000000;0.821530
8650.000000;0.821773
8649.000000;0.821983
8648.000000;0.822019
8647.000000;0.821850
8646.000000;0.821594
8645.000000;0.821344
8644.000000;0.821068
8643.000000;0.820761
8642.000000;0.820567
8641.000000;0.820601
8640.000000;0.820752
8639.000000;0.820777
8638.000000;0.820577
8637.000000;0.820252
8636.000000;0.819929
8635.000000;0.819666
8634.000000;0.819510
8633.000000;0.819520
8632.000000;0.819689
8631.000000;0.819931
8630.000000;0.820173
8629.000000;0.820375
8628.000000;0.820448
8627.000000;0.820260
8626.000000;0.819804
8625.000000;0.819306
8624.000000;0.819079
8623.000000;0.819259
8622.000000;0.819688
8621.000000;0.820049
8620.000000;0.820105
8619.000000;0.819843
8618.000000;0.819444
8617.000000;0.819118
8616.000000;0.818956
8615.000000;0.818906
8614.000000;0.818864
8613.000000;0.818778
8612.000000;0.818678
8611.000000;0.818628
8610.000000;0.818639
8609.000000;0.818654
8608.000000;0.818612
8607.000000;0.818526
8606.000000;0.818455
8605.000000;0.818404
8604.000000;0.818318
8603.000000;0.818180
8602.000000;0.818064
8601.000000;0.818050
8600.000000;0.818125
8599.000000;0.818204
8598.000000;0.818206
8597.000000;0.818094
8596.000000;0.817888
8595.000000;0.817701
8594.000000;0.817677
8593.000000;0.817831
8592.000000;0.817976
8591.000000;0.817890
8590.000000;0.817553
8589.000000;0.817160
8588.000000;0.816930
8587.000000;0.816945
8586.000000;0.817145
8585.000000;0.817373
8584.000000;0.817447
8583.000000;0.817306
8582.000000;0.817100
8581.000000;0.817051
8580.000000;0.817191
8579.000000;0.817331
8578.000000;0.817315
8577.000000;0.817191
8576.000000;0.817084
8575.000000;0.816989
8574.000000;0.816813
8573.000000;0.816576
8572.000000;0.816437
8571.000000;0.816496
8570.000000;0.816653
8569.000000;0.816718
8568.000000;0.816607
8567.000000;0.816405
8566.000000;0.816245
8565.000000;0.816184
8564.000000;0.816181
8563.000000;0.816172
8562.000000;0.816140
8561.000000;0.816098
8560.000000;0.816037
8559.000000;0.815936
8558.000000;0.815811
8557.000000;0.815699
8556.000000;0.815569
8555.000000;0.815334
8554.000000;0.815009
8553.000000;0.814805
8552.000000;0.814939
8551.000000;0.815358
8550.000000;0.815748
8549.000000;0.815849
8548.000000;0.815676
8547.000000;0.815408
8546.000000;0.815157
8545.000000;0.814947
8544.000000;0.814820
8543.000000;0.814816
8542.000000;0.814868
8541.000000;0.814840
8540.000000;0.814697
8539.000000;0.814523
8538.000000;0.814371
8537.000000;0.814180
8536.000000;0.813922
8535.000000;0.813707
8534.000000;0.813669
8533.000000;0.813807
8532.000000;0.813997
8531.000000;0.814139
8530.000000;0.814193
8529.000000;0.814132
8528.000000;0.813960
8527.000000;0.813761
8526.000000;0.813665
8525.000000;0.813707
8524.000000;0.813795
8523.000000;0.813804
8522.000000;0.813679
8521.000000;0.813461
8520.000000;0.813247
8519.000000;0.813122
8518.000000;0.813105
8517.000000;0.813148
8516.000000;0.813233
8515.000000;0.813412
8514.000000;0.813688
8513.000000;0.813904
8512.000000;0.813862
8511.000000;0.813551
8510.000000;0.813178
8509.000000;0.812938
8508.000000;0.812852
8507.000000;0.812841
8506.000000;0.812845
8505.000000;0.812813
8504.000000;0.812668
8503.000000;0.812402
8502.000000;0.812152
8501.000000;0.812075
8500.000000;0.812156
8499.000000;0.812213
8498.000000;0.812111
8497.000000;0.811892
8496.000000;0.811700
8495.000000;0.811619
8494.000000;0.811621
8493.000000;0.811636
8492.000000;0.811625
8491.000000;0.811582
8490.000000;0.811492
8489.000000;0.811340
8488.000000;0.811169
8487.000000;0.811108
8486.000000;0.811258
8485.000000;0.811546
8484.000000;0.811731
8483.000000;0.811618
8482.000000;0.811246
8481.000000;0.810833
8480.000000;0.810575
8479.000000;0.810523
8478.000000;0.810631
8477.000000;0.810835
8476.000000;0.811045
8475.000000;0.811137
8474.000000;0.811026
8473.000000;0.810775
8472.000000;0.810559
8471.000000;0.810502
8470.000000;0.810563
8469.000000;0.810619
8468.000000;0.810626
8467.000000;0.810635
8466.000000;0.810665
8465.000000;0.810639
8464.000000;0.810481
8463.000000;0.810231
8462.000000;0.810000
8461.000000;0.809859
8460.000000;0.809812
8459.000000;0.809822
8458.000000;0.809824
8457.000000;0.809753
8456.000000;0.809615
8455.000000;0.809517
8454.000000;0.809532
8453.000000;0.809583
8452.000000;0.809520
8451.000000;0.809334
8450.000000;0.809195
8449.000000;0.809268
8448.000000;0.809548
8447.000000;0.809892
8446.000000;0.810127
8445.000000;0.810116
8444.000000;0.809822
8443.000000;0.809362
8442.000000;0.808963
8441.000000;0.808799
8440.000000;0.808873
8439.000000;0.809057
8438.000000;0.809199
8437.000000;0.809181
8436.000000;0.808963
8435.000000;0.808631
8434.000000;0.808368
8433.000000;0.808311
8432.000000;0.808423
8431.000000;0.808545
8430.000000;0.808553
8429.000000;0.808459
8428.000000;0.808371
8427.000000;0.808364
8426.000000;0.808404
8425.000000;0.808403
8424.000000;0.808343
8423.000000;0.808319
8422.000000;0.808399
8421.000000;0.808500
8420.000000;0.808493
8419.000000;0.808387
8418.000000;0.808319
8417.000000;0.808329
8416.000000;0.808279
8415.000000;0.808044
8414.000000;0.807696
8413.000000;0.807417
8412.000000;0.807323
8411.000000;0.807424
8410.000000;0.807682
8409.000000;0.808011
8408.000000;0.808261
8407.000000;0.808307
8406.000000;0.808169
8405.000000;0.807964
8404.000000;0.807777
8403.000000;0.807620
8402.000000;0.807499
8401.000000;0.807446
8400.000000;0.807461
8399.000000;0.807483
8398.000000;0.807435
8397.000000;0.807286
8396.000000;0.807081
8395.000000;0.806931
8394.000000;0.806945
8393.000000;0.807125
8392.000000;0.807322
8391.000000;0.807359
8390.000000;0.807208
8389.000000;0.806996
8388.000000;0.806854
8387.000000;0.806782
8386.000000;0.806673
8385.000000;0.806437
8384.000000;0.806096
8383.000000;0.805785
8382.000000;0.805658
8381.000000;0.805779
8380.000000;0.806056
8379.000000;0.806303
8378.000000;0.806369
8377.000000;0.806242
8376.000000;0.806031
8375.000000;0.805861
8374.000000;0.805779
8373.000000;0.805747
8372.000000;0.805728
8371.000000;0.805750
8370.000000;0.805846
8369.000000;0.805970
8368.000000;0.806012
8367.000000;0.805917
8366.000000;0.805751
8365.000000;0.805628
8364.000000;0.805595
8363.000000;0.805603
8362.000000;0.805570
8361.000000;0.805457
8360.000000;0.805316
8359.000000;0.805236
8358.000000;0.805236
8357.000000;0.805221
8356.000000;0.805106
8355.000000;0.804969
8354.000000;0.804971
8353.000000;0.805140
8352.000000;0.805316
8351.000000;0.805343
8350.000000;0.805225
8349.000000;0.805037
8348.000000;0.804784
8347.000000;0.804462
8346.000000;0.804173
8345.000000;0.804068
8344.000000;0.804166
8343.000000;0.804339
8342.000000;0.804462
8341.000000;0.804496
8340.000000;0.804437
8339.000000;0.804296
8338.000000;0.804154
8337.000000;0.804140
8336.000000;0.804283
8335.000000;0.804436
8334.000000;0.804413
8333.000000;0.804183
8332.000000;0.803901
8331.000000;0.803734
8330.000000;0.803694
8329.000000;0.803664
8328.000000;0.803545
8327.000000;0.803374
8326.000000;0.803283
8325.000000;0.803364
8324.000000;0.803598
8323.000000;0.803898
8322.000000;0.804183
8321.000000;0.804391
8320.000000;0.804472
8319.000000;0.804411
8318.000000;0.804265
8317.000000;0.804132
8316.000000;0.804062
8315.000000;0.804019
8314.000000;0.803914
8313.000000;0.803705
8312.000000;0.803461
8311.000000;0.803331
8310.000000;0.803407
8309.000000;0.803606
8308.000000;0.803744
8307.000000;0.803721
8306.000000;0.803596
8305.000000;0.803464
8304.000000;0.803338
8303.000000;0.803206
8302.000000;0.803111
8301.000000;0.803096
8300.000000;0.803091
8299.000000;0.802984
8298.000000;0.802803
8297.000000;0.802724
8296.000000;0.802860
8295.000000;0.803110
8294.000000;0.803276
8293.000000;0.803274
8292.000000;0.803163
8291.000000;0.803028
8290.000000;0.802896
8289.000000;0.802781
8288.000000;0.802704
8287.000000;0.802654
8286.000000;0.802570
8285.000000;0.802409
8284.000000;0.802222
8283.000000;0.802112
8282.000000;0.802113
8281.000000;0.802150
8280.000000;0.802133
8279.000000;0.802060
8278.000000;0.802009
8277.000000;0.802040
8276.000000;0.802125
8275.000000;0.802179
8274.000000;0.802151
8273.000000;0.802070
8272.000000;0.802011
8271.000000;0.802000
8270.000000;0.801984
8269.000000;0.801901
8268.000000;0.801776
8267.000000;0.801706
8266.000000;0.801748
8265.000000;0.801845
8264.000000;0.801901
8263.000000;0.801878
8262.000000;0.801793
8261.000000;0.801657
8260.000000;0.801476
8259.000000;0.801307
8258.000000;0.801234
8257.000000;0.801278
8256.000000;0.801369
8255.000000;0.801426
8254.000000;0.801429
8253.000000;0.801413
8252.000000;0.801413
8251.000000;0.801437
8250.000000;0.801463
8249.000000;0.801463
8248.000000;0.801430
8247.000000;0.801391
8246.000000;0.801376
8245.000000;0.801372
8244.000000;0.801364
8243.000000;0.801384
8242.000000;0.801476
8241.000000;0.801602
8240.000000;0.801641
8239.000000;0.801505
8238.000000;0.801228
8237.000000;0.800925
8236.000000;0.800700
8235.000000;0.800578
8234.000000;0.800511
8233.000000;0.800429
8232.000000;0.800313
8231.000000;0.800224
8230.000000;0.800231
8229.000000;0.800328
8228.000000;0.800453
8227.000000;0.800563
8226.000000;0.800649
8225.000000;0.800687
8224.000000;0.800637
8223.000000;0.800503
8222.000000;0.800343
8221.000000;0.800222
8220.000000;0.800191
8219.000000;0.800285
8218.000000;0.800466
8217.000000;0.800585
8216.000000;0.800509
8215.000000;0.800297
8214.000000;0.800134
8213.000000;0.800079
8212.000000;0.799994
8211.000000;0.799769
8210.000000;0.799508
8209.000000;0.799392
8208.000000;0.799461
8207.000000;0.799616
8206.000000;0.799770
8205.000000;0.799902
8204.000000;0.800009
8203.000000;0.800081
8202.000000;0.800110
8201.000000;0.800069
8200.000000;0.799912
8199.000000;0.799671
8198.000000;0.799495
8197.000000;0.799519
8196.000000;0.799712
8195.000000;0.799925
8194.000000;0.800059
8193.000000;0.800096
8192.000000;0.800015
8191.000000;0.799792
8190.000000;0.799479
8189.000000;0.799206
8188.000000;0.799053
8187.000000;0.798985
8186.000000;0.798937
8185.000000;0.798915
8184.000000;0.798964
8183.000000;0.799094
8182.000000;0.799245
8181.000000;0.799340
8180.000000;0.799358
8179.000000;0.799365
8178.000000;0.799450
8177.000000;0.799616
8176.000000;0.799758
8175.000000;0.799785
8174.000000;0.799717
8173.000000;0.799623
8172.000000;0.799504
8171.000000;0.799316
8170.000000;0.799077
8169.000000;0.798878
8168.000000;0.798773
8167.000000;0.798707
8166.000000;0.798601
8165.000000;0.798459
8164.000000;0.798363
8163.000000;0.798376
8162.000000;0.798480
8161.000000;0.798600
8160.000000;0.798666
8159.000000;0.798659
8158.000000;0.798601
8157.000000;0.798517
8156.000000;0.798443
8155.000000;0.798432
8154.000000;0.798522
8153.000000;0.798682
8152.000000;0.798821
8151.000000;0.798877
8150.000000;0.798861
8149.000000;0.798801
8148.000000;0.798700
8147.000000;0.798567
8146.000000;0.798453
8145.000000;0.798395
8144.000000;0.798369
8143.000000;0.798338
8142.000000;0.798315
8141.000000;0.798332
8140.000000;0.798366
8139.000000;0.798351
8138.000000;0.798263
8137.000000;0.798155
8136.000000;0.798096
8135.000000;0.798112
8134.000000;0.798166
8133.000000;0.798181
8132.000000;0.798107
8131.000000;0.797970
8130.000000;0.797856
8129.000000;0.797812
8128.000000;0.797813
8127.000000;0.797828
8126.000000;0.797864
8125.000000;0.797916
8124.000000;0.797943
8123.000000;0.797935
8122.000000;0.797928
8121.000000;0.797910
8120.000000;0.797777
8119.000000;0.797486
8118.000000;0.797190
8117.000000;0.797113
8116.000000;0.797299
8115.000000;0.797583
8114.000000;0.797793
8113.000000;0.797880
8112.000000;0.797854
8111.000000;0.797739
8110.000000;0.797615
8109.000000;0.797607
8108.000000;0.797746
8107.000000;0.797900
8106.000000;0.797920
8105.000000;0.797801
8104.000000;0.797657
8103.000000;0.797563
8102.000000;0.797492
8101.000000;0.797383
8100.000000;0.797233
8099.000000;0.797123
8098.000000;0.797145
8097.000000;0.797308
8096.000000;0.797491
8095.000000;0.797539
8094.000000;0.797415
8093.000000;0.797239
8092.000000;0.797150
8091.000000;0.797172
8090.000000;0.797236
8089.000000;0.797292
8088.000000;0.797350
8087.000000;0.797411
8086.000000;0.797428
8085.000000;0.797343
8084.000000;0.797168
8083.000000;0.796982
8082.000000;0.796863
8081.000000;0.796841
8080.000000;0.796909
8079.000000;0.797048
8078.000000;0.797209
8077.000000;0.797290
8076.000000;0.797221
8075.000000;0.797056
8074.000000;0.796935
8073.000000;0.796922
8072.000000;0.796932
8071.000000;0.796865
8070.000000;0.796743
8069.000000;0.796653
8068.000000;0.796601
8067.000000;0.796516
8066.000000;0.796388
8065.000000;0.796304
8064.000000;0.796326
8063.000000;0.796398
8062.000000;0.796425
8061.000000;0.796393
8060.000000;0.796387
8059.000000;0.796497
8058.000000;0.796718
8057.000000;0.796937
8056.000000;0.797014
8055.000000;0.796902
8054.000000;0.796686
8053.000000;0.796478
8052.000000;0.796329
8051.000000;0.796241
8050.000000;0.796233
8049.000000;0.796311
8048.000000;0.796393
8047.000000;0.796367
8046.000000;0.796224
8045.000000;0.796081
8044.000000;0.796036
8043.000000;0.796066
8042.000000;0.796090
8041.000000;0.796089
8040.000000;0.796094
8039.000000;0.796128
8038.000000;0.796183
8037.000000;0.796245
8036.000000;0.796304
8035.000000;0.796339
8034.000000;0.796330
8033.000000;0.796270
8032.000000;0.796163
8031.000000;0.796021
8030.000000;0.795867
8029.000000;0.795716
8028.000000;0.795564
8027.000000;0.795423
8026.000000;0.795377
8025.000000;0.795510
8024.000000;0.795786
8023.000000;0.796039
8022.000000;0.796130
8021.000000;0.796070
8020.000000;0.795940
8019.000000;0.795770
8018.000000;0.795558
8017.000000;0.795379
8016.000000;0.795362
8015.000000;0.795543
8014.000000;0.795805
8013.000000;0.795989
8012.000000;0.796044
8011.000000;0.796042
8010.000000;0.796058
8009.000000;0.796074
8008.000000;0.796014
8007.000000;0.795855
8006.000000;0.795700
8005.000000;0.795688
8004.000000;0.795840
8003.000000;0.796011
8002.000000;0.796045
8001.000000;0.795948
8000.000000;0.795858
7999.000000;0.795866
7998.000000;0.795915
7997.000000;0.795895
7996.000000;0.795790
7995.000000;0.795676
7994.000000;0.795615
7993.000000;0.795582
7992.000000;0.795508
7991.000000;0.795345
7990.000000;0.795108
7989.000000;0.794877
7988.000000;0.794764
7987.000000;0.794848
7986.000000;0.795101
7985.000000;0.795390
7984.000000;0.795578
7983.000000;0.795624
7982.000000;0.795569
7981.000000;0.795456
7980.000000;0.795302
7979.000000;0.795149
7978.000000;0.795078
7977.000000;0.795123
7976.000000;0.795208
7975.000000;0.795215
7974.000000;0.795116
7973.000000;0.795004
7972.000000;0.794981
7971.000000;0.795055
7970.000000;0.795148
7969.000000;0.795175
7968.000000;0.795118
7967.000000;0.795029
7966.000000;0.795004
7965.000000;0.795092
7964.000000;0.795231
7963.000000;0.795291
7962.000000;0.795212
7961.000000;0.795076
7960.000000;0.795013
7959.000000;0.795053
7958.000000;0.795122
7957.000000;0.795163
7956.000000;0.795180
7955.000000;0.795181
7954.000000;0.795131
7953.000000;0.795018
7952.000000;0.794903
7951.000000;0.794856
7950.000000;0.794859
7949.000000;0.794846
7948.000000;0.794800
7947.000000;0.794766
7946.000000;0.794755
7945.000000;0.794717
7944.000000;0.794629
7943.000000;0.794550
7942.000000;0.794536
7941.000000;0.794544
7940.000000;0.794481
7939.000000;0.794342
7938.000000;0.794226
7937.000000;0.794224
7936.000000;0.794323
7935.000000;0.794437
7934.000000;0.794497
7933.000000;0.794488
7932.000000;0.794442
7931.000000;0.794407
7930.000000;0.794422
7929.000000;0.794488
7928.000000;0.794555
7927.000000;0.794556
7926.000000;0.794468
7925.000000;0.794339
7924.000000;0.794244
7923.000000;0.794207
7922.000000;0.794181
7921.000000;0.794115
7920.000000;0.794035
7919.000000;0.794010
7918.000000;0.794034
7917.000000;0.794006
7916.000000;0.793873
7915.000000;0.793737
7914.000000;0.793734
7913.000000;0.793848
7912.000000;0.793917
7911.000000;0.793832
7910.000000;0.793658
7909.000000;0.793525
7908.000000;0.793506
7907.000000;0.793605
7906.000000;0.793803
7905.000000;0.794033
7904.000000;0.794175
7903.000000;0.794156
7902.000000;0.794045
7901.000000;0.793989
7900.000000;0.794059
7899.000000;0.794183
7898.000000;0.794237
7897.000000;0.794161
7896.000000;0.793990
7895.000000;0.793814
7894.000000;0.793707
7893.000000;0.793685
7892.000000;0.793710
7891.000000;0.793751
7890.000000;0.793796
7889.000000;0.793830
7888.000000;0.793829
7887.000000;0.793827
7886.000000;0.793906
7885.000000;0.794085
7884.000000;0.794237
7883.000000;0.794204
7882.000000;0.793983
7881.000000;0.793742
7880.000000;0.793637
7879.000000;0.793674
7878.000000;0.793743
7877.000000;0.793741
7876.000000;0.793640
7875.000000;0.793484
7874.000000;0.793369
7873.000000;0.793375
7872.000000;0.793478
7871.000000;0.793552
7870.000000;0.793513
7869.000000;0.793404
7868.000000;0.793330
7867.000000;0.793306
7866.000000;0.793257
7865.000000;0.793136
7864.000000;0.792996
7863.000000;0.792931
7862.000000;0.792971
7861.000000;0.793081
7860.000000;0.793219
7859.000000;0.793356
7858.000000;0.793470
7857.000000;0.793544
7856.000000;0.793559
7855.000000;0.793490
7854.000000;0.793320
7853.000000;0.793106
7852.000000;0.792986
7851.000000;0.793068
7850.000000;0.793291
7849.000000;0.793466
7848.000000;0.793464
7847.000000;0.793329
7846.000000;0.793185
7845.000000;0.793084
7844.000000;0.793006
7843.000000;0.792930
7842.000000;0.792852
7841.000000;0.792740
7840.000000;0.792574
7839.000000;0.792421
7838.000000;0.792386
7837.000000;0.792462
7836.000000;0.792522
7835.000000;0.792478
7834.000000;0.792404
7833.000000;0.792431
7832.000000;0.792576
7831.000000;0.792741
7830.000000;0.792838
7829.000000;0.792844
7828.000000;0.792773
7827.000000;0.792654
7826.000000;0.792557
7825.000000;0.792557
7824.000000;0.792645
7823.000000;0.792711
7822.000000;0.792644
7821.000000;0.792450
7820.000000;0.792242
7819.000000;0.792138
7818.000000;0.792161
7817.000000;0.792237
7816.000000;0.792261
7815.000000;0.792192
7814.000000;0.792071
7813.000000;0.791965
7812.000000;0.791904
7811.000000;0.791882
7810.000000;0.791906
7809.000000;0.791996
7808.000000;0.792128
7807.000000;0.792236
7806.000000;0.792267
7805.000000;0.792247
7804.000000;0.792239
7803.000000;0.792256
7802.000000;0.792245
7801.000000;0.792153
7800.000000;0.792009
7799.000000;0.791895
7798.000000;0.791856
7797.000000;0.791860
7796.000000;0.791859
7795.000000;0.791848
7794.000000;0.791845
7793.000000;0.791829
7792.000000;0.791754
7791.000000;0.791624
7790.000000;0.791500
7789.000000;0.791425
7788.000000;0.791371
7787.000000;0.791304
7786.000000;0.791248
7785.000000;0.791239
7784.000000;0.791255
7783.000000;0.791234
7782.000000;0.791169
7781.000000;0.791136
7780.000000;0.791205
7779.000000;0.791352
7778.000000;0.791471
7777.000000;0.791463
7776.000000;0.791323
7775.000000;0.791155
7774.000000;0.791087
7773.000000;0.791147
7772.000000;0.791221
7771.000000;0.791163
7770.000000;0.790960
7769.000000;0.790762
7768.000000;0.790725
7767.000000;0.790862
7766.000000;0.791036
7765.000000;0.791108
7764.000000;0.791065
7763.000000;0.791011
7762.000000;0.791046
7761.000000;0.791161
7760.000000;0.791247
7759.000000;0.791195
7758.000000;0.790982
7757.000000;0.790685
7756.000000;0.790405
7755.000000;0.790204
7754.000000;0.790081
7753.000000;0.790008
7752.000000;0.789968
7751.000000;0.789964
7750.000000;0.789989
7749.000000;0.790023
7748.000000;0.790056
7747.000000;0.790097
7746.000000;0.790153
7745.000000;0.790190
7744.000000;0.790166
7743.000000;0.790083
7742.000000;0.789982
7741.000000;0.789901
7740.000000;0.789849
7739.000000;0.789833
7738.000000;0.789863
7737.000000;0.789919
7736.000000;0.789956
7735.000000;0.789961
7734.000000;0.789978
7733.000000;0.790052
7732.000000;0.790163
7731.000000;0.790249
7730.000000;0.790261
7729.000000;0.790191
7728.000000;0.790073
7727.000000;0.789976
7726.000000;0.789977
7725.000000;0.790081
7724.000000;0.790203
7723.000000;0.790236
7722.000000;0.790139
7721.000000;0.789944
7720.000000;0.789701
7719.000000;0.789451
7718.000000;0.789243
7717.000000;0.789131
7716.000000;0.789137
7715.000000;0.789236
7714.000000;0.789374
7713.000000;0.789474
7712.000000;0.789466
7711.000000;0.789337
7710.000000;0.789157
7709.000000;0.789013
7708.000000;0.788926
7707.000000;0.788846
7706.000000;0.788736
7705.000000;0.788607
7704.000000;0.788498
7703.000000;0.788441
7702.000000;0.788461
7701.000000;0.788565
7700.000000;0.788718
7699.000000;0.788852
7698.000000;0.788935
7697.000000;0.788980
7696.000000;0.788986
7695.000000;0.788912
7694.000000;0.788741
7693.000000;0.788547
7692.000000;0.788437
7691.000000;0.788433
7690.000000;0.788446
7689.000000;0.788397
7688.000000;0.788311
7687.000000;0.788274
7686.000000;0.788318
7685.000000;0.788374
7684.000000;0.788358
7683.000000;0.788259
7682.000000;0.788145
7681.000000;0.788086
7680.000000;0.788088
7679.000000;0.788095
7678.000000;0.788026
7677.000000;0.787854
7676.000000;0.787648
7675.000000;0.787531
7674.000000;0.787568
7673.000000;0.787703
7672.000000;0.787825
7671.000000;0.787899
7670.000000;0.787966
7669.000000;0.788037
7668.000000;0.788033
7667.000000;0.787882
7666.000000;0.787626
7665.000000;0.787400
7664.000000;0.787289
7663.000000;0.787257
7662.000000;0.787216
7661.000000;0.787121
7660.000000;0.787003
7659.000000;0.786924
7658.000000;0.786925
7657.000000;0.786991
7656.000000;0.787063
7655.000000;0.787074
7654.000000;0.786995
7653.000000;0.786846
7652.000000;0.786670
7651.000000;0.786502
7650.000000;0.786366
7649.000000;0.786281
7648.000000;0.786266
7647.000000;0.786317
7646.000000;0.786392
7645.000000;0.786428
7644.000000;0.786379
7643.000000;0.786268
7642.000000;0.786185
7641.000000;0.786210
7640.000000;0.786350
7639.000000;0.786515
7638.000000;0.786574
7637.000000;0.786459
7636.000000;0.786222
7635.000000;0.786000
7634.000000;0.785886
7633.000000;0.785853
7632.000000;0.785808
7631.000000;0.785714
7630.000000;0.785622
7629.000000;0.785580
7628.000000;0.785562
7627.000000;0.785518
7626.000000;0.785451
7625.000000;0.785406
7624.000000;0.785409
7623.000000;0.785438
7622.000000;0.785456
7621.000000;0.785451
7620.000000;0.785438
7619.000000;0.785437
7618.000000;0.785437
7617.000000;0.785386
7616.000000;0.785232
7615.000000;0.784996
7614.000000;0.784767
7613.000000;0.784623
7612.000000;0.784568
7611.000000;0.784572
7610.000000;0.784622
7609.000000;0.784694
7608.000000;0.784723
7607.000000;0.784655
7606.000000;0.784538
7605.000000;0.784494
7604.000000;0.784576
7603.000000;0.784706
7602.000000;0.784760
7601.000000;0.784691
7600.000000;0.784538
7599.000000;0.784367
7598.000000;0.784220
7597.000000;0.784108
7596.000000;0.784012
7595.000000;0.783905
7594.000000;0.783785
7593.000000;0.783680
7592.000000;0.783606
7591.000000;0.783535
7590.000000;0.783431
7589.000000;0.783306
7588.000000;0.783234
7587.000000;0.783271
7586.000000;0.783389
7585.000000;0.783482
7584.000000;0.783451
7583.000000;0.783290
7582.000000;0.783085
7581.000000;0.782932
7580.000000;0.782874
7579.000000;0.782902
7578.000000;0.782995
7577.000000;0.783122
7576.000000;0.783225
7575.000000;0.783249
7574.000000;0.783186
7573.000000;0.783077
7572.000000;0.782955
7571.000000;0.782821
7570.000000;0.782679
7569.000000;0.782564
7568.000000;0.782528
7567.000000;0.782585
7566.000000;0.782681
7565.000000;0.782725
7564.000000;0.782638
7563.000000;0.782417
7562.000000;0.782139
7561.000000;0.781912
7560.000000;0.781788
7559.000000;0.781745
7558.000000;0.781740
7557.000000;0.781765
7556.000000;0.781827
7555.000000;0.781908
7554.000000;0.781962
7553.000000;0.781968
7552.000000;0.781948
7551.000000;0.781931
7550.000000;0.781907
7549.000000;0.781829
7548.000000;0.781660
7547.000000;0.781424
7546.000000;0.781208
7545.000000;0.781101
7544.000000;0.781122
7543.000000;0.781207
7542.000000;0.781262
7541.000000;0.781246
7540.000000;0.781173
7539.000000;0.781079
7538.000000;0.780977
7537.000000;0.780872
7536.000000;0.780762
7535.000000;0.780641
7534.000000;0.780505
7533.000000;0.780370
7532.000000;0.780282
7531.000000;0.780271
7530.000000;0.780320
7529.000000;0.780385
7528.000000;0.780449
7527.000000;0.780522
7526.000000;0.780587
7525.000000;0.780589
7524.000000;0.780496
7523.000000;0.780362
7522.000000;0.780287
7521.000000;0.780311
7520.000000;0.780379
7519.000000;0.780402
7518.000000;0.780351
7517.000000;0.780262
7516.000000;0.780185
7515.000000;0.780131
7514.000000;0.780096
7513.000000;0.780074
7512.000000;0.780056
7511.000000;0.780003
7510.000000;0.779869
7509.000000;0.779655
7508.000000;0.779433
7507.000000;0.779280
7506.000000;0.779202
7505.000000;0.779138
7504.000000;0.779034
7503.000000;0.778891
7502.000000;0.778762
7501.000000;0.778698
7500.000000;0.778735
7499.000000;0.778865
7498.000000;0.779026
7497.000000;0.779101
7496.000000;0.779067
7495.000000;0.778918
7494.000000;0.778726
7493.000000;0.778567
7492.000000;0.778481
7491.000000;0.778450
7490.000000;0.778410
7489.000000;0.778311
7488.000000;0.778189
7487.000000;0.778145
7486.000000;0.778225
7485.000000;0.778343
7484.000000;0.778373
7483.000000;0.778287
7482.000000;0.778170
7481.000000;0.778110
7480.000000;0.778117
7479.000000;0.778132
7478.000000;0.778083
7477.000000;0.777933
7476.000000;0.777712
7475.000000;0.777519
7474.000000;0.777436
7473.000000;0.777434
7472.000000;0.777409
7471.000000;0.777304
7470.000000;0.777173
7469.000000;0.777097
7468.000000;0.777101
7467.000000;0.777152
7466.000000;0.777212
7465.000000;0.777258
7464.000000;0.777280
7463.000000;0.777284
7462.000000;0.777280
7461.000000;0.777238
7460.000000;0.777108
7459.000000;0.776894
7458.000000;0.776682
7457.000000;0.776558
7456.000000;0.776524
7455.000000;0.776526
7454.000000;0.776533
7453.000000;0.776541
7452.000000;0.776542
7451.000000;0.776520
7450.000000;0.776490
7449.000000;0.776480
7448.000000;0.776483
7447.000000;0.776448
7446.000000;0.776341
7445.000000;0.776190
7444.000000;0.776053
7443.000000;0.775955
7442.000000;0.775881
7441.000000;0.775801
7440.000000;0.775711
7439.000000;0.775617
7438.000000;0.775526
7437.000000;0.775428
7436.000000;0.775321
7435.000000;0.775236
7434.000000;0.775226
7433.000000;0.775310
7432.000000;0.775428
7431.000000;0.775462
7430.000000;0.775318
7429.000000;0.775010
7428.000000;0.774665
7427.000000;0.774421
7426.000000;0.774311
7425.000000;0.774254
7424.000000;0.774165
7423.000000;0.774040
7422.000000;0.773905
7421.000000;0.773729
7420.000000;0.773447
7419.000000;0.773071
7418.000000;0.772718
7417.000000;0.772505
7416.000000;0.772470
7415.000000;0.775415
7414.000000;0.775346
7413.000000;0.775383
7412.000000;0.775500
7411.000000;0.775598
7410.000000;0.775604
7409.000000;0.775525
7408.000000;0.775430
7407.000000;0.775371
7406.000000;0.775334
7405.000000;0.775249
7404.000000;0.775077
7403.000000;0.771146
7402.000000;0.771352
7401.000000;0.771773
7400.000000;0.772194
7399.000000;0.772370
7398.000000;0.772220
7397.000000;0.771844
7396.000000;0.771411
7395.000000;0.771024
7394.000000;0.770666
7393.000000;0.770263
7392.000000;0.774930
7391.000000;0.774701
7390.000000;0.774535
7389.000000;0.774487
7388.000000;0.774519
7387.000000;0.774571
7386.000000;0.774636
7385.000000;0.774735
7384.000000;0.774840
7383.000000;0.774892
7382.000000;0.774893
7381.000000;0.774880
7380.000000;0.774849
7379.000000;0.774758
7378.000000;0.774626
7377.000000;0.774554
7376.000000;0.774608
7375.000000;0.768625
7374.000000;0.769375
7373.000000;0.769741
7372.000000;0.769837
7371.000000;0.769791
7370.000000;0.769647
7369.000000;0.769419
7368.000000;0.769161
7367.000000;0.768982
7366.000000;0.769015
7365.000000;0.769302
7364.000000;0.769740
7363.000000;0.770180
7362.000000;0.770544
7361.000000;0.770790
7360.000000;0.770828
7359.000000;0.770591
7358.000000;0.770191
7357.000000;0.769887
7356.000000;0.769829
7355.000000;0.769948
7354.000000;0.770113
7353.000000;0.770273
7352.000000;0.770392
7351.000000;0.770380
7350.000000;0.770172
7349.000000;0.769804
7348.000000;0.769354
7347.000000;0.768896
7346.000000;0.768534
7345.000000;0.768362
7344.000000;0.768342
7343.000000;0.768335
7342.000000;0.768335
7341.000000;0.768531
7340.000000;0.769066
7339.000000;0.769841
7338.000000;0.770653
7337.000000;0.771417
7336.000000;0.772125
7335.000000;0.772704
7334.000000;0.773050
7333.000000;0.773119
7332.000000;0.772896
7331.000000;0.772389
7330.000000;0.771749
7329.000000;0.771271
7328.000000;0.771144
7327.000000;0.771280
7326.000000;0.771499
7325.000000;0.771785
7324.000000;0.772188
7323.000000;0.772605
7322.000000;0.772863
7321.000000;0.772949
7320.000000;0.773019
7319.000000;0.773173
7318.000000;0.773354
7317.000000;0.773463
7316.000000;0.773467
7315.000000;0.773382
7314.000000;0.773244
7313.000000;0.773165
7312.000000;0.773265
7311.000000;0.773508
7310.000000;0.773708
7309.000000;0.773769
7308.000000;0.773798
7307.000000;0.773927
7306.000000;0.774124
7305.000000;0.774296
7304.000000;0.774434
7303.000000;0.774558
7302.000000;0.774583
7301.000000;0.774405
7300.000000;0.774112
7299.000000;0.773939
7298.000000;0.773999
7297.000000;0.774162
7296.000000;0.774249
7295.000000;0.774220
7294.000000;0.774154
7293.000000;0.774111
7292.000000;0.774081
7291.000000;0.774009
7290.000000;0.773826
7289.000000;0.773503
7288.000000;0.773120
7287.000000;0.772823
7286.000000;0.772689
7285.000000;0.772652
7284.000000;0.772579
7283.000000;0.772414
7282.000000;0.772210
7281.000000;0.772047
7280.000000;0.771963
7279.000000;0.771947
7278.000000;0.771949
7277.000000;0.771921
7276.000000;0.771862
7275.000000;0.771807
7274.000000;0.771760
7273.000000;0.771658
7272.000000;0.771458
7271.000000;0.771238
7270.000000;0.771134
7269.000000;0.771183
7268.000000;0.771268
7267.000000;0.771246
7266.000000;0.771083
7265.000000;0.770869
7264.000000;0.770728
7263.000000;0.770722
7262.000000;0.770815
7261.000000;0.770891
7260.000000;0.770860
7259.000000;0.770729
7258.000000;0.770554
7257.000000;0.770341
7256.000000;0.770047
7255.000000;0.769671
7254.000000;0.769285
7253.000000;0.768986
7252.000000;0.768823
7251.000000;0.768786
7250.000000;0.768814
7249.000000;0.768795
7248.000000;0.768605
7247.000000;0.768185
7246.000000;0.767586
7245.000000;0.766973
7244.000000;0.766536
7243.000000;0.766380
7242.000000;0.768297
7241.000000;0.768179
7240.000000;0.767829
7239.000000;0.767375
7238.000000;0.766968
7237.000000;0.766609
7236.000000;0.766183
7235.000000;0.765663
7234.000000;0.765182
7233.000000;0.764885
7232.000000;0.764756
7231.000000;0.764621
7230.000000;0.764298
7229.000000;0.763753
7228.000000;0.763129
7227.000000;0.762635
7226.000000;0.762356
7225.000000;0.762129
7224.000000;0.760338
7223.000000;0.758829
7222.000000;0.756994
7221.000000;0.755332
7220.000000;0.754024
7219.000000;0.752979
7218.000000;0.752148
7217.000000;0.751632
7216.000000;0.751488
7215.000000;0.751584
7214.000000;0.751714
7213.000000;0.751746
7212.000000;0.751629
7211.000000;0.751354
7210.000000;0.750920
7209.000000;0.750299
7208.000000;0.749428
7207.000000;0.748304
7206.000000;0.747077
7205.000000;0.745935
7204.000000;0.744925
7203.000000;0.743974
7202.000000;0.743094
7201.000000;0.742419
7200.000000;0.741996
7199.000000;0.741650
7198.000000;0.741157
7197.000000;0.740448
7196.000000;0.739600
7195.000000;0.738658
7194.000000;0.737592
7193.000000;0.736403
7192.000000;0.735185
7191.000000;0.734005
7190.000000;0.732769
7189.000000;0.731310
7188.000000;0.729623
7187.000000;0.727918
7186.000000;0.726380
7185.000000;0.724950
7184.000000;0.723444
7183.000000;0.721851
7182.000000;0.720364
7181.000000;0.719153
7180.000000;0.718215
7179.000000;0.717438
7178.000000;0.716658
7177.000000;0.715620
7176.000000;0.714086
7175.000000;0.712065
7174.000000;0.709837
7173.000000;0.707662
7172.000000;0.705557
7171.000000;0.703442
7170.000000;0.701341
7169.000000;0.699342
7168.000000;0.697435
7167.000000;0.695512
7166.000000;0.693483
7165.000000;0.691294
7164.000000;0.688929
7163.000000;0.686485
7162.000000;0.684192
7161.000000;0.682261
7160.000000;0.680726
7159.000000;0.679468
7158.000000;0.678301
7157.000000;0.676978
7156.000000;0.675258
7155.000000;0.673097
7154.000000;0.670720
7153.000000;0.668377
7152.000000;0.666073
7151.000000;0.663629
7150.000000;0.660956
7149.000000;0.658131
7148.000000;0.655258
7147.000000;0.652384
7146.000000;0.649533
7145.000000;0.646690
7144.000000;0.643760
7143.000000;0.640644
7142.000000;0.637380
7141.000000;0.634112
7140.000000;0.630903
7139.000000;0.627738
7138.000000;0.624728
7137.000000;0.622142
7136.000000;0.620132
7135.000000;0.618525
7134.000000;0.616951
7133.000000;0.615104
7132.000000;0.612823
7131.000000;0.610057
7130.000000;0.606910
7129.000000;0.603664
7128.000000;0.600600
7127.000000;0.597759
7126.000000;0.594905
7125.000000;0.591772
7124.000000;0.588262
7123.000000;0.584409
7122.000000;0.580253
7121.000000;0.575855
7120.000000;0.571422
7119.000000;0.567265
7118.000000;0.563538
7117.000000;0.560124
7116.000000;0.556937
7115.000000;0.554205
7114.000000;0.552210
7113.000000;0.550759
7112.000000;0.549141
7111.000000;0.546667
7110.000000;0.543179
7109.000000;0.539016
7108.000000;0.534656
7107.000000;0.530466
7106.000000;0.526669
7105.000000;0.523359
7104.000000;0.520510
7103.000000;0.517986
7102.000000;0.515484
7101.000000;0.512491
7100.000000;0.508549
7099.000000;0.503682
7098.000000;0.498461
7097.000000;0.493514
7096.000000;0.489050
7095.000000;0.484962
7094.000000;0.481263
7093.000000;0.478192
7092.000000;0.475881
7091.000000;0.474098
7090.000000;0.472319
7089.000000;0.469958
7088.000000;0.466662
7087.000000;0.462565
7086.000000;0.458251
7085.000000;0.454261
7084.000000;0.450627
7083.000000;0.447008
7082.000000;0.443232
7081.000000;0.439486
7080.000000;0.435997
7079.000000;0.432760
7078.000000;0.429599
7077.000000;0.426313
7076.000000;0.422702
7075.000000;0.418604
7074.000000;0.414035
7073.000000;0.409202
7072.000000;0.404330
7071.000000;0.399605
7070.000000;0.395300
7069.000000;0.391747
7068.000000;0.389060
7067.000000;0.386937
7066.000000;0.384856
7065.000000;0.382443
7064.000000;0.379602
7063.000000;0.376385
7062.000000;0.372868
7061.000000;0.369175
7060.000000;0.365518
7059.000000;0.362125
7058.000000;0.359019
7057.000000;0.355912
7056.000000;0.352431
7055.000000;0.348474
7054.000000;0.344289
7053.000000;0.340193
7052.000000;0.336297
7051.000000;0.332524
7050.000000;0.328777
7049.000000;0.324997
7048.000000;0.321146
7047.000000;0.317249
7046.000000;0.313448
7045.000000;0.309938
7044.000000;0.306848
7043.000000;0.304137
7042.000000;0.301540
7041.000000;0.298662
7040.000000;0.295258
7039.000000;0.291471
7038.000000;0.287657
7037.000000;0.284020
7036.000000;0.280544
7035.000000;0.277201
7034.000000;0.273954
7033.000000;0.270566
7032.000000;0.266740
7031.000000;0.262553
7030.000000;0.258525
7029.000000;0.255062
7028.000000;0.252014
7027.000000;0.248889
7026.000000;0.245343
7025.000000;0.241351
7024.000000;0.237134
7023.000000;0.233072
7022.000000;0.229534
7021.000000;0.226622
7020.000000;0.224158
7019.000000;0.221911
7018.000000;0.219628
7017.000000;0.216914
7016.000000;0.213455
7015.000000;0.209496
7014.000000;0.205755
7013.000000;0.202659
7012.000000;0.199939
7011.000000;0.197118
7010.000000;0.194072
7009.000000;0.190911
7008.000000;0.187631
7007.000000;0.184159
7006.000000;0.180563
7005.000000;0.176964
7004.000000;0.173402
7003.000000;0.169924
7002.000000;0.166582
7001.000000;0.163225
7000.000000;0.159569
6999.000000;0.155650
6998.000000;0.151940
6997.000000;0.148820
6996.000000;0.146165
6995.000000;0.143601
6994.000000;0.140887
6993.000000;0.137900
6992.000000;0.134572
6991.000000;0.131091
6990.000000;0.127867
6989.000000;0.125125
6988.000000;0.122721
6987.000000;0.120463
6986.000000;0.118243
6985.000000;0.115739
6984.000000;0.112452
6983.000000;0.108325
6982.000000;0.103966
6981.000000;0.100038
6980.000000;0.096746
6979.000000;0.094071
6978.000000;0.091986
6977.000000;0.090128
6976.000000;0.087785
6975.000000;0.084671
6974.000000;0.081329
6973.000000;0.078384
6972.000000;0.075729
6971.000000;0.072882
6970.000000;0.069804
6969.000000;0.066868
6968.000000;0.064273
6967.000000;0.061927
6966.000000;0.059756
6965.000000;0.057774
6964.000000;0.055976
6963.000000;0.054408
6962.000000;0.053065
6961.000000;0.051528
6960.000000;0.049086
6959.000000;0.045529
6958.000000;0.041544
6957.000000;0.038015
6956.000000;0.035248
6955.000000;0.033099
6954.000000;0.031389
6953.000000;0.029810
6952.000000;0.027868
6951.000000;0.025410
6950.000000;0.022920
6949.000000;0.020833
6948.000000;0.018846
6947.000000;0.016347
6946.000000;0.013309
6945.000000;0.010300
6944.000000;0.007780
6943.000000;0.005753
6942.000000;0.003953
6941.000000;0.002051
6940.000000;-0.000142
6939.000000;-0.002420
6938.000000;-0.004334
6937.000000;-0.005795
6936.000000;-0.007223
6935.000000;-0.008906
6934.000000;-0.010613
6933.000000;-0.012112
6932.000000;-0.013615
6931.000000;-0.015372
6930.000000;-0.017218
6929.000000;-0.018934
6928.000000;-0.020676
6927.000000;-0.022627
6926.000000;-0.024579
6925.000000;-0.026248
6924.000000;-0.027705
6923.000000;-0.029136
6922.000000;-0.030512
6921.000000;-0.031886
6920.000000;-0.033615
6919.000000;-0.035867
6918.000000;-0.038210
6917.000000;-0.040078
6916.000000;-0.041380
6915.000000;-0.042301
6914.000000;-0.042882
6913.000000;-0.043199
6912.000000;-0.043613
6911.000000;-0.044371
6910.000000;-0.045260
6909.000000;-0.046074
6908.000000;-0.047115
6907.000000;-0.048782
6906.000000;-0.050932
6905.000000;-0.053007
6904.000000;-0.054594
6903.000000;-0.055532
6902.000000;-0.055814
6901.000000;-0.055773
6900.000000;-0.056075
6899.000000;-0.057148
6898.000000;-0.058814
6897.000000;-0.060720
6896.000000;-0.062746
6895.000000;-0.064674
6894.000000;-0.065903
6893.000000;-0.066025
6892.000000;-0.065486
6891.000000;-0.065209
6890.000000;-0.065759
6889.000000;-0.067108
6888.000000;-0.068887
6887.000000;-0.070520
6886.000000;-0.071388
6885.000000;-0.071295
6884.000000;-0.070681
6883.000000;-0.070179
6882.000000;-0.070170
6881.000000;-0.070818
6880.000000;-0.072063
6879.000000;-0.073398
6878.000000;-0.074105
6877.000000;-0.074038
6876.000000;-0.073799
6875.000000;-0.073931
6874.000000;-0.074368
6873.000000;-0.074802
6872.000000;-0.075103
6871.000000;-0.075190
6870.000000;-0.075064
6869.000000;-0.075176
6868.000000;-0.076103
6867.000000;-0.077547
6866.000000;-0.078371
6865.000000;-0.078015
6864.000000;-0.077181
6863.000000;-0.076641
6862.000000;-0.076169
6861.000000;-0.075283
6860.000000;-0.074342
6859.000000;-0.074119
6858.000000;-0.074711
6857.000000;-0.075534
6856.000000;-0.076024
6855.000000;-0.075826
6854.000000;-0.074773
6853.000000;-0.073337
6852.000000;-0.072617
6851.000000;-0.073188
6850.000000;-0.074229
6849.000000;-0.074400
6848.000000;-0.073283
6847.000000;-0.071415
6846.000000;-0.069365
6845.000000;-0.067480
6844.000000;-0.066194
6843.000000;-0.065738
6842.000000;-0.065626
6841.000000;-0.065048
6840.000000;-0.063794
6839.000000;-0.062367
6838.000000;-0.061267
6837.000000;-0.060592
6836.000000;-0.060151
6835.000000;-0.059534
6834.000000;-0.058265
6833.000000;-0.056328
6832.000000;-0.054326
6831.000000;-0.052771
6830.000000;-0.051482
6829.000000;-0.050037
6828.000000;-0.048472
6827.000000;-0.047046
6826.000000;-0.045661
6825.000000;-0.044096
6824.000000;-0.042572
6823.000000;-0.041502
6822.000000;-0.040822
6821.000000;-0.040014
6820.000000;-0.038663
6819.000000;-0.036638
6818.000000;-0.033990
6817.000000;-0.031091
6816.000000;-0.028589
6815.000000;-0.026735
6814.000000;-0.024987
6813.000000;-0.022746
6812.000000;-0.020260
6811.000000;-0.018240
6810.000000;-0.016756
6809.000000;-0.015104
6808.000000;-0.012736
6807.000000;-0.009829
6806.000000;-0.006917
6805.000000;-0.004393
6804.000000;-0.002354
6803.000000;-0.000612
6802.000000;0.001168
6801.000000;0.003087
6800.000000;0.004903
6799.000000;0.006567
6798.000000;0.008587
6797.000000;0.011420
6796.000000;0.014686
6795.000000;0.017540
6794.000000;0.019725
6793.000000;0.021785
6792.000000;0.024244
6791.000000;0.027094
6790.000000;0.030145
6789.000000;0.033369
6788.000000;0.036631
6787.000000;0.039464
6786.000000;0.041491
6785.000000;0.042925
6784.000000;0.044414
6783.000000;0.046398
6782.000000;0.048787
6781.000000;0.051228
6780.000000;0.053545
6779.000000;0.055809
6778.000000;0.058083
6777.000000;0.060292
6776.000000;0.062445
6775.000000;0.064806
6774.000000;0.067581
6773.000000;0.070503
6772.000000;0.073030
6771.000000;0.074983
6770.000000;0.076754
6769.000000;0.078795
6768.000000;0.081202
6767.000000;0.083883
6766.000000;0.086804
6765.000000;0.089857
6764.000000;0.092791
6763.000000;0.095497
6762.000000;0.098173
6761.000000;0.100990
6760.000000;0.103810
6759.000000;0.106463
6758.000000;0.109074
6757.000000;0.111809
6756.000000;0.114476
6755.000000;0.116729
6754.000000;0.118615
6753.000000;0.120608
6752.000000;0.123067
6751.000000;0.125877
6750.000000;0.128648
6749.000000;0.131126
6748.000000;0.133371
6747.000000;0.135624
6746.000000;0.138020
6745.000000;0.140416
6744.000000;0.142591
6743.000000;0.144621
6742.000000;0.146865
6741.000000;0.149495
6740.000000;0.152217
6739.000000;0.154647
6738.000000;0.156799
6737.000000;0.159018
6736.000000;0.161526
6735.000000;0.164221
6734.000000;0.166850
6733.000000;0.169221
6732.000000;0.171291
6731.000000;0.173233
6730.000000;0.175380
6729.000000;0.177965
6728.000000;0.180863
6727.000000;0.183690
6726.000000;0.186141
6725.000000;0.188222
6724.000000;0.190186
6723.000000;0.192301
6722.000000;0.194620
6721.000000;0.196948
6720.000000;0.199074
6719.000000;0.201030
6718.000000;0.203039
6717.000000;0.205226
6716.000000;0.207536
6715.000000;0.209920
6714.000000;0.212419
6713.000000;0.214996
6712.000000;0.217495
6711.000000;0.219849
6710.000000;0.222143
6709.000000;0.224434
6708.000000;0.226638
6707.000000;0.228694
6706.000000;0.230704
6705.000000;0.232762
6704.000000;0.234800
6703.000000;0.236925
6702.000000;0.238775
6701.000000;0.240634
6700.000000;0.242547
6699.000000;0.244528
6698.000000;0.246585
6697.000000;0.248648
6696.000000;0.250618
6695.000000;0.252560
6694.000000;0.254684
6693.000000;0.257041
6692.000000;0.259393
6691.000000;0.261525
6690.000000;0.263525
6689.000000;0.265604
6688.000000;0.267793
6687.000000;0.269994
6686.000000;0.272191
6685.000000;0.274393
6684.000000;0.276470
6683.000000;0.278263
6682.000000;0.279849
6681.000000;0.281513
6680.000000;0.283457
6679.000000;0.285653
6678.000000;0.287958
6677.000000;0.290214
6676.000000;0.292264
6675.000000;0.294024
6674.000000;0.295575
6673.000000;0.297107
6672.000000;0.298741
6671.000000;0.300480
6670.000000;0.302293
6669.000000;0.304170
6668.000000;0.306080
6667.000000;0.307984
6666.000000;0.309871
6665.000000;0.311763
6664.000000;0.313660
6663.000000;0.315542
6662.000000;0.317385
6661.000000;0.319184
6660.000000;0.320961
6659.000000;0.322795
6658.000000;0.324762
6657.000000;0.326830
6656.000000;0.328858
6655.000000;0.330755
6654.000000;0.332587
6653.000000;0.334469
6652.000000;0.336429
6651.000000;0.338413
6650.000000;0.340348
6649.000000;0.342141
6648.000000;0.343704
6647.000000;0.345055
6646.000000;0.346362
6645.000000;0.347804
6644.000000;0.349422
6643.000000;0.351147
6642.000000;0.352893
6641.000000;0.354569
6640.000000;0.356081
6639.000000;0.357427
6638.000000;0.358751
6637.000000;0.360228
6636.000000;0.361894
6635.000000;0.363670
6634.000000;0.365481
6633.000000;0.367292
6632.000000;0.369055
6631.000000;0.370710
6630.000000;0.372251
6629.000000;0.373729
6628.000000;0.375193
6627.000000;0.376672
6626.000000;0.378196
6625.000000;0.379788
6624.000000;0.381408
6623.000000;0.382963
6622.000000;0.384381
6621.000000;0.385685
6620.000000;0.386998
6619.000000;0.388450
6618.000000;0.390043
6617.000000;0.391606
6616.000000;0.392961
6615.000000;0.394123
6614.000000;0.395286
6613.000000;0.396614
6612.000000;0.398109
6611.000000;0.399701
6610.000000;0.401367
6609.000000;0.403102
6608.000000;0.404830
6607.000000;0.406433
6606.000000;0.407844
6605.000000;0.409074
6604.000000;0.410189
6603.000000;0.411300
6602.000000;0.412524
6601.000000;0.413900
6600.000000;0.415365
6599.000000;0.416833
6598.000000;0.418256
6597.000000;0.419608
6596.000000;0.420869
6595.000000;0.422073
6594.000000;0.423303
6593.000000;0.424592
6592.000000;0.425882
6591.000000;0.427117
6590.000000;0.428340
6589.000000;0.429648
6588.000000;0.431075
6587.000000;0.432571
6586.000000;0.434066
6585.000000;0.435509
6584.000000;0.436873
6583.000000;0.438165
6582.000000;0.439417
6581.000000;0.440660
6580.000000;0.441923
6579.000000;0.443240
6578.000000;0.444609
6577.000000;0.445930
6576.000000;0.447069
6575.000000;0.448000
6574.000000;0.448852
6573.000000;0.449767
6572.000000;0.450790
6571.000000;0.451894
6570.000000;0.453062
6569.000000;0.454276
6568.000000;0.455485
6567.000000;0.456647
6566.000000;0.457776
6565.000000;0.458898
6564.000000;0.460010
6563.000000;0.461104
6562.000000;0.462206
6561.000000;0.463352
6560.000000;0.464549
6559.000000;0.465789
6558.000000;0.467064
6557.000000;0.468339
6556.000000;0.469543
6555.000000;0.470625
6554.000000;0.471593
6553.000000;0.472489
6552.000000;0.473365
6551.000000;0.474291
6550.000000;0.475326
6549.000000;0.476451
6548.000000;0.477584
6547.000000;0.478689
6546.000000;0.479815
6545.000000;0.480997
6544.000000;0.482183
6543.000000;0.483312
6542.000000;0.484393
6541.000000;0.485452
6540.000000;0.486463
6539.000000;0.487398
6538.000000;0.488307
6537.000000;0.489275
6536.000000;0.490325
6535.000000;0.491402
6534.000000;0.492444
6533.000000;0.493414
6532.000000;0.494303
6531.000000;0.495158
6530.000000;0.496077
6529.000000;0.497113
6528.000000;0.498198
6527.000000;0.499207
6526.000000;0.500084
6525.000000;0.500878
6524.000000;0.501663
6523.000000;0.502482
6522.000000;0.503341
6521.000000;0.504237
6520.000000;0.505168
6519.000000;0.506146
6518.000000;0.507181
6517.000000;0.508240
6516.000000;0.509248
6515.000000;0.510155
6514.000000;0.510982
6513.000000;0.511785
6512.000000;0.512576
6511.000000;0.513336
6510.000000;0.514065
6509.000000;0.514801
6508.000000;0.515608
6507.000000;0.516532
6506.000000;0.517547
6505.000000;0.518558
6504.000000;0.519480
6503.000000;0.520336
6502.000000;0.521205
6501.000000;0.522095
6500.000000;0.522930
6499.000000;0.523698
6498.000000;0.524512
6497.000000;0.525474
6496.000000;0.526532
6495.000000;0.527537
6494.000000;0.528402
6493.000000;0.529146
6492.000000;0.529823
6491.000000;0.530478
6490.000000;0.531161
6489.000000;0.531897
6488.000000;0.532669
6487.000000;0.533450
6486.000000;0.534244
6485.000000;0.535054
6484.000000;0.535847
6483.000000;0.536595
6482.000000;0.537330
6481.000000;0.538101
6480.000000;0.538901
6479.000000;0.539695
6478.000000;0.540487
6477.000000;0.541299
6476.000000;0.542101
6475.000000;0.542827
6474.000000;0.543455
6473.000000;0.544027
6472.000000;0.544602
6471.000000;0.545227
6470.000000;0.545935
6469.000000;0.546718
6468.000000;0.547501
6467.000000;0.548216
6466.000000;0.548883
6465.000000;0.549582
6464.000000;0.550342
6463.000000;0.551112
6462.000000;0.551857
6461.000000;0.552603
6460.000000;0.553385
6459.000000;0.554183
6458.000000;0.554937
6457.000000;0.555593
6456.000000;0.556134
6455.000000;0.556594
6454.000000;0.557067
6453.000000;0.557653
6452.000000;0.558380
6451.000000;0.559179
6450.000000;0.559954
6449.000000;0.560649
6448.000000;0.561274
6447.000000;0.561887
6446.000000;0.562539
6445.000000;0.563227
6444.000000;0.563887
6443.000000;0.564457
6442.000000;0.564966
6441.000000;0.565497
6440.000000;0.566100
6439.000000;0.566746
6438.000000;0.567391
6437.000000;0.568025
6436.000000;0.568662
6435.000000;0.569291
6434.000000;0.569892
6433.000000;0.570460
6432.000000;0.571004
6431.000000;0.571531
6430.000000;0.572041
6429.000000;0.572539
6428.000000;0.573039
6427.000000;0.573560
6426.000000;0.574124
6425.000000;0.574738
6424.000000;0.575385
6423.000000;0.576030
6422.000000;0.576634
6421.000000;0.577174
6420.000000;0.577655
6419.000000;0.578123
6418.000000;0.578640
6417.000000;0.579221
6416.000000;0.579801
6415.000000;0.580306
6414.000000;0.580750
6413.000000;0.581222
6412.000000;0.581793
6411.000000;0.582433
6410.000000;0.583054
6409.000000;0.583593
6408.000000;0.584060
6407.000000;0.584504
6406.000000;0.584970
6405.000000;0.585471
6404.000000;0.585994
6403.000000;0.586515
6402.000000;0.587001
6401.000000;0.587432
6400.000000;0.587816
6399.000000;0.588207
6398.000000;0.588680
6397.000000;0.589275
6396.000000;0.589955
6395.000000;0.590632
6394.000000;0.591218
6393.000000;0.591672
6392.000000;0.592014
6391.000000;0.592328
6390.000000;0.592710
6389.000000;0.593202
6388.000000;0.593753
6387.000000;0.594278
6386.000000;0.594736
6385.000000;0.595158
6384.000000;0.595589
6383.000000;0.596048
6382.000000;0.596509
6381.000000;0.596937
6380.000000;0.597326
6379.000000;0.597716
6378.000000;0.598163
6377.000000;0.598672
6376.000000;0.599180
6375.000000;0.599608
6374.000000;0.599935
6373.000000;0.600207
6372.000000;0.600491
6371.000000;0.600840
6370.000000;0.601269
6369.000000;0.601753
6368.000000;0.602240
6367.000000;0.602690
6366.000000;0.603114
6365.000000;0.603548
6364.000000;0.604006
6363.000000;0.604469
6362.000000;0.604910
6361.000000;0.605320
6360.000000;0.605695
6359.000000;0.606029
6358.000000;0.606338
6357.000000;0.606660
6356.000000;0.607030
6355.000000;0.607443
6354.000000;0.607862
6353.000000;0.608258
6352.000000;0.608644
6351.000000;0.609054
6350.000000;0.609494
6349.000000;0.609926
6348.000000;0.610307
6347.000000;0.610634
6346.000000;0.610956
6345.000000;0.611316
6344.000000;0.611703
6343.000000;0.612053
6342.000000;0.612319
6341.000000;0.612522
6340.000000;0.612742
6339.000000;0.613044
6338.000000;0.613418
6337.000000;0.613795
6336.000000;0.614120
6335.000000;0.614405
6334.000000;0.614691
6333.000000;0.614998
6332.000000;0.615319
6331.000000;0.615664
6330.000000;0.616064
6329.000000;0.616517
6328.000000;0.616968
6327.000000;0.617353
6326.000000;0.617654
6325.000000;0.617900
6324.000000;0.618136
6323.000000;0.618410
6322.000000;0.618753
6321.000000;0.619151
6320.000000;0.619533
6319.000000;0.619824
6318.000000;0.620020
6317.000000;0.620181
6316.000000;0.620375
6315.000000;0.620639
6314.000000;0.620978
6313.000000;0.621377
6312.000000;0.621799
6311.000000;0.622184
6310.000000;0.622483
6309.000000;0.622694
6308.000000;0.622865
6307.000000;0.623065
6306.000000;0.623328
6305.000000;0.623632
6304.000000;0.623922
6303.000000;0.624178
6302.000000;0.624451
6301.000000;0.624801
6300.000000;0.625219
6299.000000;0.625611
6298.000000;0.625883
6297.000000;0.626028
6296.000000;0.626121
6295.000000;0.626250
6294.000000;0.626469
6293.000000;0.626777
6292.000000;0.627131
6291.000000;0.627460
6290.000000;0.627710
6289.000000;0.627890
6288.000000;0.628059
6287.000000;0.628261
6286.000000;0.628493
6285.000000;0.628737
6284.000000;0.628999
6283.000000;0.629300
6282.000000;0.629628
6281.000000;0.629934
6280.000000;0.630185
6279.000000;0.630388
6278.000000;0.630568
6277.000000;0.630748
6276.000000;0.630949
6275.000000;0.631180
6274.000000;0.631421
6273.000000;0.631624
6272.000000;0.631769
6271.000000;0.631888
6270.000000;0.632030
6269.000000;0.632207
6268.000000;0.632405
6267.000000;0.632617
6266.000000;0.632841
6265.000000;0.633057
6264.000000;0.633240
6263.000000;0.633399
6262.000000;0.633571
6261.000000;0.633784
6260.000000;0.634031
6259.000000;0.634294
6258.000000;0.634558
6257.000000;0.634798
6256.000000;0.634995
6255.000000;0.635172
6254.000000;0.635381
6253.000000;0.635647
6252.000000;0.635933
6251.000000;0.636178
6250.000000;0.636361
6249.000000;0.636506
6248.000000;0.636635
6247.000000;0.636745
6246.000000;0.636835
6245.000000;0.636928
6244.000000;0.637066
6243.000000;0.637272
6242.000000;0.637528
6241.000000;0.637795
6240.000000;0.638038
6239.000000;0.638239
6238.000000;0.638382
6237.000000;0.638464
6236.000000;0.638505
6235.000000;0.638557
6234.000000;0.638669
6233.000000;0.638853
6232.000000;0.639089
6231.000000;0.639336
6230.000000;0.639557
6229.000000;0.639741
6228.000000;0.639914
6227.000000;0.640115
6226.000000;0.640345
6225.000000;0.640559
6224.000000;0.640713
6223.000000;0.640808
6222.000000;0.640887
6221.000000;0.640994
6220.000000;0.641175
6219.000000;0.641451
6218.000000;0.641782
6217.000000;0.642069
6216.000000;0.642244
6215.000000;0.642334
6214.000000;0.642412
6213.000000;0.642502
6212.000000;0.642573
6211.000000;0.642618
6210.000000;0.642673
6209.000000;0.642772
6208.000000;0.642921
6207.000000;0.643113
6206.000000;0.643337
6205.000000;0.643548
6204.000000;0.643698
6203.000000;0.643783
6202.000000;0.643856
6201.000000;0.643951
6200.000000;0.644069
6199.000000;0.644213
6198.000000;0.644407
6197.000000;0.644653
6196.000000;0.644907
6195.000000;0.645129
6194.000000;0.645311
6193.000000;0.645448
6192.000000;0.645518
6191.000000;0.645534
6190.000000;0.645566
6189.000000;0.645671
6188.000000;0.645830
6187.000000;0.645983
6186.000000;0.646102
6185.000000;0.646201
6184.000000;0.646291
6183.000000;0.646375
6182.000000;0.646467
6181.000000;0.646591
6180.000000;0.646742
6179.000000;0.646883
6178.000000;0.646980
6177.000000;0.647034
6176.000000;0.647084
6175.000000;0.647178
6174.000000;0.647333
6173.000000;0.647521
6172.000000;0.647704
6171.000000;0.647874
6170.000000;0.648046
6169.000000;0.648211
6168.000000;0.648342
6167.000000;0.648442
6166.000000;0.648553
6165.000000;0.648698
6164.000000;0.648845
6163.000000;0.648945
6162.000000;0.649002
6161.000000;0.649057
6160.000000;0.649146
6159.000000;0.649271
6158.000000;0.649416
6157.000000;0.649549
6156.000000;0.649640
6155.000000;0.649692
6154.000000;0.649746
6153.000000;0.649824
6152.000000;0.649908
6151.000000;0.649976
6150.000000;0.650053
6149.000000;0.650172
6148.000000;0.650317
6147.000000;0.650426
6146.000000;0.650466
6145.000000;0.650470
6144.000000;0.650492
6143.000000;0.650559
6142.000000;0.650665
6141.000000;0.650791
6140.000000;0.650914
6139.000000;0.651023
6138.000000;0.651121
6137.000000;0.651218
6136.000000;0.651305
6135.000000;0.651365
6134.000000;0.651393
6133.000000;0.651411
6132.000000;0.651460
6131.000000;0.651587
6130.000000;0.651813
6129.000000;0.652102
6128.000000;0.652373
6127.000000;0.652552
6126.000000;0.652620
6125.000000;0.652619
6124.000000;0.652607
6123.000000;0.652629
6122.000000;0.652709
6121.000000;0.652841
6120.000000;0.652993
6119.000000;0.653119
6118.000000;0.653198
6117.000000;0.653241
6116.000000;0.653282
6115.000000;0.653350
6114.000000;0.653453
6113.000000;0.653568
6112.000000;0.653667
6111.000000;0.653739
6110.000000;0.653800
6109.000000;0.653878
6108.000000;0.653992
6107.000000;0.654129
6106.000000;0.654233
6105.000000;0.654235
6104.000000;0.654120
6103.000000;0.653970
6102.000000;0.653911
6101.000000;0.653993
6100.000000;0.654159
6099.000000;0.654320
6098.000000;0.654435
6097.000000;0.654516
6096.000000;0.654584
6095.000000;0.654645
6094.000000;0.654703
6093.000000;0.654763
6092.000000;0.654837
6091.000000;0.654950
6090.000000;0.655131
6089.000000;0.655369
6088.000000;0.655600
6087.000000;0.655753
6086.000000;0.655813
6085.000000;0.655813
6084.000000;0.655801
6083.000000;0.655807
6082.000000;0.655844
6081.000000;0.655905
6080.000000;0.655973
6079.000000;0.656043
6078.000000;0.656123
6077.000000;0.656212
6076.000000;0.656294
6075.000000;0.656359
6074.000000;0.656415
6073.000000;0.656463
6072.000000;0.656481
6071.000000;0.656463
6070.000000;0.656444
6069.000000;0.656466
6068.000000;0.656532
6067.000000;0.656619
6066.000000;0.656708
6065.000000;0.656787
6064.000000;0.656847
6063.000000;0.656896
6062.000000;0.656961
6061.000000;0.657052
6060.000000;0.657135
6059.000000;0.657169
6058.000000;0.657178
6057.000000;0.657229
6056.000000;0.657365
6055.000000;0.657557
6054.000000;0.657739
6053.000000;0.657850
6052.000000;0.657856
6051.000000;0.657780
6050.000000;0.657709
6049.000000;0.657740
6048.000000;0.657896
6047.000000;0.658102
6046.000000;0.658261
6045.000000;0.658329
6044.000000;0.658348
6043.000000;0.658392
6042.000000;0.658518
6041.000000;0.658709
6040.000000;0.658888
6039.000000;0.658972
6038.000000;0.658954
6037.000000;0.658896
6036.000000;0.658857
6035.000000;0.658839
6034.000000;0.658820
6033.000000;0.658799
6032.000000;0.658800
6031.000000;0.658844
6030.000000;0.658932
6029.000000;0.659059
6028.000000;0.659213
6027.000000;0.659374
6026.000000;0.659507
6025.000000;0.659586
6024.000000;0.659619
6023.000000;0.659638
6022.000000;0.659666
6021.000000;0.659700
6020.000000;0.659728
6019.000000;0.659766
6018.000000;0.659852
6017.000000;0.660010
6016.000000;0.660206
6015.000000;0.660376
6014.000000;0.660471
6013.000000;0.660497
6012.000000;0.660490
6011.000000;0.660479
6010.000000;0.660471
6009.000000;0.660466
6008.000000;0.660475
6007.000000;0.660502
6006.000000;0.660522
6005.000000;0.660491
6004.000000;0.660414
6003.000000;0.660366
6002.000000;0.660426
6001.000000;0.660582
6000.000000;0.660737
5999.000000;0.660802
5998.000000;0.660783
5997.000000;0.660756
5996.000000;0.660781
5995.000000;0.660858
5994.000000;0.660948
5993.000000;0.661010
5992.000000;0.661020
5991.000000;0.660978
5990.000000;0.660912
5989.000000;0.660851
5988.000000;0.660819
5987.000000;0.660821
5986.000000;0.660857
5985.000000;0.660915
5984.000000;0.660980
5983.000000;0.661047
5982.000000;0.661117
5981.000000;0.661182
5980.000000;0.661231
5979.000000;0.661277
5978.000000;0.661346
5977.000000;0.661443
5976.000000;0.661538
5975.000000;0.661602
5974.000000;0.661651
5973.000000;0.661714
5972.000000;0.661786
5971.000000;0.661836
5970.000000;0.661851
5969.000000;0.661858
5968.000000;0.661892
5967.000000;0.661960
5966.000000;0.662044
5965.000000;0.662116
5964.000000;0.662162
5963.000000;0.662193
5962.000000;0.662233
5961.000000;0.662285
5960.000000;0.662312
5959.000000;0.662286
5958.000000;0.662236
5957.000000;0.662222
5956.000000;0.662260
5955.000000;0.662302
5954.000000;0.662307
5953.000000;0.662291
5952.000000;0.662300
5951.000000;0.662345
5950.000000;0.662401
5949.000000;0.662440
5948.000000;0.662464
5947.000000;0.662488
5946.000000;0.662523
5945.000000;0.662578
5944.000000;0.662667
5943.000000;0.662792
5942.000000;0.662931
5941.000000;0.663059
5940.000000;0.663172
5939.000000;0.663285
5938.000000;0.663404
5937.000000;0.663517
5936.000000;0.663611
5935.000000;0.663683
5934.000000;0.663728
5933.000000;0.663726
5932.000000;0.663666
5931.000000;0.663573
5930.000000;0.663492
5929.000000;0.663453
5928.000000;0.663452
5927.000000;0.663474
5926.000000;0.663515
5925.000000;0.663588
5924.000000;0.663696
5923.000000;0.663823
5922.000000;0.663933
5921.000000;0.663989
5920.000000;0.663979
5919.000000;0.663929
5918.000000;0.663872
5917.000000;0.663822
5916.000000;0.663767
5915.000000;0.663692
5914.000000;0.663599
5913.000000;0.663502
5912.000000;0.663432
5911.000000;0.663431
5910.000000;0.663516
5909.000000;0.663651
5908.000000;0.663782
5907.000000;0.663889
5906.000000;0.663996
5905.000000;0.664115
5904.000000;0.664217
5903.000000;0.664270
5902.000000;0.664284
5901.000000;0.664291
5900.000000;0.664296
5899.000000;0.664276
5898.000000;0.664222
5897.000000;0.664162
5896.000000;0.664138
5895.000000;0.664162
5894.000000;0.664210
5893.000000;0.664241
5892.000000;0.664241
5891.000000;0.664227
5890.000000;0.664216
5889.000000;0.664204
5888.000000;0.664170
5887.000000;0.664113
5886.000000;0.664055
5885.000000;0.664016
5884.000000;0.664005
5883.000000;0.664026
5882.000000;0.664080
5881.000000;0.664159
5880.000000;0.664247
5879.000000;0.664335
5878.000000;0.664416
5877.000000;0.664473
5876.000000;0.664491
5875.000000;0.664484
5874.000000;0.664484
5873.000000;0.664488
5872.000000;0.664459
5871.000000;0.664381
5870.000000;0.664289
5869.000000;0.664224
5868.000000;0.664195
5867.000000;0.664187
5866.000000;0.664199
5865.000000;0.664241
5864.000000;0.664306
5863.000000;0.664370
5862.000000;0.664410
5861.000000;0.664416
5860.000000;0.664397
5859.000000;0.664381
5858.000000;0.664398
5857.000000;0.664439
5856.000000;0.664447
5855.000000;0.664385
5854.000000;0.664287
5853.000000;0.664227
5852.000000;0.664240
5851.000000;0.664294
5850.000000;0.664343
5849.000000;0.664366
5848.000000;0.664377
5847.000000;0.664393
5846.000000;0.664411
5845.000000;0.664403
5844.000000;0.664346
5843.000000;0.664253
5842.000000;0.664162
5841.000000;0.664092
5840.000000;0.664032
5839.000000;0.663971
5838.000000;0.663927
5837.000000;0.663911
5836.000000;0.663903
5835.000000;0.663872
5834.000000;0.663815
5833.000000;0.663764
5832.000000;0.663755
5831.000000;0.663806
5830.000000;0.663906
5829.000000;0.663997
5828.000000;0.664005
5827.000000;0.663903
5826.000000;0.663751
5825.000000;0.663637
5824.000000;0.663590
5823.000000;0.663573
5822.000000;0.663550
5821.000000;0.663528
5820.000000;0.663534
5819.000000;0.663580
5818.000000;0.663658
5817.000000;0.663738
5816.000000;0.663769
5815.000000;0.663709
5814.000000;0.663581
5813.000000;0.663457
5812.000000;0.663390
5811.000000;0.663371
5810.000000;0.663356
5809.000000;0.663319
5808.000000;0.663270
5807.000000;0.663228
5806.000000;0.663188
5805.000000;0.663124
5804.000000;0.663010
5803.000000;0.662843
5802.000000;0.662659
5801.000000;0.662512
5800.000000;0.662439
5799.000000;0.662444
5798.000000;0.662490
5797.000000;0.662516
5796.000000;0.662473
5795.000000;0.662370
5794.000000;0.662262
5793.000000;0.662189
5792.000000;0.662140
5791.000000;0.662076
5790.000000;0.661991
5789.000000;0.661909
5788.000000;0.661859
5787.000000;0.661850
5786.000000;0.661887
5785.000000;0.661963
5784.000000;0.662033
5783.000000;0.662038
5782.000000;0.661956
5781.000000;0.661831
5780.000000;0.661724
5779.000000;0.661664
5778.000000;0.661635
5777.000000;0.661602
5776.000000;0.661536
5775.000000;0.661430
5774.000000;0.661305
5773.000000;0.661184
5772.000000;0.661069
5771.000000;0.660940
5770.000000;0.660791
5769.000000;0.660642
5768.000000;0.660528
5767.000000;0.660463
5766.000000;0.660428
5765.000000;0.660385
5764.000000;0.660302
5763.000000;0.660172
5762.000000;0.660023
5761.000000;0.659888
5760.000000;0.659772
5759.000000;0.659652
5758.000000;0.659512
5757.000000;0.659370
5756.000000;0.659261
5755.000000;0.659210
5754.000000;0.659220
5753.000000;0.659265
5752.000000;0.659284
5751.000000;0.659201
5750.000000;0.658972
5749.000000;0.658630
5748.000000;0.658276
5747.000000;0.658004
5746.000000;0.657850
5745.000000;0.657793
5744.000000;0.657798
5743.000000;0.657827
5742.000000;0.657838
5741.000000;0.657780
5740.000000;0.657632
5739.000000;0.657411
5738.000000;0.657168
5737.000000;0.656956
5736.000000;0.656824
5735.000000;0.656800
5734.000000;0.656849
5733.000000;0.656881
5732.000000;0.656804
5731.000000;0.656609
5730.000000;0.656359
5729.000000;0.656120
5728.000000;0.655914
5727.000000;0.655740
5726.000000;0.655597
5725.000000;0.655463
5724.000000;0.655296
5723.000000;0.655081
5722.000000;0.654869
5721.000000;0.654722
5720.000000;0.654633
5719.000000;0.654532
5718.000000;0.654362
5717.000000;0.654136
5716.000000;0.653892
5715.000000;0.653645
5714.000000;0.653396
5713.000000;0.653172
5712.000000;0.653015
5711.000000;0.652935
5710.000000;0.652880
5709.000000;0.652773
5708.000000;0.652584
5707.000000;0.652359
5706.000000;0.652169
5705.000000;0.652043
5704.000000;0.651957
5703.000000;0.651874
5702.000000;0.651775
5701.000000;0.651654
5700.000000;0.651497
5699.000000;0.651306
5698.000000;0.651037
5697.000000;0.650836
5696.000000;0.650642
5695.000000;0.650429
5694.000000;0.650198
5693.000000;0.649981
5692.000000;0.649811
5691.000000;0.649684
5690.000000;0.649560
5689.000000;0.649394
5688.000000;0.649172
5687.000000;0.648918
5686.000000;0.648672
5685.000000;0.648462
5684.000000;0.648298
5683.000000;0.648170
5682.000000;0.648052
5681.000000;0.647894
5680.000000;0.647660
5679.000000;0.647362
5678.000000;0.647074
5677.000000;0.646862
5676.000000;0.646732
5675.000000;0.646640
5674.000000;0.646551
5673.000000;0.646466
5672.000000;0.646393
5671.000000;0.646321
5670.000000;0.646218
5669.000000;0.646065
5668.000000;0.645872
5667.000000;0.645676
5666.000000;0.645509
5665.000000;0.645364
5664.000000;0.645195
5663.000000;0.644971
5662.000000;0.644719
5661.000000;0.644502
5660.000000;0.644359
5659.000000;0.644272
5658.000000;0.644187
5657.000000;0.644061
5656.000000;0.643903
5655.000000;0.643762
5654.000000;0.643685
5653.000000;0.643660
5652.000000;0.643623
5651.000000;0.643515
5650.000000;0.643341
5649.000000;0.643161
5648.000000;0.643011
5647.000000;0.642876
5646.000000;0.642734
5645.000000;0.642601
5644.000000;0.642516
5643.000000;0.642482
5642.000000;0.642450
5641.000000;0.642373
5640.000000;0.642253
5639.000000;0.642136
5638.000000;0.642056
5637.000000;0.641997
5636.000000;0.641921
5635.000000;0.641821
5634.000000;0.641728
5633.000000;0.641679
5632.000000;0.641684
5631.000000;0.641728
5630.000000;0.641782
5629.000000;0.641814
5628.000000;0.641802
5627.000000;0.641751
5626.000000;0.641698
5625.000000;0.641673
5624.000000;0.641665
5623.000000;0.641636
5622.000000;0.641557
5621.000000;0.641444
5620.000000;0.641350
5619.000000;0.641326
5618.000000;0.641376
5617.000000;0.641453
5616.000000;0.641514
5615.000000;0.641555
5614.000000;0.641597
5613.000000;0.641645
5612.000000;0.641688
5611.000000;0.641739
5610.000000;0.641841
5609.000000;0.642001
5608.000000;0.642146
5607.000000;0.642169
5606.000000;0.642032
5605.000000;0.641791
5604.000000;0.641542
5603.000000;0.641352
5602.000000;0.641252
5601.000000;0.641259
5600.000000;0.641364
5599.000000;0.641521
5598.000000;0.641669
5597.000000;0.641788
5596.000000;0.641916
5595.000000;0.642103
5594.000000;0.642353
5593.000000;0.642623
5592.000000;0.642868
5591.000000;0.643066
5590.000000;0.643204
5589.000000;0.643271
5588.000000;0.643276
5587.000000;0.643270
5586.000000;0.643305
5585.000000;0.643379
5584.000000;0.643442
5583.000000;0.643451
5582.000000;0.643417
5581.000000;0.643390
5580.000000;0.643410
5579.000000;0.643485
5578.000000;0.643597
5577.000000;0.643731
5576.000000;0.643876
5575.000000;0.644015
5574.000000;0.644119
5573.000000;0.644179
5572.000000;0.644228
5571.000000;0.644294
5570.000000;0.644349
5569.000000;0.644330
5568.000000;0.644249
5567.000000;0.644221
5566.000000;0.644349
5565.000000;0.644611
5564.000000;0.644903
5563.000000;0.645164
5562.000000;0.645407
5561.000000;0.645624
5560.000000;0.645761
5559.000000;0.645787
5558.000000;0.645724
5557.000000;0.645579
5556.000000;0.645325
5555.000000;0.644998
5554.000000;0.644726
5553.000000;0.644593
5552.000000;0.644547
5551.000000;0.644513
5550.000000;0.644543
5549.000000;0.644751
5548.000000;0.645139
5547.000000;0.645588
5546.000000;0.646004
5545.000000;0.648373
5544.000000;0.648443
5543.000000;0.648575
5542.000000;0.648775
5541.000000;0.648979
5540.000000;0.649105
5539.000000;0.649146
5538.000000;0.649175
5537.000000;0.649258
5536.000000;0.649374
5535.000000;0.649450
5534.000000;0.649464
5533.000000;0.649462
5532.000000;0.649496
5531.000000;0.649590
5530.000000;0.649738
5529.000000;0.649908
5528.000000;0.650054
5527.000000;0.650149
5526.000000;0.650214
5525.000000;0.650289
5524.000000;0.650394
5523.000000;0.650530
5522.000000;0.650712
5521.000000;0.650941
5520.000000;0.651172
5519.000000;0.651347
5518.000000;0.651461
5517.000000;0.651560
5516.000000;0.651664
5515.000000;0.651750
5514.000000;0.651794
5513.000000;0.651809
5512.000000;0.651821
5511.000000;0.651870
5510.000000;0.652016
5509.000000;0.652302
5508.000000;0.652669
5507.000000;0.652964
5506.000000;0.653087
5505.000000;0.653091
5504.000000;0.653091
5503.000000;0.653115
5502.000000;0.653099
5501.000000;0.653024
5500.000000;0.652972
5499.000000;0.653026
5498.000000;0.653158
5497.000000;0.653281
5496.000000;0.653370
5495.000000;0.653481
5494.000000;0.653657
5493.000000;0.653847
5492.000000;0.653963
5491.000000;0.653992
5490.000000;0.654005
5489.000000;0.654050
5488.000000;0.654093
5487.000000;0.654070
5486.000000;0.653986
5485.000000;0.653902
5484.000000;0.653862
5483.000000;0.653861
5482.000000;0.653882
5481.000000;0.653930
5480.000000;0.654012
5479.000000;0.654133
5478.000000;0.654323
5477.000000;0.654612
5476.000000;0.654941
5475.000000;0.655130
5474.000000;0.655023
5473.000000;0.654677
5472.000000;0.654329
5471.000000;0.654173
5470.000000;0.654218
5469.000000;0.654344
5468.000000;0.654442
5467.000000;0.654474
5466.000000;0.654450
5465.000000;0.654393
5464.000000;0.654349
5463.000000;0.654368
5462.000000;0.654454
5461.000000;0.654554
5460.000000;0.654598
5459.000000;0.654560
5458.000000;0.654471
5457.000000;0.654379
5456.000000;0.654293
5455.000000;0.654170
5454.000000;0.653968
5453.000000;0.653734
5452.000000;0.653599
5451.000000;0.650725
5450.000000;0.649830
5449.000000;0.648744
5448.000000;0.647621
5447.000000;0.646784
5446.000000;0.646419
5445.000000;0.646374
5444.000000;0.646416
5443.000000;0.646541
5442.000000;0.646927
5441.000000;0.647650
5440.000000;0.648583
5439.000000;0.649510
5438.000000;0.650228
5437.000000;0.650580
5436.000000;0.650563
5435.000000;0.650362
5434.000000;0.650124
5433.000000;0.649771
5432.000000;0.649137
5431.000000;0.648240
5430.000000;0.647353
5429.000000;0.646838
5428.000000;0.646899
5427.000000;0.647452
5426.000000;0.648174
5425.000000;0.648724
5424.000000;0.648961
5423.000000;0.648953
5422.000000;0.648832
5421.000000;0.648686
5420.000000;0.648533
5419.000000;0.648333
5418.000000;0.648051
5417.000000;0.647669
5416.000000;0.647172
5415.000000;0.646561
5414.000000;0.645891
5413.000000;0.645277
5412.000000;0.644836
5411.000000;0.644583
5410.000000;0.644413
5409.000000;0.644216
5408.000000;0.643958
5407.000000;0.643640
5406.000000;0.643235
5405.000000;0.642733
5404.000000;0.642203
5403.000000;0.641742
5402.000000;0.641349
5401.000000;0.640918
5400.000000;0.640366
5399.000000;0.639722
5398.000000;0.639099
5397.000000;0.638596
5396.000000;0.638198
5395.000000;0.637819
5394.000000;0.637368
5393.000000;0.636778
5392.000000;0.635975
5391.000000;0.634888
5390.000000;0.633508
5389.000000;0.631960
5388.000000;0.630410
5387.000000;0.628959
5386.000000;0.627639
5385.000000;0.626482
5384.000000;0.625515
5383.000000;0.624690
5382.000000;0.623874
5381.000000;0.622985
5380.000000;0.622043
5379.000000;0.621023
5378.000000;0.619800
5377.000000;0.618267
5376.000000;0.616424
5375.000000;0.614360
5374.000000;0.612184
5373.000000;0.609991
5372.000000;0.607895
5371.000000;0.605977
5370.000000;0.605162
5369.000000;0.603067
5368.000000;0.600889
5367.000000;0.598626
5366.000000;0.596315
5365.000000;0.593916
5364.000000;0.591316
5363.000000;0.588452
5362.000000;0.585390
5361.000000;0.582220
5360.000000;0.578955
5359.000000;0.575550
5358.000000;0.571995
5357.000000;0.568346
5356.000000;0.564672
5355.000000;0.560962
5354.000000;0.557053
5353.000000;0.539534
5352.000000;0.535215
5351.000000;0.532258
5350.000000;0.529845
5349.000000;0.526685
5348.000000;0.521746
5347.000000;0.514865
5346.000000;0.506773
5345.000000;0.498577
5344.000000;0.491166
5343.000000;0.484900
5342.000000;0.479459
5341.000000;0.473902
5340.000000;0.467210
5339.000000;0.458993
5338.000000;0.449646
5337.000000;0.439863
5336.000000;0.429983
5335.000000;0.419804
5334.000000;0.408885
5333.000000;0.396950
5332.000000;0.384147
5331.000000;0.370924
5330.000000;0.357516
5329.000000;0.343617
5328.000000;0.328709
5327.000000;0.312579
5326.000000;0.295396
5325.000000;0.277392
5324.000000;0.258602
5323.000000;0.238874
5322.000000;0.217985
5321.000000;0.195825
5320.000000;0.172516
5319.000000;0.148188
5318.000000;0.122670
5317.000000;0.095691
5316.000000;0.067338
5315.000000;0.037865
5314.000000;0.007097
5313.000000;-0.025345
5312.000000;-0.059264
5311.000000;-0.094204
5310.000000;-0.130646
5309.000000;-0.169849
5308.000000;-0.212204
5307.000000;-0.256773
5306.000000;-0.302784
5305.000000;-0.350274
5304.000000;-0.398898
5303.000000;-0.447674
5302.000000;-0.496121
5301.000000;-0.543634
5300.000000;-0.587615
5299.000000;-0.624502
5298.000000;-0.652201
5297.000000;-0.669601
5296.000000;-0.676352
5295.000000;-0.674153
5294.000000;-0.664812
5293.000000;-0.648675
5292.000000;-0.627553
5291.000000;-0.605808
5290.000000;-0.586820
5289.000000;-0.571157
5288.000000;-0.557956
5287.000000;-0.545893
5286.000000;-0.533661
5285.000000;-0.521474
5284.000000;-0.511131
5283.000000;-0.503076
5282.000000;-0.495123
5281.000000;-0.485758
5280.000000;-0.476678
5279.000000;-0.470097
5278.000000;-0.465522
5277.000000;-0.461304
5276.000000;-0.457493
5275.000000;-0.454843
5274.000000;-0.452630
5273.000000;-0.449707
5272.000000;-0.446389
5271.000000;-0.443302
5270.000000;-0.439885
5269.000000;-0.435840
5268.000000;-0.432351
5267.000000;-0.429915
5266.000000;-0.426829
5265.000000;-0.422026
5264.000000;-0.417700
5263.000000;-0.416665
5262.000000;-0.418547
5261.000000;-0.421010
5260.000000;-0.423156
5259.000000;-0.424999
5258.000000;-0.425063
5257.000000;-0.421740
5256.000000;-0.416524
5255.000000;-0.413200
5254.000000;-0.413829
5253.000000;-0.417107
5252.000000;-0.420167
5251.000000;-0.420600
5250.000000;-0.417635
5249.000000;-0.413245
5248.000000;-0.411181
5247.000000;-0.412956
5246.000000;-0.415818
5245.000000;-0.416380
5244.000000;-0.414869
5243.000000;-0.413812
5242.000000;-0.413975
5241.000000;-0.414177
5240.000000;-0.414168
5239.000000;-0.414931
5238.000000;-0.416476
5237.000000;-0.417668
5236.000000;-0.418114
5235.000000;-0.418244
5234.000000;-0.417807
5233.000000;-0.416321
5232.000000;-0.414793
5231.000000;-0.414944
5230.000000;-0.416625
5229.000000;-0.417717
5228.000000;-0.416858
5227.000000;-0.414792
5226.000000;-0.412960
5225.000000;-0.412192
5224.000000;-0.412793
5223.000000;-0.414582
5222.000000;-0.416508
5221.000000;-0.417254
5220.000000;-0.416566
5219.000000;-0.415367
5218.000000;-0.414607
5217.000000;-0.414570
5216.000000;-0.414986
5215.000000;-0.415179
5214.000000;-0.414467
5213.000000;-0.413104
5212.000000;-0.412391
5211.000000;-0.413168
5210.000000;-0.414601
5209.000000;-0.415154
5208.000000;-0.414444
5207.000000;-0.413429
5206.000000;-0.413044
5205.000000;-0.413314
5204.000000;-0.413586
5203.000000;-0.413179
5202.000000;-0.412033
5201.000000;-0.410896
5200.000000;-0.410441
5199.000000;-0.410124
5198.000000;-0.408789
5197.000000;-0.406631
5196.000000;-0.405340
5195.000000;-0.405760
5194.000000;-0.406701
5193.000000;-0.406737
5192.000000;-0.406063
5191.000000;-0.405759
5190.000000;-0.406203
5189.000000;-0.407079
5188.000000;-0.408115
5187.000000;-0.408973
5186.000000;-0.409200
5185.000000;-0.409041
5184.000000;-0.409447
5183.000000;-0.410580
5182.000000;-0.411288
5181.000000;-0.410776
5180.000000;-0.409777
5179.000000;-0.409321
5178.000000;-0.409308
5177.000000;-0.409249
5176.000000;-0.409456
5175.000000;-0.410311
5174.000000;-0.411064
5173.000000;-0.410632
5172.000000;-0.409154
5171.000000;-0.407745
5170.000000;-0.407098
5169.000000;-0.407209
5168.000000;-0.407887
5167.000000;-0.408674
5166.000000;-0.408731
5165.000000;-0.407697
5164.000000;-0.406374
5163.000000;-0.405920
5162.000000;-0.406657
5161.000000;-0.408085
5160.000000;-0.409506
5159.000000;-0.410141
5158.000000;-0.409364
5157.000000;-0.407530
5156.000000;-0.406023
5155.000000;-0.405838
5154.000000;-0.406521
5153.000000;-0.406971
5152.000000;-0.406712
5151.000000;-0.405899
5150.000000;-0.404748
5149.000000;-0.403584
5148.000000;-0.402910
5147.000000;-0.402864
5146.000000;-0.403138
5145.000000;-0.403694
5144.000000;-0.404925
5143.000000;-0.406719
5142.000000;-0.408102
5141.000000;-0.408328
5140.000000;-0.407678
5139.000000;-0.406797
5138.000000;-0.406017
5137.000000;-0.405635
5136.000000;-0.405988
5135.000000;-0.406818
5134.000000;-0.407440
5133.000000;-0.407853
5132.000000;-0.408694
5131.000000;-0.409715
5130.000000;-0.409529
5129.000000;-0.407512
5128.000000;-0.404882
5127.000000;-0.403135
5126.000000;-0.402383
5125.000000;-0.401998
5124.000000;-0.401928
5123.000000;-0.402399
5122.000000;-0.403038
5121.000000;-0.403311
5120.000000;-0.403319
5119.000000;-0.403406
5118.000000;-0.403418
5117.000000;-0.403025
5116.000000;-0.402344
5115.000000;-0.401675
5114.000000;-0.401083
5113.000000;-0.400709
5112.000000;-0.400883
5111.000000;-0.401529
5110.000000;-0.402048
5109.000000;-0.402203
5108.000000;-0.402448
5107.000000;-0.403032
5106.000000;-0.403547
5105.000000;-0.403722
5104.000000;-0.403846
5103.000000;-0.404001
5102.000000;-0.403718
5101.000000;-0.402806
5100.000000;-0.401729
5099.000000;-0.400853
5098.000000;-0.400142
5097.000000;-0.399877
5096.000000;-0.400664
5095.000000;-0.402349
5094.000000;-0.403944
5093.000000;-0.405076
5092.000000;-0.406350
5091.000000;-0.407760
5090.000000;-0.408046
5089.000000;-0.406515
5088.000000;-0.404347
5087.000000;-0.403147
5086.000000;-0.403157
5085.000000;-0.403681
5084.000000;-0.404222
5083.000000;-0.404336
5082.000000;-0.403396
5081.000000;-0.401494
5080.000000;-0.399773
5079.000000;-0.399009
5078.000000;-0.398653
5077.000000;-0.398076
5076.000000;-0.397901
5075.000000;-0.399076
5074.000000;-0.401355
5073.000000;-0.403657
5072.000000;-0.405331
5071.000000;-0.406169
5070.000000;-0.405837
5069.000000;-0.404368
5068.000000;-0.402754
5067.000000;-0.402062
5066.000000;-0.402294
5065.000000;-0.402823
5064.000000;-0.403443
5063.000000;-0.404213
5062.000000;-0.404733
5061.000000;-0.404461
5060.000000;-0.403508
5059.000000;-0.402485
5058.000000;-0.401866
5057.000000;-0.401947
5056.000000;-0.402914
5055.000000;-0.404354
5054.000000;-0.405241
5053.000000;-0.405023
5052.000000;-0.404234
5051.000000;-0.403592
5050.000000;-0.403081
5049.000000;-0.402442
5048.000000;-0.401868
5047.000000;-0.401599
5046.000000;-0.401484
5045.000000;-0.401514
5044.000000;-0.402071
5043.000000;-0.403067
5042.000000;-0.403634
5041.000000;-0.403353
5040.000000;-0.403001
5039.000000;-0.403285
5038.000000;-0.403652
5037.000000;-0.403238
5036.000000;-0.402246
5035.000000;-0.401414
5034.000000;-0.400847
5033.000000;-0.400410
5032.000000;-0.400635
5031.000000;-0.402032
5030.000000;-0.403912
5029.000000;-0.404991
5028.000000;-0.405031
5027.000000;-0.404890
5026.000000;-0.405112
5025.000000;-0.405484
5024.000000;-0.405787
5023.000000;-0.406061
5022.000000;-0.406154
5021.000000;-0.405803
5020.000000;-0.405283
5019.000000;-0.405319
5018.000000;-0.406228
5017.000000;-0.407602
5016.000000;-0.408863
5015.000000;-0.409776
5014.000000;-0.410465
5013.000000;-0.411232
5012.000000;-0.412300
5011.000000;-0.413511
5010.000000;-0.414403
5009.000000;-0.414695
5008.000000;-0.414460
5007.000000;-0.413827
5006.000000;-0.412990
5005.000000;-0.412544
5004.000000;-0.413151
5003.000000;-0.414634
5002.000000;-0.416027
5001.000000;-0.417040
5000.000000;-0.418117
4999.000000;-0.419415
4998.000000;-0.420032
4997.000000;-0.419300
4996.000000;-0.418042
4995.000000;-0.417642
4994.000000;-0.418371
4993.000000;-0.419448
4992.000000;-0.420387
4991.000000;-0.421434
4990.000000;-0.422782
4989.000000;-0.424093
4988.000000;-0.424861
4987.000000;-0.424888
4986.000000;-0.424456
4985.000000;-0.424272
4984.000000;-0.425000
4983.000000;-0.426590
4982.000000;-0.428329
4981.000000;-0.429785
4980.000000;-0.431252
4979.000000;-0.433067
4978.000000;-0.435020
4977.000000;-0.436801
4976.000000;-0.438443
4975.000000;-0.439939
4974.000000;-0.440941
4973.000000;-0.441277
4972.000000;-0.441359
4971.000000;-0.441651
4970.000000;-0.442241
4969.000000;-0.443233
4968.000000;-0.444961
4967.000000;-0.447347
4966.000000;-0.449610
4965.000000;-0.451177
4964.000000;-0.452409
4963.000000;-0.453949
4962.000000;-0.455789
4961.000000;-0.457456
4960.000000;-0.458717
4959.000000;-0.459641
4958.000000;-0.460349
4957.000000;-0.461177
4956.000000;-0.462575
4955.000000;-0.464453
4954.000000;-0.466140
4953.000000;-0.467385
4952.000000;-0.468892
4951.000000;-0.471376
4950.000000;-0.474586
4949.000000;-0.477661
4948.000000;-0.480004
4947.000000;-0.481418
4946.000000;-0.481980
4945.000000;-0.482337
4944.000000;-0.483545
4943.000000;-0.485919
4942.000000;-0.488435
4941.000000;-0.489912
4940.000000;-0.490514
4939.000000;-0.491413
4938.000000;-0.493242
4937.000000;-0.495568
4936.000000;-0.497716
4935.000000;-0.499578
4934.000000;-0.501665
4933.000000;-0.504659
4932.000000;-0.508754
4931.000000;-0.513189
4930.000000;-0.516624
4929.000000;-0.518250
4928.000000;-0.518461
4927.000000;-0.518479
4926.000000;-0.519614
4925.000000;-0.522697
4924.000000;-0.527418
4923.000000;-0.532017
4922.000000;-0.534448
4921.000000;-0.534388
4920.000000;-0.533564
4919.000000;-0.533804
4918.000000;-0.535437
4917.000000;-0.537790
4916.000000;-0.540453
4915.000000;-0.543455
4914.000000;-0.546777
4913.000000;-0.550378
4912.000000;-0.554331
4911.000000;-0.558460
4910.000000;-0.562115
4909.000000;-0.564781
4908.000000;-0.566698
4907.000000;-0.568454
4906.000000;-0.570257
4905.000000;-0.572065
4904.000000;-0.574019
4903.000000;-0.576290
4902.000000;-0.578873
4901.000000;-0.581877
4900.000000;-0.585625
4899.000000;-0.589969
4898.000000;-0.593810
4897.000000;-0.595886
4896.000000;-0.596087
4895.000000;-0.595651
4894.000000;-0.596050
4893.000000;-0.597910
4892.000000;-0.600802
4891.000000;-0.603663
4890.000000;-0.605406
4889.000000;-0.605488
4888.000000;-0.604135
4887.000000;-0.602094
4886.000000;-0.600173
4885.000000;-0.598962
4884.000000;-0.598687
4883.000000;-0.599073
4882.000000;-0.599416
4881.000000;-0.599070
4880.000000;-0.598002
4879.000000;-0.596785
4878.000000;-0.595956
4877.000000;-0.595455
4876.000000;-0.594865
4875.000000;-0.594054
4874.000000;-0.593179
4873.000000;-0.592076
4872.000000;-0.590175
4871.000000;-0.587219
4870.000000;-0.583555
4869.000000;-0.579436
4868.000000;-0.574611
4867.000000;-0.569108
4866.000000;-0.563865
4865.000000;-0.559862
4864.000000;-0.556966
4863.000000;-0.554159
4862.000000;-0.550688
4861.000000;-0.546455
4860.000000;-0.541496
4859.000000;-0.535905
4858.000000;-0.530220
4857.000000;-0.525090
4856.000000;-0.520347
4855.000000;-0.514949
4854.000000;-0.508179
4853.000000;-0.500574
4852.000000;-0.493334
4851.000000;-0.487001
4850.000000;-0.481034
4849.000000;-0.474682
4848.000000;-0.467979
4847.000000;-0.461623
4846.000000;-0.455979
4845.000000;-0.450597
4844.000000;-0.444824
4843.000000;-0.438505
4842.000000;-0.431771
4841.000000;-0.424518
4840.000000;-0.416595
4839.000000;-0.408367
4838.000000;-0.400545
4837.000000;-0.393511
4836.000000;-0.387170
4835.000000;-0.381297
4834.000000;-0.375553
4833.000000;-0.369334
4832.000000;-0.362225
4831.000000;-0.354655
4830.000000;-0.347525
4829.000000;-0.341119
4828.000000;-0.334923
4827.000000;-0.328529
4826.000000;-0.322075
4825.000000;-0.315682
4824.000000;-0.309142
4823.000000;-0.302442
4822.000000;-0.295951
4821.000000;-0.289712
4820.000000;-0.283088
4819.000000;-0.275596
4818.000000;-0.267712
4817.000000;-0.260338
4816.000000;-0.253776
4815.000000;-0.247643
4814.000000;-0.241567
4813.000000;-0.235527
4812.000000;-0.229575
4811.000000;-0.223608
4810.000000;-0.217499
4809.000000;-0.211214
4808.000000;-0.204797
4807.000000;-0.198369
4806.000000;-0.192128
4805.000000;-0.186224
4804.000000;-0.180607
4803.000000;-0.175078
4802.000000;-0.169452
4801.000000;-0.163654
4800.000000;-0.157710
4799.000000;-0.151717
4798.000000;-0.145774
4797.000000;-0.139964
4796.000000;-0.134405
4795.000000;-0.129172
4794.000000;-0.124095
4793.000000;-0.118798
4792.000000;-0.113136
4791.000000;-0.107457
4790.000000;-0.102195
4789.000000;-0.097295
4788.000000;-0.092344
4787.000000;-0.087179
4786.000000;-0.082038
4785.000000;-0.077078
4784.000000;-0.072104
4783.000000;-0.066914
4782.000000;-0.061635
4781.000000;-0.056520
4780.000000;-0.051586
4779.000000;-0.046603
4778.000000;-0.041378
4777.000000;-0.035949
4776.000000;-0.030596
4775.000000;-0.025670
4774.000000;-0.021290
4773.000000;-0.017139
4772.000000;-0.012692
4771.000000;-0.007707
4770.000000;-0.002433
4769.000000;0.002656
4768.000000;0.007225
4767.000000;0.011192
4766.000000;0.014697
4765.000000;0.018032
4764.000000;0.021513
4763.000000;0.025316
4762.000000;0.029446
4761.000000;0.033836
4760.000000;0.038401
4759.000000;0.043026
4758.000000;0.047598
4757.000000;0.052055
4756.000000;0.056350
4755.000000;0.060425
4754.000000;0.064313
4753.000000;0.068169
4752.000000;0.072085
4751.000000;0.075921
4750.000000;0.079491
4749.000000;0.082837
4748.000000;0.086180
4747.000000;0.089640
4746.000000;0.093192
4745.000000;0.096829
4744.000000;0.100591
4743.000000;0.104434
4742.000000;0.108289
4741.000000;0.112190
4740.000000;0.116139
4739.000000;0.119891
4738.000000;0.123152
4737.000000;0.126051
4736.000000;0.129121
4735.000000;0.132691
4734.000000;0.136520
4733.000000;0.140137
4732.000000;0.143357
4731.000000;0.146311
4730.000000;0.149170
4729.000000;0.152045
4728.000000;0.155037
4727.000000;0.158204
4726.000000;0.161473
4725.000000;0.164716
4724.000000;0.167860
4723.000000;0.170864
4722.000000;0.173688
4721.000000;0.176382
4720.000000;0.179115
4719.000000;0.181997
4718.000000;0.184950
4717.000000;0.187838
4716.000000;0.190680
4715.000000;0.193615
4714.000000;0.196686
4713.000000;0.199782
4712.000000;0.202735
4711.000000;0.205414
4710.000000;0.207752
4709.000000;0.209837
4708.000000;0.211960
4707.000000;0.214436
4706.000000;0.217292
4705.000000;0.220198
4704.000000;0.222759
4703.000000;0.224872
4702.000000;0.226790
4701.000000;0.228872
4700.000000;0.231280
4699.000000;0.233887
4698.000000;0.236443
4697.000000;0.238797
4696.000000;0.240978
4695.000000;0.243090
4694.000000;0.245232
4693.000000;0.247521
4692.000000;0.250082
4691.000000;0.252896
4690.000000;0.255677
4689.000000;0.258034
4688.000000;0.259839
4687.000000;0.261384
4686.000000;0.263117
4685.000000;0.265234
4684.000000;0.267568
4683.000000;0.269843
4682.000000;0.271937
4681.000000;0.273893
4680.000000;0.275757
4679.000000;0.277538
4678.000000;0.279272
4677.000000;0.281037
4676.000000;0.282881
4675.000000;0.284810
4674.000000;0.286842
4673.000000;0.289004
4672.000000;0.291220
4671.000000;0.293316
4670.000000;0.295193
4669.000000;0.296918
4668.000000;0.298603
4667.000000;0.300266
4666.000000;0.301900
4665.000000;0.303587
4664.000000;0.305419
4663.000000;0.307334
4662.000000;0.309146
4661.000000;0.310751
4660.000000;0.312198
4659.000000;0.313586
4658.000000;0.314982
4657.000000;0.316448
4656.000000;0.318026
4655.000000;0.319645
4654.000000;0.321164
4653.000000;0.322549
4652.000000;0.323959
4651.000000;0.325561
4650.000000;0.327319
4649.000000;0.329023
4648.000000;0.330501
4647.000000;0.331763
4646.000000;0.332961
4645.000000;0.334252
4644.000000;0.335691
4643.000000;0.337206
4642.000000;0.338681
4641.000000;0.340068
4640.000000;0.341413
4639.000000;0.342766
4638.000000;0.344119
4637.000000;0.345425
4636.000000;0.346673
4635.000000;0.347901
4634.000000;0.349172
4633.000000;0.350542
4632.000000;0.352008
4631.000000;0.353484
4630.000000;0.354839
4629.000000;0.356007
4628.000000;0.357041
4627.000000;0.358041
4626.000000;0.359040
4625.000000;0.359995
4624.000000;0.360897
4623.000000;0.361840
4622.000000;0.362956
4621.000000;0.364243
4620.000000;0.365522
4619.000000;0.366591
4618.000000;0.367433
4617.000000;0.368238
4616.000000;0.369195
4615.000000;0.370340
4614.000000;0.371589
4613.000000;0.372870
4612.000000;0.374124
4611.000000;0.375238
4610.000000;0.376078
4609.000000;0.376614
4608.000000;0.376972
4607.000000;0.377358
4606.000000;0.377968
4605.000000;0.378931
4604.000000;0.380227
4603.000000;0.381649
4602.000000;0.382925
4601.000000;0.383949
4600.000000;0.384844
4599.000000;0.385773
4598.000000;0.386744
4597.000000;0.387640
4596.000000;0.388383
4595.000000;0.389011
4594.000000;0.389636
4593.000000;0.390363
4592.000000;0.391211
4591.000000;0.392076
4590.000000;0.392796
4589.000000;0.393305
4588.000000;0.393711
4587.000000;0.394186
4586.000000;0.394797
4585.000000;0.395496
4584.000000;0.396239
4583.000000;0.397055
4582.000000;0.397973
4581.000000;0.398931
4580.000000;0.399789
4579.000000;0.400443
4578.000000;0.400906
4577.000000;0.401302
4576.000000;0.401749
4575.000000;0.402268
4574.000000;0.402796
4573.000000;0.403291
4572.000000;0.403772
4571.000000;0.404270
4570.000000;0.404774
4569.000000;0.405277
4568.000000;0.405819
4567.000000;0.406459
4566.000000;0.407190
4565.000000;0.407936
4564.000000;0.408632
4563.000000;0.409259
4562.000000;0.409808
4561.000000;0.410246
4560.000000;0.410552
4559.000000;0.410762
4558.000000;0.410959
4557.000000;0.411222
4556.000000;0.411575
4555.000000;0.411970
4554.000000;0.412331
4553.000000;0.412611
4552.000000;0.412825
4551.000000;0.413022
4550.000000;0.413238
4549.000000;0.413483
4548.000000;0.413744
4547.000000;0.413993
4546.000000;0.414196
4545.000000;0.414366
4544.000000;0.414576
4543.000000;0.414916
4542.000000;0.415403
4541.000000;0.415945
4540.000000;0.416388
4539.000000;0.416603
4538.000000;0.416600
4537.000000;0.416555
4536.000000;0.416681
4535.000000;0.417021
4534.000000;0.417405
4533.000000;0.417642
4532.000000;0.417740
4531.000000;0.417858
4530.000000;0.418081
4529.000000;0.418335
4528.000000;0.418527
4527.000000;0.418672
4526.000000;0.418835
4525.000000;0.419021
4524.000000;0.419182
4523.000000;0.419286
4522.000000;0.419335
4521.000000;0.419367
4520.000000;0.419456
4519.000000;0.419661
4518.000000;0.419916
4517.000000;0.420046
4516.000000;0.419956
4515.000000;0.419749
4514.000000;0.419598
4513.000000;0.419542
4512.000000;0.419515
4511.000000;0.419505
4510.000000;0.419553
4509.000000;0.419596
4508.000000;0.419468
4507.000000;0.419121
4506.000000;0.418724
4505.000000;0.418492
4504.000000;0.418476
4503.000000;0.418576
4502.000000;0.418662
4501.000000;0.418619
4500.000000;0.418376
4499.000000;0.417998
4498.000000;0.417700
4497.000000;0.417642
4496.000000;0.417717
4495.000000;0.417650
4494.000000;0.417308
4493.000000;0.416828
4492.000000;0.416463
4491.000000;0.416361
4490.000000;0.416492
4489.000000;0.416685
4488.000000;0.416702
4487.000000;0.416403
4486.000000;0.415908
4485.000000;0.415506
4484.000000;0.415345
4483.000000;0.415264
4482.000000;0.415001
4481.000000;0.414507
4480.000000;0.413952
4479.000000;0.413472
4478.000000;0.413048
4477.000000;0.412607
4476.000000;0.412128
4475.000000;0.411612
4474.000000;0.411070
4473.000000;0.410597
4472.000000;0.410355
4471.000000;0.410380
4470.000000;0.410461
4469.000000;0.410308
4468.000000;0.409833
4467.000000;0.409186
4466.000000;0.408533
4465.000000;0.407906
4464.000000;0.407266
4463.000000;0.406603
4462.000000;0.405931
4461.000000;0.405261
4460.000000;0.404632
4459.000000;0.404105
4458.000000;0.403671
4457.000000;0.403190
4456.000000;0.402491
4455.000000;0.401535
4454.000000;0.400471
4453.000000;0.399541
4452.000000;0.398952
4451.000000;0.398737
4450.000000;0.398692
4449.000000;0.398479
4448.000000;0.397897
4447.000000;0.397046
4446.000000;0.396189
4445.000000;0.395472
4444.000000;0.394843
4443.000000;0.394195
4442.000000;0.393477
4441.000000;0.392658
4440.000000;0.391698
4439.000000;0.390601
4438.000000;0.389460
4437.000000;0.388376
4436.000000;0.387388
4435.000000;0.386497
4434.000000;0.385719
4433.000000;0.385052
4432.000000;0.384426
4431.000000;0.383737
4430.000000;0.382936
4429.000000;0.382035
4428.000000;0.381035
4427.000000;0.379886
4426.000000;0.378542
4425.000000;0.377060
4424.000000;0.375614
4423.000000;0.374376
4422.000000;0.373362
4421.000000;0.372433
4420.000000;0.371462
4419.000000;0.370481
4418.000000;0.369589
4417.000000;0.368758
4416.000000;0.367828
4415.000000;0.366708
4414.000000;0.365464
4413.000000;0.364172
4412.000000;0.362768
4411.000000;0.361141
4410.000000;0.359315
4409.000000;0.357447
4408.000000;0.355657
4407.000000;0.353958
4406.000000;0.352356
4405.000000;0.350937
4404.000000;0.349774
4403.000000;0.348745
4402.000000;0.347516
4401.000000;0.345807
4400.000000;0.343692
4399.000000;0.341570
4398.000000;0.339767
4397.000000;0.338234
4396.000000;0.336688
4395.000000;0.334981
4394.000000;0.333161
4393.000000;0.331250
4392.000000;0.329184
4391.000000;0.327052
4390.000000;0.325166
4389.000000;0.323713
4388.000000;0.322457
4387.000000;0.320949
4386.000000;0.318995
4385.000000;0.316778
4384.000000;0.314607
4383.000000;0.312693
4382.000000;0.311083
4381.000000;0.309598
4380.000000;0.307818
4379.000000;0.305378
4378.000000;0.302373
4377.000000;0.299349
4376.000000;0.296811
4375.000000;0.294791
4374.000000;0.292926
4373.000000;0.290865
4372.000000;0.288528
4371.000000;0.286056
4370.000000;0.283591
4369.000000;0.281131
4368.000000;0.278569
4367.000000;0.275905
4366.000000;0.273326
4365.000000;0.270971
4364.000000;0.268658
4363.000000;0.266001
4362.000000;0.262861
4361.000000;0.259551
4360.000000;0.256533
4359.000000;0.254007
4358.000000;0.251828
4357.000000;0.249673
4356.000000;0.247202
4355.000000;0.244218
4354.000000;0.240820
4353.000000;0.237344
4352.000000;0.234028
4351.000000;0.230830
4350.000000;0.227641
4349.000000;0.224559
4348.000000;0.221749
4347.000000;0.219102
4346.000000;0.216234
4345.000000;0.212851
4344.000000;0.209002
4343.000000;0.205025
4342.000000;0.201344
4341.000000;0.198253
4340.000000;0.195678
4339.000000;0.193126
4338.000000;0.190070
4337.000000;0.186441
4336.000000;0.182629
4335.000000;0.178967
4334.000000;0.175400
4333.000000;0.171699
4332.000000;0.167779
4331.000000;0.163713
4330.000000;0.159613
4329.000000;0.155666
4328.000000;0.152113
4327.000000;0.148990
4326.000000;0.145975
4325.000000;0.142687
4324.000000;0.139087
4323.000000;0.135411
4322.000000;0.131779
4321.000000;0.128054
4320.000000;0.124089
4319.000000;0.119913
4318.000000;0.115643
4317.000000;0.111349
4316.000000;0.107081
4315.000000;0.102950
4314.000000;0.099090
4313.000000;0.095573
4312.000000;0.092327
4311.000000;0.089113
4310.000000;0.085601
4309.000000;0.081565
4308.000000;0.077047
4307.000000;0.072343
4306.000000;0.067858
4305.000000;0.063947
4304.000000;0.060765
4303.000000;0.058093
4302.000000;0.055325
4301.000000;0.051835
4300.000000;0.047531
4299.000000;0.043060
4298.000000;0.039264
4297.000000;0.036301
4296.000000;0.033317
4295.000000;0.029227
4294.000000;0.024012
4293.000000;0.019044
4292.000000;0.015868
4291.000000;0.014610
4290.000000;0.013851
4289.000000;0.012103
4288.000000;0.009129
4287.000000;0.005798
4286.000000;0.003038
4285.000000;0.001145
4284.000000;-0.000228
4283.000000;-0.001751
4282.000000;-0.003882
4281.000000;-0.006259
4280.000000;-0.007849
4279.000000;-0.008165
4278.000000;-0.008119
4277.000000;-0.009050
4276.000000;-0.010986
4275.000000;-0.012549
4274.000000;-0.012706
4273.000000;-0.011859
4272.000000;-0.010795
4271.000000;-0.009420
4270.000000;-0.007330
4269.000000;-0.005069
4268.000000;-0.003743
4267.000000;-0.003506
4266.000000;-0.003375
4265.000000;-0.002648
4264.000000;-0.001529
4263.000000;-0.000132
4262.000000;0.002075
4261.000000;0.005286
4260.000000;0.008705
4259.000000;0.011701
4258.000000;0.014958
4257.000000;0.019537
4256.000000;0.025200
4255.000000;0.030583
4254.000000;0.034960
4253.000000;0.038907
4252.000000;0.043103
4251.000000;0.047277
4250.000000;0.050777
4249.000000;0.053675
4248.000000;0.056868
4247.000000;0.061246
4246.000000;0.066815
4245.000000;0.072782
4244.000000;0.078262
4243.000000;0.083045
4242.000000;0.087628
4241.000000;0.092484
4240.000000;0.097565
4239.000000;0.102724
4238.000000;0.108293
4237.000000;0.114788
4236.000000;0.122113
4235.000000;0.129414
4234.000000;0.135774
4233.000000;0.140845
4232.000000;0.144922
4231.000000;0.148684
4230.000000;0.152942
4229.000000;0.158221
4228.000000;0.164309
4227.000000;0.170258
4226.000000;0.175105
4225.000000;0.178908
4224.000000;0.183105
4223.000000;0.189398
4222.000000;0.198024
4221.000000;0.207386
4220.000000;0.215608
4219.000000;0.222135
4218.000000;0.227580
4217.000000;0.232602
4216.000000;0.237553
4215.000000;0.242734
4214.000000;0.248057
4213.000000;0.252728
4212.000000;0.256293
4211.000000;0.259838
4210.000000;0.265012
4209.000000;0.271821
4208.000000;0.278539
4207.000000;0.284040
4206.000000;0.289002
4205.000000;0.294374
4204.000000;0.299874
4203.000000;0.304718
4202.000000;0.308903
4201.000000;0.313012
4200.000000;0.317493
4199.000000;0.322697
4198.000000;0.328840
4197.000000;0.335271
4196.000000;0.340649
4195.000000;0.344630
4194.000000;0.348586
4193.000000;0.353932
4192.000000;0.360567
4191.000000;0.367528
4190.000000;0.374264
4189.000000;0.380549
4188.000000;0.386090
4187.000000;0.391128
4186.000000;0.396599
4185.000000;0.402754
4184.000000;0.408465
4183.000000;0.412910
4182.000000;0.417139
4181.000000;0.422733
4180.000000;0.429570
4179.000000;0.436230
4178.000000;0.441953
4177.000000;0.446891
4176.000000;0.451100
4175.000000;0.454765
4174.000000;0.458938
4173.000000;0.464537
4172.000000;0.470838
4171.000000;0.476286
4170.000000;0.480571
4169.000000;0.484577
4168.000000;0.488565
4167.000000;0.492090
4166.000000;0.495653
4165.000000;0.500786
4164.000000;0.508043
4163.000000;0.516043
4162.000000;0.522804
4161.000000;0.527238
4160.000000;0.529447
4159.000000;0.530669
4158.000000;0.532904
4157.000000;0.537323
4156.000000;0.542915
4155.000000;0.547740
4154.000000;0.551470
4153.000000;0.555433
4152.000000;0.560260
4151.000000;0.565145
4150.000000;0.569859
4149.000000;0.575785
4148.000000;0.583815
4147.000000;0.592459
4146.000000;0.599213
4145.000000;0.603229
4144.000000;0.605625
4143.000000;0.607769
4142.000000;0.610215
4141.000000;0.612973
4140.000000;0.616115
4139.000000;0.619922
4138.000000;0.624534
4137.000000;0.629427
4136.000000;0.633517
4135.000000;0.636362
4134.000000;0.639089
4133.000000;0.643322
4132.000000;0.649215
4131.000000;0.655221
4130.000000;0.659953
4129.000000;0.663654
4128.000000;0.667469
4127.000000;0.671909
4126.000000;0.676567
4125.000000;0.680865
4124.000000;0.684659
4123.000000;0.688432
4122.000000;0.692812
4121.000000;0.697728
4120.000000;0.702447
4119.000000;0.706602
4118.000000;0.710858
4117.000000;0.715812
4116.000000;0.720822
4115.000000;0.724955
4114.000000;0.728593
4113.000000;0.732969
4112.000000;0.738166
4111.000000;0.742759
4110.000000;0.745833
4109.000000;0.748087
4108.000000;0.750356
4107.000000;0.752293
4106.000000;0.753328
4105.000000;0.754215
4104.000000;0.756721
4103.000000;0.761874
4102.000000;0.769147
4101.000000;0.777196
4100.000000;0.785007
4099.000000;0.792273
4098.000000;0.798823
4097.000000;0.803940
4096.000000;0.806919
4095.000000;0.808142
4094.000000;0.808901
4093.000000;0.809959
4092.000000;0.811009
4091.000000;0.812085
4090.000000;0.814751
4089.000000;0.820857
4088.000000;0.830231
4087.000000;0.840546
4086.000000;0.849277
4085.000000;0.854524
4084.000000;0.854635
4083.000000;0.849426
4082.000000;0.842100
4081.000000;0.837681
4080.000000;0.838956
4079.000000;0.844746
4078.000000;0.851682
4077.000000;0.857276
4076.000000;0.861607
4075.000000;0.866259
4074.000000;0.872073
4073.000000;0.877921
4072.000000;0.881486
4071.000000;0.882090
4070.000000;0.882501
4069.000000;0.886581
4068.000000;0.895387
4067.000000;0.906554
4066.000000;0.916949
4065.000000;0.924652
4064.000000;0.928910
4063.000000;0.930147
4062.000000;0.930674
4061.000000;0.933860
4060.000000;0.940885
4059.000000;0.948652
4058.000000;0.952632
4057.000000;0.952202
4056.000000;0.951540
4055.000000;0.955506
4054.000000;0.965275
4053.000000;0.977106
4052.000000;0.984867
4051.000000;0.984536
4050.000000;0.977256
4049.000000;0.968689
4048.000000;0.965681
4047.000000;0.972131
4046.000000;0.985802
4045.000000;0.998952
4044.000000;1.004725
4043.000000;1.003798
4042.000000;1.002399
4041.000000;1.004315
4040.000000;1.007845
4039.000000;1.010228
4038.000000;1.012064
4037.000000;1.015596
4036.000000;1.020656
4035.000000;1.024765
4034.000000;1.026597
4033.000000;1.027309
4032.000000;1.028656
4031.000000;1.031509
4030.000000;1.035512
4029.000000;1.039611
4028.000000;1.043246
4027.000000;1.046954
4026.000000;1.051482
4025.000000;1.056386
4024.000000;1.060792
4023.000000;1.065884
4022.000000;1.074121
4021.000000;1.084694
4020.000000;1.092264
4019.000000;1.093027
4018.000000;1.089477
4017.000000;1.086804
4016.000000;1.087829
4015.000000;1.092357
4014.000000;1.099374
4013.000000;1.107781
4012.000000;1.115590
4011.000000;1.120855
4010.000000;1.123295
4009.000000;1.124063
4008.000000;1.124547
4007.000000;1.126557
4006.000000;1.132571
4005.000000;1.143798
4004.000000;1.158082
4003.000000;1.171007
4002.000000;1.178285
4001.000000;1.176655
4000.000000;1.165258
3999.000000;1.149721
3998.000000;1.141452
3997.000000;1.148772
3996.000000;1.168720
3995.000000;1.188241
3994.000000;1.196262
3993.000000;1.193939
3992.000000;1.189453
3991.000000;1.187900
3990.000000;1.190138
3989.000000;1.196399
3988.000000;1.206059
3987.000000;1.215638
3986.000000;1.221155
3985.000000;1.221202
3984.000000;1.217447
3983.000000;1.214138
3982.000000;1.216269
3981.000000;1.226448
3980.000000;1.242470
3979.000000;1.258417
3978.000000;1.268559
3977.000000;1.270542
3976.000000;1.266584
3975.000000;1.263097
3974.000000;1.266904
3973.000000;1.278575
3972.000000;1.289770
3971.000000;1.290561
3970.000000;1.281079
3969.000000;1.271684
3968.000000;1.273056
3967.000000;1.289096
3966.000000;1.315377
3965.000000;1.339838
3964.000000;1.349007
3963.000000;1.340636
3962.000000;1.327175
3961.000000;1.319913
3960.000000;1.318034
3959.000000;1.315435
3958.000000;1.312106
3957.000000;1.314085
3956.000000;1.323684
3955.000000;1.335855
3954.000000;1.344820
3953.000000;1.350454
3952.000000;1.354419
3951.000000;1.355415
3950.000000;1.352552
3949.000000;1.348428
3948.000000;1.344089
3947.000000;1.336670
3946.000000;1.329368
3945.000000;1.334340
3944.000000;1.356017
3943.000000;1.380705
3942.000000;1.392274
3941.000000;1.393848
3940.000000;1.402676
3939.000000;1.423753
3938.000000;1.444573
3937.000000;1.455425
3936.000000;1.461749
3935.000000;1.472280
3934.000000;1.483079
3933.000000;1.479538
3932.000000;1.456961
3931.000000;1.433567
3930.000000;1.427363
3929.000000;1.434958
3928.000000;1.439472
3927.000000;1.432175
3926.000000;1.422098
3925.000000;1.422154
3924.000000;1.433906
3923.000000;1.450256
3922.000000;1.464997
3921.000000;1.475434
3920.000000;1.481899
3919.000000;1.489577
3918.000000;1.505269
3917.000000;1.529115
3916.000000;1.560107
3915.000000;1.602971
3914.000000;1.657225
3913.000000;1.706786
3912.000000;1.733912
3911.000000;1.727498
3910.000000;1.687783
3909.000000;1.627752
3908.000000;1.561793
3907.000000;1.506687
3906.000000;1.483713
3905.000000;1.500516
3904.000000;1.536328
3903.000000;1.560526
3902.000000;1.568317
3901.000000;1.588557
3900.000000;1.643405
3899.000000;1.724224
3898.000000;1.820876
3897.000000;1.925233
3896.000000;2.009498
3895.000000;2.016348
3894.000000;1.939357
3893.000000;1.863554
3892.000000;1.827793
3891.000000;1.801705
3890.000000;1.755467
3889.000000;1.717673
3888.000000;1.730904
3887.000000;1.783219
3886.000000;1.834157
3885.000000;1.862747
3884.000000;1.883813
3883.000000;1.932272
3882.000000;1.998651
3881.000000;2.075073
3880.000000;2.123216
3879.000000;2.051471
3878.000000;1.938717
3877.000000;1.899196
3876.000000;1.933203
3875.000000;1.953452
3874.000000;2.124283
3873.000000;2.145132
3872.000000;2.189605
3871.000000;2.255063
3870.000000;2.325528
3869.000000;2.381680
3868.000000;2.371044
3867.000000;1.924129
3866.000000;1.957447
3865.000000;2.059280
3864.000000;2.147186
3863.000000;2.220545
3862.000000;2.282555
3861.000000;2.275610
3860.000000;2.227181
3859.000000;2.197921
3858.000000;2.484665
3857.000000;2.609115
3856.000000;2.709976
3855.000000;2.791553
3854.000000;2.834097
3853.000000;2.770619
3852.000000;2.606482
3851.000000;2.463918
3850.000000;2.366673
3849.000000;2.276582
3848.000000;2.213660
3847.000000;2.200087
3846.000000;2.223189
3845.000000;2.252379
3844.000000;2.274732
3843.000000;2.317379
3842.000000;2.406665
3841.000000;2.521183
3840.000000;2.347073
3839.000000;2.871394
3838.000000;2.277780
3837.000000;2.194426
3836.000000;2.228037
3835.000000;2.407208
3834.000000;2.463199
3833.000000;2.482413
3832.000000;2.708231
3831.000000;2.781210
3830.000000;2.526958
3829.000000;2.390256
3828.000000;2.476260
3827.000000;2.691297
3826.000000;2.750129
3825.000000;2.658827
3824.000000;3.486232
3823.000000;2.385156
3822.000000;2.047081
3821.000000;1.897814
3820.000000;1.793770
3819.000000;1.744536
3818.000000;1.794285
3817.000000;1.948241
3816.000000;2.131975
3815.000000;2.233097
3814.000000;2.302522
3813.000000;2.442867
3812.000000;2.608177
3811.000000;2.751300
3810.000000;2.758053
3809.000000;2.487152
3808.000000;2.240227
3807.000000;2.106194
3806.000000;2.051137
3805.000000;2.066347
3804.000000;2.291495
3803.000000;2.546180
3802.000000;2.185854
3801.000000;2.029772
3800.000000;2.027159
3799.000000;2.042917
3798.000000;2.045358
3797.000000;2.126193
3796.000000;2.285462
3795.000000;2.497979
3794.000000;2.558761
3793.000000;2.521659
3792.000000;2.660362
3791.000000;2.780192
3790.000000;2.670474
3789.000000;2.532514
3788.000000;2.385987
3787.000000;2.288122
3786.000000;2.239182
3785.000000;2.226906
3784.000000;2.233326
3783.000000;2.270212
3782.000000;2.379259
3781.000000;2.578247
3780.000000;2.729726
3779.000000;2.707822
3778.000000;2.698064
3777.000000;2.788178
3776.000000;2.951402
3775.000000;3.040408
3774.000000;2.813797
3773.000000;2.671274
3772.000000;2.696041
3771.000000;3.023948
3770.000000;2.926647
3769.000000;2.448345
3768.000000;2.236026
3767.000000;2.170885
3766.000000;2.200776
3765.000000;2.293412
3764.000000;2.479221
3763.000000;2.746760
3762.000000;2.603615
3761.000000;2.347397
3760.000000;2.184755
3759.000000;2.079407
3758.000000;2.007130
3757.000000;1.969597
3756.000000;2.242133
3755.000000;2.266533
3754.000000;2.285565
3753.000000;2.364653
3752.000000;2.567629
3751.000000;2.812186
3750.000000;2.881947
3749.000000;2.838642
3748.000000;2.770570
3747.000000;2.803489
3746.000000;2.845057
3745.000000;2.641752
3744.000000;2.504825
3743.000000;1.882252
3742.000000;1.804863
3741.000000;1.786710
3740.000000;1.839539
3739.000000;1.871624
3738.000000;1.852506
3737.000000;1.854400
3736.000000;1.908192
3735.000000;1.986680
3734.000000;2.146887
3733.000000;2.120416
3732.000000;1.937259
3731.000000;1.918919
3730.000000;2.037751
3729.000000;2.435810
3728.000000;2.968650
3727.000000;2.628345
3726.000000;2.492930
3725.000000;2.400276
3724.000000;2.384103
3723.000000;2.388989
3722.000000;2.295746
3721.000000;2.199421
3720.000000;2.201336
3719.000000;2.266161
3718.000000;2.325448
3717.000000;2.378909
3716.000000;2.457250
3715.000000;2.336475
3714.000000;2.159289
3713.000000;2.082528
3712.000000;2.087711
3711.000000;2.175724
3710.000000;2.351666
3709.000000;2.596743
3708.000000;2.863618
3707.000000;2.892552
3706.000000;2.629681
3705.000000;2.564856
3704.000000;2.721878
3703.000000;2.768379
3702.000000;2.723891
3701.000000;2.894444
3700.000000;2.583471
3699.000000;2.270478
3698.000000;2.188090
3697.000000;2.269905
3696.000000;2.508533
3695.000000;2.804694
3694.000000;2.971468
3693.000000;2.853555
3692.000000;2.940137
3691.000000;2.643124
3690.000000;2.266742
3689.000000;2.109411
3688.000000;2.090252
3687.000000;2.098759
3686.000000;2.083423
3685.000000;2.141317
3684.000000;2.293212
3683.000000;2.418983
3682.000000;2.327755
3681.000000;2.214744
3680.000000;2.166283
3679.000000;2.117438
3678.000000;2.006159
3677.000000;2.422662
3676.000000;2.482857
3675.000000;2.647265
3674.000000;2.960265
3673.000000;2.218154
3672.000000;1.939106
3671.000000;1.941433
3670.000000;2.112484
3669.000000;2.600168
3668.000000;2.988841
3667.000000;2.668893
3666.000000;2.619994
3665.000000;2.707778
3664.000000;3.073955
3663.000000;3.029891
3662.000000;2.695101
3661.000000;2.499189
3660.000000;2.426718
3659.000000;2.482362
3658.000000;2.629491
3657.000000;2.613867
3656.000000;2.398148
3655.000000;2.205479
3654.000000;2.043192
3653.000000;1.946927
3652.000000;1.936251
3651.000000;1.957135
3650.000000;1.970145
3649.000000;2.051171
3648.000000;2.153402
3647.000000;2.107169
3646.000000;2.035311
3645.000000;2.008873
3644.000000;2.075339
3643.000000;2.248161
3642.000000;2.649794
3641.000000;2.959855
3640.000000;2.619110
3639.000000;2.525784
3638.000000;2.497340
3637.000000;2.485481
3636.000000;2.593792
3635.000000;3.560674
3634.000000;2.526436
3633.000000;2.214534
3632.000000;2.078737
3631.000000;2.034949
3630.000000;2.090868
3629.000000;2.375106
3628.000000;2.602520
3627.000000;2.289934
3626.000000;2.430348
3625.000000;2.374774
3624.000000;2.230351
3623.000000;2.155807
3622.000000;2.093457
3621.000000;2.103973
3620.000000;2.249069
3619.000000;2.509325
3618.000000;2.478862
3617.000000;2.369326
3616.000000;2.337715
3615.000000;2.986402
3614.000000;2.664976
3613.000000;2.204818
3612.000000;2.110312
3611.000000;2.080522
3610.000000;2.077627
3609.000000;2.138933
3608.000000;2.366972
3607.000000;2.883997
3606.000000;2.959536
3605.000000;2.885946
3604.000000;2.677294
3603.000000;2.690528
3602.000000;2.799218
3601.000000;2.720042
3600.000000;2.573039
3599.000000;2.473417
3598.000000;2.408806
3597.000000;2.332504
3596.000000;2.280250
3595.000000;2.314801
3594.000000;2.587831
3593.000000;3.064359
3592.000000;2.678552
3591.000000;2.420272
3590.000000;2.295209
3589.000000;2.325915
3588.000000;2.685740
3587.000000;2.487079
3586.000000;2.295334
3585.000000;2.333162
3584.000000;2.392525
3583.000000;2.487561
3582.000000;2.527775
3581.000000;2.402459
3580.000000;2.350825
3579.000000;2.468552
3578.000000;2.761224
3577.000000;2.909509
3576.000000;2.810686
3575.000000;2.827511
3574.000000;2.883118
3573.000000;2.690461
3572.000000;2.551424
3571.000000;2.705623
3570.000000;3.078047
3569.000000;2.488953
3568.000000;2.438631
3567.000000;2.590020
3566.000000;2.384471
3565.000000;2.144621
3564.000000;2.081977
3563.000000;2.134945
3562.000000;2.311582
3561.000000;2.450084
3560.000000;2.407818
3559.000000;2.397117
3558.000000;2.469453
3557.000000;2.516280
3556.000000;2.489273
3555.000000;2.404619
3554.000000;2.319904
3553.000000;2.350436
3552.000000;2.566153
3551.000000;2.789369
3550.000000;2.872184
3549.000000;2.802989
3548.000000;2.509099
3547.000000;2.463594
3546.000000;2.626449
3545.000000;2.682649
3544.000000;2.469288
3543.000000;2.345269
3542.000000;2.389027
3541.000000;2.705545
3540.000000;3.157398
3539.000000;2.628508
3538.000000;2.278216
3537.000000;2.172009
3536.000000;2.257617
3535.000000;2.814691
3534.000000;2.983941
3533.000000;2.561339
3532.000000;2.467117
3531.000000;2.386400
3530.000000;2.392047
3529.000000;2.473971
3528.000000;2.530037
3527.000000;2.373691
3526.000000;2.212749
3525.000000;2.194834
3524.000000;2.321647
3523.000000;2.404772
3522.000000;2.290613
3521.000000;2.145266
3520.000000;2.112983
3519.000000;2.166542
3518.000000;2.272611
3517.000000;2.537779
3516.000000;2.844096
3515.000000;2.720108
3514.000000;3.020113
3513.000000;2.997165
3512.000000;2.640555
3511.000000;2.439293
3510.000000;2.210651
3509.000000;2.117772
3508.000000;2.211183
3507.000000;2.393777
3506.000000;2.299509
3505.000000;2.250031
3504.000000;2.327384
3503.000000;2.366168
3502.000000;2.343217
3501.000000;2.342179
3500.000000;2.599405
3499.000000;3.124907
3498.000000;2.705031
3497.000000;2.977440
3496.000000;2.779793
3495.000000;2.745101
3494.000000;3.113307
3493.000000;3.153014
3492.000000;2.970628
3491.000000;2.826999
3490.000000;2.603478
3489.000000;2.531844
3488.000000;2.551643
3487.000000;2.390808
3486.000000;2.235080
3485.000000;2.189505
3484.000000;2.255119
3483.000000;2.323867
3482.000000;2.225499
3481.000000;2.179320
3480.000000;2.279349
3479.000000;2.590861
3478.000000;2.637814
3477.000000;2.304310
3476.000000;2.152921
3475.000000;2.152918
3474.000000;2.228056
3473.000000;2.256200
3472.000000;2.334005
3471.000000;2.537291
3470.000000;2.724574
3469.000000;2.835296
3468.000000;3.475038
3467.000000;2.592841
3466.000000;2.345359
3465.000000;2.348403
3464.000000;2.436187
3463.000000;2.309338
3462.000000;2.274074
3461.000000;2.541779
3460.000000;2.965717
3459.000000;2.454649
3458.000000;2.151276
3457.000000;2.051307
3456.000000;2.072768
3455.000000;2.549132
3454.000000;2.593638
3453.000000;2.202175
3452.000000;2.209605
3451.000000;2.226135
3450.000000;2.296226
3449.000000;2.519570
3448.000000;2.999729
3447.000000;2.969052
3446.000000;2.654926
3445.000000;2.501786
3444.000000;2.463685
3443.000000;2.441648
3442.000000;2.480593
3441.000000;2.651738
3440.000000;2.757290
3439.000000;2.617470
3438.000000;2.469022
3437.000000;2.455798
3436.000000;2.608256
3435.000000;2.492178
3434.000000;2.243832
3433.000000;2.193081
3432.000000;2.216010
3431.000000;2.240845
3430.000000;2.255734
3429.000000;2.319879
3428.000000;2.427159
3427.000000;2.445053
3426.000000;2.561264
3425.000000;2.998989
3424.000000;2.474524
3423.000000;2.237534
3422.000000;2.260594
3421.000000;2.434463
3420.000000;2.703708
3419.000000;2.595485
3418.000000;2.396258
3417.000000;2.334235
3416.000000;2.335625
3415.000000;2.297365
3414.000000;2.295655
3413.000000;2.388522
3412.000000;2.500899
3411.000000;2.421772
3410.000000;2.402999
3409.000000;2.534576
3408.000000;2.375509
3407.000000;2.261019
3406.000000;2.348498
3405.000000;2.461995
3404.000000;2.530886
3403.000000;2.398976
3402.000000;2.269612
3401.000000;2.315400
3400.000000;2.693931
3399.000000;2.916835
3398.000000;2.562433
3397.000000;2.522565
3396.000000;2.636795
3395.000000;3.309588
3394.000000;2.764614
3393.000000;2.501243
3392.000000;2.492407
3391.000000;2.608945
3390.000000;2.666905
3389.000000;2.418395
3388.000000;2.280956
3387.000000;2.306439
3386.000000;2.386950
3385.000000;2.395678
3384.000000;2.497508
3383.000000;2.648861
3382.000000;2.576032
3381.000000;2.496914
3380.000000;2.469639
3379.000000;2.393339
3378.000000;2.339893
3377.000000;2.386267
3376.000000;2.905875
3375.000000;2.975301
3374.000000;2.462720
3373.000000;2.346316
3372.000000;2.311357
3371.000000;2.251387
3370.000000;2.210860
3369.000000;2.325288
3368.000000;2.979745
3367.000000;2.563004
3366.000000;2.260558
3365.000000;2.255268
3364.000000;2.695822
3363.000000;2.698471
3362.000000;2.667358
3361.000000;2.765585
3360.000000;2.308214
3359.000000;2.304621
3358.000000;2.512487
3357.000000;2.492195
3356.000000;2.190056
3355.000000;2.148920
3354.000000;2.327243
3353.000000;2.358190
3352.000000;2.194781
3351.000000;2.264792
3350.000000;2.462268
3349.000000;2.872319
3348.000000;3.039519
3347.000000;2.937637
3346.000000;2.898170
3345.000000;2.767572
3344.000000;2.701131
3343.000000;2.552929
3342.000000;2.508364
3341.000000;2.600787
3340.000000;3.053272
3339.000000;2.533860
3338.000000;2.264897
3337.000000;2.218234
3336.000000;2.278671
3335.000000;2.380895
3334.000000;2.564815
3333.000000;3.004997
3332.000000;2.725531
3331.000000;2.540477
3330.000000;2.666398
3329.000000;3.025584
3328.000000;2.916818
3327.000000;2.513446
3326.000000;2.277250
3325.000000;2.203417
3324.000000;2.242377
3323.000000;2.246525
3322.000000;2.145302
3321.000000;2.070466
3320.000000;2.115894
3319.000000;2.213644
3318.000000;2.300076
3317.000000;2.317908
3316.000000;2.263204
3315.000000;2.327520
3314.000000;2.710597
3313.000000;2.743209
3312.000000;2.634055
3311.000000;2.755712
3310.000000;2.659989
3309.000000;2.392799
3308.000000;2.378746
3307.000000;2.573014
3306.000000;2.721252
3305.000000;3.330110
3304.000000;2.466577
3303.000000;2.368237
3302.000000;2.570759
3301.000000;2.945413
3300.000000;2.574459
3299.000000;2.314877
3298.000000;2.493075
3297.000000;2.422525
3296.000000;2.216063
3295.000000;2.226173
3294.000000;2.148764
3293.000000;2.201781
3292.000000;2.522455
3291.000000;2.831023
3290.000000;2.500397
3289.000000;2.238520
3288.000000;2.155241
3287.000000;2.130383
3286.000000;2.203883
3285.000000;2.358080
3284.000000;2.402734
3283.000000;2.847360
3282.000000;2.762780
3281.000000;2.587095
3280.000000;2.732897
3279.000000;2.989107
3278.000000;2.472347
3277.000000;2.208809
3276.000000;2.251952
3275.000000;2.216912
3274.000000;2.304941
3273.000000;2.516541
3272.000000;2.453046
3271.000000;2.485317
3270.000000;2.192509
3269.000000;2.231547
3268.000000;2.458612
3267.000000;3.055490
3266.000000;2.544903
3265.000000;2.106366
3264.000000;2.292751
3263.000000;2.102489
3262.000000;1.890582
3261.000000;2.000161
3260.000000;2.281477
3259.000000;2.336902
3258.000000;2.735257
3257.000000;2.865182
3256.000000;2.567067
3255.000000;2.389062
3254.000000;2.798963
3253.000000;2.259088
3252.000000;2.045551
3251.000000;2.327738
3250.000000;2.656979
3249.000000;2.119092
3248.000000;2.178942
3247.000000;2.149571
3246.000000;2.144041
3245.000000;2.319838
3244.000000;2.547922
3243.000000;2.647454
3242.000000;2.621522
3241.000000;2.679458
3240.000000;2.539510
3239.000000;2.165780
3238.000000;2.028556
3237.000000;2.043216
3236.000000;2.037651
3235.000000;2.094203
3234.000000;2.273361
3233.000000;2.664731
3232.000000;2.482522
3231.000000;2.095591
3230.000000;2.082455
3229.000000;2.462260
3228.000000;2.562055
3227.000000;2.212048
3226.000000;2.038393
3225.000000;1.977538
3224.000000;2.031556
3223.000000;2.113627
3222.000000;2.103917
3221.000000;2.087144
3220.000000;2.388697
3219.000000;2.722399
3218.000000;2.088624
3217.000000;1.912723
3216.000000;1.922940
3215.000000;2.079288
3214.000000;2.154981
3213.000000;2.282766
3212.000000;2.174129
3211.000000;2.073073
3210.000000;2.231316
3209.000000;2.141113
3208.000000;2.051768
3207.000000;2.042868
3206.000000;2.058670
3205.000000;2.444320
3204.000000;2.365582
3203.000000;2.125866
3202.000000;2.107688
3201.000000;2.170603
3200.000000;2.168260
3199.000000;2.026596
3198.000000;2.069515
3197.000000;2.356693
3196.000000;2.470300
3195.000000;2.607166
3194.000000;2.793235
3193.000000;2.406500
3192.000000;2.429836
3191.000000;2.481405
3190.000000;2.523932
3189.000000;2.384952
3188.000000;2.324503
3187.000000;2.353522
3186.000000;2.315241
3185.000000;2.324688
3184.000000;2.492141
3183.000000;2.785183
3182.000000;2.767385
3181.000000;2.471886
3180.000000;2.321069
3179.000000;2.334800
3178.000000;2.493401
3177.000000;2.737799
3176.000000;2.517176
3175.000000;2.383942
3174.000000;2.537298
3173.000000;2.893936
3172.000000;2.446859
3171.000000;2.418246
3170.000000;2.500939
3169.000000;2.598870
3168.000000;2.806341
3167.000000;2.678939
3166.000000;2.458372
3165.000000;2.386332
3164.000000;2.328470
3163.000000;2.310825
3162.000000;2.343490
3161.000000;2.462239
3160.000000;2.474663
3159.000000;2.395925
3158.000000;2.537256
3157.000000;2.848095
3156.000000;2.553546
3155.000000;2.400243
3154.000000;2.757439
3153.000000;2.750016
3152.000000;2.378385
3151.000000;2.414624
3150.000000;2.512960
3149.000000;2.330766
3148.000000;2.309340
3147.000000;2.425234
3146.000000;2.562001
3145.000000;2.629015
3144.000000;2.541012
3143.000000;2.484718
3142.000000;2.492841
3141.000000;2.645636
3140.000000;3.115797
3139.000000;2.779369
3138.000000;2.519500
3137.000000;2.441859
3136.000000;2.374535
3135.000000;2.369327
3134.000000;2.451356
3133.000000;2.737387
3132.000000;3.172377
3131.000000;2.766926
3130.000000;2.532254
3129.000000;2.458986
3128.000000;2.421509
3127.000000;2.415272
3126.000000;2.467120
3125.000000;2.638283
3124.000000;2.654160
3123.000000;2.521176
3122.000000;2.540434
3121.000000;2.648340
3120.000000;2.656231
3119.000000;2.574761
3118.000000;2.580649
3117.000000;2.660026
3116.000000;2.646992
3115.000000;2.540874
3114.000000;2.285683
3113.000000;2.091569
3112.000000;2.005795
3111.000000;2.034040
3110.000000;2.184021
3109.000000;2.550745
3108.000000;2.923446
3107.000000;2.723144
3106.000000;2.994483
3105.000000;3.206533
3104.000000;2.762945
3103.000000;2.677503
3102.000000;2.839200
3101.000000;2.770977
3100.000000;2.695122
3099.000000;2.798008
3098.000000;2.751081
3097.000000;2.574771
3096.000000;2.476268
3095.000000;2.490634
3094.000000;2.401867
3093.000000;2.218391
3092.000000;2.140012
3091.000000;2.194051
3090.000000;2.364516
3089.000000;2.755924
3088.000000;3.272497
3087.000000;2.553562
3086.000000;2.600228
3085.000000;2.981386
3084.000000;2.717543
3083.000000;2.347442
3082.000000;2.296204
3081.000000;2.381776
3080.000000;2.733305
3079.000000;2.623235
3078.000000;2.287795
3077.000000;2.133250
3076.000000;2.045761
3075.000000;2.041497
3074.000000;2.122542
3073.000000;2.268955
3072.000000;2.383955
3071.000000;2.500581
3070.000000;3.042612
3069.000000;3.033286
3068.000000;2.919091
3067.000000;2.841750
3066.000000;2.603407
3065.000000;2.556405
3064.000000;2.669297
3063.000000;2.878099
3062.000000;2.922405
3061.000000;2.803159
3060.000000;2.790200
3059.000000;2.820265
3058.000000;3.042560
3057.000000;2.916780
3056.000000;2.743459
3055.000000;3.062596
3054.000000;2.671301
3053.000000;2.475040
3052.000000;2.510667
3051.000000;2.451209
3050.000000;2.292462
3049.000000;2.147801
3048.000000;2.127515
3047.000000;2.245988
3046.000000;2.853838
3045.000000;2.482519
3044.000000;2.252327
3043.000000;2.315056
3042.000000;2.541246
3041.000000;2.841017
3040.000000;2.466008
3039.000000;2.322208
3038.000000;2.325459
3037.000000;2.391156
3036.000000;2.484681
3035.000000;2.562040
3034.000000;2.549305
3033.000000;2.560950
3032.000000;2.747838
3031.000000;3.185940
3030.000000;2.812422
3029.000000;2.525257
3028.000000;2.471919
3027.000000;2.406045
3026.000000;2.292356
3025.000000;2.240748
3024.000000;2.270363
3023.000000;2.349511
3022.000000;2.454543
3021.000000;2.535281
3020.000000;2.606930
3019.000000;2.852930
3018.000000;2.934009
3017.000000;2.476208
3016.000000;2.368362
3015.000000;2.661188
3014.000000;2.584396
3013.000000;2.360193
3012.000000;2.461703
3011.000000;2.645398
3010.000000;2.299987
3009.000000;2.086314
3008.000000;2.004657
3007.000000;2.000115
3006.000000;2.044186
3005.000000;2.147891
3004.000000;2.276000
3003.000000;2.365423
3002.000000;2.505439
3001.000000;3.043468
3000.000000;2.940566
2999.000000;2.626343
2998.000000;2.740722
2997.000000;2.837691
2996.000000;2.833388
2995.000000;2.666799
2994.000000;2.534348
2993.000000;2.469257
2992.000000;2.412738
2991.000000;2.358045
2990.000000;2.330103
2989.000000;2.286719
2988.000000;2.208489
2987.000000;2.155173
2986.000000;2.177568
2985.000000;2.264552
2984.000000;2.371754
2983.000000;2.497023
2982.000000;2.551811
2981.000000;2.493819
2980.000000;2.365700
2979.000000;2.202441
2978.000000;2.150775
2977.000000;2.242306
2976.000000;2.431610
2975.000000;2.923935
2974.000000;3.056168
2973.000000;2.483343
2972.000000;2.366774
2971.000000;2.382029
2970.000000;2.560162
2969.000000;2.495046
2968.000000;2.325122
2967.000000;2.326918
2966.000000;2.455772
2965.000000;2.577391
2964.000000;2.813005
2963.000000;2.593619
2962.000000;2.294617
2961.000000;2.160538
2960.000000;2.110480
2959.000000;2.098492
2958.000000;2.099526
2957.000000;2.132707
2956.000000;2.246574
2955.000000;2.437403
2954.000000;2.474012
2953.000000;2.415848
2952.000000;2.438742
2951.000000;2.533955
2950.000000;2.685309
2949.000000;2.752321
2948.000000;2.637807
2947.000000;2.521168
2946.000000;2.522585
2945.000000;2.730690
2944.000000;3.095246
2943.000000;3.971261
2942.000000;3.081041
2941.000000;2.595494
2940.000000;2.493783
2939.000000;2.571263
2938.000000;2.905161
2937.000000;3.069284
2936.000000;2.720276
2935.000000;2.579995
2934.000000;2.559774
2933.000000;2.637183
2932.000000;2.888563
2931.000000;3.042980
2930.000000;2.713238
2929.000000;2.536080
2928.000000;2.432912
2927.000000;2.630221
2926.000000;3.131394
2925.000000;2.528739
2924.000000;2.450876
2923.000000;2.545445
2922.000000;2.769499
2921.000000;3.023897
2920.000000;2.884271
2919.000000;2.737050
2918.000000;3.237166
2917.000000;2.891632
2916.000000;2.605952
2915.000000;2.579612
2914.000000;2.435064
2913.000000;2.397644
2912.000000;2.562179
2911.000000;3.024019
2910.000000;4.057632
2909.000000;3.373426
2908.000000;2.884750
2907.000000;2.573373
2906.000000;2.395971
2905.000000;2.312485
2904.000000;2.315015
2903.000000;2.417883
2902.000000;2.384895
2901.000000;2.197526
2900.000000;2.142912
2899.000000;2.249980
2898.000000;2.512234
2897.000000;2.477481
2896.000000;2.263064
2895.000000;2.188576
2894.000000;2.157834
2893.000000;2.140305
2892.000000;2.126492
2891.000000;2.163667
2890.000000;2.294568
2889.000000;2.609523
2888.000000;2.746695
2887.000000;2.520887
2886.000000;2.378324
2885.000000;2.326706
2884.000000;2.399829
2883.000000;2.608679
2882.000000;2.550217
2881.000000;2.367406
2880.000000;2.273710
2879.000000;2.234327
2878.000000;2.230760
2877.000000;2.264063
2876.000000;2.305325
2875.000000;2.250781
2874.000000;2.103315
2873.000000;1.971783
2872.000000;1.904685
2871.000000;1.911799
2870.000000;1.966007
2869.000000;1.988796
2868.000000;1.964560
2867.000000;1.980926
2866.000000;2.123330
2865.000000;2.315301
2864.000000;2.197672
2863.000000;2.053636
2862.000000;2.060889
2861.000000;2.192095
2860.000000;2.639514
2859.000000;2.893226
2858.000000;2.449591
2857.000000;2.237769
2856.000000;2.134677
2855.000000;2.172242
2854.000000;2.413550
2853.000000;3.145907
2852.000000;2.391967
2851.000000;2.284260
2850.000000;2.327442
2849.000000;2.355232
2848.000000;2.362315
2847.000000;2.376302
2846.000000;2.405271
2845.000000;2.431154
2844.000000;2.435767
2843.000000;2.610924
2842.000000;2.729577
2841.000000;2.400174
2840.000000;2.255405
2839.000000;2.260490
2838.000000;2.398302
2837.000000;2.436029
2836.000000;2.259530
2835.000000;2.176376
2834.000000;2.202378
2833.000000;2.201170
2832.000000;2.174086
2831.000000;2.233587
2830.000000;2.426285
2829.000000;2.708667
2828.000000;3.404538
2827.000000;3.164402
2826.000000;3.629335
2825.000000;3.015084
2824.000000;2.837809
2823.000000;2.932116
2822.000000;2.603037
2821.000000;2.479270
2820.000000;2.534942
2819.000000;2.559810
2818.000000;2.482543
2817.000000;2.443258
2816.000000;2.356755
2815.000000;2.183328
2814.000000;2.133110
2813.000000;2.206378
2812.000000;2.293403
2811.000000;2.341225
2810.000000;2.455713
2809.000000;2.688510
2808.000000;2.585421
2807.000000;2.276683
2806.000000;2.097964
2805.000000;2.018256
2804.000000;2.000050
2803.000000;2.025065
2802.000000;2.093525
2801.000000;2.229127
2800.000000;2.448316
2799.000000;2.658979
2798.000000;2.952062
2797.000000;3.219507
2796.000000;2.651182
2795.000000;2.485815
2794.000000;2.490518
2793.000000;2.661506
2792.000000;2.801455
2791.000000;2.739739
2790.000000;2.509483
2789.000000;2.263481
2788.000000;2.141461
2787.000000;2.125831
2786.000000;2.165926
2785.000000;2.238805
2784.000000;2.438559
2783.000000;2.566234
2782.000000;2.278453
2781.000000;2.105967
2780.000000;2.098463
2779.000000;2.248339
2778.000000;2.581457
2777.000000;3.406592
2776.000000;2.879478
2775.000000;2.503122
2774.000000;2.336081
2773.000000;2.299481
2772.000000;2.389401
2771.000000;2.582754
2770.000000;2.675156
2769.000000;2.580237
2768.000000;2.512337
2767.000000;2.429003
2766.000000;2.300785
2765.000000;2.175524
2764.000000;2.110990
2763.000000;2.138118
2762.000000;2.294391
2761.000000;2.425596
2760.000000;2.284428
2759.000000;2.180213
2758.000000;2.166578
2757.000000;2.221276
2756.000000;2.344722
2755.000000;2.518855
2754.000000;2.590653
2753.000000;2.407936
2752.000000;2.207538
2751.000000;2.119048
2750.000000;2.148551
2749.000000;2.272056
2748.000000;2.314789
2747.000000;2.280420
2746.000000;2.345211
2745.000000;2.503923
2744.000000;2.635786
2743.000000;2.677192
2742.000000;2.724789
2741.000000;2.658159
2740.000000;2.397442
2739.000000;2.241958
2738.000000;2.245734
2737.000000;2.463283
2736.000000;2.548953
2735.000000;2.270339
2734.000000;2.216997
2733.000000;2.240286
2732.000000;2.189215
2731.000000;2.082483
2730.000000;2.021978
2729.000000;2.011134
2728.000000;2.012700
2727.000000;2.005664
2726.000000;2.045170
2725.000000;2.224239
2724.000000;2.370390
2723.000000;2.241415
2722.000000;2.257950
2721.000000;2.468629
2720.000000;2.345402
2719.000000;2.227178
2718.000000;2.324381
2717.000000;2.999644
2716.000000;2.457354
2715.000000;2.213141
2714.000000;2.190522
2713.000000;2.331080
2712.000000;2.567939
2711.000000;2.519961
2710.000000;2.343683
2709.000000;2.319264
2708.000000;2.507892
2707.000000;3.061734
2706.000000;3.105820
2705.000000;2.668844
2704.000000;2.441948
2703.000000;2.314918
2702.000000;2.274049
2701.000000;2.318400
2700.000000;2.280175
2699.000000;2.134111
2698.000000;2.048993
2697.000000;2.047473
2696.000000;2.128261
2695.000000;2.293110
2694.000000;2.492665
2693.000000;2.555753
2692.000000;2.450971
2691.000000;2.341326
2690.000000;2.259269
2689.000000;2.166865
2688.000000;2.110702
2687.000000;2.172987
2686.000000;2.483610
2685.000000;2.840423
2684.000000;2.770334
2683.000000;2.801381
2682.000000;2.242902
2681.000000;2.222567
2680.000000;2.436134
2679.000000;2.311163
2678.000000;2.070884
2677.000000;2.085023
2676.000000;2.243788
2675.000000;2.314040
2674.000000;2.255579
2673.000000;2.342073
2672.000000;2.142073
2671.000000;1.957855
2670.000000;1.968120
2669.000000;2.136938
2668.000000;2.337219
2667.000000;2.506406
2666.000000;2.521629
2665.000000;2.214974
2664.000000;2.139394
2663.000000;2.240459
2662.000000;2.324506
2661.000000;2.382617
2660.000000;2.731404
2659.000000;2.678547
2658.000000;2.365809
2657.000000;2.490410
2656.000000;2.739472
2655.000000;2.359030
2654.000000;2.183217
2653.000000;2.228965
2652.000000;2.485351
2651.000000;2.427555
2650.000000;2.237758
2649.000000;2.233512
2648.000000;2.230784
2647.000000;2.277054
2646.000000;2.407746
2645.000000;2.789578
2644.000000;2.707906
2643.000000;2.387761
2642.000000;2.195414
2641.000000;2.033870
2640.000000;1.944091
2639.000000;1.939749
2638.000000;2.013988
2637.000000;2.152121
2636.000000;2.248679
2635.000000;2.192212
2634.000000;2.178286
2633.000000;2.243084
2632.000000;2.337607
2631.000000;2.468463
2630.000000;2.435571
2629.000000;2.248835
2628.000000;2.195618
2627.000000;2.298308
2626.000000;2.539379
2625.000000;3.082443
2624.000000;3.085632
2623.000000;2.628206
2622.000000;3.077090
2621.000000;2.634361
2620.000000;2.204524
2619.000000;2.103504
2618.000000;2.099730
2617.000000;2.160357
2616.000000;2.251812
2615.000000;2.357779
2614.000000;2.320947
2613.000000;2.171696
2612.000000;2.150570
2611.000000;2.340021
2610.000000;2.992266
2609.000000;2.400628
2608.000000;2.248322
2607.000000;2.246456
2606.000000;2.278222
2605.000000;2.325780
2604.000000;2.564690
2603.000000;3.180639
2602.000000;2.970359
2601.000000;2.898565
2600.000000;2.917191
2599.000000;3.044078
2598.000000;2.773151
2597.000000;2.450391
2596.000000;2.415930
2595.000000;2.574094
2594.000000;2.492471
2593.000000;2.271143
2592.000000;2.232996
2591.000000;2.317248
2590.000000;2.442413
2589.000000;2.504792
2588.000000;2.401978
2587.000000;2.261518
2586.000000;2.161166
2585.000000;2.118393
2584.000000;2.128013
2583.000000;2.175128
2582.000000;2.288556
2581.000000;2.333661
2580.000000;2.172081
2579.000000;2.093071
2578.000000;2.122320
2577.000000;2.240532
2576.000000;2.429768
2575.000000;2.478476
2574.000000;2.302134
2573.000000;2.205986
2572.000000;2.212130
2571.000000;2.323450
2570.000000;2.642007
2569.000000;3.170780
2568.000000;2.785867
2567.000000;2.580188
2566.000000;2.684456
2565.000000;2.870015
2564.000000;2.750039
2563.000000;2.573742
2562.000000;2.334377
2561.000000;2.202703
2560.000000;2.186609
2559.000000;2.187400
2558.000000;2.180043
2557.000000;2.255561
2556.000000;2.428753
2555.000000;2.305694
2554.000000;2.209215
2553.000000;2.278546
2552.000000;2.509477
2551.000000;2.749910
2550.000000;2.606684
2549.000000;2.491582
2548.000000;2.391991
2547.000000;2.277256
2546.000000;2.177995
2545.000000;2.152466
2544.000000;2.217084
2543.000000;2.414663
2542.000000;2.426398
2541.000000;2.182625
2540.000000;2.070680
2539.000000;2.083738
2538.000000;2.208280
2537.000000;2.425555
2536.000000;2.715410
2535.000000;2.721710
2534.000000;2.511435
2533.000000;2.363468
2532.000000;2.294657
2531.000000;2.294429
2530.000000;2.321389
2529.000000;2.296227
2528.000000;2.235155
2527.000000;2.237549
2526.000000;2.371995
2525.000000;2.609814
2524.000000;2.433599
2523.000000;2.243304
2522.000000;2.201053
2521.000000;2.232821
2520.000000;2.256587
2519.000000;2.215368
2518.000000;2.126626
2517.000000;2.039571
2516.000000;1.986078
2515.000000;1.961957
2514.000000;1.942992
2513.000000;1.944500
2512.000000;2.015965
2511.000000;2.200015
2510.000000;2.371266
2509.000000;2.235113
2508.000000;2.080098
2507.000000;2.026627
2506.000000;2.089828
2505.000000;2.307073
2504.000000;2.666614
2503.000000;2.448131
2502.000000;2.429935
2501.000000;2.764041
2500.000000;2.311985
2499.000000;2.170560
2498.000000;2.205986
2497.000000;2.209966
2496.000000;2.146516
2495.000000;2.147690
2494.000000;2.256755
2493.000000;2.703301
2492.000000;2.661798
2491.000000;2.277186
2490.000000;2.442662
2489.000000;2.846183
2488.000000;2.713680
2487.000000;2.554338
2486.000000;2.690295
2485.000000;2.715833
2484.000000;2.410859
2483.000000;2.165251
2482.000000;2.039116
2481.000000;2.016738
2480.000000;2.135674
2479.000000;2.442987
2478.000000;2.675853
2477.000000;2.746246
2476.000000;2.902758
2475.000000;2.762872
2474.000000;2.592685
2473.000000;2.594562
2472.000000;2.700277
2471.000000;2.565517
2470.000000;2.624699
2469.000000;2.518922
2468.000000;2.258347
2467.000000;2.301959
2466.000000;2.714309
2465.000000;3.244146
2464.000000;3.169117
2463.000000;3.122810
2462.000000;2.695173
2461.000000;2.602812
2460.000000;2.693158
2459.000000;2.869632
2458.000000;2.616578
2457.000000;2.966256
2456.000000;2.502942
2455.000000;2.089716
2454.000000;1.951406
2453.000000;1.957072
2452.000000;2.081389
2451.000000;2.164063
2450.000000;2.054676
2449.000000;1.942855
2448.000000;1.903533
2447.000000;1.921444
2446.000000;1.967819
2445.000000;2.018098
2444.000000;2.042884
2443.000000;2.022870
2442.000000;1.965936
2441.000000;1.914635
2440.000000;1.914978
2439.000000;1.953421
2438.000000;1.987860
2437.000000;2.057042
2436.000000;2.251656
2435.000000;2.267449
2434.000000;2.115626
2433.000000;2.142467
2432.000000;2.310101
2431.000000;2.470975
2430.000000;2.423935
2429.000000;2.257188
2428.000000;2.114559
2427.000000;2.071179
2426.000000;2.094262
2425.000000;2.159987
2424.000000;2.285602
2423.000000;2.931130
2422.000000;2.435831
2421.000000;2.163245
2420.000000;2.177921
2419.000000;2.337114
2418.000000;2.382174
2417.000000;2.412225
2416.000000;2.217806
2415.000000;2.011188
2414.000000;1.969157
2413.000000;2.061838
2412.000000;2.270509
2411.000000;2.254813
2410.000000;2.128999
2409.000000;2.171336
2408.000000;2.359265
2407.000000;2.642592
2406.000000;2.317126
2405.000000;2.050571
2404.000000;2.012183
2403.000000;2.194703
2402.000000;2.594243
2401.000000;2.310806
2400.000000;2.151205
2399.000000;2.108891
2398.000000;2.116779
2397.000000;2.162054
2396.000000;2.152930
2395.000000;2.258058
2394.000000;2.470039
2393.000000;2.338829
2392.000000;2.555945
2391.000000;2.362703
2390.000000;1.943645
2389.000000;1.910711
2388.000000;2.070781
2387.000000;2.150070
2386.000000;2.213543
2385.000000;2.321944
2384.000000;2.013201
2383.000000;2.061669
2382.000000;2.246661
2381.000000;1.811911
2380.000000;1.630836
2379.000000;1.690009
2378.000000;2.398126
2377.000000;2.160097
2376.000000;1.794269
2375.000000;1.842668
2374.000000;1.937937
2373.000000;2.031053
2372.000000;2.438353
2371.000000;2.045767
2370.000000;1.609348
2369.000000;1.509384
2368.000000;1.657200
2367.000000;2.303578
2366.000000;1.990178
2365.000000;1.742660
2364.000000;1.826613
2363.000000;2.305746
2362.000000;1.869009
2361.000000;2.429959
2360.000000;2.667372
2359.000000;2.473057
2358.000000;2.106605
2357.000000;1.565674
2356.000000;1.659434
2355.000000;1.645565
2354.000000;1.662270
2353.000000;1.788880
2352.000000;2.107321
2351.000000;2.202527
2350.000000;1.834904
2349.000000;1.720809
2348.000000;1.734441
2347.000000;1.809847
2346.000000;1.967153
2345.000000;2.117030
2344.000000;1.889664
2343.000000;1.659745
2342.000000;1.591101
2341.000000;1.692195
2340.000000;1.984391
2339.000000;1.921718
2338.000000;1.718151
2337.000000;1.687085
2336.000000;1.962731
2335.000000;2.581364
2334.000000;1.763973
2333.000000;1.674759
2332.000000;1.684104
2331.000000;1.752313
2330.000000;1.832920
2329.000000;1.976864
2328.000000;1.915216
2327.000000;1.791776
2326.000000;1.845381
2325.000000;2.176677
2324.000000;2.040446
2323.000000;1.783077
2322.000000;1.763026
2321.000000;1.892199
2320.000000;1.961313
2319.000000;1.890078
2318.000000;1.869040
2317.000000;2.878865
2316.000000;1.806456
2315.000000;1.538609
2314.000000;1.559485
2313.000000;1.701836
2312.000000;1.746041
2311.000000;2.066688
2310.000000;1.919787
2309.000000;1.535666
2308.000000;1.527847
2307.000000;1.638908
2306.000000;1.745780
2305.000000;1.811666
2304.000000;1.981409
2303.000000;2.136237
2302.000000;1.939052
2301.000000;1.848868
2300.000000;2.028484
2299.000000;2.117705
2298.000000;1.966948
2297.000000;1.949628
2296.000000;2.012596
2295.000000;2.082472
2294.000000;2.096322
2293.000000;2.067405
2292.000000;2.058866
2291.000000;2.122452
2290.000000;2.188656
2289.000000;2.118291
2288.000000;2.012147
2287.000000;1.976497
2286.000000;2.055323
2285.000000;2.222044
2284.000000;2.355736
2283.000000;2.509994
2282.000000;2.921818
2281.000000;2.686897
2280.000000;2.272097
2279.000000;2.104548
2278.000000;2.083769
2277.000000;2.187339
2276.000000;2.449379
2275.000000;2.624048
2274.000000;2.254908
2273.000000;2.014792
2272.000000;1.947108
2271.000000;2.034869
2270.000000;2.222979
2269.000000;2.118286
2268.000000;1.996719
2267.000000;2.060509
2266.000000;2.307115
2265.000000;2.565880
2264.000000;2.462366
2263.000000;2.362338
2262.000000;2.375579
2261.000000;2.543499
2260.000000;2.645150
2259.000000;2.680906
2258.000000;2.482569
2257.000000;2.272992
2256.000000;2.301813
2255.000000;2.609968
2254.000000;2.440681
2253.000000;2.149586
2252.000000;2.099866
2251.000000;2.146118
2250.000000;2.285104
2249.000000;2.427349
2248.000000;2.356778
2247.000000;2.481975
2246.000000;2.562437
2245.000000;2.321681
2244.000000;2.193557
2243.000000;2.130488
2242.000000;2.201861
2241.000000;2.751743
2240.000000;2.693799
2239.000000;2.419678
2238.000000;2.376240
2237.000000;2.335575
2236.000000;2.384081
2235.000000;2.489970
2234.000000;2.328088
2233.000000;2.289803
2232.000000;2.798480
2231.000000;2.343739
2230.000000;2.129766
2229.000000;2.164249
2228.000000;2.248353
2227.000000;2.183227
2226.000000;2.096723
2225.000000;2.115322
2224.000000;2.185580
2223.000000;2.178166
2222.000000;2.116896
2221.000000;2.102084
2220.000000;2.178152
2219.000000;2.305166
2218.000000;2.266709
2217.000000;2.161462
2216.000000;2.150208
2215.000000;2.161765
2214.000000;2.109187
2213.000000;2.055289
2212.000000;1.957977
2211.000000;1.877245
2210.000000;1.893117
2209.000000;1.966593
2208.000000;2.058963
2207.000000;2.159193
2206.000000;2.154486
2205.000000;2.027514
2204.000000;1.932332
2203.000000;1.921923
2202.000000;1.945300
2201.000000;1.900944
2200.000000;1.804580
2199.000000;1.764813
2198.000000;1.829463
2197.000000;2.013714
2196.000000;2.322552
2195.000000;2.791590
2194.000000;3.216489
2193.000000;2.645853
2192.000000;2.324786
2191.000000;2.222706
2190.000000;2.455559
2189.000000;2.282999
2188.000000;2.008585
2187.000000;2.001563
2186.000000;2.163462
2185.000000;2.231105
2184.000000;2.045042
2183.000000;1.902568
2182.000000;1.828191
2181.000000;1.808868
2180.000000;1.847617
2179.000000;1.922449
2178.000000;1.945594
2177.000000;1.879437
2176.000000;1.799681
2175.000000;1.758640
2174.000000;1.775244
2173.000000;1.855429
2172.000000;1.957098
2171.000000;1.992928
2170.000000;1.967277
2169.000000;1.904047
2168.000000;1.854793
2167.000000;1.855616
2166.000000;1.856487
2165.000000;1.831575
2164.000000;1.847437
2163.000000;1.909921
2162.000000;1.884586
2161.000000;1.820124
2160.000000;1.854925
2159.000000;1.986177
2158.000000;2.245193
2157.000000;2.083269
2156.000000;1.851764
2155.000000;1.834221
2154.000000;2.125668
2153.000000;2.228150
2152.000000;1.868716
2151.000000;1.831204
2150.000000;1.965448
2149.000000;2.176287
2148.000000;2.257049
2147.000000;2.158712
2146.000000;1.867164
2145.000000;1.683719
2144.000000;1.661364
2143.000000;1.759100
2142.000000;1.836370
2141.000000;1.836423
2140.000000;1.855683
2139.000000;1.847132
2138.000000;1.843281
2137.000000;1.861704
2136.000000;2.211737
2135.000000;2.190338
2134.000000;1.764906
2133.000000;1.650702
2132.000000;1.710456
2131.000000;1.926616
2130.000000;2.205237
2129.000000;2.218399
2128.000000;2.092159
2127.000000;2.080717
2126.000000;2.212571
2125.000000;2.441783
2124.000000;2.651069
2123.000000;2.718798
2122.000000;2.550222
2121.000000;2.212828
2120.000000;1.960796
2119.000000;1.857650
2118.000000;1.870570
2117.000000;2.242432
2116.000000;2.354376
2115.000000;1.778433
2114.000000;1.708930
2113.000000;1.883485
2112.000000;2.079774
2111.000000;1.821340
2110.000000;1.778047
2109.000000;1.886162
2108.000000;1.973160
2107.000000;2.104296
2106.000000;2.522082
2105.000000;2.101715
2104.000000;1.898304
2103.000000;1.946907
2102.000000;2.117822
2101.000000;2.252687
2100.000000;2.192418
2099.000000;2.146603
2098.000000;2.205431
2097.000000;2.315476
2096.000000;2.268887
2095.000000;2.084322
2094.000000;1.957090
2093.000000;1.956348
2092.000000;2.120922
2091.000000;2.550184
2090.000000;2.812992
2089.000000;2.898711
2088.000000;2.947008
2087.000000;2.494544
2086.000000;2.484577
2085.000000;2.286884
2084.000000;2.090321
2083.000000;2.036422
2082.000000;2.083152
2081.000000;2.079210
2080.000000;1.961500
2079.000000;1.903057
2078.000000;1.983075
2077.000000;2.174405
2076.000000;2.155399
2075.000000;2.105873
2074.000000;2.180244
2073.000000;2.194970
2072.000000;2.090576
2071.000000;2.031472
2070.000000;2.065810
2069.000000;2.015700
2068.000000;1.836866
2067.000000;1.745866
2066.000000;1.767481
2065.000000;1.929472
2064.000000;2.078580
2063.000000;1.910185
2062.000000;1.838017
2061.000000;1.882243
2060.000000;1.953333
2059.000000;2.018360
2058.000000;2.063726
2057.000000;2.030088
2056.000000;1.980452
2055.000000;2.000237
2054.000000;2.162548
2053.000000;2.403467
2052.000000;2.333252
2051.000000;2.340178
2050.000000;2.484793
2049.000000;2.662055
2048.000000;2.382256
2047.000000;2.254523
2046.000000;2.500627
2045.000000;2.812803
2044.000000;2.219307
2043.000000;1.987877
2042.000000;1.896957
2041.000000;1.979660
2040.000000;2.300169
2039.000000;2.618970
2038.000000;2.384210
2037.000000;2.544543
2036.000000;2.815999
2035.000000;2.307672
2034.000000;2.105515
2033.000000;2.142505
2032.000000;2.632023
2031.000000;2.543595
2030.000000;2.118946
2029.000000;2.105352
2028.000000;2.077452
2027.000000;1.933987
2026.000000;1.804536
2025.000000;1.770709
2024.000000;1.802674
2023.000000;1.832588
2022.000000;1.799213
2021.000000;1.780063
2020.000000;1.828771
2019.000000;1.917199
2018.000000;1.945040
2017.000000;1.894518
2016.000000;1.893000
2015.000000;1.983318
2014.000000;2.101107
2013.000000;2.145186
2012.000000;2.169976
2011.000000;2.176853
2010.000000;2.153367
2009.000000;2.255121
2008.000000;2.500785
2007.000000;2.875295
2006.000000;2.952647
2005.000000;2.345047
2004.000000;2.132032
2003.000000;2.230668
2002.000000;2.387189
2001.000000;2.135571
2000.000000;1.978569
1999.000000;1.989495
1998.000000;2.114451
1997.000000;2.283051
1996.000000;2.321957
1995.000000;2.297476
1994.000000;2.389081
1993.000000;2.527534
1992.000000;2.321880
1991.000000;2.108021
1990.000000;2.036017
1989.000000;2.072810
1988.000000;2.159718
1987.000000;2.276758
1986.000000;2.446682
1985.000000;2.759047
1984.000000;2.819659
1983.000000;2.271224
1982.000000;1.939542
1981.000000;1.818207
1980.000000;1.810501
1979.000000;1.850802
1978.000000;1.962325
1977.000000;2.208878
1976.000000;2.535423
1975.000000;2.332463
1974.000000;2.084462
1973.000000;2.030844
1972.000000;2.099332
1971.000000;2.156886
1970.000000;2.409655
1969.000000;2.077366
1968.000000;1.897445
1967.000000;2.050491
1966.000000;2.377036
1965.000000;2.131602
1964.000000;2.007153
1963.000000;2.037321
1962.000000;2.384408
1961.000000;2.162232
1960.000000;1.847326
1959.000000;1.788119
1958.000000;1.837674
1957.000000;1.947116
1956.000000;2.057135
1955.000000;2.082018
1954.000000;2.095303
1953.000000;2.202827
1952.000000;2.454920
1951.000000;2.443622
1950.000000;2.170289
1949.000000;2.118262
1948.000000;2.265921
1947.000000;2.902856
1946.000000;2.545422
1945.000000;2.357142
1944.000000;2.632964
1943.000000;2.289799
1942.000000;2.025085
1941.000000;1.915562
1940.000000;1.907447
1939.000000;2.017361
1938.000000;2.200500
1937.000000;2.118951
1936.000000;2.043300
1935.000000;2.096718
1934.000000;2.196047
1933.000000;2.225701
1932.000000;2.292825
1931.000000;2.433313
1930.000000;2.253797
1929.000000;2.036876
1928.000000;1.985637
1927.000000;2.091666
1926.000000;2.244420
1925.000000;2.154515
1924.000000;1.999253
1923.000000;1.950321
1922.000000;2.124039
1921.000000;2.667567
1920.000000;2.340346
1919.000000;2.156890
1918.000000;2.183715
1917.000000;2.228333
1916.000000;2.666788
1915.000000;2.802777
1914.000000;2.547730
1913.000000;2.676543
1912.000000;2.538335
1911.000000;2.166057
1910.000000;1.914526
1909.000000;1.819670
1908.000000;1.823370
1907.000000;1.829178
1906.000000;1.842981
1905.000000;1.885925
1904.000000;1.870078
1903.000000;1.838895
1902.000000;1.901156
1901.000000;2.012678
1900.000000;2.049284
1899.000000;2.089552
1898.000000;1.968972
1897.000000;1.773382
1896.000000;1.719404
1895.000000;1.764746
1894.000000;1.746745
1893.000000;1.667396
1892.000000;1.661688
1891.000000;1.752726
1890.000000;1.938450
1889.000000;2.033246
1888.000000;2.028788
1887.000000;2.039143
1886.000000;1.924198
1885.000000;1.867257
1884.000000;1.965141
1883.000000;2.168696
1882.000000;2.004107
1881.000000;1.790665
1880.000000;1.698392
1879.000000;1.717041
1878.000000;1.786967
1877.000000;1.789731
1876.000000;1.753406
1875.000000;1.761957
1874.000000;1.790411
1873.000000;1.790715
1872.000000;1.813971
1871.000000;1.893871
1870.000000;1.966680
1869.000000;1.925580
1868.000000;1.842141
1867.000000;1.854388
1866.000000;1.977278
1865.000000;2.141000
1864.000000;2.286487
1863.000000;2.543105
1862.000000;2.607662
1861.000000;2.530278
1860.000000;2.551824
1859.000000;2.504701
1858.000000;2.433031
1857.000000;2.313671
1856.000000;2.268902
1855.000000;2.452032
1854.000000;2.431023
1853.000000;2.120865
1852.000000;2.069361
1851.000000;2.162462
1850.000000;2.278415
1849.000000;2.392897
1848.000000;2.488027
1847.000000;2.063611
1846.000000;1.751918
1845.000000;1.625460
1844.000000;1.622110
1843.000000;1.720754
1842.000000;1.759388
1841.000000;1.644477
1840.000000;1.571269
1839.000000;1.595359
1838.000000;1.723057
1837.000000;1.974403
1836.000000;2.070062
1835.000000;1.955254
1834.000000;1.940836
1833.000000;2.060894
1832.000000;2.645601
1831.000000;2.424979
1830.000000;2.222065
1829.000000;2.661052
1828.000000;2.293838
1827.000000;1.978044
1826.000000;1.917570
1825.000000;1.945821
1824.000000;2.047936
1823.000000;2.145959
1822.000000;2.102429
1821.000000;2.054112
1820.000000;2.010591
1819.000000;1.948795
1818.000000;1.917207
1817.000000;1.921068
1816.000000;1.884276
1815.000000;1.845510
1814.000000;1.922844
1813.000000;2.004259
1812.000000;1.881767
1811.000000;1.822655
1810.000000;1.939301
1809.000000;2.142962
1808.000000;1.979661
1807.000000;1.810821
1806.000000;1.783679
1805.000000;1.851152
1804.000000;1.982687
1803.000000;1.935032
1802.000000;1.690645
1801.000000;1.557976
1800.000000;1.558506
1799.000000;1.669842
1798.000000;1.826049
1797.000000;1.808099
1796.000000;1.695056
1795.000000;1.705200
1794.000000;1.839759
1793.000000;1.988862
1792.000000;2.064515
1791.000000;2.045721
1790.000000;1.904334
1789.000000;1.830001
1788.000000;1.847015
1787.000000;1.936237
1786.000000;2.100384
1785.000000;2.282530
1784.000000;2.285255
1783.000000;2.136999
1782.000000;2.011421
1781.000000;1.974814
1780.000000;1.936090
1779.000000;1.842343
1778.000000;1.847643
1777.000000;2.025073
1776.000000;2.388691
1775.000000;2.839472
1774.000000;2.644539
1773.000000;2.259710
1772.000000;2.238694
1771.000000;2.202761
1770.000000;2.318299
1769.000000;2.500581
1768.000000;2.050203
1767.000000;1.996556
1766.000000;2.066487
1765.000000;2.049477
1764.000000;1.856443
1763.000000;1.771065
1762.000000;1.816291
1761.000000;2.055136
1760.000000;2.549196
1759.000000;2.074333
1758.000000;1.850063
1757.000000;1.870373
1756.000000;2.269653
1755.000000;2.205284
1754.000000;1.786335
1753.000000;1.652653
1752.000000;1.637016
1751.000000;1.667106
1750.000000;1.669811
1749.000000;1.627345
1748.000000;1.576149
1747.000000;1.550360
1746.000000;1.580196
1745.000000;1.690746
1744.000000;1.985178
1743.000000;2.619870
1742.000000;2.238897
1741.000000;2.232416
1740.000000;2.535107
1739.000000;3.039003
1738.000000;2.855253
1737.000000;2.344052
1736.000000;2.391692
1735.000000;2.459543
1734.000000;1.985856
1733.000000;1.777694
1732.000000;1.769196
1731.000000;1.963196
1730.000000;2.052389
1729.000000;1.781312
1728.000000;1.705545
1727.000000;1.836479
1726.000000;2.167538
1725.000000;2.856989
1724.000000;2.222166
1723.000000;2.048707
1722.000000;2.287918
1721.000000;2.297593
1720.000000;1.895367
1719.000000;1.811132
1718.000000;1.794248
1717.000000;1.785147
1716.000000;1.765321
1715.000000;1.802516
1714.000000;1.937641
1713.000000;2.417196
1712.000000;2.994588
1711.000000;2.275417
1710.000000;2.091337
1709.000000;1.864292
1708.000000;1.688525
1707.000000;1.561759
1706.000000;1.502599
1705.000000;1.508079
1704.000000;1.548581
1703.000000;1.549056
1702.000000;1.540544
1701.000000;1.551296
1700.000000;1.536410
1699.000000;1.574807
1698.000000;1.832631
1697.000000;2.682606
1696.000000;1.919049
1695.000000;1.664214
1694.000000;1.542968
1693.000000;1.550477
1692.000000;1.661428
1691.000000;1.957222
1690.000000;2.624147
1689.000000;1.868885
1688.000000;1.789988
1687.000000;1.901623
1686.000000;2.053533
1685.000000;1.933327
1684.000000;1.720341
1683.000000;1.568121
1682.000000;1.537322
1681.000000;1.578171
1680.000000;1.592783
1679.000000;1.570735
1678.000000;1.613151
1677.000000;1.781140
1676.000000;2.177846
1675.000000;2.272340
1674.000000;2.085849
1673.000000;2.116788
1672.000000;2.314238
1671.000000;2.085122
1670.000000;1.878715
1669.000000;1.773941
1668.000000;1.732599
1667.000000;1.787161
1666.000000;1.907480
1665.000000;1.911113
1664.000000;1.807249
1663.000000;1.733320
1662.000000;1.730080
1661.000000;1.833262
1660.000000;2.021420
1659.000000;2.290619
1658.000000;2.229161
1657.000000;1.917676
1656.000000;1.877394
1655.000000;2.084345
1654.000000;2.125890
1653.000000;1.984494
1652.000000;1.954742
1651.000000;2.654592
1650.000000;2.219808
1649.000000;1.792785
1648.000000;1.822877
1647.000000;1.917595
1646.000000;2.804511
1645.000000;2.130680
1644.000000;1.788285
1643.000000;1.706236
1642.000000;1.698677
1641.000000;1.753371
1640.000000;1.963440
1639.000000;2.193152
1638.000000;1.888822
1637.000000;1.810479
1636.000000;1.834350
1635.000000;1.892042
1634.000000;1.922196
1633.000000;1.950174
1632.000000;2.032003
1631.000000;2.262673
1630.000000;2.701722
1629.000000;2.558375
1628.000000;2.253487
1627.000000;2.192160
1626.000000;2.511461
1625.000000;2.809469
1624.000000;2.367069
1623.000000;2.141365
1622.000000;1.987199
1621.000000;1.843464
1620.000000;1.793224
1619.000000;1.981416
1618.000000;2.292469
1617.000000;1.893690
1616.000000;1.704630
1615.000000;1.652130
1614.000000;1.683408
1613.000000;1.774603
1612.000000;1.886868
1611.000000;1.946691
1610.000000;1.871734
1609.000000;1.786388
1608.000000;1.787139
1607.000000;1.831880
1606.000000;1.827654
1605.000000;1.867487
1604.000000;1.975669
1603.000000;1.963714
1602.000000;1.933656
1601.000000;1.951091
1600.000000;1.931533
1599.000000;1.878917
1598.000000;1.823105
1597.000000;1.782993
1596.000000;1.760691
1595.000000;1.771136
1594.000000;1.825061
1593.000000;1.814811
1592.000000;1.744332
1591.000000;1.708006
1590.000000;1.712415
1589.000000;1.769597
1588.000000;1.891626
1587.000000;1.946887
1586.000000;1.879989
1585.000000;1.837994
1584.000000;1.858119
1583.000000;2.020517
1582.000000;2.346818
1581.000000;2.338277
1580.000000;2.086996
1579.000000;1.896927
1578.000000;1.832299
1577.000000;1.878303
1576.000000;1.967286
1575.000000;1.972934
1574.000000;1.862543
1573.000000;1.788352
1572.000000;1.813312
1571.000000;1.933763
1570.000000;1.996638
1569.000000;1.888919
1568.000000;1.822393
1567.000000;1.902124
1566.000000;2.147736
1565.000000;2.549301
1564.000000;1.923533
1563.000000;1.680189
1562.000000;1.699659
1561.000000;1.900479
1560.000000;2.147200
1559.000000;2.036846
1558.000000;1.709638
1557.000000;1.531161
1556.000000;1.500332
1555.000000;1.611375
1554.000000;1.811683
1553.000000;1.950465
1552.000000;1.970620
1551.000000;2.206832
1550.000000;2.472620
1549.000000;1.970301
1548.000000;1.741696
1547.000000;1.696764
1546.000000;1.741300
1545.000000;1.766340
1544.000000;1.751483
1543.000000;1.781635
1542.000000;1.769674
1541.000000;1.686588
1540.000000;1.601893
1539.000000;1.522583
1538.000000;1.475347
1537.000000;1.439648
1536.000000;1.384333
1535.000000;1.356387
1534.000000;1.367145
1533.000000;1.386963
1532.000000;1.373481
1531.000000;1.335112
1530.000000;1.312361
1529.000000;1.304785
1528.000000;1.310083
1527.000000;1.322823
1526.000000;1.316252
1525.000000;1.286721
1524.000000;1.263208
1523.000000;1.255453
1522.000000;1.246900
1521.000000;1.234125
1520.000000;1.243191
1519.000000;1.278642
1518.000000;1.302239
1517.000000;1.294536
1516.000000;1.300408
1515.000000;1.366868
1514.000000;1.501253
1513.000000;1.701457
1512.000000;1.833973
1511.000000;1.589721
1510.000000;1.406928
1509.000000;1.403985
1508.000000;1.567607
1507.000000;1.886656
1506.000000;2.097355
1505.000000;1.984555
1504.000000;1.909027
1503.000000;1.953163
1502.000000;1.891830
1501.000000;1.737255
1500.000000;1.629789
1499.000000;1.524522
1498.000000;1.444481
1497.000000;1.427379
1496.000000;1.438908
1495.000000;1.432286
1494.000000;1.451901
1493.000000;1.518346
1492.000000;1.577583
1491.000000;1.477401
1490.000000;1.287408
1489.000000;1.220670
1488.000000;1.329547
1487.000000;1.522449
1486.000000;1.551262
1485.000000;1.478379
1484.000000;1.478545
1483.000000;1.604081
1482.000000;1.827750
1481.000000;1.851117
1480.000000;1.816866
1479.000000;1.777020
1478.000000;1.689236
1477.000000;1.680796
1476.000000;1.944746
1475.000000;2.612188
1474.000000;1.737514
1473.000000;1.673605
1472.000000;1.727641
1471.000000;1.900895
1470.000000;2.018354
1469.000000;2.037366
1468.000000;1.969958
1467.000000;1.793835
1466.000000;1.651602
1465.000000;1.595784
1464.000000;1.730922
1463.000000;1.819023
1462.000000;1.628596
1461.000000;1.608708
1460.000000;1.770245
1459.000000;1.788247
1458.000000;1.859201
1457.000000;2.198006
1456.000000;1.568319
1455.000000;1.426612
1454.000000;1.568028
1453.000000;2.216683
1452.000000;1.969362
1451.000000;1.771241
1450.000000;1.833464
1449.000000;1.979398
1448.000000;1.889644
1447.000000;1.774065
1446.000000;1.984392
1445.000000;2.512669
1444.000000;1.927698
1443.000000;1.820850
1442.000000;1.908224
1441.000000;2.048207
1440.000000;1.987839
1439.000000;1.849877
1438.000000;1.800317
1437.000000;1.832109
1436.000000;1.838046
1435.000000;1.771452
1434.000000;1.718615
1433.000000;1.712577
1432.000000;1.700290
1431.000000;1.650899
1430.000000;1.592244
1429.000000;1.539092
1428.000000;1.485425
1427.000000;1.436406
1426.000000;1.406831
1425.000000;1.394807
1424.000000;1.409883
1423.000000;1.483229
1422.000000;1.632647
1421.000000;1.733027
1420.000000;1.654278
1419.000000;1.594347
1418.000000;1.535904
1417.000000;1.482088
1416.000000;1.526331
1415.000000;1.635798
1414.000000;1.720780
1413.000000;1.657053
1412.000000;1.522164
1411.000000;1.466451
1410.000000;1.505738
1409.000000;1.586636
1408.000000;1.623927
1407.000000;1.636467
1406.000000;1.692035
1405.000000;1.775962
1404.000000;1.895386
1403.000000;1.950550
1402.000000;1.855027
1401.000000;1.726246
1400.000000;1.699088
1399.000000;1.837733
1398.000000;1.671850
1397.000000;1.426394
1396.000000;1.338101
1395.000000;1.371303
1394.000000;1.506790
1393.000000;1.595305
1392.000000;1.566605
1391.000000;1.549889
1390.000000;1.506661
1389.000000;1.457470
1388.000000;1.487061
1387.000000;1.646043
1386.000000;1.834632
1385.000000;1.797889
1384.000000;1.760755
1383.000000;1.807000
1382.000000;2.233430
1381.000000;2.261761
1380.000000;1.870321
1379.000000;1.803145
1378.000000;2.151542
1377.000000;1.946241
1376.000000;1.539771
1375.000000;1.420721
1374.000000;1.510011
1373.000000;1.887846
1372.000000;1.873739
1371.000000;1.610550
1370.000000;1.499138
1369.000000;1.467221
1368.000000;1.534802
1367.000000;1.753222
1366.000000;1.837720
1365.000000;1.593804
1364.000000;1.480080
1363.000000;1.471849
1362.000000;1.590718
1361.000000;1.812627
1360.000000;2.074376
1359.000000;2.198231
1358.000000;2.130054
1357.000000;2.369736
1356.000000;2.309212
1355.000000;1.975842
1354.000000;1.919644
1353.000000;2.009887
1352.000000;2.288458
1351.000000;2.390984
1350.000000;1.970258
1349.000000;1.678497
1348.000000;1.554794
1347.000000;1.512854
1346.000000;1.495210
1345.000000;1.526464
1344.000000;1.618686
1343.000000;1.533712
1342.000000;1.355328
1341.000000;1.274988
1340.000000;1.290641
1339.000000;1.413617
1338.000000;1.604074
1337.000000;1.625189
1336.000000;1.553124
1335.000000;1.532492
1334.000000;1.543609
1333.000000;1.591973
1332.000000;1.646965
1331.000000;1.651372
1330.000000;1.628952
1329.000000;1.624901
1328.000000;1.629582
1327.000000;1.634018
1326.000000;1.643156
1325.000000;1.671303
1324.000000;1.634050
1323.000000;1.487221
1322.000000;1.396133
1321.000000;1.403651
1320.000000;1.453365
1319.000000;1.459838
1318.000000;1.430032
1317.000000;1.422526
1316.000000;1.445319
1315.000000;1.514153
1314.000000;1.664785
1313.000000;1.931786
1312.000000;1.942583
1311.000000;1.713616
1310.000000;1.724725
1309.000000;2.093666
1308.000000;2.438611
1307.000000;1.966255
1306.000000;2.240571
1305.000000;2.434504
1304.000000;1.890804
1303.000000;1.594308
1302.000000;1.468273
1301.000000;1.483047
1300.000000;1.631613
1299.000000;1.664782
1298.000000;1.506521
1297.000000;1.413192
1296.000000;1.458987
1295.000000;1.669315
1294.000000;2.144342
1293.000000;1.840694
1292.000000;1.556228
1291.000000;1.498128
1290.000000;1.693005
1289.000000;2.629212
1288.000000;1.831662
1287.000000;1.709647
1286.000000;1.717761
1285.000000;1.985469
1284.000000;2.275495
1283.000000;1.830598
1282.000000;1.708357
1281.000000;1.629507
1280.000000;1.561889
1279.000000;1.502867
1278.000000;1.458067
1277.000000;1.428427
1276.000000;1.443712
1275.000000;1.518931
1274.000000;1.563545
1273.000000;1.526653
1272.000000;1.493015
1271.000000;1.486412
1270.000000;1.488570
1269.000000;1.496750
1268.000000;1.527261
1267.000000;1.534899
1266.000000;1.481758
1265.000000;1.432447
1264.000000;1.418988
1263.000000;1.399773
1262.000000;1.369087
1261.000000;1.376753
1260.000000;1.460187
1259.000000;1.628945
1258.000000;1.726764
1257.000000;1.617177
1256.000000;1.524331
1255.000000;1.508895
1254.000000;1.607185
1253.000000;1.843324
1252.000000;2.374559
1251.000000;2.001377
1250.000000;1.616420
1249.000000;1.592948
1248.000000;1.787890
1247.000000;2.369151
1246.000000;2.218256
1245.000000;2.047125
1244.000000;2.132839
1243.000000;1.873611
1242.000000;1.662942
1241.000000;1.571143
1240.000000;1.557818
1239.000000;1.587841
1238.000000;1.646065
1237.000000;1.673202
1236.000000;1.622609
1235.000000;1.552303
1234.000000;1.453308
1233.000000;1.360854
1232.000000;1.346531
1231.000000;1.457118
1230.000000;1.660467
1229.000000;1.648043
1228.000000;1.499243
1227.000000;1.471781
1226.000000;1.545311
1225.000000;1.656126
1224.000000;1.754979
1223.000000;1.880309
1222.000000;2.218525
1221.000000;2.660098
1220.000000;2.395718
1219.000000;2.077245
1218.000000;1.854463
1217.000000;1.718594
1216.000000;1.585180
1215.000000;1.467401
1214.000000;1.416665
1213.000000;1.458976
1212.000000;1.585824
1211.000000;1.630341
1210.000000;1.460455
1209.000000;1.321803
1208.000000;1.277711
1207.000000;1.319276
1206.000000;1.396720
1205.000000;1.411057
1204.000000;1.345426
1203.000000;1.276689
1202.000000;1.252591
1201.000000;1.290819
1200.000000;1.353864
