Criado como novo conjunto de dados;"2706_e01_daniel.spp","65165.2 Secs"
cm-1;Abs
10000.000000;0.716555
9999.000000;0.716954
9998.000000;0.717345
9997.000000;0.717750
9996.000000;0.718130
9995.000000;0.718564
9994.000000;0.718828
9993.000000;0.718309
9992.000000;0.717298
9991.000000;0.716452
9990.000000;0.716158
9989.000000;0.716285
9988.000000;0.716646
9987.000000;0.717135
9986.000000;0.717479
9985.000000;0.717332
9984.000000;0.716782
9983.000000;0.716372
9982.000000;0.716429
9981.000000;0.716657
9980.000000;0.716588
9979.000000;0.716201
9978.000000;0.715858
9977.000000;0.715821
9976.000000;0.716069
9975.000000;0.716464
9974.000000;0.716859
9973.000000;0.717097
9972.000000;0.717055
9971.000000;0.716701
9970.000000;0.716081
9969.000000;0.715326
9968.000000;0.714694
9967.000000;0.714457
9966.000000;0.714654
9965.000000;0.715027
9964.000000;0.715275
9963.000000;0.715300
9962.000000;0.715185
9961.000000;0.715061
9960.000000;0.715032
9959.000000;0.715080
9958.000000;0.715025
9957.000000;0.714748
9956.000000;0.714493
9955.000000;0.714705
9954.000000;0.715423
9953.000000;0.716056
9952.000000;0.715959
9951.000000;0.715091
9950.000000;0.713923
9949.000000;0.712872
9948.000000;0.712063
9947.000000;0.711528
9946.000000;0.711332
9945.000000;0.711439
9944.000000;0.711657
9943.000000;0.711776
9942.000000;0.711710
9941.000000;0.711509
9940.000000;0.711357
9939.000000;0.711481
9938.000000;0.711953
9937.000000;0.712562
9936.000000;0.712996
9935.000000;0.713130
9934.000000;0.713076
9933.000000;0.712966
9932.000000;0.712815
9931.000000;0.712571
9930.000000;0.712195
9929.000000;0.711693
9928.000000;0.711139
9927.000000;0.710672
9926.000000;0.710417
9925.000000;0.710365
9924.000000;0.710383
9923.000000;0.710319
9922.000000;0.710099
9921.000000;0.709770
9920.000000;0.709493
9919.000000;0.709396
9918.000000;0.709387
9917.000000;0.709178
9916.000000;0.708637
9915.000000;0.708045
9914.000000;0.707864
9913.000000;0.708219
9912.000000;0.708715
9911.000000;0.708824
9910.000000;0.708414
9909.000000;0.707853
9908.000000;0.707603
9907.000000;0.707769
9906.000000;0.708031
9905.000000;0.708022
9904.000000;0.707703
9903.000000;0.707331
9902.000000;0.707121
9901.000000;0.707091
9900.000000;0.707213
9899.000000;0.707528
9898.000000;0.708008
9897.000000;0.708439
9896.000000;0.708590
9895.000000;0.708442
9894.000000;0.708168
9893.000000;0.707945
9892.000000;0.707843
9891.000000;0.707802
9890.000000;0.707632
9889.000000;0.707160
9888.000000;0.706487
9887.000000;0.705967
9886.000000;0.705795
9885.000000;0.705760
9884.000000;0.705573
9883.000000;0.705328
9882.000000;0.705360
9881.000000;0.705721
9880.000000;0.706089
9879.000000;0.706212
9878.000000;0.706179
9877.000000;0.706156
9876.000000;0.706089
9875.000000;0.705830
9874.000000;0.705399
9873.000000;0.704958
9872.000000;0.704639
9871.000000;0.704504
9870.000000;0.704567
9869.000000;0.704719
9868.000000;0.704722
9867.000000;0.704447
9866.000000;0.704088
9865.000000;0.704011
9864.000000;0.704355
9863.000000;0.704869
9862.000000;0.705135
9861.000000;0.704943
9860.000000;0.704448
9859.000000;0.704004
9858.000000;0.703856
9857.000000;0.703947
9856.000000;0.704011
9855.000000;0.703840
9854.000000;0.703470
9853.000000;0.703124
9852.000000;0.703009
9851.000000;0.703154
9850.000000;0.703376
9849.000000;0.703409
9848.000000;0.703116
9847.000000;0.702607
9846.000000;0.702115
9845.000000;0.701807
9844.000000;0.701734
9843.000000;0.701902
9842.000000;0.702244
9841.000000;0.702567
9840.000000;0.702652
9839.000000;0.702463
9838.000000;0.702149
9837.000000;0.701835
9836.000000;0.701548
9835.000000;0.701346
9834.000000;0.701325
9833.000000;0.701416
9832.000000;0.701338
9831.000000;0.700912
9830.000000;0.700325
9829.000000;0.699921
9828.000000;0.699795
9827.000000;0.699752
9826.000000;0.699650
9825.000000;0.699606
9824.000000;0.699817
9823.000000;0.700292
9822.000000;0.700824
9821.000000;0.701187
9820.000000;0.701301
9819.000000;0.701229
9818.000000;0.701025
9817.000000;0.700645
9816.000000;0.700059
9815.000000;0.699447
9814.000000;0.699129
9813.000000;0.699228
9812.000000;0.699518
9811.000000;0.699728
9810.000000;0.699857
9809.000000;0.700036
9808.000000;0.700161
9807.000000;0.699958
9806.000000;0.699388
9805.000000;0.698758
9804.000000;0.698324
9803.000000;0.698008
9802.000000;0.697647
9801.000000;0.697301
9800.000000;0.697157
9799.000000;0.697237
9798.000000;0.697396
9797.000000;0.697520
9796.000000;0.697569
9795.000000;0.697486
9794.000000;0.697269
9793.000000;0.697077
9792.000000;0.697091
9791.000000;0.697265
9790.000000;0.697394
9789.000000;0.697405
9788.000000;0.697382
9787.000000;0.697287
9786.000000;0.696925
9785.000000;0.696279
9784.000000;0.695654
9783.000000;0.695333
9782.000000;0.695270
9781.000000;0.695292
9780.000000;0.695429
9779.000000;0.695811
9778.000000;0.696329
9777.000000;0.696654
9776.000000;0.696559
9775.000000;0.696026
9774.000000;0.695115
9773.000000;0.694016
9772.000000;0.693225
9771.000000;0.693302
9770.000000;0.694273
9769.000000;0.695470
9768.000000;0.696164
9767.000000;0.696210
9766.000000;0.695944
9765.000000;0.695624
9764.000000;0.695238
9763.000000;0.694736
9762.000000;0.694178
9761.000000;0.693656
9760.000000;0.693239
9759.000000;0.692998
9758.000000;0.692939
9757.000000;0.692917
9756.000000;0.692768
9755.000000;0.692539
9754.000000;0.692452
9753.000000;0.692610
9752.000000;0.692872
9751.000000;0.693029
9750.000000;0.693031
9749.000000;0.692992
9748.000000;0.693064
9747.000000;0.693301
9746.000000;0.693581
9745.000000;0.693696
9744.000000;0.693587
9743.000000;0.693456
9742.000000;0.693528
9741.000000;0.693754
9740.000000;0.693886
9739.000000;0.693806
9738.000000;0.693583
9737.000000;0.693244
9736.000000;0.692727
9735.000000;0.692121
9734.000000;0.691707
9733.000000;0.691644
9732.000000;0.691785
9731.000000;0.691936
9730.000000;0.692096
9729.000000;0.692298
9728.000000;0.692364
9727.000000;0.692067
9726.000000;0.691461
9725.000000;0.690868
9724.000000;0.690566
9723.000000;0.690602
9722.000000;0.690879
9721.000000;0.691250
9720.000000;0.691530
9719.000000;0.691572
9718.000000;0.691400
9717.000000;0.691197
9716.000000;0.691140
9715.000000;0.691243
9714.000000;0.691344
9713.000000;0.691199
9712.000000;0.690664
9711.000000;0.689894
9710.000000;0.689301
9709.000000;0.689221
9708.000000;0.689597
9707.000000;0.690046
9706.000000;0.690179
9705.000000;0.689839
9704.000000;0.689121
9703.000000;0.688318
9702.000000;0.687784
9701.000000;0.687689
9700.000000;0.687878
9699.000000;0.688038
9698.000000;0.688023
9697.000000;0.687938
9696.000000;0.687953
9695.000000;0.688132
9694.000000;0.688412
9693.000000;0.688639
9692.000000;0.688665
9691.000000;0.688517
9690.000000;0.688441
9689.000000;0.688618
9688.000000;0.688871
9687.000000;0.688851
9686.000000;0.688525
9685.000000;0.688264
9684.000000;0.688387
9683.000000;0.688773
9682.000000;0.689041
9681.000000;0.688948
9680.000000;0.688502
9679.000000;0.687847
9678.000000;0.687183
9677.000000;0.686729
9676.000000;0.686568
9675.000000;0.686555
9674.000000;0.686481
9673.000000;0.686288
9672.000000;0.686046
9671.000000;0.685783
9670.000000;0.685502
9669.000000;0.685299
9668.000000;0.685304
9667.000000;0.685463
9666.000000;0.685547
9665.000000;0.685429
9664.000000;0.685258
9663.000000;0.685271
9662.000000;0.685501
9661.000000;0.685738
9660.000000;0.685760
9659.000000;0.685564
9658.000000;0.685368
9657.000000;0.685406
9656.000000;0.685683
9655.000000;0.685934
9654.000000;0.685858
9653.000000;0.685410
9652.000000;0.684848
9651.000000;0.684480
9650.000000;0.684385
9649.000000;0.684403
9648.000000;0.684352
9647.000000;0.684227
9646.000000;0.684192
9645.000000;0.684382
9644.000000;0.684727
9643.000000;0.684972
9642.000000;0.684893
9641.000000;0.684509
9640.000000;0.684043
9639.000000;0.683707
9638.000000;0.683541
9637.000000;0.683478
9636.000000;0.683488
9635.000000;0.683581
9634.000000;0.683719
9633.000000;0.683809
9632.000000;0.683815
9631.000000;0.683815
9630.000000;0.683888
9629.000000;0.683976
9628.000000;0.683921
9627.000000;0.683656
9626.000000;0.683298
9625.000000;0.683039
9624.000000;0.682965
9623.000000;0.682992
9622.000000;0.682948
9621.000000;0.682717
9620.000000;0.682318
9619.000000;0.681886
9618.000000;0.681566
9617.000000;0.681422
9616.000000;0.681442
9615.000000;0.681588
9614.000000;0.681815
9613.000000;0.682047
9612.000000;0.682215
9611.000000;0.682326
9610.000000;0.682421
9609.000000;0.682412
9608.000000;0.682068
9607.000000;0.681282
9606.000000;0.680331
9605.000000;0.679711
9604.000000;0.679671
9603.000000;0.679979
9602.000000;0.680215
9601.000000;0.680242
9600.000000;0.680313
9599.000000;0.680691
9598.000000;0.681269
9597.000000;0.681602
9596.000000;0.681358
9595.000000;0.680651
9594.000000;0.679909
9593.000000;0.679431
9592.000000;0.679190
9591.000000;0.679054
9590.000000;0.679058
9589.000000;0.679289
9588.000000;0.679620
9587.000000;0.679755
9586.000000;0.679599
9585.000000;0.679410
9584.000000;0.679447
9583.000000;0.679587
9582.000000;0.679472
9581.000000;0.679012
9580.000000;0.678564
9579.000000;0.678512
9578.000000;0.678785
9577.000000;0.678928
9576.000000;0.678653
9575.000000;0.678173
9574.000000;0.677918
9573.000000;0.677998
9572.000000;0.678110
9571.000000;0.677973
9570.000000;0.677676
9569.000000;0.677532
9568.000000;0.677673
9567.000000;0.677931
9566.000000;0.678080
9565.000000;0.678044
9564.000000;0.677892
9563.000000;0.677746
9562.000000;0.677704
9561.000000;0.677763
9560.000000;0.677770
9559.000000;0.677560
9558.000000;0.677157
9557.000000;0.676752
9556.000000;0.676440
9555.000000;0.676097
9554.000000;0.675603
9553.000000;0.675092
9552.000000;0.674864
9551.000000;0.675074
9550.000000;0.675594
9549.000000;0.676167
9548.000000;0.676620
9547.000000;0.676921
9546.000000;0.677079
9545.000000;0.677038
9544.000000;0.676685
9543.000000;0.676024
9542.000000;0.675323
9541.000000;0.674978
9540.000000;0.675148
9539.000000;0.675558
9538.000000;0.675760
9537.000000;0.675569
9536.000000;0.675173
9535.000000;0.674848
9534.000000;0.674676
9533.000000;0.674557
9532.000000;0.674403
9531.000000;0.674237
9530.000000;0.674137
9529.000000;0.674130
9528.000000;0.674160
9527.000000;0.674150
9526.000000;0.674115
9525.000000;0.674167
9524.000000;0.674382
9523.000000;0.674654
9522.000000;0.674739
9521.000000;0.674489
9520.000000;0.673999
9519.000000;0.673528
9518.000000;0.673263
9517.000000;0.673199
9516.000000;0.673220
9515.000000;0.673231
9514.000000;0.673187
9513.000000;0.673043
9512.000000;0.672758
9511.000000;0.672389
9510.000000;0.672099
9509.000000;0.672013
9508.000000;0.672104
9507.000000;0.672273
9506.000000;0.672481
9505.000000;0.672716
9504.000000;0.672872
9503.000000;0.672821
9502.000000;0.672633
9501.000000;0.672541
9500.000000;0.672650
9499.000000;0.672782
9498.000000;0.672726
9497.000000;0.672502
9496.000000;0.672261
9495.000000;0.672022
9494.000000;0.671661
9493.000000;0.671125
9492.000000;0.670534
9491.000000;0.670069
9490.000000;0.669893
9489.000000;0.670134
9488.000000;0.670772
9487.000000;0.671509
9486.000000;0.671947
9485.000000;0.671970
9484.000000;0.671828
9483.000000;0.671750
9482.000000;0.671601
9481.000000;0.671083
9480.000000;0.670215
9479.000000;0.669431
9478.000000;0.669144
9477.000000;0.669338
9476.000000;0.669642
9475.000000;0.669740
9474.000000;0.669652
9473.000000;0.669636
9472.000000;0.669888
9471.000000;0.670331
9470.000000;0.670659
9469.000000;0.670566
9468.000000;0.670009
9467.000000;0.669283
9466.000000;0.668808
9465.000000;0.668766
9464.000000;0.668958
9463.000000;0.669033
9462.000000;0.668856
9461.000000;0.668597
9460.000000;0.668465
9459.000000;0.668456
9458.000000;0.668420
9457.000000;0.668294
9456.000000;0.668164
9455.000000;0.668131
9454.000000;0.668184
9453.000000;0.668220
9452.000000;0.668147
9451.000000;0.667938
9450.000000;0.667656
9449.000000;0.667434
9448.000000;0.667396
9447.000000;0.667556
9446.000000;0.667814
9445.000000;0.668020
9444.000000;0.668036
9443.000000;0.667799
9442.000000;0.667386
9441.000000;0.666996
9440.000000;0.666794
9439.000000;0.666748
9438.000000;0.666697
9437.000000;0.666577
9436.000000;0.666520
9435.000000;0.666663
9434.000000;0.666932
9433.000000;0.667079
9432.000000;0.666925
9431.000000;0.666540
9430.000000;0.666172
9429.000000;0.666022
9428.000000;0.666081
9427.000000;0.666156
9426.000000;0.666055
9425.000000;0.665731
9424.000000;0.665283
9423.000000;0.664848
9422.000000;0.664528
9421.000000;0.664386
9420.000000;0.664427
9419.000000;0.664570
9418.000000;0.664664
9417.000000;0.664601
9416.000000;0.664408
9415.000000;0.664224
9414.000000;0.664188
9413.000000;0.664341
9412.000000;0.664612
9411.000000;0.664883
9410.000000;0.665085
9409.000000;0.665226
9408.000000;0.665339
9407.000000;0.665393
9406.000000;0.665306
9405.000000;0.665047
9404.000000;0.664720
9403.000000;0.664512
9402.000000;0.664542
9401.000000;0.664760
9400.000000;0.664968
9399.000000;0.664967
9398.000000;0.664688
9397.000000;0.664225
9396.000000;0.663755
9395.000000;0.663403
9394.000000;0.663172
9393.000000;0.662972
9392.000000;0.662752
9391.000000;0.662612
9390.000000;0.662747
9389.000000;0.663214
9388.000000;0.663774
9387.000000;0.664039
9386.000000;0.663802
9385.000000;0.663184
9384.000000;0.662466
9383.000000;0.661856
9382.000000;0.661462
9381.000000;0.661337
9380.000000;0.661440
9379.000000;0.661596
9378.000000;0.661634
9377.000000;0.661575
9376.000000;0.661597
9375.000000;0.661803
9374.000000;0.662076
9373.000000;0.662195
9372.000000;0.662046
9371.000000;0.661719
9370.000000;0.661435
9369.000000;0.661357
9368.000000;0.661455
9367.000000;0.661537
9366.000000;0.661474
9365.000000;0.661344
9364.000000;0.661314
9363.000000;0.661389
9362.000000;0.661390
9361.000000;0.661170
9360.000000;0.660773
9359.000000;0.660325
9358.000000;0.659893
9357.000000;0.659513
9356.000000;0.659302
9355.000000;0.659405
9354.000000;0.659806
9353.000000;0.660266
9352.000000;0.660509
9351.000000;0.660484
9350.000000;0.660378
9349.000000;0.660371
9348.000000;0.660410
9347.000000;0.660290
9346.000000;0.659920
9345.000000;0.659431
9344.000000;0.659016
9343.000000;0.658749
9342.000000;0.658623
9341.000000;0.658644
9340.000000;0.658778
9339.000000;0.658866
9338.000000;0.658756
9337.000000;0.658513
9336.000000;0.658366
9335.000000;0.658412
9334.000000;0.658487
9333.000000;0.658391
9332.000000;0.658146
9331.000000;0.657950
9330.000000;0.657935
9329.000000;0.658047
9328.000000;0.658142
9327.000000;0.658127
9326.000000;0.658015
9325.000000;0.657894
9324.000000;0.657850
9323.000000;0.657886
9322.000000;0.657921
9321.000000;0.657869
9320.000000;0.657722
9319.000000;0.657555
9318.000000;0.657484
9317.000000;0.657594
9316.000000;0.657848
9315.000000;0.658068
9314.000000;0.658052
9313.000000;0.657757
9312.000000;0.657345
9311.000000;0.657024
9310.000000;0.656883
9309.000000;0.656877
9308.000000;0.656939
9307.000000;0.657028
9306.000000;0.657088
9305.000000;0.657016
9304.000000;0.656724
9303.000000;0.656249
9302.000000;0.655796
9301.000000;0.655595
9300.000000;0.655682
9299.000000;0.655846
9298.000000;0.655841
9297.000000;0.655634
9296.000000;0.655397
9295.000000;0.655288
9294.000000;0.655311
9293.000000;0.655388
9292.000000;0.655453
9291.000000;0.655459
9290.000000;0.655359
9289.000000;0.655135
9288.000000;0.654825
9287.000000;0.654503
9286.000000;0.654263
9285.000000;0.654208
9284.000000;0.654377
9283.000000;0.654659
9282.000000;0.654840
9281.000000;0.654781
9280.000000;0.654533
9279.000000;0.654272
9278.000000;0.654149
9277.000000;0.654196
9276.000000;0.654298
9275.000000;0.654277
9274.000000;0.654069
9273.000000;0.653848
9272.000000;0.653858
9271.000000;0.654090
9270.000000;0.654234
9269.000000;0.654031
9268.000000;0.653594
9267.000000;0.653279
9266.000000;0.653291
9265.000000;0.653519
9264.000000;0.653704
9263.000000;0.653661
9262.000000;0.653342
9261.000000;0.652805
9260.000000;0.652186
9259.000000;0.651665
9258.000000;0.651367
9257.000000;0.651305
9256.000000;0.651382
9255.000000;0.651478
9254.000000;0.651546
9253.000000;0.651643
9252.000000;0.651834
9251.000000;0.652066
9250.000000;0.652176
9249.000000;0.652058
9248.000000;0.651793
9247.000000;0.651556
9246.000000;0.651444
9245.000000;0.651428
9244.000000;0.651423
9243.000000;0.651347
9242.000000;0.651152
9241.000000;0.650864
9240.000000;0.650605
9239.000000;0.650507
9238.000000;0.650590
9237.000000;0.650747
9236.000000;0.650827
9235.000000;0.650737
9234.000000;0.650479
9233.000000;0.650179
9232.000000;0.650029
9231.000000;0.650133
9230.000000;0.650388
9229.000000;0.650565
9228.000000;0.650518
9227.000000;0.650265
9226.000000;0.649890
9225.000000;0.649472
9224.000000;0.649146
9223.000000;0.649107
9222.000000;0.649428
9221.000000;0.649888
9220.000000;0.650100
9219.000000;0.649870
9218.000000;0.649395
9217.000000;0.649039
9216.000000;0.648976
9215.000000;0.649103
9214.000000;0.649241
9213.000000;0.649296
9212.000000;0.649210
9211.000000;0.648921
9210.000000;0.648470
9209.000000;0.648083
9208.000000;0.647979
9207.000000;0.648124
9206.000000;0.648290
9205.000000;0.648333
9204.000000;0.648296
9203.000000;0.648215
9202.000000;0.648007
9201.000000;0.647637
9200.000000;0.647275
9199.000000;0.647152
9198.000000;0.647298
9197.000000;0.647530
9196.000000;0.647653
9195.000000;0.647595
9194.000000;0.647389
9193.000000;0.647128
9192.000000;0.646932
9191.000000;0.646871
9190.000000;0.646922
9189.000000;0.647030
9188.000000;0.647155
9187.000000;0.647220
9186.000000;0.647092
9185.000000;0.646751
9184.000000;0.646423
9183.000000;0.646379
9182.000000;0.646581
9181.000000;0.646692
9180.000000;0.646486
9179.000000;0.646120
9178.000000;0.645915
9177.000000;0.645968
9176.000000;0.646097
9175.000000;0.646099
9174.000000;0.645938
9173.000000;0.645708
9172.000000;0.645516
9171.000000;0.645395
9170.000000;0.645276
9169.000000;0.645033
9168.000000;0.644636
9167.000000;0.644266
9166.000000;0.644182
9165.000000;0.644440
9164.000000;0.644800
9163.000000;0.644961
9162.000000;0.644848
9161.000000;0.644632
9160.000000;0.644505
9159.000000;0.644494
9158.000000;0.644486
9157.000000;0.644354
9156.000000;0.644072
9155.000000;0.643746
9154.000000;0.643558
9153.000000;0.643630
9152.000000;0.643908
9151.000000;0.644191
9150.000000;0.644296
9149.000000;0.644200
9148.000000;0.643992
9147.000000;0.643746
9146.000000;0.643468
9145.000000;0.643160
9144.000000;0.642864
9143.000000;0.642647
9142.000000;0.642559
9141.000000;0.642610
9140.000000;0.642758
9139.000000;0.642909
9138.000000;0.642974
9137.000000;0.642949
9136.000000;0.642905
9135.000000;0.642884
9134.000000;0.642833
9133.000000;0.642662
9132.000000;0.642358
9131.000000;0.641993
9130.000000;0.641644
9129.000000;0.641347
9128.000000;0.641127
9127.000000;0.641033
9126.000000;0.641091
9125.000000;0.641228
9124.000000;0.641302
9123.000000;0.641247
9122.000000;0.641157
9121.000000;0.641191
9120.000000;0.641380
9119.000000;0.641582
9118.000000;0.641652
9117.000000;0.641576
9116.000000;0.641408
9115.000000;0.641143
9114.000000;0.640763
9113.000000;0.640365
9112.000000;0.640122
9111.000000;0.640078
9110.000000;0.640105
9109.000000;0.640083
9108.000000;0.640046
9107.000000;0.640067
9106.000000;0.640115
9105.000000;0.640119
9104.000000;0.640096
9103.000000;0.640110
9102.000000;0.640119
9101.000000;0.639988
9100.000000;0.639672
9099.000000;0.639282
9098.000000;0.638952
9097.000000;0.638708
9096.000000;0.638518
9095.000000;0.638401
9094.000000;0.638421
9093.000000;0.638574
9092.000000;0.638758
9091.000000;0.638873
9090.000000;0.638917
9089.000000;0.638952
9088.000000;0.638979
9087.000000;0.638902
9086.000000;0.638642
9085.000000;0.638273
9084.000000;0.637995
9083.000000;0.637968
9082.000000;0.638165
9081.000000;0.638396
9080.000000;0.638450
9079.000000;0.638243
9078.000000;0.637877
9077.000000;0.637566
9076.000000;0.637460
9075.000000;0.637518
9074.000000;0.637580
9073.000000;0.637556
9072.000000;0.637504
9071.000000;0.637496
9070.000000;0.637474
9069.000000;0.637301
9068.000000;0.636944
9067.000000;0.636540
9066.000000;0.636301
9065.000000;0.636342
9064.000000;0.636599
9063.000000;0.636881
9062.000000;0.637031
9061.000000;0.637047
9060.000000;0.637017
9059.000000;0.636959
9058.000000;0.636801
9057.000000;0.636530
9056.000000;0.636272
9055.000000;0.636137
9054.000000;0.636056
9053.000000;0.635899
9052.000000;0.635686
9051.000000;0.635580
9050.000000;0.635656
9049.000000;0.635796
9048.000000;0.635846
9047.000000;0.635778
9046.000000;0.635656
9045.000000;0.635521
9044.000000;0.635376
9043.000000;0.635250
9042.000000;0.635196
9041.000000;0.635232
9040.000000;0.635306
9039.000000;0.635318
9038.000000;0.635170
9037.000000;0.634842
9036.000000;0.634429
9035.000000;0.634079
9034.000000;0.633880
9033.000000;0.633809
9032.000000;0.633806
9031.000000;0.633841
9030.000000;0.633894
9029.000000;0.633942
9028.000000;0.633977
9027.000000;0.634023
9026.000000;0.634052
9025.000000;0.633953
9024.000000;0.633631
9023.000000;0.633151
9022.000000;0.632711
9021.000000;0.632465
9020.000000;0.632395
9019.000000;0.632380
9018.000000;0.632346
9017.000000;0.632322
9016.000000;0.632367
9015.000000;0.632460
9014.000000;0.632484
9013.000000;0.632339
9012.000000;0.632089
9011.000000;0.631936
9010.000000;0.632010
9009.000000;0.632200
9008.000000;0.632279
9007.000000;0.632185
9006.000000;0.632075
9005.000000;0.632064
9004.000000;0.632044
9003.000000;0.631853
9002.000000;0.631552
9001.000000;0.631375
9000.000000;0.631440
8999.000000;0.631616
8998.000000;0.631703
8997.000000;0.631633
8996.000000;0.631458
8995.000000;0.631259
8994.000000;0.631116
8993.000000;0.631076
8992.000000;0.631088
8991.000000;0.631047
8990.000000;0.630945
8989.000000;0.630908
8988.000000;0.631017
8987.000000;0.631167
8986.000000;0.631198
8985.000000;0.631086
8984.000000;0.630909
8983.000000;0.630682
8982.000000;0.630373
8981.000000;0.630029
8980.000000;0.629768
8979.000000;0.629629
8978.000000;0.629570
8977.000000;0.629590
8976.000000;0.629736
8975.000000;0.629956
8974.000000;0.630076
8973.000000;0.629993
8972.000000;0.629785
8971.000000;0.629576
8970.000000;0.629393
8969.000000;0.629206
8968.000000;0.629020
8967.000000;0.628860
8966.000000;0.628733
8965.000000;0.628661
8964.000000;0.628696
8963.000000;0.628830
8962.000000;0.628949
8961.000000;0.628946
8960.000000;0.628843
8959.000000;0.628724
8958.000000;0.628619
8957.000000;0.628515
8956.000000;0.628440
8955.000000;0.628442
8954.000000;0.628498
8953.000000;0.628518
8952.000000;0.628455
8951.000000;0.628353
8950.000000;0.628279
8949.000000;0.628233
8948.000000;0.628130
8947.000000;0.627872
8946.000000;0.627471
8945.000000;0.627081
8944.000000;0.626876
8943.000000;0.626867
8942.000000;0.626900
8941.000000;0.626842
8940.000000;0.626710
8939.000000;0.626601
8938.000000;0.626570
8937.000000;0.626623
8936.000000;0.626752
8935.000000;0.626886
8934.000000;0.626892
8933.000000;0.626711
8932.000000;0.626449
8931.000000;0.626273
8930.000000;0.626242
8929.000000;0.626288
8928.000000;0.626314
8927.000000;0.626239
8926.000000;0.626016
8925.000000;0.625698
8924.000000;0.625449
8923.000000;0.625393
8922.000000;0.625460
8921.000000;0.625489
8920.000000;0.625443
8919.000000;0.625420
8918.000000;0.625471
8917.000000;0.625505
8916.000000;0.625399
8915.000000;0.625127
8914.000000;0.624779
8913.000000;0.624517
8912.000000;0.624507
8911.000000;0.624775
8910.000000;0.625123
8909.000000;0.625292
8908.000000;0.625216
8907.000000;0.625065
8906.000000;0.625007
8905.000000;0.625032
8904.000000;0.625012
8903.000000;0.624862
8902.000000;0.624586
8901.000000;0.624272
8900.000000;0.624070
8899.000000;0.624099
8898.000000;0.624296
8897.000000;0.624423
8896.000000;0.624283
8895.000000;0.623914
8894.000000;0.623540
8893.000000;0.623350
8892.000000;0.623363
8891.000000;0.623466
8890.000000;0.623526
8889.000000;0.623487
8888.000000;0.623395
8887.000000;0.623334
8886.000000;0.623330
8885.000000;0.623356
8884.000000;0.623385
8883.000000;0.623405
8882.000000;0.623364
8881.000000;0.623193
8880.000000;0.622911
8879.000000;0.622639
8878.000000;0.622456
8877.000000;0.622307
8876.000000;0.622117
8875.000000;0.621937
8874.000000;0.621895
8873.000000;0.622028
8872.000000;0.622213
8871.000000;0.622288
8870.000000;0.622188
8869.000000;0.621991
8868.000000;0.621848
8867.000000;0.621871
8866.000000;0.622028
8865.000000;0.622151
8864.000000;0.622093
8863.000000;0.621874
8862.000000;0.621635
8861.000000;0.621467
8860.000000;0.621332
8859.000000;0.621187
8858.000000;0.621092
8857.000000;0.621132
8856.000000;0.621263
8855.000000;0.621328
8854.000000;0.621255
8853.000000;0.621167
8852.000000;0.621225
8851.000000;0.621411
8850.000000;0.621528
8849.000000;0.621423
8848.000000;0.621131
8847.000000;0.620779
8846.000000;0.620420
8845.000000;0.620030
8844.000000;0.619626
8843.000000;0.619316
8842.000000;0.619206
8841.000000;0.619302
8840.000000;0.619502
8839.000000;0.619677
8838.000000;0.619771
8837.000000;0.619842
8836.000000;0.619970
8835.000000;0.620125
8834.000000;0.620167
8833.000000;0.620022
8832.000000;0.619808
8831.000000;0.619721
8830.000000;0.619815
8829.000000;0.619971
8828.000000;0.620046
8827.000000;0.619982
8826.000000;0.619769
8825.000000;0.619433
8824.000000;0.619081
8823.000000;0.618877
8822.000000;0.618901
8821.000000;0.619068
8820.000000;0.619200
8819.000000;0.619169
8818.000000;0.618970
8817.000000;0.618719
8816.000000;0.618595
8815.000000;0.618712
8814.000000;0.618982
8813.000000;0.619177
8812.000000;0.619146
8811.000000;0.618945
8810.000000;0.618709
8809.000000;0.618479
8808.000000;0.618210
8807.000000;0.617905
8806.000000;0.617645
8805.000000;0.617493
8804.000000;0.617433
8803.000000;0.617389
8802.000000;0.617303
8801.000000;0.617192
8800.000000;0.617150
8799.000000;0.617247
8798.000000;0.617412
8797.000000;0.617479
8796.000000;0.617384
8795.000000;0.617251
8794.000000;0.617224
8793.000000;0.617275
8792.000000;0.617286
8791.000000;0.617266
8790.000000;0.617359
8789.000000;0.617629
8788.000000;0.617943
8787.000000;0.618094
8786.000000;0.617982
8785.000000;0.617647
8784.000000;0.617222
8783.000000;0.616870
8782.000000;0.616710
8781.000000;0.616736
8780.000000;0.616848
8779.000000;0.616952
8778.000000;0.617014
8777.000000;0.616997
8776.000000;0.616858
8775.000000;0.616627
8774.000000;0.616417
8773.000000;0.616320
8772.000000;0.616324
8771.000000;0.616382
8770.000000;0.616478
8769.000000;0.616591
8768.000000;0.616637
8767.000000;0.616552
8766.000000;0.616363
8765.000000;0.616140
8764.000000;0.615893
8763.000000;0.615621
8762.000000;0.615404
8761.000000;0.615359
8760.000000;0.615485
8759.000000;0.615646
8758.000000;0.615708
8757.000000;0.615646
8756.000000;0.615511
8755.000000;0.615365
8754.000000;0.615279
8753.000000;0.615308
8752.000000;0.615421
8751.000000;0.615511
8750.000000;0.615505
8749.000000;0.615430
8748.000000;0.615355
8747.000000;0.615308
8746.000000;0.615297
8745.000000;0.615323
8744.000000;0.615349
8743.000000;0.615290
8742.000000;0.615103
8741.000000;0.614868
8740.000000;0.614725
8739.000000;0.614747
8738.000000;0.614900
8737.000000;0.615094
8736.000000;0.615236
8735.000000;0.615253
8734.000000;0.615149
8733.000000;0.615029
8732.000000;0.615016
8731.000000;0.615113
8730.000000;0.615195
8729.000000;0.615149
8728.000000;0.614994
8727.000000;0.614850
8726.000000;0.614818
8725.000000;0.614907
8724.000000;0.615042
8723.000000;0.615121
8722.000000;0.615067
8721.000000;0.614876
8720.000000;0.614621
8719.000000;0.614414
8718.000000;0.614336
8717.000000;0.614376
8716.000000;0.614467
8715.000000;0.614572
8714.000000;0.614701
8713.000000;0.614823
8712.000000;0.614805
8711.000000;0.614520
8710.000000;0.614034
8709.000000;0.613603
8708.000000;0.613442
8707.000000;0.613555
8706.000000;0.613797
8705.000000;0.614021
8704.000000;0.614126
8703.000000;0.614040
8702.000000;0.613775
8701.000000;0.613462
8700.000000;0.613247
8699.000000;0.613160
8698.000000;0.613143
8697.000000;0.613183
8696.000000;0.613315
8695.000000;0.613528
8694.000000;0.613736
8693.000000;0.613871
8692.000000;0.613921
8691.000000;0.613883
8690.000000;0.613742
8689.000000;0.613522
8688.000000;0.613284
8687.000000;0.613063
8686.000000;0.612867
8685.000000;0.612733
8684.000000;0.612703
8683.000000;0.612749
8682.000000;0.612776
8681.000000;0.612742
8680.000000;0.612696
8679.000000;0.612695
8678.000000;0.612725
8677.000000;0.612732
8676.000000;0.612680
8675.000000;0.612555
8674.000000;0.612385
8673.000000;0.612246
8672.000000;0.612182
8671.000000;0.612104
8670.000000;0.611876
8669.000000;0.611515
8668.000000;0.611210
8667.000000;0.611103
8666.000000;0.611134
8665.000000;0.611163
8664.000000;0.611148
8663.000000;0.611117
8662.000000;0.611059
8661.000000;0.610939
8660.000000;0.610780
8659.000000;0.610640
8658.000000;0.610532
8657.000000;0.610451
8656.000000;0.610421
8655.000000;0.610447
8654.000000;0.610456
8653.000000;0.610368
8652.000000;0.610201
8651.000000;0.610047
8650.000000;0.609960
8649.000000;0.609925
8648.000000;0.609908
8647.000000;0.609859
8646.000000;0.609713
8645.000000;0.609474
8644.000000;0.609257
8643.000000;0.609168
8642.000000;0.609160
8641.000000;0.609107
8640.000000;0.608997
8639.000000;0.608934
8638.000000;0.608955
8637.000000;0.608967
8636.000000;0.608896
8635.000000;0.608788
8634.000000;0.608697
8633.000000;0.608584
8632.000000;0.608393
8631.000000;0.608172
8630.000000;0.608022
8629.000000;0.607952
8628.000000;0.607859
8627.000000;0.607652
8626.000000;0.607337
8625.000000;0.607007
8624.000000;0.606760
8623.000000;0.606629
8622.000000;0.606564
8621.000000;0.606476
8620.000000;0.606324
8619.000000;0.606137
8618.000000;0.605950
8617.000000;0.605759
8616.000000;0.605540
8615.000000;0.605313
8614.000000;0.605128
8613.000000;0.605007
8612.000000;0.604930
8611.000000;0.604863
8610.000000;0.604810
8609.000000;0.604815
8608.000000;0.604909
8607.000000;0.605047
8606.000000;0.605098
8605.000000;0.604935
8604.000000;0.604568
8603.000000;0.604162
8602.000000;0.603886
8601.000000;0.603773
8600.000000;0.603735
8599.000000;0.603708
8598.000000;0.603724
8597.000000;0.603816
8596.000000;0.603919
8595.000000;0.603902
8594.000000;0.603703
8593.000000;0.603394
8592.000000;0.603096
8591.000000;0.602871
8590.000000;0.602698
8589.000000;0.602531
8588.000000;0.602341
8587.000000;0.602121
8586.000000;0.601889
8585.000000;0.601696
8584.000000;0.601602
8583.000000;0.601619
8582.000000;0.601702
8581.000000;0.601784
8580.000000;0.601811
8579.000000;0.601740
8578.000000;0.601562
8577.000000;0.601340
8576.000000;0.601199
8575.000000;0.601201
8574.000000;0.601253
8573.000000;0.601175
8572.000000;0.600889
8571.000000;0.600519
8570.000000;0.600277
8569.000000;0.600267
8568.000000;0.600392
8567.000000;0.600458
8566.000000;0.600346
8565.000000;0.600088
8564.000000;0.599790
8563.000000;0.599528
8562.000000;0.599317
8561.000000;0.599159
8560.000000;0.599084
8559.000000;0.599120
8558.000000;0.599233
8557.000000;0.599305
8556.000000;0.599209
8555.000000;0.598915
8554.000000;0.598539
8553.000000;0.598243
8552.000000;0.598095
8551.000000;0.598046
8550.000000;0.598040
8549.000000;0.598089
8548.000000;0.598174
8547.000000;0.598146
8546.000000;0.597844
8545.000000;0.597313
8544.000000;0.596811
8543.000000;0.596565
8542.000000;0.596584
8541.000000;0.596734
8540.000000;0.596895
8539.000000;0.596991
8538.000000;0.596945
8537.000000;0.596722
8536.000000;0.596407
8535.000000;0.596156
8534.000000;0.596035
8533.000000;0.595954
8532.000000;0.595783
8531.000000;0.595513
8530.000000;0.595264
8529.000000;0.595146
8528.000000;0.595153
8527.000000;0.595188
8526.000000;0.595179
8525.000000;0.595131
8524.000000;0.595057
8523.000000;0.594927
8522.000000;0.594732
8521.000000;0.594547
8520.000000;0.594456
8519.000000;0.594426
8518.000000;0.594355
8517.000000;0.594226
8516.000000;0.594137
8515.000000;0.594134
8514.000000;0.594134
8513.000000;0.594049
8512.000000;0.593909
8511.000000;0.593790
8510.000000;0.593690
8509.000000;0.593561
8508.000000;0.593427
8507.000000;0.593361
8506.000000;0.593353
8505.000000;0.593290
8504.000000;0.593079
8503.000000;0.592744
8502.000000;0.592398
8501.000000;0.592158
8500.000000;0.592077
8499.000000;0.592109
8498.000000;0.592127
8497.000000;0.592027
8496.000000;0.591816
8495.000000;0.591581
8494.000000;0.591387
8493.000000;0.591245
8492.000000;0.591138
8491.000000;0.591044
8490.000000;0.590915
8489.000000;0.590712
8488.000000;0.590475
8487.000000;0.590313
8486.000000;0.590302
8485.000000;0.590386
8484.000000;0.590418
8483.000000;0.590293
8482.000000;0.590032
8481.000000;0.589749
8480.000000;0.589543
8479.000000;0.589437
8478.000000;0.589404
8477.000000;0.589420
8476.000000;0.589444
8475.000000;0.589394
8474.000000;0.589209
8473.000000;0.588952
8472.000000;0.588777
8471.000000;0.588761
8470.000000;0.588815
8469.000000;0.588799
8468.000000;0.588681
8467.000000;0.588521
8466.000000;0.588349
8465.000000;0.588143
8464.000000;0.587898
8463.000000;0.587667
8462.000000;0.587513
8461.000000;0.587467
8460.000000;0.587522
8459.000000;0.587615
8458.000000;0.587639
8457.000000;0.587506
8456.000000;0.587225
8455.000000;0.586879
8454.000000;0.586541
8453.000000;0.586249
8452.000000;0.586051
8451.000000;0.586002
8450.000000;0.586099
8449.000000;0.586253
8448.000000;0.586347
8447.000000;0.586324
8446.000000;0.586203
8445.000000;0.586046
8444.000000;0.585923
8443.000000;0.585871
8442.000000;0.585871
8441.000000;0.585844
8440.000000;0.585710
8439.000000;0.585446
8438.000000;0.585115
8437.000000;0.584803
8436.000000;0.584547
8435.000000;0.584332
8434.000000;0.584169
8433.000000;0.584149
8432.000000;0.584352
8431.000000;0.584703
8430.000000;0.584978
8429.000000;0.584983
8428.000000;0.584710
8427.000000;0.584308
8426.000000;0.583959
8425.000000;0.583775
8424.000000;0.583762
8423.000000;0.583815
8422.000000;0.583788
8421.000000;0.583631
8420.000000;0.583430
8419.000000;0.583282
8418.000000;0.583181
8417.000000;0.583052
8416.000000;0.582870
8415.000000;0.582681
8414.000000;0.582531
8413.000000;0.582439
8412.000000;0.582413
8411.000000;0.582443
8410.000000;0.582477
8409.000000;0.582465
8408.000000;0.582414
8407.000000;0.582339
8406.000000;0.582189
8405.000000;0.581903
8404.000000;0.581542
8403.000000;0.581276
8402.000000;0.581214
8401.000000;0.581277
8400.000000;0.581279
8399.000000;0.581097
8398.000000;0.580764
8397.000000;0.580440
8396.000000;0.580306
8395.000000;0.580430
8394.000000;0.580690
8393.000000;0.580853
8392.000000;0.580773
8391.000000;0.580514
8390.000000;0.580262
8389.000000;0.580122
8388.000000;0.580047
8387.000000;0.579935
8386.000000;0.579774
8385.000000;0.579649
8384.000000;0.579622
8383.000000;0.579648
8382.000000;0.579616
8381.000000;0.579470
8380.000000;0.579251
8379.000000;0.579044
8378.000000;0.578909
8377.000000;0.578858
8376.000000;0.578851
8375.000000;0.578810
8374.000000;0.578682
8373.000000;0.578493
8372.000000;0.578333
8371.000000;0.578251
8370.000000;0.578211
8369.000000;0.578148
8368.000000;0.578040
8367.000000;0.577910
8366.000000;0.577797
8365.000000;0.577724
8364.000000;0.577668
8363.000000;0.577561
8362.000000;0.577366
8361.000000;0.577157
8360.000000;0.577061
8359.000000;0.577090
8358.000000;0.577112
8357.000000;0.577020
8356.000000;0.576866
8355.000000;0.576762
8354.000000;0.576711
8353.000000;0.576631
8352.000000;0.576495
8351.000000;0.576351
8350.000000;0.576209
8349.000000;0.576005
8348.000000;0.575698
8347.000000;0.575357
8346.000000;0.575113
8345.000000;0.575059
8344.000000;0.575185
8343.000000;0.575392
8342.000000;0.575558
8341.000000;0.575614
8340.000000;0.575542
8339.000000;0.575328
8338.000000;0.574985
8337.000000;0.574635
8336.000000;0.574454
8335.000000;0.574478
8334.000000;0.574529
8333.000000;0.574429
8332.000000;0.574217
8331.000000;0.574072
8330.000000;0.574052
8329.000000;0.574057
8328.000000;0.573993
8327.000000;0.573873
8326.000000;0.573721
8325.000000;0.573526
8324.000000;0.573320
8323.000000;0.573203
8322.000000;0.573234
8321.000000;0.573360
8320.000000;0.573486
8319.000000;0.573556
8318.000000;0.573535
8317.000000;0.573385
8316.000000;0.573118
8315.000000;0.572820
8314.000000;0.572584
8313.000000;0.572430
8312.000000;0.572333
8311.000000;0.572268
8310.000000;0.572222
8309.000000;0.572184
8308.000000;0.572171
8307.000000;0.572209
8306.000000;0.572255
8305.000000;0.572188
8304.000000;0.571925
8303.000000;0.571533
8302.000000;0.571183
8301.000000;0.571001
8300.000000;0.570981
8299.000000;0.571037
8298.000000;0.571091
8297.000000;0.571113
8296.000000;0.571101
8295.000000;0.571044
8294.000000;0.570925
8293.000000;0.570749
8292.000000;0.570557
8291.000000;0.570393
8290.000000;0.570265
8289.000000;0.570169
8288.000000;0.570104
8287.000000;0.570053
8286.000000;0.569961
8285.000000;0.569783
8284.000000;0.569555
8283.000000;0.569379
8282.000000;0.569321
8281.000000;0.569353
8280.000000;0.569404
8279.000000;0.569423
8278.000000;0.569397
8277.000000;0.569331
8276.000000;0.569238
8275.000000;0.569117
8274.000000;0.568966
8273.000000;0.568798
8272.000000;0.568648
8271.000000;0.568535
8270.000000;0.568436
8269.000000;0.568322
8268.000000;0.568209
8267.000000;0.568134
8266.000000;0.568092
8265.000000;0.568046
8264.000000;0.567971
8263.000000;0.567871
8262.000000;0.567766
8261.000000;0.567695
8260.000000;0.567703
8259.000000;0.567779
8258.000000;0.567825
8257.000000;0.567747
8256.000000;0.567555
8255.000000;0.567321
8254.000000;0.567073
8253.000000;0.566795
8252.000000;0.566523
8251.000000;0.566347
8250.000000;0.566301
8249.000000;0.566320
8248.000000;0.566321
8247.000000;0.566275
8246.000000;0.566195
8245.000000;0.566104
8244.000000;0.566048
8243.000000;0.566062
8242.000000;0.566112
8241.000000;0.566118
8240.000000;0.566058
8239.000000;0.565989
8238.000000;0.565949
8237.000000;0.565889
8236.000000;0.565750
8235.000000;0.565529
8234.000000;0.565264
8233.000000;0.564999
8232.000000;0.564797
8231.000000;0.564720
8230.000000;0.564755
8229.000000;0.564797
8228.000000;0.564758
8227.000000;0.564630
8226.000000;0.564436
8225.000000;0.564175
8224.000000;0.563879
8223.000000;0.563653
8222.000000;0.563584
8221.000000;0.563636
8220.000000;0.563697
8219.000000;0.563716
8218.000000;0.563722
8217.000000;0.563734
8216.000000;0.563716
8215.000000;0.563636
8214.000000;0.563511
8213.000000;0.563385
8212.000000;0.563301
8211.000000;0.563277
8210.000000;0.563277
8209.000000;0.563226
8208.000000;0.563085
8207.000000;0.562899
8206.000000;0.562732
8205.000000;0.562587
8204.000000;0.562435
8203.000000;0.562292
8202.000000;0.562200
8201.000000;0.562147
8200.000000;0.562075
8199.000000;0.561985
8198.000000;0.561940
8197.000000;0.561956
8196.000000;0.561946
8195.000000;0.561838
8194.000000;0.561682
8193.000000;0.561583
8192.000000;0.561552
8191.000000;0.561493
8190.000000;0.561331
8189.000000;0.561103
8188.000000;0.560902
8187.000000;0.560783
8186.000000;0.560739
8185.000000;0.560735
8184.000000;0.560733
8183.000000;0.560700
8182.000000;0.560620
8181.000000;0.560503
8180.000000;0.560377
8179.000000;0.560268
8178.000000;0.560186
8177.000000;0.560120
8176.000000;0.560038
8175.000000;0.559900
8174.000000;0.559710
8173.000000;0.559530
8172.000000;0.559438
8171.000000;0.559449
8170.000000;0.559498
8169.000000;0.559504
8168.000000;0.559431
8167.000000;0.559295
8166.000000;0.559149
8165.000000;0.559056
8164.000000;0.559059
8163.000000;0.559124
8162.000000;0.559146
8161.000000;0.559033
8160.000000;0.558806
8159.000000;0.558587
8158.000000;0.558475
8157.000000;0.558467
8156.000000;0.558496
8155.000000;0.558515
8154.000000;0.558512
8153.000000;0.558466
8152.000000;0.558339
8151.000000;0.558136
8150.000000;0.557954
8149.000000;0.557911
8148.000000;0.557998
8147.000000;0.558059
8146.000000;0.557936
8145.000000;0.557650
8144.000000;0.557380
8143.000000;0.557267
8142.000000;0.557287
8141.000000;0.557313
8140.000000;0.557269
8139.000000;0.557167
8138.000000;0.557046
8137.000000;0.556926
8136.000000;0.556827
8135.000000;0.556776
8134.000000;0.556762
8133.000000;0.556717
8132.000000;0.556566
8131.000000;0.556320
8130.000000;0.556083
8129.000000;0.555976
8128.000000;0.556015
8127.000000;0.556101
8126.000000;0.556113
8125.000000;0.556025
8124.000000;0.555898
8123.000000;0.555784
8122.000000;0.555686
8121.000000;0.555593
8120.000000;0.555517
8119.000000;0.555455
8118.000000;0.555366
8117.000000;0.555223
8116.000000;0.555054
8115.000000;0.554904
8114.000000;0.554785
8113.000000;0.554691
8112.000000;0.554645
8111.000000;0.554668
8110.000000;0.554726
8109.000000;0.554751
8108.000000;0.554717
8107.000000;0.554646
8106.000000;0.554562
8105.000000;0.554463
8104.000000;0.554354
8103.000000;0.554262
8102.000000;0.554206
8101.000000;0.554176
8100.000000;0.554145
8099.000000;0.554080
8098.000000;0.553961
8097.000000;0.553812
8096.000000;0.553698
8095.000000;0.553658
8094.000000;0.553643
8093.000000;0.553559
8092.000000;0.553386
8091.000000;0.553202
8090.000000;0.553091
8089.000000;0.553050
8088.000000;0.553016
8087.000000;0.552951
8086.000000;0.552876
8085.000000;0.552838
8084.000000;0.552843
8083.000000;0.552836
8082.000000;0.552748
8081.000000;0.552579
8080.000000;0.552418
8079.000000;0.552348
8078.000000;0.552358
8077.000000;0.552357
8076.000000;0.552280
8075.000000;0.552130
8074.000000;0.551952
8073.000000;0.551801
8072.000000;0.551729
8071.000000;0.551762
8070.000000;0.551854
8069.000000;0.551908
8068.000000;0.551852
8067.000000;0.551686
8066.000000;0.551461
8065.000000;0.551243
8064.000000;0.551106
8063.000000;0.551093
8062.000000;0.551168
8061.000000;0.551224
8060.000000;0.551176
8059.000000;0.551025
8058.000000;0.550839
8057.000000;0.550667
8056.000000;0.550509
8055.000000;0.550340
8054.000000;0.550154
8053.000000;0.549980
8052.000000;0.549857
8051.000000;0.549794
8050.000000;0.549762
8049.000000;0.549733
8048.000000;0.549714
8047.000000;0.549732
8046.000000;0.549795
8045.000000;0.549881
8044.000000;0.549950
8043.000000;0.549957
8042.000000;0.549883
8041.000000;0.549770
8040.000000;0.549691
8039.000000;0.549671
8038.000000;0.549648
8037.000000;0.549559
8036.000000;0.549409
8035.000000;0.549239
8034.000000;0.549062
8033.000000;0.548893
8032.000000;0.548804
8031.000000;0.548856
8030.000000;0.548979
8029.000000;0.549009
8028.000000;0.548866
8027.000000;0.548643
8026.000000;0.548483
8025.000000;0.548432
8024.000000;0.548434
8023.000000;0.548410
8022.000000;0.548314
8021.000000;0.548137
8020.000000;0.547921
8019.000000;0.547735
8018.000000;0.547625
8017.000000;0.547583
8016.000000;0.547567
8015.000000;0.547543
8014.000000;0.547495
8013.000000;0.547432
8012.000000;0.547387
8011.000000;0.547368
8010.000000;0.547315
8009.000000;0.547164
8008.000000;0.546954
8007.000000;0.546833
8006.000000;0.546904
8005.000000;0.547113
8004.000000;0.547302
8003.000000;0.547347
8002.000000;0.547219
8001.000000;0.546978
8000.000000;0.546735
7999.000000;0.546585
7998.000000;0.546530
7997.000000;0.546482
7996.000000;0.546364
7995.000000;0.546200
7994.000000;0.546062
7993.000000;0.545979
7992.000000;0.545912
7991.000000;0.545821
7990.000000;0.545700
7989.000000;0.545573
7988.000000;0.545468
7987.000000;0.545413
7986.000000;0.545419
7985.000000;0.545478
7984.000000;0.545569
7983.000000;0.545655
7982.000000;0.545680
7981.000000;0.545587
7980.000000;0.545372
7979.000000;0.545112
7978.000000;0.544907
7977.000000;0.544802
7976.000000;0.544770
7975.000000;0.544754
7974.000000;0.544702
7973.000000;0.544586
7972.000000;0.544434
7971.000000;0.544320
7970.000000;0.544304
7969.000000;0.544362
7968.000000;0.544398
7967.000000;0.544334
7966.000000;0.544190
7965.000000;0.544069
7964.000000;0.544046
7963.000000;0.544094
7962.000000;0.544109
7961.000000;0.544025
7960.000000;0.543868
7959.000000;0.543702
7958.000000;0.543550
7957.000000;0.543409
7956.000000;0.543297
7955.000000;0.543238
7954.000000;0.543200
7953.000000;0.543099
7952.000000;0.542905
7951.000000;0.542681
7950.000000;0.542522
7949.000000;0.542471
7948.000000;0.542509
7947.000000;0.542582
7946.000000;0.542618
7945.000000;0.542558
7944.000000;0.542407
7943.000000;0.542225
7942.000000;0.542064
7941.000000;0.541944
7940.000000;0.541879
7939.000000;0.541871
7938.000000;0.541876
7937.000000;0.541814
7936.000000;0.541672
7935.000000;0.541547
7934.000000;0.541540
7933.000000;0.541636
7932.000000;0.541725
7931.000000;0.541712
7930.000000;0.541582
7929.000000;0.541375
7928.000000;0.541168
7927.000000;0.541043
7926.000000;0.541030
7925.000000;0.541071
7924.000000;0.541083
7923.000000;0.541039
7922.000000;0.540971
7921.000000;0.540906
7920.000000;0.540835
7919.000000;0.540740
7918.000000;0.540621
7917.000000;0.540498
7916.000000;0.540413
7915.000000;0.540421
7914.000000;0.540518
7913.000000;0.540603
7912.000000;0.540547
7911.000000;0.540320
7910.000000;0.540032
7909.000000;0.539834
7908.000000;0.539808
7907.000000;0.539928
7906.000000;0.540092
7905.000000;0.540181
7904.000000;0.540119
7903.000000;0.539923
7902.000000;0.539689
7901.000000;0.539506
7900.000000;0.539407
7899.000000;0.539373
7898.000000;0.539368
7897.000000;0.539369
7896.000000;0.539363
7895.000000;0.539351
7894.000000;0.539337
7893.000000;0.539313
7892.000000;0.539263
7891.000000;0.539166
7890.000000;0.539014
7889.000000;0.538814
7888.000000;0.538616
7887.000000;0.538496
7886.000000;0.538492
7885.000000;0.538555
7884.000000;0.538578
7883.000000;0.538503
7882.000000;0.538373
7881.000000;0.538277
7880.000000;0.538249
7879.000000;0.538243
7878.000000;0.538180
7877.000000;0.538017
7876.000000;0.537787
7875.000000;0.537588
7874.000000;0.537514
7873.000000;0.537577
7872.000000;0.537686
7871.000000;0.537712
7870.000000;0.537597
7869.000000;0.537388
7868.000000;0.537181
7867.000000;0.537034
7866.000000;0.536944
7865.000000;0.536882
7864.000000;0.536832
7863.000000;0.536791
7862.000000;0.536759
7861.000000;0.536737
7860.000000;0.536739
7859.000000;0.536777
7858.000000;0.536837
7857.000000;0.536879
7856.000000;0.536872
7855.000000;0.536809
7854.000000;0.536706
7853.000000;0.536595
7852.000000;0.536520
7851.000000;0.536502
7850.000000;0.536509
7849.000000;0.536468
7848.000000;0.536345
7847.000000;0.536172
7846.000000;0.536007
7845.000000;0.535864
7844.000000;0.535728
7843.000000;0.535602
7842.000000;0.535518
7841.000000;0.535503
7840.000000;0.535545
7839.000000;0.535599
7838.000000;0.535604
7837.000000;0.535519
7836.000000;0.535360
7835.000000;0.535195
7834.000000;0.535083
7833.000000;0.535019
7832.000000;0.534952
7831.000000;0.534858
7830.000000;0.534775
7829.000000;0.534750
7828.000000;0.534776
7827.000000;0.534800
7826.000000;0.534782
7825.000000;0.534724
7824.000000;0.534634
7823.000000;0.534505
7822.000000;0.534332
7821.000000;0.534148
7820.000000;0.534009
7819.000000;0.533938
7818.000000;0.533908
7817.000000;0.533881
7816.000000;0.533840
7815.000000;0.533779
7814.000000;0.533689
7813.000000;0.533576
7812.000000;0.533475
7811.000000;0.533412
7810.000000;0.533365
7809.000000;0.533302
7808.000000;0.533237
7807.000000;0.533213
7806.000000;0.533235
7805.000000;0.533258
7804.000000;0.533238
7803.000000;0.533177
7802.000000;0.533089
7801.000000;0.532972
7800.000000;0.532824
7799.000000;0.532673
7798.000000;0.532547
7797.000000;0.532457
7796.000000;0.532411
7795.000000;0.532426
7794.000000;0.532490
7793.000000;0.532548
7792.000000;0.532546
7791.000000;0.532493
7790.000000;0.532442
7789.000000;0.532423
7788.000000;0.532407
7787.000000;0.532343
7786.000000;0.532199
7785.000000;0.531986
7784.000000;0.531763
7783.000000;0.531606
7782.000000;0.531544
7781.000000;0.531540
7780.000000;0.531527
7779.000000;0.531482
7778.000000;0.531418
7777.000000;0.531339
7776.000000;0.531222
7775.000000;0.531071
7774.000000;0.530931
7773.000000;0.530849
7772.000000;0.530834
7771.000000;0.530856
7770.000000;0.530879
7769.000000;0.530880
7768.000000;0.530847
7767.000000;0.530784
7766.000000;0.530700
7765.000000;0.530591
7764.000000;0.530456
7763.000000;0.530328
7762.000000;0.530253
7761.000000;0.530232
7760.000000;0.530201
7759.000000;0.530100
7758.000000;0.529953
7757.000000;0.529841
7756.000000;0.529794
7755.000000;0.529753
7754.000000;0.529654
7753.000000;0.529512
7752.000000;0.529405
7751.000000;0.529389
7750.000000;0.529435
7749.000000;0.529474
7748.000000;0.529457
7747.000000;0.529386
7746.000000;0.529294
7745.000000;0.529199
7744.000000;0.529094
7743.000000;0.528967
7742.000000;0.528830
7741.000000;0.528712
7740.000000;0.528644
7739.000000;0.528629
7738.000000;0.528654
7737.000000;0.528703
7736.000000;0.528750
7735.000000;0.528751
7734.000000;0.528677
7733.000000;0.528547
7732.000000;0.528422
7731.000000;0.528342
7730.000000;0.528284
7729.000000;0.528191
7728.000000;0.528042
7727.000000;0.527868
7726.000000;0.527715
7725.000000;0.527600
7724.000000;0.527524
7723.000000;0.527486
7722.000000;0.527480
7721.000000;0.527480
7720.000000;0.527431
7719.000000;0.527303
7718.000000;0.527119
7717.000000;0.526946
7716.000000;0.526834
7715.000000;0.526787
7714.000000;0.526781
7713.000000;0.526797
7712.000000;0.526824
7711.000000;0.526842
7710.000000;0.526823
7709.000000;0.526750
7708.000000;0.526613
7707.000000;0.526420
7706.000000;0.526224
7705.000000;0.526118
7704.000000;0.526156
7703.000000;0.526269
7702.000000;0.526316
7701.000000;0.526242
7700.000000;0.526131
7699.000000;0.526087
7698.000000;0.526097
7697.000000;0.526075
7696.000000;0.525992
7695.000000;0.525905
7694.000000;0.525867
7693.000000;0.525867
7692.000000;0.525870
7691.000000;0.525843
7690.000000;0.525753
7689.000000;0.525580
7688.000000;0.525361
7687.000000;0.525178
7686.000000;0.525076
7685.000000;0.525023
7684.000000;0.524964
7683.000000;0.524889
7682.000000;0.524820
7681.000000;0.524753
7680.000000;0.524669
7679.000000;0.524581
7678.000000;0.524538
7677.000000;0.524563
7676.000000;0.524618
7675.000000;0.524636
7674.000000;0.524579
7673.000000;0.524467
7672.000000;0.524346
7671.000000;0.524245
7670.000000;0.524157
7669.000000;0.524065
7668.000000;0.523970
7667.000000;0.523877
7666.000000;0.523776
7665.000000;0.523653
7664.000000;0.523523
7663.000000;0.523413
7662.000000;0.523334
7661.000000;0.523290
7660.000000;0.523303
7659.000000;0.523394
7658.000000;0.523528
7657.000000;0.523614
7656.000000;0.523586
7655.000000;0.523456
7654.000000;0.523272
7653.000000;0.523061
7652.000000;0.522845
7651.000000;0.522675
7650.000000;0.522604
7649.000000;0.522625
7648.000000;0.522678
7647.000000;0.522717
7646.000000;0.522735
7645.000000;0.522744
7644.000000;0.522738
7643.000000;0.522696
7642.000000;0.522607
7641.000000;0.522491
7640.000000;0.522391
7639.000000;0.522356
7638.000000;0.522385
7637.000000;0.522418
7636.000000;0.522377
7635.000000;0.522238
7634.000000;0.522040
7633.000000;0.521857
7632.000000;0.521753
7631.000000;0.521748
7630.000000;0.521800
7629.000000;0.521826
7628.000000;0.521779
7627.000000;0.521679
7626.000000;0.521577
7625.000000;0.521492
7624.000000;0.521424
7623.000000;0.521392
7622.000000;0.521404
7621.000000;0.521411
7620.000000;0.521354
7619.000000;0.521263
7618.000000;0.521226
7617.000000;0.521258
7616.000000;0.521243
7615.000000;0.521085
7614.000000;0.520844
7613.000000;0.520664
7612.000000;0.520594
7611.000000;0.520560
7610.000000;0.520487
7609.000000;0.520389
7608.000000;0.520316
7607.000000;0.520282
7606.000000;0.520274
7605.000000;0.520292
7604.000000;0.520338
7603.000000;0.520397
7602.000000;0.520449
7601.000000;0.520474
7600.000000;0.520438
7599.000000;0.520311
7598.000000;0.520123
7597.000000;0.519976
7596.000000;0.519942
7595.000000;0.519976
7594.000000;0.519974
7593.000000;0.519898
7592.000000;0.519790
7591.000000;0.519686
7590.000000;0.519570
7589.000000;0.519441
7588.000000;0.519361
7587.000000;0.519399
7586.000000;0.519549
7585.000000;0.519719
7584.000000;0.519795
7583.000000;0.519708
7582.000000;0.519464
7581.000000;0.519154
7580.000000;0.518905
7579.000000;0.518802
7578.000000;0.518825
7577.000000;0.518889
7576.000000;0.518914
7575.000000;0.518882
7574.000000;0.518825
7573.000000;0.518793
7572.000000;0.518818
7571.000000;0.518882
7570.000000;0.518926
7569.000000;0.518902
7568.000000;0.518825
7567.000000;0.518755
7566.000000;0.518728
7565.000000;0.518727
7564.000000;0.518705
7563.000000;0.518645
7562.000000;0.518563
7561.000000;0.518488
7560.000000;0.518423
7559.000000;0.518344
7558.000000;0.518223
7557.000000;0.518063
7556.000000;0.517907
7555.000000;0.517812
7554.000000;0.517804
7553.000000;0.517861
7552.000000;0.517923
7551.000000;0.517935
7550.000000;0.517875
7549.000000;0.517761
7548.000000;0.517632
7547.000000;0.517527
7546.000000;0.517479
7545.000000;0.517512
7544.000000;0.517611
7543.000000;0.517713
7542.000000;0.517750
7541.000000;0.517724
7540.000000;0.517698
7539.000000;0.517721
7538.000000;0.517764
7537.000000;0.517766
7536.000000;0.517698
7535.000000;0.517583
7534.000000;0.517454
7533.000000;0.517343
7532.000000;0.517274
7531.000000;0.517246
7530.000000;0.517229
7529.000000;0.517199
7528.000000;0.517164
7527.000000;0.517145
7526.000000;0.517126
7525.000000;0.517072
7524.000000;0.516982
7523.000000;0.516900
7522.000000;0.516864
7521.000000;0.516880
7520.000000;0.516925
7519.000000;0.516971
7518.000000;0.516986
7517.000000;0.516954
7516.000000;0.516892
7515.000000;0.516843
7514.000000;0.516830
7513.000000;0.516843
7512.000000;0.516839
7511.000000;0.516768
7510.000000;0.516610
7509.000000;0.516407
7508.000000;0.516254
7507.000000;0.516214
7506.000000;0.516264
7505.000000;0.516341
7504.000000;0.516426
7503.000000;0.516526
7502.000000;0.516610
7501.000000;0.516608
7500.000000;0.516511
7499.000000;0.516401
7498.000000;0.516354
7497.000000;0.516360
7496.000000;0.516367
7495.000000;0.516342
7494.000000;0.516308
7493.000000;0.516261
7492.000000;0.516184
7491.000000;0.516106
7490.000000;0.516052
7489.000000;0.516033
7488.000000;0.516042
7487.000000;0.516083
7486.000000;0.516161
7485.000000;0.516259
7484.000000;0.516344
7483.000000;0.516395
7482.000000;0.516395
7481.000000;0.516323
7480.000000;0.516186
7479.000000;0.516044
7478.000000;0.515979
7477.000000;0.516006
7476.000000;0.516062
7475.000000;0.516079
7474.000000;0.516046
7473.000000;0.515991
7472.000000;0.515925
7471.000000;0.515840
7470.000000;0.515745
7469.000000;0.515661
7468.000000;0.515598
7467.000000;0.515541
7466.000000;0.515492
7465.000000;0.515477
7464.000000;0.515518
7463.000000;0.515591
7462.000000;0.515647
7461.000000;0.515659
7460.000000;0.515647
7459.000000;0.515643
7458.000000;0.515648
7457.000000;0.515649
7456.000000;0.515654
7455.000000;0.515687
7454.000000;0.515751
7453.000000;0.515809
7452.000000;0.515826
7451.000000;0.515807
7450.000000;0.515786
7449.000000;0.515784
7448.000000;0.515804
7447.000000;0.515844
7446.000000;0.515890
7445.000000;0.515902
7444.000000;0.515840
7443.000000;0.515726
7442.000000;0.515646
7441.000000;0.515669
7440.000000;0.515771
7439.000000;0.515850
7438.000000;0.515840
7437.000000;0.515773
7436.000000;0.515740
7435.000000;0.515792
7434.000000;0.515888
7433.000000;0.515938
7432.000000;0.515884
7431.000000;0.515744
7430.000000;0.515606
7429.000000;0.515561
7428.000000;0.515634
7427.000000;0.515772
7426.000000;0.515897
7425.000000;0.515966
7424.000000;0.515985
7423.000000;0.515978
7422.000000;0.515968
7421.000000;0.515968
7420.000000;0.515986
7419.000000;0.516011
7418.000000;0.516027
7417.000000;0.516034
7416.000000;0.516042
7415.000000;0.516053
7414.000000;0.516060
7413.000000;0.516059
7412.000000;0.516044
7411.000000;0.515998
7410.000000;0.515905
7409.000000;0.515807
7408.000000;0.515790
7407.000000;0.515901
7406.000000;0.516084
7405.000000;0.516221
7404.000000;0.516242
7403.000000;0.516172
7402.000000;0.516090
7401.000000;0.516053
7400.000000;0.516066
7399.000000;0.516089
7398.000000;0.516093
7397.000000;0.516102
7396.000000;0.516168
7395.000000;0.516293
7394.000000;0.516405
7393.000000;0.516436
7392.000000;0.516398
7391.000000;0.516355
7390.000000;0.516353
7389.000000;0.516398
7388.000000;0.516493
7387.000000;0.516624
7386.000000;0.516736
7385.000000;0.516778
7384.000000;0.516770
7383.000000;0.516781
7382.000000;0.516826
7381.000000;0.516845
7380.000000;0.516798
7379.000000;0.516737
7378.000000;0.516739
7377.000000;0.516808
7376.000000;0.516880
7375.000000;0.516904
7374.000000;0.516884
7373.000000;0.516858
7372.000000;0.516855
7371.000000;0.516886
7370.000000;0.516937
7369.000000;0.516989
7368.000000;0.517047
7367.000000;0.517137
7366.000000;0.517276
7365.000000;0.517448
7364.000000;0.517619
7363.000000;0.517760
7362.000000;0.517852
7361.000000;0.517884
7360.000000;0.517872
7359.000000;0.517858
7358.000000;0.517876
7357.000000;0.517910
7356.000000;0.517911
7355.000000;0.517862
7354.000000;0.517793
7353.000000;0.517740
7352.000000;0.517712
7351.000000;0.517713
7350.000000;0.517762
7349.000000;0.517870
7348.000000;0.518008
7347.000000;0.518136
7346.000000;0.518247
7345.000000;0.518380
7344.000000;0.518575
7343.000000;0.518827
7342.000000;0.519072
7341.000000;0.519228
7340.000000;0.519256
7339.000000;0.519198
7338.000000;0.519129
7337.000000;0.519074
7336.000000;0.518993
7335.000000;0.518864
7334.000000;0.518745
7333.000000;0.518729
7332.000000;0.518843
7331.000000;0.519028
7330.000000;0.519209
7329.000000;0.519353
7328.000000;0.519461
7327.000000;0.519541
7326.000000;0.519622
7325.000000;0.519730
7324.000000;0.519865
7323.000000;0.519994
7322.000000;0.520077
7321.000000;0.520091
7320.000000;0.520032
7319.000000;0.519929
7318.000000;0.519841
7317.000000;0.519846
7316.000000;0.519973
7315.000000;0.520175
7314.000000;0.520374
7313.000000;0.520541
7312.000000;0.520715
7311.000000;0.520943
7310.000000;0.521234
7309.000000;0.521552
7308.000000;0.521833
7307.000000;0.522000
7306.000000;0.522003
7305.000000;0.521878
7304.000000;0.521737
7303.000000;0.521682
7302.000000;0.521732
7301.000000;0.521839
7300.000000;0.521956
7299.000000;0.522068
7298.000000;0.522181
7297.000000;0.522323
7296.000000;0.522512
7295.000000;0.522723
7294.000000;0.522888
7293.000000;0.522965
7292.000000;0.522987
7291.000000;0.523016
7290.000000;0.523085
7289.000000;0.523199
7288.000000;0.523388
7287.000000;0.523683
7286.000000;0.524060
7285.000000;0.524435
7284.000000;0.524739
7283.000000;0.524961
7282.000000;0.525103
7281.000000;0.525154
7280.000000;0.525133
7279.000000;0.525112
7278.000000;0.525180
7277.000000;0.525371
7276.000000;0.525646
7275.000000;0.525944
7274.000000;0.526215
7273.000000;0.526424
7272.000000;0.526567
7271.000000;0.526683
7270.000000;0.526833
7269.000000;0.527048
7268.000000;0.527312
7267.000000;0.527587
7266.000000;0.527849
7265.000000;0.528081
7264.000000;0.528285
7263.000000;0.528487
7262.000000;0.528732
7261.000000;0.529046
7260.000000;0.529405
7259.000000;0.529753
7258.000000;0.530043
7257.000000;0.530271
7256.000000;0.530466
7255.000000;0.530673
7254.000000;0.530930
7253.000000;0.531244
7252.000000;0.531594
7251.000000;0.531949
7250.000000;0.532286
7249.000000;0.532597
7248.000000;0.532886
7247.000000;0.533162
7246.000000;0.533452
7245.000000;0.533792
7244.000000;0.534192
7243.000000;0.534616
7242.000000;0.535020
7241.000000;0.535392
7240.000000;0.535747
7239.000000;0.536096
7238.000000;0.536446
7237.000000;0.536816
7236.000000;0.537245
7235.000000;0.537763
7234.000000;0.538325
7233.000000;0.538812
7232.000000;0.539122
7231.000000;0.539299
7230.000000;0.539517
7229.000000;0.539907
7228.000000;0.540428
7227.000000;0.540914
7226.000000;0.541239
7225.000000;0.541433
7224.000000;0.541634
7223.000000;0.541947
7222.000000;0.542368
7221.000000;0.542831
7220.000000;0.543261
7219.000000;0.543617
7218.000000;0.543904
7217.000000;0.544176
7216.000000;0.544493
7215.000000;0.544882
7214.000000;0.545334
7213.000000;0.545830
7212.000000;0.546344
7211.000000;0.546843
7210.000000;0.547301
7209.000000;0.547730
7208.000000;0.548170
7207.000000;0.548632
7206.000000;0.549089
7205.000000;0.549534
7204.000000;0.550034
7203.000000;0.550681
7202.000000;0.551471
7201.000000;0.552271
7200.000000;0.552939
7199.000000;0.553453
7198.000000;0.553907
7197.000000;0.554377
7196.000000;0.554843
7195.000000;0.555246
7194.000000;0.555605
7193.000000;0.556019
7192.000000;0.556550
7191.000000;0.557155
7190.000000;0.557740
7189.000000;0.558242
7188.000000;0.558657
7187.000000;0.559035
7186.000000;0.559477
7185.000000;0.560081
7184.000000;0.560844
7183.000000;0.561640
7182.000000;0.562349
7181.000000;0.562987
7180.000000;0.563640
7179.000000;0.564296
7178.000000;0.564842
7177.000000;0.565250
7176.000000;0.565646
7175.000000;0.566153
7174.000000;0.566738
7173.000000;0.567257
7172.000000;0.567649
7171.000000;0.568023
7170.000000;0.568548
7169.000000;0.569313
7168.000000;0.570268
7167.000000;0.571261
7166.000000;0.572131
7165.000000;0.572838
7164.000000;0.573494
7163.000000;0.574226
7162.000000;0.575021
7161.000000;0.575751
7160.000000;0.576347
7159.000000;0.576889
7158.000000;0.577481
7157.000000;0.578108
7156.000000;0.578674
7155.000000;0.579167
7154.000000;0.579718
7153.000000;0.580460
7152.000000;0.581365
7151.000000;0.582251
7150.000000;0.582927
7149.000000;0.583318
7148.000000;0.583488
7147.000000;0.583610
7146.000000;0.583907
7145.000000;0.584540
7144.000000;0.585490
7143.000000;0.586571
7142.000000;0.587604
7141.000000;0.588529
7140.000000;0.589356
7139.000000;0.590067
7138.000000;0.590625
7137.000000;0.591030
7136.000000;0.591312
7135.000000;0.591523
7134.000000;0.591754
7133.000000;0.592081
7132.000000;0.592440
7131.000000;0.592688
7130.000000;0.592880
7129.000000;0.593361
7128.000000;0.594372
7127.000000;0.595640
7126.000000;0.596573
7125.000000;0.596888
7124.000000;0.596825
7123.000000;0.596736
7122.000000;0.596709
7121.000000;0.596679
7120.000000;0.596658
7119.000000;0.596691
7118.000000;0.596713
7117.000000;0.596622
7116.000000;0.596433
7115.000000;0.596267
7114.000000;0.596258
7113.000000;0.596494
7112.000000;0.596962
7111.000000;0.597487
7110.000000;0.597826
7109.000000;0.597885
7108.000000;0.597786
7107.000000;0.597713
7106.000000;0.597779
7105.000000;0.598010
7104.000000;0.598325
7103.000000;0.598474
7102.000000;0.598193
7101.000000;0.597504
7100.000000;0.596728
7099.000000;0.596119
7098.000000;0.595614
7097.000000;0.594997
7096.000000;0.594206
7095.000000;0.593371
7094.000000;0.592678
7093.000000;0.592268
7092.000000;0.592196
7091.000000;0.592347
7090.000000;0.592422
7089.000000;0.592082
7088.000000;0.591173
7087.000000;0.589932
7086.000000;0.588967
7085.000000;0.588830
7084.000000;0.589379
7083.000000;0.589695
7082.000000;0.588932
7081.000000;0.587238
7080.000000;0.585517
7079.000000;0.584335
7078.000000;0.583446
7077.000000;0.582391
7076.000000;0.581053
7075.000000;0.579506
7074.000000;0.577726
7073.000000;0.575732
7072.000000;0.573748
7071.000000;0.571991
7070.000000;0.570477
7069.000000;0.569182
7068.000000;0.568153
7067.000000;0.567329
7066.000000;0.566526
7065.000000;0.565704
7064.000000;0.564942
7063.000000;0.563993
7062.000000;0.562311
7061.000000;0.559820
7060.000000;0.557290
7059.000000;0.555530
7058.000000;0.554446
7057.000000;0.553286
7056.000000;0.551630
7055.000000;0.549716
7054.000000;0.547860
7053.000000;0.546027
7052.000000;0.544053
7051.000000;0.542019
7050.000000;0.540235
7049.000000;0.538927
7048.000000;0.537955
7047.000000;0.536839
7046.000000;0.535207
7045.000000;0.533220
7044.000000;0.531340
7043.000000;0.529629
7042.000000;0.527640
7041.000000;0.525136
7040.000000;0.522538
7039.000000;0.520336
7038.000000;0.518357
7037.000000;0.516026
7036.000000;0.513224
7035.000000;0.510475
7034.000000;0.508291
7033.000000;0.506630
7032.000000;0.505023
7031.000000;0.503079
7030.000000;0.500809
7029.000000;0.498550
7028.000000;0.496543
7027.000000;0.494587
7026.000000;0.492290
7025.000000;0.489647
7024.000000;0.487037
7023.000000;0.484558
7022.000000;0.481798
7021.000000;0.478586
7020.000000;0.475541
7019.000000;0.473384
7018.000000;0.471925
7017.000000;0.470237
7016.000000;0.467769
7015.000000;0.464833
7014.000000;0.462006
7013.000000;0.459510
7012.000000;0.457259
7011.000000;0.455139
7010.000000;0.453070
7009.000000;0.450980
7008.000000;0.448790
7007.000000;0.446312
7006.000000;0.443263
7005.000000;0.439620
7004.000000;0.435859
7003.000000;0.432520
7002.000000;0.429607
7001.000000;0.426735
7000.000000;0.423787
6999.000000;0.421052
6998.000000;0.418692
6997.000000;0.416528
6996.000000;0.414462
6995.000000;0.412663
6994.000000;0.411092
6993.000000;0.409201
6992.000000;0.406413
6991.000000;0.402757
6990.000000;0.398805
6989.000000;0.395148
6988.000000;0.392099
6987.000000;0.389663
6986.000000;0.387529
6985.000000;0.385250
6984.000000;0.382642
6983.000000;0.379869
6982.000000;0.377016
6981.000000;0.373869
6980.000000;0.370435
6979.000000;0.367380
6978.000000;0.365446
6977.000000;0.364470
6976.000000;0.363418
6975.000000;0.361450
6974.000000;0.358599
6973.000000;0.355322
6972.000000;0.351820
6971.000000;0.348090
6970.000000;0.344337
6969.000000;0.340965
6968.000000;0.338144
6967.000000;0.335658
6966.000000;0.333203
6965.000000;0.330738
6964.000000;0.328454
6963.000000;0.326422
6962.000000;0.324350
6961.000000;0.321814
6960.000000;0.318796
6959.000000;0.315816
6958.000000;0.313353
6957.000000;0.311246
6956.000000;0.308954
6955.000000;0.306344
6954.000000;0.303902
6953.000000;0.302034
6952.000000;0.300483
6951.000000;0.298635
6950.000000;0.296180
6949.000000;0.293284
6948.000000;0.290291
6947.000000;0.287464
6946.000000;0.284919
6945.000000;0.282586
6944.000000;0.280217
6943.000000;0.277579
6942.000000;0.274670
6941.000000;0.271739
6940.000000;0.269144
6939.000000;0.267171
6938.000000;0.265803
6937.000000;0.264629
6936.000000;0.263101
6935.000000;0.260967
6934.000000;0.258380
6933.000000;0.255595
6932.000000;0.252722
6931.000000;0.249796
6930.000000;0.246927
6929.000000;0.244308
6928.000000;0.242158
6927.000000;0.240633
6926.000000;0.239575
6925.000000;0.238393
6924.000000;0.236528
6923.000000;0.234107
6922.000000;0.231830
6921.000000;0.230118
6920.000000;0.228682
6919.000000;0.227049
6918.000000;0.225137
6917.000000;0.223130
6916.000000;0.221125
6915.000000;0.219194
6914.000000;0.217527
6913.000000;0.216163
6912.000000;0.214784
6911.000000;0.213110
6910.000000;0.211323
6909.000000;0.209757
6908.000000;0.208261
6907.000000;0.206265
6906.000000;0.203523
6905.000000;0.200528
6904.000000;0.198112
6903.000000;0.196712
6902.000000;0.196067
6901.000000;0.195521
6900.000000;0.194602
6899.000000;0.193325
6898.000000;0.191854
6897.000000;0.190024
6896.000000;0.187534
6895.000000;0.184686
6894.000000;0.182514
6893.000000;0.181819
6892.000000;0.182272
6891.000000;0.182759
6890.000000;0.182454
6889.000000;0.181278
6888.000000;0.179576
6887.000000;0.177775
6886.000000;0.176324
6885.000000;0.175478
6884.000000;0.174937
6883.000000;0.173973
6882.000000;0.172156
6881.000000;0.169856
6880.000000;0.167901
6879.000000;0.166766
6878.000000;0.166236
6877.000000;0.165816
6876.000000;0.165310
6875.000000;0.164815
6874.000000;0.164271
6873.000000;0.163436
6872.000000;0.162406
6871.000000;0.161700
6870.000000;0.161460
6869.000000;0.160912
6868.000000;0.159214
6867.000000;0.156711
6866.000000;0.154730
6865.000000;0.154078
6864.000000;0.154350
6863.000000;0.154812
6862.000000;0.155233
6861.000000;0.155548
6860.000000;0.155369
6859.000000;0.154365
6858.000000;0.152767
6857.000000;0.151073
6856.000000;0.149570
6855.000000;0.148512
6854.000000;0.148304
6853.000000;0.148972
6852.000000;0.149678
6851.000000;0.149372
6850.000000;0.147875
6849.000000;0.146012
6848.000000;0.144779
6847.000000;0.144728
6846.000000;0.145883
6845.000000;0.147642
6844.000000;0.148813
6843.000000;0.148398
6842.000000;0.146607
6841.000000;0.144799
6840.000000;0.144164
6839.000000;0.144656
6838.000000;0.145274
6837.000000;0.145132
6836.000000;0.144206
6835.000000;0.143259
6834.000000;0.143132
6833.000000;0.143979
6832.000000;0.145139
6831.000000;0.145833
6830.000000;0.145904
6829.000000;0.145803
6828.000000;0.145973
6827.000000;0.146449
6826.000000;0.146977
6825.000000;0.147252
6824.000000;0.147041
6823.000000;0.146320
6822.000000;0.145365
6821.000000;0.144628
6820.000000;0.144484
6819.000000;0.145039
6818.000000;0.146079
6817.000000;0.147160
6816.000000;0.147900
6815.000000;0.148302
6814.000000;0.148676
6813.000000;0.149146
6812.000000;0.149396
6811.000000;0.149095
6810.000000;0.148428
6809.000000;0.147996
6808.000000;0.148243
6807.000000;0.149098
6806.000000;0.150099
6805.000000;0.150747
6804.000000;0.150859
6803.000000;0.150731
6802.000000;0.150863
6801.000000;0.151428
6800.000000;0.152155
6799.000000;0.152843
6798.000000;0.153695
6797.000000;0.154858
6796.000000;0.155923
6795.000000;0.156352
6794.000000;0.156301
6793.000000;0.156566
6792.000000;0.157648
6791.000000;0.159253
6790.000000;0.160843
6789.000000;0.162233
6788.000000;0.163400
6787.000000;0.164049
6786.000000;0.163864
6785.000000;0.163098
6784.000000;0.162529
6783.000000;0.162696
6782.000000;0.163408
6781.000000;0.164150
6780.000000;0.164746
6779.000000;0.165393
6778.000000;0.166156
6777.000000;0.166748
6776.000000;0.166935
6775.000000;0.166945
6774.000000;0.167243
6773.000000;0.167937
6772.000000;0.168640
6771.000000;0.168967
6770.000000;0.169007
6769.000000;0.169212
6768.000000;0.169895
6767.000000;0.170985
6766.000000;0.172196
6765.000000;0.173301
6764.000000;0.174246
6763.000000;0.175069
6762.000000;0.175770
6761.000000;0.176296
6760.000000;0.176667
6759.000000;0.177087
6758.000000;0.177812
6757.000000;0.178833
6756.000000;0.179812
6755.000000;0.180419
6754.000000;0.180719
6753.000000;0.181117
6752.000000;0.181908
6751.000000;0.182949
6750.000000;0.183809
6749.000000;0.184219
6748.000000;0.184352
6747.000000;0.184639
6746.000000;0.185293
6745.000000;0.186090
6744.000000;0.186672
6743.000000;0.187016
6742.000000;0.187435
6741.000000;0.188113
6740.000000;0.188846
6739.000000;0.189356
6738.000000;0.189698
6737.000000;0.190168
6736.000000;0.190900
6735.000000;0.191763
6734.000000;0.192611
6733.000000;0.193447
6732.000000;0.194275
6731.000000;0.195001
6730.000000;0.195605
6729.000000;0.196261
6728.000000;0.197131
6727.000000;0.198098
6726.000000;0.198862
6725.000000;0.199285
6724.000000;0.199526
6723.000000;0.199816
6722.000000;0.200222
6721.000000;0.200712
6720.000000;0.201316
6719.000000;0.202081
6718.000000;0.202888
6717.000000;0.203511
6716.000000;0.203942
6715.000000;0.204533
6714.000000;0.205666
6713.000000;0.207278
6712.000000;0.208832
6711.000000;0.209789
6710.000000;0.210070
6709.000000;0.210041
6708.000000;0.210136
6707.000000;0.210560
6706.000000;0.211255
6705.000000;0.212058
6704.000000;0.212836
6703.000000;0.213516
6702.000000;0.214064
6701.000000;0.214501
6700.000000;0.214904
6699.000000;0.215412
6698.000000;0.216015
6697.000000;0.216542
6696.000000;0.216853
6695.000000;0.217058
6694.000000;0.217463
6693.000000;0.218257
6692.000000;0.219324
6691.000000;0.220405
6690.000000;0.221354
6689.000000;0.222189
6688.000000;0.222942
6687.000000;0.223588
6686.000000;0.224091
6685.000000;0.224472
6684.000000;0.224786
6683.000000;0.225097
6682.000000;0.225451
6681.000000;0.225891
6680.000000;0.226462
6679.000000;0.227213
6678.000000;0.228139
6677.000000;0.229098
6676.000000;0.229864
6675.000000;0.230313
6674.000000;0.230556
6673.000000;0.230822
6672.000000;0.231244
6671.000000;0.231795
6670.000000;0.232405
6669.000000;0.233031
6668.000000;0.233620
6667.000000;0.234118
6666.000000;0.234560
6665.000000;0.235096
6664.000000;0.235838
6663.000000;0.236712
6662.000000;0.237521
6661.000000;0.238142
6660.000000;0.238621
6659.000000;0.239091
6658.000000;0.239626
6657.000000;0.240183
6656.000000;0.240643
6655.000000;0.240953
6654.000000;0.241230
6653.000000;0.241730
6652.000000;0.242610
6651.000000;0.243743
6650.000000;0.244804
6649.000000;0.245564
6648.000000;0.246051
6647.000000;0.246428
6646.000000;0.246784
6645.000000;0.247122
6644.000000;0.247468
6643.000000;0.247886
6642.000000;0.248400
6641.000000;0.248973
6640.000000;0.249575
6639.000000;0.250204
6638.000000;0.250822
6637.000000;0.251350
6636.000000;0.251767
6635.000000;0.252170
6634.000000;0.252679
6633.000000;0.253307
6632.000000;0.253955
6631.000000;0.254526
6630.000000;0.254997
6629.000000;0.255403
6628.000000;0.255790
6627.000000;0.256184
6626.000000;0.256585
6625.000000;0.256993
6624.000000;0.257441
6623.000000;0.257978
6622.000000;0.258610
6621.000000;0.259273
6620.000000;0.259912
6619.000000;0.260562
6618.000000;0.261293
6617.000000;0.262087
6616.000000;0.262810
6615.000000;0.263347
6614.000000;0.263715
6613.000000;0.264018
6612.000000;0.264334
6611.000000;0.264676
6610.000000;0.265051
6609.000000;0.265482
6608.000000;0.265975
6607.000000;0.266493
6606.000000;0.266995
6605.000000;0.267475
6604.000000;0.267944
6603.000000;0.268384
6602.000000;0.268767
6601.000000;0.269126
6600.000000;0.269547
6599.000000;0.270083
6598.000000;0.270686
6597.000000;0.271272
6596.000000;0.271826
6595.000000;0.272404
6594.000000;0.273028
6593.000000;0.273633
6592.000000;0.274147
6591.000000;0.274567
6590.000000;0.274948
6589.000000;0.275337
6588.000000;0.275751
6587.000000;0.276189
6586.000000;0.276634
6585.000000;0.277055
6584.000000;0.277459
6583.000000;0.277915
6582.000000;0.278484
6581.000000;0.279138
6580.000000;0.279782
6579.000000;0.280350
6578.000000;0.280837
6577.000000;0.281251
6576.000000;0.281588
6575.000000;0.281883
6574.000000;0.282210
6573.000000;0.282602
6572.000000;0.283004
6571.000000;0.283350
6570.000000;0.283658
6569.000000;0.283999
6568.000000;0.284404
6567.000000;0.284838
6566.000000;0.285277
6565.000000;0.285763
6564.000000;0.286343
6563.000000;0.286977
6562.000000;0.287545
6561.000000;0.287953
6560.000000;0.288237
6559.000000;0.288540
6558.000000;0.288965
6557.000000;0.289475
6556.000000;0.289946
6555.000000;0.290320
6554.000000;0.290656
6553.000000;0.291041
6552.000000;0.291470
6551.000000;0.291878
6550.000000;0.292240
6549.000000;0.292605
6548.000000;0.293023
6547.000000;0.293474
6546.000000;0.293900
6545.000000;0.294275
6544.000000;0.294627
6543.000000;0.294997
6542.000000;0.295398
6541.000000;0.295802
6540.000000;0.296180
6539.000000;0.296542
6538.000000;0.296935
6537.000000;0.297391
6536.000000;0.297888
6535.000000;0.298376
6534.000000;0.298824
6533.000000;0.299231
6532.000000;0.299598
6531.000000;0.299919
6530.000000;0.300218
6529.000000;0.300547
6528.000000;0.300945
6527.000000;0.301402
6526.000000;0.301881
6525.000000;0.302340
6524.000000;0.302734
6523.000000;0.303026
6522.000000;0.303234
6521.000000;0.303451
6520.000000;0.303770
6519.000000;0.304190
6518.000000;0.304625
6517.000000;0.305002
6516.000000;0.305326
6515.000000;0.305646
6514.000000;0.305999
6513.000000;0.306390
6512.000000;0.306811
6511.000000;0.307236
6510.000000;0.307626
6509.000000;0.307969
6508.000000;0.308289
6507.000000;0.308627
6506.000000;0.308994
6505.000000;0.309371
6504.000000;0.309744
6503.000000;0.310108
6502.000000;0.310441
6501.000000;0.310711
6500.000000;0.310917
6499.000000;0.311116
6498.000000;0.311396
6497.000000;0.311804
6496.000000;0.312303
6495.000000;0.312800
6494.000000;0.313202
6493.000000;0.313473
6492.000000;0.313648
6491.000000;0.313807
6490.000000;0.314018
6489.000000;0.314306
6488.000000;0.314649
6487.000000;0.315017
6486.000000;0.315396
6485.000000;0.315774
6484.000000;0.316124
6483.000000;0.316413
6482.000000;0.316641
6481.000000;0.316858
6480.000000;0.317118
6479.000000;0.317433
6478.000000;0.317781
6477.000000;0.318143
6476.000000;0.318511
6475.000000;0.318858
6474.000000;0.319146
6473.000000;0.319372
6472.000000;0.319586
6471.000000;0.319843
6470.000000;0.320151
6469.000000;0.320480
6468.000000;0.320809
6467.000000;0.321149
6466.000000;0.321513
6465.000000;0.321889
6464.000000;0.322250
6463.000000;0.322573
6462.000000;0.322851
6461.000000;0.323100
6460.000000;0.323336
6459.000000;0.323561
6458.000000;0.323764
6457.000000;0.323962
6456.000000;0.324209
6455.000000;0.324538
6454.000000;0.324906
6453.000000;0.325221
6452.000000;0.325463
6451.000000;0.325715
6450.000000;0.326066
6449.000000;0.326489
6448.000000;0.326856
6447.000000;0.327078
6446.000000;0.327188
6445.000000;0.327290
6444.000000;0.327458
6443.000000;0.327698
6442.000000;0.327975
6441.000000;0.328251
6440.000000;0.328503
6439.000000;0.328743
6438.000000;0.328998
6437.000000;0.329284
6436.000000;0.329574
6435.000000;0.329841
6434.000000;0.330092
6433.000000;0.330347
6432.000000;0.330591
6431.000000;0.330794
6430.000000;0.330974
6429.000000;0.331205
6428.000000;0.331533
6427.000000;0.331908
6426.000000;0.332239
6425.000000;0.332481
6424.000000;0.332650
6423.000000;0.332779
6422.000000;0.332896
6421.000000;0.333036
6420.000000;0.333232
6419.000000;0.333477
6418.000000;0.333731
6417.000000;0.333964
6416.000000;0.334169
6415.000000;0.334352
6414.000000;0.334522
6413.000000;0.334703
6412.000000;0.334921
6411.000000;0.335166
6410.000000;0.335408
6409.000000;0.335643
6408.000000;0.335892
6407.000000;0.336151
6406.000000;0.336376
6405.000000;0.336539
6404.000000;0.336676
6403.000000;0.336848
6402.000000;0.337076
6401.000000;0.337345
6400.000000;0.337636
6399.000000;0.337925
6398.000000;0.338178
6397.000000;0.338373
6396.000000;0.338532
6395.000000;0.338697
6394.000000;0.338872
6393.000000;0.339014
6392.000000;0.339098
6391.000000;0.339158
6390.000000;0.339265
6389.000000;0.339453
6388.000000;0.339706
6387.000000;0.339985
6386.000000;0.340268
6385.000000;0.340551
6384.000000;0.340819
6383.000000;0.341039
6382.000000;0.341178
6381.000000;0.341241
6380.000000;0.341276
6379.000000;0.341333
6378.000000;0.341438
6377.000000;0.341597
6376.000000;0.341805
6375.000000;0.342034
6374.000000;0.342241
6373.000000;0.342394
6372.000000;0.342511
6371.000000;0.342642
6370.000000;0.342827
6369.000000;0.343058
6368.000000;0.343285
6367.000000;0.343470
6366.000000;0.343621
6365.000000;0.343781
6364.000000;0.343976
6363.000000;0.344169
6362.000000;0.344303
6361.000000;0.344375
6360.000000;0.344438
6359.000000;0.344538
6358.000000;0.344665
6357.000000;0.344786
6356.000000;0.344894
6355.000000;0.345007
6354.000000;0.345151
6353.000000;0.345342
6352.000000;0.345584
6351.000000;0.345847
6350.000000;0.346066
6349.000000;0.346199
6348.000000;0.346269
6347.000000;0.346345
6346.000000;0.346468
6345.000000;0.346622
6344.000000;0.346763
6343.000000;0.346857
6342.000000;0.346891
6341.000000;0.346883
6340.000000;0.346887
6339.000000;0.346959
6338.000000;0.347108
6337.000000;0.347288
6336.000000;0.347449
6335.000000;0.347584
6334.000000;0.347715
6333.000000;0.347853
6332.000000;0.347982
6331.000000;0.348090
6330.000000;0.348183
6329.000000;0.348276
6328.000000;0.348372
6327.000000;0.348472
6326.000000;0.348580
6325.000000;0.348698
6324.000000;0.348814
6323.000000;0.348913
6322.000000;0.349003
6321.000000;0.349114
6320.000000;0.349265
6319.000000;0.349430
6318.000000;0.349572
6317.000000;0.349684
6316.000000;0.349793
6315.000000;0.349910
6314.000000;0.350016
6313.000000;0.350087
6312.000000;0.350127
6311.000000;0.350148
6310.000000;0.350158
6309.000000;0.350177
6308.000000;0.350241
6307.000000;0.350371
6306.000000;0.350541
6305.000000;0.350701
6304.000000;0.350814
6303.000000;0.350873
6302.000000;0.350894
6301.000000;0.350911
6300.000000;0.350963
6299.000000;0.351061
6298.000000;0.351169
6297.000000;0.351240
6296.000000;0.351264
6295.000000;0.351270
6294.000000;0.351290
6293.000000;0.351338
6292.000000;0.351411
6291.000000;0.351497
6290.000000;0.351586
6289.000000;0.351672
6288.000000;0.351760
6287.000000;0.351849
6286.000000;0.351928
6285.000000;0.351992
6284.000000;0.352056
6283.000000;0.352132
6282.000000;0.352213
6281.000000;0.352290
6280.000000;0.352378
6279.000000;0.352489
6278.000000;0.352611
6277.000000;0.352719
6276.000000;0.352805
6275.000000;0.352869
6274.000000;0.352900
6273.000000;0.352898
6272.000000;0.352906
6271.000000;0.352984
6270.000000;0.353133
6269.000000;0.353283
6268.000000;0.353367
6267.000000;0.353375
6266.000000;0.353337
6265.000000;0.353283
6264.000000;0.353244
6263.000000;0.353260
6262.000000;0.353348
6261.000000;0.353467
6260.000000;0.353548
6259.000000;0.353564
6258.000000;0.353546
6257.000000;0.353543
6256.000000;0.353572
6255.000000;0.353622
6254.000000;0.353680
6253.000000;0.353740
6252.000000;0.353795
6251.000000;0.353829
6250.000000;0.353839
6249.000000;0.353840
6248.000000;0.353849
6247.000000;0.353863
6246.000000;0.353873
6245.000000;0.353886
6244.000000;0.353916
6243.000000;0.353954
6242.000000;0.353979
6241.000000;0.354003
6240.000000;0.354071
6239.000000;0.354197
6238.000000;0.354322
6237.000000;0.354376
6236.000000;0.354357
6235.000000;0.354332
6234.000000;0.354358
6233.000000;0.354435
6232.000000;0.354534
6231.000000;0.354632
6230.000000;0.354703
6229.000000;0.354724
6228.000000;0.354710
6227.000000;0.354711
6226.000000;0.354757
6225.000000;0.354820
6224.000000;0.354844
6223.000000;0.354814
6222.000000;0.354764
6221.000000;0.354737
6220.000000;0.354747
6219.000000;0.354774
6218.000000;0.354794
6217.000000;0.354798
6216.000000;0.354802
6215.000000;0.354827
6214.000000;0.354880
6213.000000;0.354941
6212.000000;0.354983
6211.000000;0.354994
6210.000000;0.354985
6209.000000;0.354985
6208.000000;0.355011
6207.000000;0.355057
6206.000000;0.355103
6205.000000;0.355135
6204.000000;0.355155
6203.000000;0.355163
6202.000000;0.355142
6201.000000;0.355079
6200.000000;0.354997
6199.000000;0.354947
6198.000000;0.354965
6197.000000;0.355042
6196.000000;0.355143
6195.000000;0.355230
6194.000000;0.355281
6193.000000;0.355291
6192.000000;0.355270
6191.000000;0.355241
6190.000000;0.355215
6189.000000;0.355185
6188.000000;0.355146
6187.000000;0.355116
6186.000000;0.355125
6185.000000;0.355181
6184.000000;0.355255
6183.000000;0.355304
6182.000000;0.355320
6181.000000;0.355323
6180.000000;0.355332
6179.000000;0.355332
6178.000000;0.355287
6177.000000;0.355192
6176.000000;0.355083
6175.000000;0.355003
6174.000000;0.354971
6173.000000;0.354982
6172.000000;0.355030
6171.000000;0.355096
6170.000000;0.355148
6169.000000;0.355153
6168.000000;0.355110
6167.000000;0.355050
6166.000000;0.355009
6165.000000;0.355014
6164.000000;0.355068
6163.000000;0.355143
6162.000000;0.355185
6161.000000;0.355162
6160.000000;0.355111
6159.000000;0.355104
6158.000000;0.355173
6157.000000;0.355261
6156.000000;0.355288
6155.000000;0.355235
6154.000000;0.355156
6153.000000;0.355119
6152.000000;0.355136
6151.000000;0.355165
6150.000000;0.355166
6149.000000;0.355146
6148.000000;0.355153
6147.000000;0.355213
6146.000000;0.355292
6145.000000;0.355328
6144.000000;0.355293
6143.000000;0.355212
6142.000000;0.355123
6141.000000;0.355055
6140.000000;0.355027
6139.000000;0.355050
6138.000000;0.355108
6137.000000;0.355163
6136.000000;0.355174
6135.000000;0.355128
6134.000000;0.355041
6133.000000;0.354947
6132.000000;0.354882
6131.000000;0.354880
6130.000000;0.354936
6129.000000;0.355009
6128.000000;0.355048
6127.000000;0.355040
6126.000000;0.355017
6125.000000;0.355014
6124.000000;0.355040
6123.000000;0.355070
6122.000000;0.355082
6121.000000;0.355075
6120.000000;0.355070
6119.000000;0.355072
6118.000000;0.355063
6117.000000;0.355023
6116.000000;0.354959
6115.000000;0.354897
6114.000000;0.354847
6113.000000;0.354799
6112.000000;0.354745
6111.000000;0.354701
6110.000000;0.354683
6109.000000;0.354693
6108.000000;0.354719
6107.000000;0.354745
6106.000000;0.354759
6105.000000;0.354749
6104.000000;0.354705
6103.000000;0.354640
6102.000000;0.354577
6101.000000;0.354549
6100.000000;0.354571
6099.000000;0.354635
6098.000000;0.354710
6097.000000;0.354765
6096.000000;0.354792
6095.000000;0.354797
6094.000000;0.354779
6093.000000;0.354734
6092.000000;0.354674
6091.000000;0.354628
6090.000000;0.354616
6089.000000;0.354635
6088.000000;0.354673
6087.000000;0.354729
6086.000000;0.354791
6085.000000;0.354832
6084.000000;0.354824
6083.000000;0.354779
6082.000000;0.354737
6081.000000;0.354733
6080.000000;0.354765
6079.000000;0.354801
6078.000000;0.354808
6077.000000;0.354766
6076.000000;0.354681
6075.000000;0.354583
6074.000000;0.354510
6073.000000;0.354492
6072.000000;0.354528
6071.000000;0.354590
6070.000000;0.354637
6069.000000;0.354642
6068.000000;0.354609
6067.000000;0.354554
6066.000000;0.354489
6065.000000;0.354417
6064.000000;0.354349
6063.000000;0.354314
6062.000000;0.354341
6061.000000;0.354428
6060.000000;0.354538
6059.000000;0.354619
6058.000000;0.354642
6057.000000;0.354610
6056.000000;0.354551
6055.000000;0.354492
6054.000000;0.354457
6053.000000;0.354454
6052.000000;0.354475
6051.000000;0.354501
6050.000000;0.354520
6049.000000;0.354543
6048.000000;0.354589
6047.000000;0.354646
6046.000000;0.354669
6045.000000;0.354630
6044.000000;0.354557
6043.000000;0.354508
6042.000000;0.354508
6041.000000;0.354533
6040.000000;0.354551
6039.000000;0.354550
6038.000000;0.354536
6037.000000;0.354516
6036.000000;0.354500
6035.000000;0.354498
6034.000000;0.354503
6033.000000;0.354500
6032.000000;0.354489
6031.000000;0.354482
6030.000000;0.354485
6029.000000;0.354485
6028.000000;0.354479
6027.000000;0.354482
6026.000000;0.354500
6025.000000;0.354517
6024.000000;0.354510
6023.000000;0.354481
6022.000000;0.354454
6021.000000;0.354452
6020.000000;0.354483
6019.000000;0.354541
6018.000000;0.354604
6017.000000;0.354642
6016.000000;0.354642
6015.000000;0.354619
6014.000000;0.354601
6013.000000;0.354606
6012.000000;0.354632
6011.000000;0.354662
6010.000000;0.354678
6009.000000;0.354677
6008.000000;0.354680
6007.000000;0.354715
6006.000000;0.354771
6005.000000;0.354802
6004.000000;0.354770
6003.000000;0.354682
6002.000000;0.354578
6001.000000;0.354489
6000.000000;0.354441
5999.000000;0.354456
5998.000000;0.354532
5997.000000;0.354619
5996.000000;0.354651
5995.000000;0.354607
5994.000000;0.354536
5993.000000;0.354497
5992.000000;0.354507
5991.000000;0.354542
5990.000000;0.354574
5989.000000;0.354587
5988.000000;0.354578
5987.000000;0.354555
5986.000000;0.354534
5985.000000;0.354530
5984.000000;0.354554
5983.000000;0.354607
5982.000000;0.354676
5981.000000;0.354739
5980.000000;0.354778
5979.000000;0.354796
5978.000000;0.354813
5977.000000;0.354841
5976.000000;0.354868
5975.000000;0.354873
5974.000000;0.354854
5973.000000;0.354831
5972.000000;0.354824
5971.000000;0.354839
5970.000000;0.354864
5969.000000;0.354893
5968.000000;0.354925
5967.000000;0.354956
5966.000000;0.354975
5965.000000;0.354977
5964.000000;0.354973
5963.000000;0.354986
5962.000000;0.355023
5961.000000;0.355072
5960.000000;0.355106
5959.000000;0.355114
5958.000000;0.355101
5957.000000;0.355084
5956.000000;0.355072
5955.000000;0.355061
5954.000000;0.355044
5953.000000;0.355031
5952.000000;0.355045
5951.000000;0.355098
5950.000000;0.355161
5949.000000;0.355195
5948.000000;0.355192
5947.000000;0.355184
5946.000000;0.355200
5945.000000;0.355240
5944.000000;0.355287
5943.000000;0.355336
5942.000000;0.355387
5941.000000;0.355428
5940.000000;0.355445
5939.000000;0.355450
5938.000000;0.355472
5937.000000;0.355530
5936.000000;0.355608
5935.000000;0.355676
5934.000000;0.355713
5933.000000;0.355720
5932.000000;0.355712
5931.000000;0.355705
5930.000000;0.355709
5929.000000;0.355731
5928.000000;0.355778
5927.000000;0.355851
5926.000000;0.355938
5925.000000;0.356012
5924.000000;0.356054
5923.000000;0.356069
5922.000000;0.356067
5921.000000;0.356046
5920.000000;0.356004
5919.000000;0.355969
5918.000000;0.355971
5917.000000;0.356004
5916.000000;0.356033
5915.000000;0.356035
5914.000000;0.356025
5913.000000;0.356027
5912.000000;0.356040
5911.000000;0.356042
5910.000000;0.356023
5909.000000;0.355989
5908.000000;0.355956
5907.000000;0.355936
5906.000000;0.355933
5905.000000;0.355945
5904.000000;0.355974
5903.000000;0.356029
5902.000000;0.356119
5901.000000;0.356223
5900.000000;0.356287
5899.000000;0.356268
5898.000000;0.356182
5897.000000;0.356105
5896.000000;0.356108
5895.000000;0.356199
5894.000000;0.356314
5893.000000;0.356383
5892.000000;0.356387
5891.000000;0.356358
5890.000000;0.356334
5889.000000;0.356315
5888.000000;0.356280
5887.000000;0.356226
5886.000000;0.356177
5885.000000;0.356152
5884.000000;0.356146
5883.000000;0.356145
5882.000000;0.356152
5881.000000;0.356187
5880.000000;0.356255
5879.000000;0.356345
5878.000000;0.356435
5877.000000;0.356508
5876.000000;0.356552
5875.000000;0.356567
5874.000000;0.356567
5873.000000;0.356571
5872.000000;0.356582
5871.000000;0.356593
5870.000000;0.356600
5869.000000;0.356599
5868.000000;0.356592
5867.000000;0.356586
5866.000000;0.356598
5865.000000;0.356641
5864.000000;0.356702
5863.000000;0.356759
5862.000000;0.356796
5861.000000;0.356816
5860.000000;0.356827
5859.000000;0.356824
5858.000000;0.356807
5857.000000;0.356784
5856.000000;0.356769
5855.000000;0.356760
5854.000000;0.356751
5853.000000;0.356750
5852.000000;0.356770
5851.000000;0.356817
5850.000000;0.356878
5849.000000;0.356936
5848.000000;0.356992
5847.000000;0.357047
5846.000000;0.357091
5845.000000;0.357102
5844.000000;0.357072
5843.000000;0.357024
5842.000000;0.356997
5841.000000;0.357011
5840.000000;0.357055
5839.000000;0.357102
5838.000000;0.357136
5837.000000;0.357157
5836.000000;0.357170
5835.000000;0.357178
5834.000000;0.357183
5833.000000;0.357191
5832.000000;0.357204
5831.000000;0.357217
5830.000000;0.357232
5829.000000;0.357255
5828.000000;0.357293
5827.000000;0.357354
5826.000000;0.357437
5825.000000;0.357534
5824.000000;0.357616
5823.000000;0.357655
5822.000000;0.357655
5821.000000;0.357651
5820.000000;0.357674
5819.000000;0.357717
5818.000000;0.357742
5817.000000;0.357727
5816.000000;0.357687
5815.000000;0.357656
5814.000000;0.357657
5813.000000;0.357692
5812.000000;0.357751
5811.000000;0.357815
5810.000000;0.357867
5809.000000;0.357905
5808.000000;0.357937
5807.000000;0.357970
5806.000000;0.358005
5805.000000;0.358041
5804.000000;0.358066
5803.000000;0.358059
5802.000000;0.358002
5801.000000;0.357912
5800.000000;0.357837
5799.000000;0.357818
5798.000000;0.357865
5797.000000;0.357956
5796.000000;0.358065
5795.000000;0.358164
5794.000000;0.358224
5793.000000;0.358234
5792.000000;0.358214
5791.000000;0.358198
5790.000000;0.358210
5789.000000;0.358251
5788.000000;0.358320
5787.000000;0.358416
5786.000000;0.358518
5785.000000;0.358600
5784.000000;0.358645
5783.000000;0.358660
5782.000000;0.358653
5781.000000;0.358616
5780.000000;0.358552
5779.000000;0.358487
5778.000000;0.358448
5777.000000;0.358429
5776.000000;0.358410
5775.000000;0.358397
5774.000000;0.358415
5773.000000;0.358466
5772.000000;0.358503
5771.000000;0.358482
5770.000000;0.358417
5769.000000;0.358368
5768.000000;0.358370
5767.000000;0.358408
5766.000000;0.358455
5765.000000;0.358504
5764.000000;0.358560
5763.000000;0.358608
5762.000000;0.358622
5761.000000;0.358598
5760.000000;0.358559
5759.000000;0.358526
5758.000000;0.358501
5757.000000;0.358481
5756.000000;0.358470
5755.000000;0.358476
5754.000000;0.358503
5753.000000;0.358547
5752.000000;0.358597
5751.000000;0.358631
5750.000000;0.358632
5749.000000;0.358604
5748.000000;0.358571
5747.000000;0.358547
5746.000000;0.358529
5745.000000;0.358512
5744.000000;0.358506
5743.000000;0.358528
5742.000000;0.358575
5741.000000;0.358620
5740.000000;0.358629
5739.000000;0.358589
5738.000000;0.358515
5737.000000;0.358447
5736.000000;0.358418
5735.000000;0.358431
5734.000000;0.358460
5733.000000;0.358478
5732.000000;0.358491
5731.000000;0.358519
5730.000000;0.358565
5729.000000;0.358600
5728.000000;0.358600
5727.000000;0.358575
5726.000000;0.358560
5725.000000;0.358563
5724.000000;0.358560
5723.000000;0.358523
5722.000000;0.358465
5721.000000;0.358429
5720.000000;0.358439
5719.000000;0.358467
5718.000000;0.358469
5717.000000;0.358436
5716.000000;0.358397
5715.000000;0.358381
5714.000000;0.358381
5713.000000;0.358373
5712.000000;0.358348
5711.000000;0.358318
5710.000000;0.358295
5709.000000;0.358285
5708.000000;0.358283
5707.000000;0.358274
5706.000000;0.358247
5705.000000;0.358210
5704.000000;0.358194
5703.000000;0.358223
5702.000000;0.358286
5701.000000;0.358339
5700.000000;0.358341
5699.000000;0.358297
5698.000000;0.358247
5697.000000;0.358224
5696.000000;0.358232
5695.000000;0.358248
5694.000000;0.358256
5693.000000;0.358278
5692.000000;0.358334
5691.000000;0.358410
5690.000000;0.358458
5689.000000;0.358449
5688.000000;0.358402
5687.000000;0.358363
5686.000000;0.358360
5685.000000;0.358397
5684.000000;0.358461
5683.000000;0.358534
5682.000000;0.358579
5681.000000;0.358557
5680.000000;0.358465
5679.000000;0.358343
5678.000000;0.358248
5677.000000;0.358210
5676.000000;0.358232
5675.000000;0.358304
5674.000000;0.358409
5673.000000;0.358515
5672.000000;0.358586
5671.000000;0.358611
5670.000000;0.358604
5669.000000;0.358590
5668.000000;0.358584
5667.000000;0.358592
5666.000000;0.358619
5665.000000;0.358671
5664.000000;0.358746
5663.000000;0.358828
5662.000000;0.358894
5661.000000;0.358932
5660.000000;0.358951
5659.000000;0.358983
5658.000000;0.359055
5657.000000;0.359168
5656.000000;0.359289
5655.000000;0.359377
5654.000000;0.359425
5653.000000;0.359455
5652.000000;0.359483
5651.000000;0.359501
5650.000000;0.359502
5649.000000;0.359509
5648.000000;0.359558
5647.000000;0.359649
5646.000000;0.359746
5645.000000;0.359819
5644.000000;0.359875
5643.000000;0.359937
5642.000000;0.360018
5641.000000;0.360124
5640.000000;0.360263
5639.000000;0.360426
5638.000000;0.360571
5637.000000;0.360654
5636.000000;0.360671
5635.000000;0.360663
5634.000000;0.360680
5633.000000;0.360752
5632.000000;0.360889
5631.000000;0.361080
5630.000000;0.361293
5629.000000;0.361481
5628.000000;0.361612
5627.000000;0.361694
5626.000000;0.361755
5625.000000;0.361822
5624.000000;0.361906
5623.000000;0.362002
5622.000000;0.362100
5621.000000;0.362197
5620.000000;0.362307
5619.000000;0.362449
5618.000000;0.362621
5617.000000;0.362810
5616.000000;0.362999
5615.000000;0.363176
5614.000000;0.363330
5613.000000;0.363446
5612.000000;0.363527
5611.000000;0.363603
5610.000000;0.363711
5609.000000;0.363866
5608.000000;0.364045
5607.000000;0.364213
5606.000000;0.364353
5605.000000;0.364472
5604.000000;0.364590
5603.000000;0.364720
5602.000000;0.364866
5601.000000;0.365023
5600.000000;0.365178
5599.000000;0.365312
5598.000000;0.365418
5597.000000;0.365515
5596.000000;0.365634
5595.000000;0.365785
5594.000000;0.365948
5593.000000;0.366096
5592.000000;0.366226
5591.000000;0.366351
5590.000000;0.366485
5589.000000;0.366640
5588.000000;0.366818
5587.000000;0.367012
5586.000000;0.367203
5585.000000;0.367381
5584.000000;0.367547
5583.000000;0.367694
5582.000000;0.367804
5581.000000;0.367883
5580.000000;0.367981
5579.000000;0.368145
5578.000000;0.368370
5577.000000;0.368609
5576.000000;0.368832
5575.000000;0.369040
5574.000000;0.369232
5573.000000;0.369379
5572.000000;0.369466
5571.000000;0.369518
5570.000000;0.369575
5569.000000;0.369652
5568.000000;0.369749
5567.000000;0.369875
5566.000000;0.370041
5565.000000;0.370234
5564.000000;0.370417
5563.000000;0.370559
5562.000000;0.370665
5561.000000;0.370760
5560.000000;0.370865
5559.000000;0.370983
5558.000000;0.371106
5557.000000;0.371222
5556.000000;0.371331
5555.000000;0.371449
5554.000000;0.371596
5553.000000;0.371774
5552.000000;0.371959
5551.000000;0.372129
5550.000000;0.372284
5549.000000;0.372436
5548.000000;0.372580
5547.000000;0.372695
5546.000000;0.372782
5545.000000;0.372866
5544.000000;0.372967
5543.000000;0.373075
5542.000000;0.373168
5541.000000;0.373250
5540.000000;0.373341
5539.000000;0.373450
5538.000000;0.373569
5537.000000;0.373692
5536.000000;0.373818
5535.000000;0.373943
5534.000000;0.374059
5533.000000;0.374171
5532.000000;0.374292
5531.000000;0.374418
5530.000000;0.374529
5529.000000;0.374623
5528.000000;0.374720
5527.000000;0.374835
5526.000000;0.374950
5525.000000;0.375044
5524.000000;0.375121
5523.000000;0.375203
5522.000000;0.375304
5521.000000;0.375426
5520.000000;0.375573
5519.000000;0.375743
5518.000000;0.375916
5517.000000;0.376071
5516.000000;0.376206
5515.000000;0.376325
5514.000000;0.376412
5513.000000;0.376447
5512.000000;0.376450
5511.000000;0.376484
5510.000000;0.376602
5509.000000;0.376795
5508.000000;0.376999
5507.000000;0.377153
5506.000000;0.377246
5505.000000;0.377301
5504.000000;0.377337
5503.000000;0.377353
5502.000000;0.377349
5501.000000;0.377369
5500.000000;0.377473
5499.000000;0.377659
5498.000000;0.377854
5497.000000;0.378006
5496.000000;0.378157
5495.000000;0.378372
5494.000000;0.378621
5493.000000;0.378791
5492.000000;0.378839
5491.000000;0.378848
5490.000000;0.378914
5489.000000;0.379018
5488.000000;0.379076
5487.000000;0.379065
5486.000000;0.379044
5485.000000;0.379071
5484.000000;0.379142
5483.000000;0.379236
5482.000000;0.379354
5481.000000;0.379501
5480.000000;0.379667
5479.000000;0.379838
5478.000000;0.380019
5477.000000;0.380199
5476.000000;0.380324
5475.000000;0.380334
5474.000000;0.380232
5473.000000;0.380111
5472.000000;0.380097
5471.000000;0.380253
5470.000000;0.380541
5469.000000;0.380863
5468.000000;0.381151
5467.000000;0.381408
5466.000000;0.381645
5465.000000;0.381844
5464.000000;0.381987
5463.000000;0.382103
5462.000000;0.382227
5461.000000;0.382341
5460.000000;0.382389
5459.000000;0.382367
5458.000000;0.382344
5457.000000;0.382401
5456.000000;0.382557
5455.000000;0.382759
5454.000000;0.382938
5453.000000;0.383075
5452.000000;0.383220
5451.000000;0.383429
5450.000000;0.383690
5449.000000;0.383932
5448.000000;0.384122
5447.000000;0.384294
5446.000000;0.384477
5445.000000;0.384648
5444.000000;0.384791
5443.000000;0.384953
5442.000000;0.385186
5441.000000;0.385457
5440.000000;0.385679
5439.000000;0.385808
5438.000000;0.385892
5437.000000;0.386000
5436.000000;0.386166
5435.000000;0.386393
5434.000000;0.386673
5433.000000;0.386992
5432.000000;0.387347
5431.000000;0.387745
5430.000000;0.388154
5429.000000;0.388504
5428.000000;0.388739
5427.000000;0.388886
5426.000000;0.389014
5425.000000;0.389159
5424.000000;0.389296
5423.000000;0.389400
5422.000000;0.389488
5421.000000;0.389613
5420.000000;0.389794
5419.000000;0.389996
5418.000000;0.390195
5417.000000;0.390443
5416.000000;0.390838
5415.000000;0.391419
5414.000000;0.392105
5413.000000;0.392752
5412.000000;0.393298
5411.000000;0.393790
5410.000000;0.394253
5409.000000;0.394618
5408.000000;0.394811
5407.000000;0.394870
5406.000000;0.394918
5405.000000;0.395031
5404.000000;0.395203
5403.000000;0.395419
5402.000000;0.395694
5401.000000;0.396043
5400.000000;0.396464
5399.000000;0.396946
5398.000000;0.397476
5397.000000;0.398032
5396.000000;0.398587
5395.000000;0.399129
5394.000000;0.399634
5393.000000;0.400072
5392.000000;0.400450
5391.000000;0.400833
5390.000000;0.401283
5389.000000;0.401797
5388.000000;0.402303
5387.000000;0.402762
5386.000000;0.403218
5385.000000;0.403724
5384.000000;0.404284
5383.000000;0.404887
5382.000000;0.405529
5381.000000;0.406203
5380.000000;0.406914
5379.000000;0.407687
5378.000000;0.408538
5377.000000;0.409425
5376.000000;0.410271
5375.000000;0.411064
5374.000000;0.411846
5373.000000;0.412631
5372.000000;0.413392
5371.000000;0.414132
5370.000000;0.414897
5369.000000;0.415707
5368.000000;0.416542
5367.000000;0.417394
5366.000000;0.418303
5365.000000;0.419290
5364.000000;0.420316
5363.000000;0.421337
5362.000000;0.422372
5361.000000;0.423473
5360.000000;0.424665
5359.000000;0.425935
5358.000000;0.427268
5357.000000;0.428643
5356.000000;0.430015
5355.000000;0.431356
5354.000000;0.432688
5353.000000;0.434061
5352.000000;0.435480
5351.000000;0.436913
5350.000000;0.438351
5349.000000;0.439817
5348.000000;0.441313
5347.000000;0.442811
5346.000000;0.444320
5345.000000;0.445893
5344.000000;0.447579
5343.000000;0.449374
5342.000000;0.451217
5341.000000;0.453036
5340.000000;0.454795
5339.000000;0.456538
5338.000000;0.458384
5337.000000;0.460384
5336.000000;0.462422
5335.000000;0.464332
5334.000000;0.466075
5333.000000;0.467740
5332.000000;0.469414
5331.000000;0.471100
5330.000000;0.472728
5329.000000;0.474170
5328.000000;0.475339
5327.000000;0.476344
5326.000000;0.477467
5325.000000;0.478824
5324.000000;0.480145
5323.000000;0.481049
5322.000000;0.481427
5321.000000;0.481425
5320.000000;0.481181
5319.000000;0.480737
5318.000000;0.480065
5317.000000;0.478963
5316.000000;0.477104
5315.000000;0.474447
5314.000000;0.471380
5313.000000;0.468109
5312.000000;0.464112
5311.000000;0.458567
5310.000000;0.451074
5309.000000;0.441570
5308.000000;0.429937
5307.000000;0.416425
5306.000000;0.402107
5305.000000;0.388117
5304.000000;0.374472
5303.000000;0.360078
5302.000000;0.344105
5301.000000;0.327525
5300.000000;0.313484
5299.000000;0.306082
5298.000000;0.308713
5297.000000;0.322975
5296.000000;0.347371
5295.000000;0.378676
5294.000000;0.416687
5293.000000;0.462533
5292.000000;0.511464
5291.000000;0.555365
5290.000000;0.592437
5289.000000;0.626022
5288.000000;0.656894
5287.000000;0.685500
5286.000000;0.716942
5285.000000;0.754331
5284.000000;0.790722
5283.000000;0.816177
5282.000000;0.830571
5281.000000;0.840174
5280.000000;0.846829
5279.000000;0.850280
5278.000000;0.854840
5277.000000;0.865140
5276.000000;0.879720
5275.000000;0.894752
5274.000000;0.909482
5273.000000;0.922120
5272.000000;0.927619
5271.000000;0.927094
5270.000000;0.930093
5269.000000;0.940400
5268.000000;0.949406
5267.000000;0.949835
5266.000000;0.946787
5265.000000;0.946629
5264.000000;0.946321
5263.000000;0.942735
5262.000000;0.942011
5261.000000;0.948969
5260.000000;0.956573
5259.000000;0.956682
5258.000000;0.954482
5257.000000;0.958649
5256.000000;0.965448
5255.000000;0.965832
5254.000000;0.961004
5253.000000;0.958137
5252.000000;0.957694
5251.000000;0.956156
5250.000000;0.956194
5249.000000;0.962816
5248.000000;0.972556
5247.000000;0.976414
5246.000000;0.971230
5245.000000;0.961397
5244.000000;0.952709
5243.000000;0.949446
5242.000000;0.953703
5241.000000;0.961937
5240.000000;0.965189
5239.000000;0.959309
5238.000000;0.950431
5237.000000;0.944433
5236.000000;0.939442
5235.000000;0.934277
5234.000000;0.934768
5233.000000;0.944182
5232.000000;0.955463
5231.000000;0.959591
5230.000000;0.957190
5229.000000;0.955034
5228.000000;0.955271
5227.000000;0.957174
5226.000000;0.963479
5225.000000;0.974014
5224.000000;0.979643
5223.000000;0.973533
5222.000000;0.962505
5221.000000;0.956850
5220.000000;0.957010
5219.000000;0.957667
5218.000000;0.959013
5217.000000;0.964894
5216.000000;0.972524
5215.000000;0.975109
5214.000000;0.973619
5213.000000;0.973954
5212.000000;0.975021
5211.000000;0.971297
5210.000000;0.964066
5209.000000;0.959406
5208.000000;0.957617
5207.000000;0.954119
5206.000000;0.949249
5205.000000;0.948637
5204.000000;0.954137
5203.000000;0.961174
5202.000000;0.964973
5201.000000;0.964416
5200.000000;0.960867
5199.000000;0.958459
5198.000000;0.963173
5197.000000;0.975899
5196.000000;0.987540
5195.000000;0.986641
5194.000000;0.973477
5193.000000;0.959862
5192.000000;0.955720
5191.000000;0.963400
5190.000000;0.980333
5189.000000;0.999238
5188.000000;1.009103
5187.000000;1.004419
5186.000000;0.991285
5185.000000;0.978248
5184.000000;0.966876
5183.000000;0.955955
5182.000000;0.949409
5181.000000;0.952854
5180.000000;0.964486
5179.000000;0.975854
5178.000000;0.981408
5177.000000;0.982069
5176.000000;0.979418
5175.000000;0.972763
5174.000000;0.962846
5173.000000;0.953336
5172.000000;0.947965
5171.000000;0.948962
5170.000000;0.956825
5169.000000;0.968267
5168.000000;0.976087
5167.000000;0.975516
5166.000000;0.969175
5165.000000;0.963403
5164.000000;0.962615
5163.000000;0.967723
5162.000000;0.976735
5161.000000;0.985358
5160.000000;0.987884
5159.000000;0.981322
5158.000000;0.969642
5157.000000;0.958419
5156.000000;0.949424
5155.000000;0.944184
5154.000000;0.944753
5153.000000;0.949248
5152.000000;0.952871
5151.000000;0.954868
5150.000000;0.959055
5149.000000;0.966052
5148.000000;0.971546
5147.000000;0.974081
5146.000000;0.977156
5145.000000;0.980209
5144.000000;0.975656
5143.000000;0.961478
5142.000000;0.948619
5141.000000;0.948006
5140.000000;0.958335
5139.000000;0.971076
5138.000000;0.981653
5137.000000;0.989601
5136.000000;0.993052
5135.000000;0.990849
5134.000000;0.986381
5133.000000;0.983244
5132.000000;0.980131
5131.000000;0.974772
5130.000000;0.969385
5129.000000;0.966886
5128.000000;0.965323
5127.000000;0.961863
5126.000000;0.959207
5125.000000;0.961913
5124.000000;0.968786
5123.000000;0.974114
5122.000000;0.975262
5121.000000;0.974175
5120.000000;0.972198
5119.000000;0.968605
5118.000000;0.963515
5117.000000;0.958212
5116.000000;0.953976
5115.000000;0.953308
5114.000000;0.959225
5113.000000;0.970179
5112.000000;0.978207
5111.000000;0.976671
5110.000000;0.968896
5109.000000;0.963598
5108.000000;0.964106
5107.000000;0.967485
5106.000000;0.971081
5105.000000;0.974386
5104.000000;0.976635
5103.000000;0.977467
5102.000000;0.978164
5101.000000;0.978654
5100.000000;0.975882
5099.000000;0.968957
5098.000000;0.962772
5097.000000;0.962064
5096.000000;0.964981
5095.000000;0.966637
5094.000000;0.966918
5093.000000;0.969515
5092.000000;0.974467
5091.000000;0.977031
5090.000000;0.974381
5089.000000;0.969281
5088.000000;0.965608
5087.000000;0.964441
5086.000000;0.964477
5085.000000;0.963875
5084.000000;0.962755
5083.000000;0.963377
5082.000000;0.966684
5081.000000;0.969415
5080.000000;0.967277
5079.000000;0.961470
5078.000000;0.956920
5077.000000;0.954826
5076.000000;0.952510
5075.000000;0.949671
5074.000000;0.950475
5073.000000;0.957127
5072.000000;0.964345
5071.000000;0.965325
5070.000000;0.961406
5069.000000;0.959268
5068.000000;0.960430
5067.000000;0.959559
5066.000000;0.952804
5065.000000;0.943429
5064.000000;0.937649
5063.000000;0.937982
5062.000000;0.941535
5061.000000;0.943195
5060.000000;0.941091
5059.000000;0.938552
5058.000000;0.938591
5057.000000;0.938283
5056.000000;0.933107
5055.000000;0.926486
5054.000000;0.928288
5053.000000;0.942467
5052.000000;0.960693
5051.000000;0.970588
5050.000000;0.969131
5049.000000;0.962653
5048.000000;0.955325
5047.000000;0.946285
5046.000000;0.936359
5045.000000;0.928888
5044.000000;0.924284
5043.000000;0.919759
5042.000000;0.914197
5041.000000;0.909156
5040.000000;0.905285
5039.000000;0.901796
5038.000000;0.899424
5037.000000;0.899979
5036.000000;0.902801
5035.000000;0.904912
5034.000000;0.903991
5033.000000;0.899161
5032.000000;0.890664
5031.000000;0.879880
5030.000000;0.869560
5029.000000;0.863534
5028.000000;0.864031
5027.000000;0.869673
5026.000000;0.877120
5025.000000;0.883355
5024.000000;0.886179
5023.000000;0.884224
5022.000000;0.877343
5021.000000;0.866533
5020.000000;0.853298
5019.000000;0.839454
5018.000000;0.827403
5017.000000;0.819375
5016.000000;0.815398
5015.000000;0.813016
5014.000000;0.809935
5013.000000;0.806523
5012.000000;0.805592
5011.000000;0.809453
5010.000000;0.816540
5009.000000;0.821146
5008.000000;0.817906
5007.000000;0.806711
5006.000000;0.792036
5005.000000;0.778120
5004.000000;0.766797
5003.000000;0.759455
5002.000000;0.757086
5001.000000;0.757542
5000.000000;0.756652
4999.000000;0.753083
4998.000000;0.748978
4997.000000;0.745564
4996.000000;0.741409
4995.000000;0.735893
4994.000000;0.731244
4993.000000;0.728887
4992.000000;0.726279
4991.000000;0.720450
4990.000000;0.713019
4989.000000;0.708056
4988.000000;0.705930
4987.000000;0.702084
4986.000000;0.692204
4985.000000;0.677238
4984.000000;0.662742
4983.000000;0.654527
4982.000000;0.654348
4981.000000;0.657408
4980.000000;0.655250
4979.000000;0.643903
4978.000000;0.627656
4977.000000;0.613500
4976.000000;0.604634
4975.000000;0.599936
4974.000000;0.597165
4973.000000;0.594510
4972.000000;0.589959
4971.000000;0.581870
4970.000000;0.570494
4969.000000;0.557883
4968.000000;0.546374
4967.000000;0.537620
4966.000000;0.532072
4965.000000;0.528241
4964.000000;0.523434
4963.000000;0.516758
4962.000000;0.510071
4961.000000;0.504878
4960.000000;0.499812
4959.000000;0.492427
4958.000000;0.482690
4957.000000;0.472915
4956.000000;0.464519
4955.000000;0.456645
4954.000000;0.447993
4953.000000;0.438496
4952.000000;0.429013
4951.000000;0.420245
4950.000000;0.412121
4949.000000;0.404233
4948.000000;0.396735
4947.000000;0.390457
4946.000000;0.385502
4945.000000;0.380101
4944.000000;0.372264
4943.000000;0.362650
4942.000000;0.354144
4941.000000;0.348081
4940.000000;0.342336
4939.000000;0.334069
4938.000000;0.323202
4937.000000;0.311927
4936.000000;0.301891
4935.000000;0.293208
4934.000000;0.285495
4933.000000;0.278517
4932.000000;0.271865
4931.000000;0.264907
4930.000000;0.257236
4929.000000;0.248850
4928.000000;0.240110
4927.000000;0.231561
4926.000000;0.223285
4925.000000;0.214508
4924.000000;0.204644
4923.000000;0.194810
4922.000000;0.187266
4921.000000;0.182783
4920.000000;0.179465
4919.000000;0.174807
4918.000000;0.168159
4917.000000;0.160651
4916.000000;0.153338
4915.000000;0.145967
4914.000000;0.137142
4913.000000;0.125486
4912.000000;0.111273
4911.000000;0.097074
4910.000000;0.086033
4909.000000;0.079148
4908.000000;0.074689
4907.000000;0.070385
4906.000000;0.065279
4905.000000;0.059045
4904.000000;0.051045
4903.000000;0.041232
4902.000000;0.030930
4901.000000;0.021455
4900.000000;0.012530
4899.000000;0.003100
4898.000000;-0.006542
4897.000000;-0.014464
4896.000000;-0.019177
4895.000000;-0.021488
4894.000000;-0.024178
4893.000000;-0.029995
4892.000000;-0.039479
4891.000000;-0.050353
4890.000000;-0.059381
4889.000000;-0.065055
4888.000000;-0.068358
4887.000000;-0.071037
4886.000000;-0.073791
4885.000000;-0.076578
4884.000000;-0.079923
4883.000000;-0.084726
4882.000000;-0.090811
4881.000000;-0.096698
4880.000000;-0.101234
4879.000000;-0.104838
4878.000000;-0.108732
4877.000000;-0.113314
4876.000000;-0.117864
4875.000000;-0.121703
4874.000000;-0.124945
4873.000000;-0.127890
4872.000000;-0.130319
4871.000000;-0.131817
4870.000000;-0.132416
4869.000000;-0.132513
4868.000000;-0.132424
4867.000000;-0.132400
4866.000000;-0.132723
4865.000000;-0.133436
4864.000000;-0.134241
4863.000000;-0.134900
4862.000000;-0.135498
4861.000000;-0.136060
4860.000000;-0.136237
4859.000000;-0.135860
4858.000000;-0.135398
4857.000000;-0.135244
4856.000000;-0.134751
4855.000000;-0.132679
4854.000000;-0.128709
4853.000000;-0.124079
4852.000000;-0.120450
4851.000000;-0.118402
4850.000000;-0.117160
4849.000000;-0.115629
4848.000000;-0.113474
4847.000000;-0.111127
4846.000000;-0.108933
4845.000000;-0.106617
4844.000000;-0.103824
4843.000000;-0.100863
4842.000000;-0.098390
4841.000000;-0.096380
4840.000000;-0.093892
4839.000000;-0.090050
4838.000000;-0.084997
4837.000000;-0.079810
4836.000000;-0.075691
4835.000000;-0.073114
4834.000000;-0.071447
4833.000000;-0.069376
4832.000000;-0.066013
4831.000000;-0.061692
4830.000000;-0.057516
4829.000000;-0.054229
4828.000000;-0.051832
4827.000000;-0.050070
4826.000000;-0.048712
4825.000000;-0.047283
4824.000000;-0.045159
4823.000000;-0.042215
4822.000000;-0.038977
4821.000000;-0.035876
4820.000000;-0.032711
4819.000000;-0.029110
4818.000000;-0.025173
4817.000000;-0.021289
4816.000000;-0.017592
4815.000000;-0.013901
4814.000000;-0.010101
4813.000000;-0.006337
4812.000000;-0.002910
4811.000000;-0.000041
4810.000000;0.002352
4809.000000;0.004760
4808.000000;0.007699
4807.000000;0.011168
4806.000000;0.014601
4805.000000;0.017468
4804.000000;0.019801
4803.000000;0.021965
4802.000000;0.024234
4801.000000;0.026704
4800.000000;0.029461
4799.000000;0.032573
4798.000000;0.035893
4797.000000;0.039014
4796.000000;0.041578
4795.000000;0.043680
4794.000000;0.045915
4793.000000;0.048840
4792.000000;0.052273
4791.000000;0.055327
4790.000000;0.057345
4789.000000;0.058639
4788.000000;0.060085
4787.000000;0.062131
4786.000000;0.064543
4785.000000;0.067031
4784.000000;0.069680
4783.000000;0.072623
4782.000000;0.075609
4781.000000;0.078152
4780.000000;0.080032
4779.000000;0.081513
4778.000000;0.083140
4777.000000;0.085307
4776.000000;0.087942
4775.000000;0.090618
4774.000000;0.093054
4773.000000;0.095412
4772.000000;0.097955
4771.000000;0.100546
4770.000000;0.102802
4769.000000;0.104648
4768.000000;0.106386
4767.000000;0.108182
4766.000000;0.109834
4765.000000;0.111172
4764.000000;0.112415
4763.000000;0.113942
4762.000000;0.115909
4761.000000;0.118219
4760.000000;0.120722
4759.000000;0.123268
4758.000000;0.125671
4757.000000;0.127739
4756.000000;0.129352
4755.000000;0.130532
4754.000000;0.131570
4753.000000;0.132981
4752.000000;0.135102
4751.000000;0.137662
4750.000000;0.139965
4749.000000;0.141594
4748.000000;0.142763
4747.000000;0.143949
4746.000000;0.145368
4745.000000;0.146945
4744.000000;0.148564
4743.000000;0.150200
4742.000000;0.151886
4741.000000;0.153676
4740.000000;0.155541
4739.000000;0.157288
4738.000000;0.158750
4737.000000;0.160101
4736.000000;0.161752
4735.000000;0.163810
4734.000000;0.165851
4733.000000;0.167387
4732.000000;0.168404
4731.000000;0.169262
4730.000000;0.170246
4729.000000;0.171442
4728.000000;0.172898
4727.000000;0.174608
4726.000000;0.176355
4725.000000;0.177834
4724.000000;0.178987
4723.000000;0.180041
4722.000000;0.181182
4721.000000;0.182336
4720.000000;0.183360
4719.000000;0.184283
4718.000000;0.185259
4717.000000;0.186364
4716.000000;0.187583
4715.000000;0.188960
4714.000000;0.190609
4713.000000;0.192515
4712.000000;0.194392
4711.000000;0.195863
4710.000000;0.196771
4709.000000;0.197276
4708.000000;0.197678
4707.000000;0.198235
4706.000000;0.199152
4705.000000;0.200533
4704.000000;0.202227
4703.000000;0.203842
4702.000000;0.205077
4701.000000;0.206018
4700.000000;0.206944
4699.000000;0.207925
4698.000000;0.208793
4697.000000;0.209482
4696.000000;0.210158
4695.000000;0.210969
4694.000000;0.211899
4693.000000;0.212925
4692.000000;0.214140
4691.000000;0.215555
4690.000000;0.216937
4689.000000;0.218023
4688.000000;0.218838
4687.000000;0.219654
4686.000000;0.220680
4685.000000;0.221867
4684.000000;0.223005
4683.000000;0.223928
4682.000000;0.224656
4681.000000;0.225367
4680.000000;0.226193
4679.000000;0.227052
4678.000000;0.227745
4677.000000;0.228271
4676.000000;0.228919
4675.000000;0.229974
4674.000000;0.231401
4673.000000;0.232886
4672.000000;0.234112
4671.000000;0.234932
4670.000000;0.235373
4669.000000;0.235603
4668.000000;0.235868
4667.000000;0.236363
4666.000000;0.237150
4665.000000;0.238200
4664.000000;0.239457
4663.000000;0.240783
4662.000000;0.241942
4661.000000;0.242764
4660.000000;0.243306
4659.000000;0.243775
4658.000000;0.244314
4657.000000;0.244922
4656.000000;0.245534
4655.000000;0.246109
4654.000000;0.246631
4653.000000;0.247135
4652.000000;0.247735
4651.000000;0.248561
4650.000000;0.249623
4649.000000;0.250760
4648.000000;0.251719
4647.000000;0.252333
4646.000000;0.252666
4645.000000;0.253004
4644.000000;0.253616
4643.000000;0.254477
4642.000000;0.255276
4641.000000;0.255745
4640.000000;0.255946
4639.000000;0.256179
4638.000000;0.256659
4637.000000;0.257392
4636.000000;0.258301
4635.000000;0.259337
4634.000000;0.260434
4633.000000;0.261428
4632.000000;0.262128
4631.000000;0.262478
4630.000000;0.262621
4629.000000;0.262803
4628.000000;0.263182
4627.000000;0.263733
4626.000000;0.264335
4625.000000;0.264914
4624.000000;0.265485
4623.000000;0.266071
4622.000000;0.266639
4621.000000;0.267139
4620.000000;0.267558
4619.000000;0.267927
4618.000000;0.268311
4617.000000;0.268808
4616.000000;0.269475
4615.000000;0.270237
4614.000000;0.270925
4613.000000;0.271438
4612.000000;0.271816
4611.000000;0.272141
4610.000000;0.272452
4609.000000;0.272806
4608.000000;0.273295
4607.000000;0.273893
4606.000000;0.274401
4605.000000;0.274675
4604.000000;0.274856
4603.000000;0.275210
4602.000000;0.275759
4601.000000;0.276230
4600.000000;0.276435
4599.000000;0.276540
4598.000000;0.276860
4597.000000;0.277496
4596.000000;0.278268
4595.000000;0.278979
4594.000000;0.279579
4593.000000;0.280083
4592.000000;0.280448
4591.000000;0.280610
4590.000000;0.280625
4589.000000;0.280671
4588.000000;0.280905
4587.000000;0.281334
4586.000000;0.281830
4585.000000;0.282267
4584.000000;0.282624
4583.000000;0.282970
4582.000000;0.283365
4581.000000;0.283790
4580.000000;0.284173
4579.000000;0.284502
4578.000000;0.284878
4577.000000;0.285413
4576.000000;0.286056
4575.000000;0.286601
4574.000000;0.286888
4573.000000;0.286968
4572.000000;0.287005
4571.000000;0.287073
4570.000000;0.287108
4569.000000;0.287068
4568.000000;0.287029
4567.000000;0.287104
4566.000000;0.287323
4565.000000;0.287638
4564.000000;0.287995
4563.000000;0.288388
4562.000000;0.288838
4561.000000;0.289348
4560.000000;0.289849
4559.000000;0.290229
4558.000000;0.290441
4557.000000;0.290550
4556.000000;0.290647
4555.000000;0.290740
4554.000000;0.290801
4553.000000;0.290893
4552.000000;0.291103
4551.000000;0.291383
4550.000000;0.291567
4549.000000;0.291604
4548.000000;0.291642
4547.000000;0.291821
4546.000000;0.292100
4545.000000;0.292359
4544.000000;0.292578
4543.000000;0.292809
4542.000000;0.293033
4541.000000;0.293173
4540.000000;0.293210
4539.000000;0.293199
4538.000000;0.293194
4537.000000;0.293252
4536.000000;0.293460
4535.000000;0.293841
4534.000000;0.294255
4533.000000;0.294530
4532.000000;0.294685
4531.000000;0.294902
4530.000000;0.295254
4529.000000;0.295568
4528.000000;0.295641
4527.000000;0.295465
4526.000000;0.295201
4525.000000;0.294980
4524.000000;0.294855
4523.000000;0.294876
4522.000000;0.295084
4521.000000;0.295402
4520.000000;0.295654
4519.000000;0.295724
4518.000000;0.295688
4517.000000;0.295713
4516.000000;0.295878
4515.000000;0.296131
4514.000000;0.296399
4513.000000;0.296657
4512.000000;0.296884
4511.000000;0.297023
4510.000000;0.297053
4509.000000;0.297060
4508.000000;0.297174
4507.000000;0.297435
4506.000000;0.297772
4505.000000;0.298092
4504.000000;0.298341
4503.000000;0.298451
4502.000000;0.298324
4501.000000;0.297952
4500.000000;0.297527
4499.000000;0.297376
4498.000000;0.297724
4497.000000;0.298489
4496.000000;0.299291
4495.000000;0.299684
4494.000000;0.299453
4493.000000;0.298750
4492.000000;0.298002
4491.000000;0.297640
4490.000000;0.297839
4489.000000;0.298418
4488.000000;0.298993
4487.000000;0.299265
4486.000000;0.299220
4485.000000;0.299042
4484.000000;0.298878
4483.000000;0.298739
4482.000000;0.298628
4481.000000;0.298622
4480.000000;0.298760
4479.000000;0.298951
4478.000000;0.299097
4477.000000;0.299251
4476.000000;0.299511
4475.000000;0.299811
4474.000000;0.299973
4473.000000;0.299970
4472.000000;0.299975
4471.000000;0.300104
4470.000000;0.300265
4469.000000;0.300353
4468.000000;0.300460
4467.000000;0.300725
4466.000000;0.301064
4465.000000;0.301184
4464.000000;0.300883
4463.000000;0.300250
4462.000000;0.299584
4461.000000;0.299213
4460.000000;0.299341
4459.000000;0.299916
4458.000000;0.300591
4457.000000;0.300912
4456.000000;0.300663
4455.000000;0.300023
4454.000000;0.299359
4453.000000;0.298920
4452.000000;0.298761
4451.000000;0.298878
4450.000000;0.299245
4449.000000;0.299725
4448.000000;0.300088
4447.000000;0.300213
4446.000000;0.300189
4445.000000;0.300143
4444.000000;0.300060
4443.000000;0.299903
4442.000000;0.299815
4441.000000;0.300032
4440.000000;0.300559
4439.000000;0.301115
4438.000000;0.301432
4437.000000;0.301472
4436.000000;0.301322
4435.000000;0.301041
4434.000000;0.300723
4433.000000;0.300527
4432.000000;0.300513
4431.000000;0.300569
4430.000000;0.300615
4429.000000;0.300745
4428.000000;0.300985
4427.000000;0.301101
4426.000000;0.300875
4425.000000;0.300459
4424.000000;0.300178
4423.000000;0.300046
4422.000000;0.299793
4421.000000;0.299375
4420.000000;0.299102
4419.000000;0.299165
4418.000000;0.299307
4417.000000;0.299155
4416.000000;0.298687
4415.000000;0.298204
4414.000000;0.297973
4413.000000;0.298076
4412.000000;0.298446
4411.000000;0.298866
4410.000000;0.298995
4409.000000;0.298587
4408.000000;0.297725
4407.000000;0.296760
4406.000000;0.296028
4405.000000;0.295657
4404.000000;0.295562
4403.000000;0.295539
4402.000000;0.295427
4401.000000;0.295248
4400.000000;0.295135
4399.000000;0.295090
4398.000000;0.294884
4397.000000;0.294299
4396.000000;0.293408
4395.000000;0.292498
4394.000000;0.291757
4393.000000;0.291161
4392.000000;0.290664
4391.000000;0.290364
4390.000000;0.290346
4389.000000;0.290450
4388.000000;0.290335
4387.000000;0.289818
4386.000000;0.289038
4385.000000;0.288199
4384.000000;0.287280
4383.000000;0.286163
4382.000000;0.284991
4381.000000;0.284104
4380.000000;0.283626
4379.000000;0.283348
4378.000000;0.283114
4377.000000;0.282994
4376.000000;0.282925
4375.000000;0.282498
4374.000000;0.281389
4373.000000;0.279826
4372.000000;0.278324
4371.000000;0.277104
4370.000000;0.276055
4369.000000;0.275097
4368.000000;0.274262
4367.000000;0.273519
4366.000000;0.272851
4365.000000;0.272361
4364.000000;0.271967
4363.000000;0.271189
4362.000000;0.269660
4361.000000;0.267754
4360.000000;0.266223
4359.000000;0.265281
4358.000000;0.264583
4357.000000;0.264006
4356.000000;0.263744
4355.000000;0.263570
4354.000000;0.262725
4353.000000;0.260868
4352.000000;0.258506
4351.000000;0.256192
4350.000000;0.253927
4349.000000;0.251769
4348.000000;0.250377
4347.000000;0.250259
4346.000000;0.250830
4345.000000;0.250899
4344.000000;0.249947
4343.000000;0.248439
4342.000000;0.247006
4341.000000;0.245857
4340.000000;0.244931
4339.000000;0.244096
4338.000000;0.243069
4337.000000;0.241550
4336.000000;0.239578
4335.000000;0.237576
4334.000000;0.235957
4333.000000;0.234833
4332.000000;0.234038
4331.000000;0.233272
4330.000000;0.232240
4329.000000;0.230813
4328.000000;0.229055
4327.000000;0.227053
4326.000000;0.224846
4325.000000;0.222617
4324.000000;0.220750
4323.000000;0.219572
4322.000000;0.219149
4321.000000;0.219352
4320.000000;0.219869
4319.000000;0.220123
4318.000000;0.219538
4317.000000;0.218078
4316.000000;0.216216
4315.000000;0.214222
4314.000000;0.211878
4313.000000;0.209146
4312.000000;0.206677
4311.000000;0.205253
4310.000000;0.204922
4309.000000;0.205032
4308.000000;0.204984
4307.000000;0.204705
4306.000000;0.204508
4305.000000;0.204696
4304.000000;0.205212
4303.000000;0.205518
4302.000000;0.204903
4301.000000;0.203030
4300.000000;0.200199
4299.000000;0.197178
4298.000000;0.194927
4297.000000;0.194126
4296.000000;0.194396
4295.000000;0.194221
4294.000000;0.192502
4293.000000;0.190194
4292.000000;0.189515
4291.000000;0.191327
4290.000000;0.194243
4289.000000;0.196552
4288.000000;0.197990
4287.000000;0.199198
4286.000000;0.200447
4285.000000;0.201694
4284.000000;0.203099
4283.000000;0.204582
4282.000000;0.205488
4281.000000;0.205709
4280.000000;0.206637
4279.000000;0.209860
4278.000000;0.215207
4277.000000;0.221040
4276.000000;0.226154
4275.000000;0.230480
4274.000000;0.234200
4273.000000;0.237360
4272.000000;0.240589
4271.000000;0.245172
4270.000000;0.251930
4269.000000;0.260435
4268.000000;0.269340
4267.000000;0.276924
4266.000000;0.281258
4265.000000;0.280986
4264.000000;0.277066
4263.000000;0.273311
4262.000000;0.274158
4261.000000;0.281466
4260.000000;0.293427
4259.000000;0.306608
4258.000000;0.318960
4257.000000;0.330615
4256.000000;0.341942
4255.000000;0.351876
4254.000000;0.358972
4253.000000;0.363572
4252.000000;0.367798
4251.000000;0.373327
4250.000000;0.380148
4249.000000;0.387648
4248.000000;0.395948
4247.000000;0.405602
4246.000000;0.416719
4245.000000;0.428945
4244.000000;0.442018
4243.000000;0.455261
4242.000000;0.467213
4241.000000;0.476473
4240.000000;0.482778
4239.000000;0.487080
4238.000000;0.491572
4237.000000;0.499491
4236.000000;0.513018
4235.000000;0.530447
4234.000000;0.546449
4233.000000;0.556988
4232.000000;0.563451
4231.000000;0.570150
4230.000000;0.579066
4229.000000;0.588977
4228.000000;0.598783
4227.000000;0.609090
4226.000000;0.620106
4225.000000;0.630326
4224.000000;0.638765
4223.000000;0.647122
4222.000000;0.657876
4221.000000;0.671410
4220.000000;0.686806
4219.000000;0.704414
4218.000000;0.724897
4217.000000;0.745642
4216.000000;0.761224
4215.000000;0.768885
4214.000000;0.771485
4213.000000;0.773506
4212.000000;0.776348
4211.000000;0.779801
4210.000000;0.786459
4209.000000;0.800341
4208.000000;0.821566
4207.000000;0.845584
4206.000000;0.867151
4205.000000;0.883019
4204.000000;0.891088
4203.000000;0.890581
4202.000000;0.885259
4201.000000;0.883146
4200.000000;0.889845
4199.000000;0.904275
4198.000000;0.922378
4197.000000;0.942286
4196.000000;0.962232
4195.000000;0.976902
4194.000000;0.981695
4193.000000;0.980014
4192.000000;0.981414
4191.000000;0.991998
4190.000000;1.009985
4189.000000;1.028906
4188.000000;1.042010
4187.000000;1.044872
4186.000000;1.037066
4185.000000;1.025280
4184.000000;1.021906
4183.000000;1.035845
4182.000000;1.067131
4181.000000;1.111021
4180.000000;1.160504
4179.000000;1.199324
4178.000000;1.208462
4177.000000;1.191008
4176.000000;1.169488
4175.000000;1.160958
4174.000000;1.167437
4173.000000;1.183389
4172.000000;1.206082
4171.000000;1.232061
4170.000000;1.250894
4169.000000;1.256217
4168.000000;1.256253
4167.000000;1.262557
4166.000000;1.276166
4165.000000;1.291408
4164.000000;1.309284
4163.000000;1.337161
4162.000000;1.373441
4161.000000;1.399863
4160.000000;1.395882
4159.000000;1.364193
4158.000000;1.329500
4157.000000;1.314082
4156.000000;1.322302
4155.000000;1.347996
4154.000000;1.393099
4153.000000;1.456956
4152.000000;1.504668
4151.000000;1.488354
4150.000000;1.427148
4149.000000;1.379406
4148.000000;1.371567
4147.000000;1.386979
4146.000000;1.396752
4145.000000;1.408433
4144.000000;1.444255
4143.000000;1.502112
4142.000000;1.552272
4141.000000;1.566639
4140.000000;1.559641
4139.000000;1.561271
4138.000000;1.569366
4137.000000;1.568453
4136.000000;1.567739
4135.000000;1.589054
4134.000000;1.633444
4133.000000;1.665991
4132.000000;1.655625
4131.000000;1.623296
4130.000000;1.605195
4129.000000;1.602916
4128.000000;1.594381
4127.000000;1.580397
4126.000000;1.580516
4125.000000;1.600642
4124.000000;1.633535
4123.000000;1.668825
4122.000000;1.691940
4121.000000;1.689784
4120.000000;1.667583
4119.000000;1.639540
4118.000000;1.624474
4117.000000;1.643009
4116.000000;1.697182
4115.000000;1.758692
4114.000000;1.799414
4113.000000;1.837315
4112.000000;1.876981
4111.000000;1.890003
4110.000000;1.873490
4109.000000;1.851368
4108.000000;1.865206
4107.000000;1.935531
4106.000000;2.021294
4105.000000;2.017892
4104.000000;1.926392
4103.000000;1.859384
4102.000000;1.866312
4101.000000;1.934304
4100.000000;1.995788
4099.000000;1.970454
4098.000000;1.879010
4097.000000;1.796579
4096.000000;1.763413
4095.000000;1.789584
4094.000000;1.868829
4093.000000;1.979362
4092.000000;2.054135
4091.000000;1.987928
4090.000000;1.872759
4089.000000;1.792966
4088.000000;1.758110
4087.000000;1.772032
4086.000000;1.821604
4085.000000;1.870014
4084.000000;1.916444
4083.000000;2.017150
4082.000000;2.136748
4081.000000;2.096772
4080.000000;2.001944
4079.000000;1.943884
4078.000000;1.893645
4077.000000;1.866166
4076.000000;1.887642
4075.000000;1.968840
4074.000000;2.097291
4073.000000;2.198205
4072.000000;2.195928
4071.000000;2.138093
4070.000000;2.102364
4069.000000;2.144620
4068.000000;2.269084
4067.000000;2.336563
4066.000000;2.291753
4065.000000;2.186264
4064.000000;2.034633
4063.000000;1.910463
4062.000000;1.847823
4061.000000;1.872936
4060.000000;2.029364
4059.000000;2.359699
4058.000000;2.656353
4057.000000;2.417034
4056.000000;2.083088
4055.000000;1.907092
4054.000000;1.840397
4053.000000;1.832487
4052.000000;1.876348
4051.000000;1.979190
4050.000000;2.114991
4049.000000;2.294681
4048.000000;2.523354
4047.000000;2.505203
4046.000000;2.589698
4045.000000;2.324613
4044.000000;2.053558
4043.000000;2.024376
4042.000000;2.145288
4041.000000;2.341450
4040.000000;2.550556
4039.000000;2.697096
4038.000000;2.396688
4037.000000;2.160061
4036.000000;2.004122
4035.000000;1.886705
4034.000000;1.804844
4033.000000;1.766323
4032.000000;1.796253
4031.000000;1.922916
4030.000000;2.207157
4029.000000;2.341933
4028.000000;1.982273
4027.000000;1.791969
4026.000000;1.701841
4025.000000;1.683855
4024.000000;1.718908
4023.000000;1.817603
4022.000000;1.948845
4021.000000;2.003938
4020.000000;2.032061
4019.000000;2.125205
4018.000000;2.268093
4017.000000;2.271631
4016.000000;2.051266
4015.000000;1.915588
4014.000000;1.944979
4013.000000;2.155524
4012.000000;2.703200
4011.000000;2.667938
4010.000000;2.381079
4009.000000;2.238314
4008.000000;2.238244
4007.000000;2.326578
4006.000000;2.311378
4005.000000;2.277560
4004.000000;2.339212
4003.000000;2.456651
4002.000000;2.434457
4001.000000;2.243824
4000.000000;2.108624
3999.000000;2.087129
3998.000000;2.132150
3997.000000;2.121665
3996.000000;2.101739
3995.000000;2.182423
3994.000000;2.380173
3993.000000;2.443885
3992.000000;2.299474
3991.000000;2.261322
3990.000000;2.272286
3989.000000;2.165591
3988.000000;2.067064
3987.000000;2.062184
3986.000000;2.121165
3985.000000;2.187347
3984.000000;2.236688
3983.000000;2.265782
3982.000000;2.271469
3981.000000;2.255633
3980.000000;2.229077
3979.000000;2.217451
3978.000000;2.218768
3977.000000;2.251546
3976.000000;2.592504
3975.000000;2.931112
3974.000000;2.269119
3973.000000;2.214710
3972.000000;2.202166
3971.000000;2.112459
3970.000000;1.987692
3969.000000;1.933594
3968.000000;1.986435
3967.000000;2.074032
3966.000000;2.025410
3965.000000;1.968020
3964.000000;2.024125
3963.000000;2.160176
3962.000000;2.272307
3961.000000;2.288051
3960.000000;2.254995
3959.000000;2.224596
3958.000000;2.226079
3957.000000;2.261166
3956.000000;2.316780
3955.000000;2.392284
3954.000000;2.472366
3953.000000;2.517864
3952.000000;2.599392
3951.000000;2.721968
3950.000000;2.726733
3949.000000;2.954334
3948.000000;3.068048
3947.000000;2.619379
3946.000000;2.494637
3945.000000;2.374103
3944.000000;2.179847
3943.000000;2.048094
3942.000000;2.057195
3941.000000;2.175418
3940.000000;2.268688
3939.000000;2.221349
3938.000000;2.131618
3937.000000;2.055889
3936.000000;2.070504
3935.000000;3.027428
3934.000000;2.252387
3933.000000;1.904064
3932.000000;1.901201
3931.000000;1.994982
3930.000000;2.184727
3929.000000;2.407745
3928.000000;2.268291
3927.000000;2.179720
3926.000000;2.342611
3925.000000;2.370450
3924.000000;2.283793
3923.000000;2.477621
3922.000000;2.842693
3921.000000;2.506291
3920.000000;2.287893
3919.000000;2.272012
3918.000000;2.408463
3917.000000;2.563477
3916.000000;2.495043
3915.000000;2.422272
3914.000000;2.393790
3913.000000;2.375569
3912.000000;2.450473
3911.000000;2.655477
3910.000000;2.642003
3909.000000;2.599728
3908.000000;2.492808
3907.000000;2.263804
3906.000000;2.131518
3905.000000;2.068129
3904.000000;2.076647
3903.000000;2.178516
3902.000000;2.357601
3901.000000;2.553653
3900.000000;2.547221
3899.000000;2.515521
3898.000000;2.680954
3897.000000;2.770083
3896.000000;2.537258
3895.000000;2.481469
3894.000000;2.387329
3893.000000;2.271723
3892.000000;2.287035
3891.000000;2.268155
3890.000000;2.193912
3889.000000;2.117292
3888.000000;2.036583
3887.000000;2.015606
3886.000000;2.193088
3885.000000;2.566262
3884.000000;2.534506
3883.000000;2.475118
3882.000000;2.521031
3881.000000;2.591087
3880.000000;2.842081
3879.000000;2.972148
3878.000000;2.723038
3877.000000;2.588677
3876.000000;2.742096
3875.000000;2.487162
3874.000000;2.235754
3873.000000;2.264309
3872.000000;2.388012
3871.000000;2.339750
3870.000000;2.193254
3869.000000;2.217523
3868.000000;2.314996
3867.000000;2.362261
3866.000000;2.599205
3865.000000;2.610634
3864.000000;2.204112
3863.000000;2.151877
3862.000000;2.128931
3861.000000;2.083484
3860.000000;2.045433
3859.000000;2.101271
3858.000000;2.226428
3857.000000;2.113074
3856.000000;1.910147
3855.000000;1.818397
3854.000000;1.903842
3853.000000;2.044341
3852.000000;1.980345
3851.000000;1.984364
3850.000000;2.110192
3849.000000;2.125493
3848.000000;2.055407
3847.000000;2.245148
3846.000000;2.377639
3845.000000;2.156414
3844.000000;2.076252
3843.000000;2.093009
3842.000000;2.154817
3841.000000;2.234190
3840.000000;2.549039
3839.000000;2.987307
3838.000000;2.330621
3837.000000;2.164332
3836.000000;2.160587
3835.000000;2.280184
3834.000000;2.343729
3833.000000;2.375902
3832.000000;2.648120
3831.000000;2.548069
3830.000000;2.259639
3829.000000;2.118008
3828.000000;2.107340
3827.000000;2.309722
3826.000000;3.119816
3825.000000;2.598973
3824.000000;2.378865
3823.000000;2.391752
3822.000000;2.496479
3821.000000;2.721392
3820.000000;3.013298
3819.000000;3.234456
3818.000000;3.238582
3817.000000;2.679002
3816.000000;2.265749
3815.000000;2.155524
3814.000000;2.240406
3813.000000;2.619582
3812.000000;2.510362
3811.000000;2.078504
3810.000000;2.056738
3809.000000;2.132362
3808.000000;2.177338
3807.000000;2.138569
3806.000000;2.266677
3805.000000;2.752325
3804.000000;2.260710
3803.000000;1.917850
3802.000000;1.932872
3801.000000;2.193746
3800.000000;2.987450
3799.000000;2.404988
3798.000000;2.045269
3797.000000;2.020299
3796.000000;2.218489
3795.000000;2.285796
3794.000000;2.135117
3793.000000;2.100245
3792.000000;2.240829
3791.000000;2.124656
3790.000000;1.962008
3789.000000;2.057565
3788.000000;2.296957
3787.000000;2.189011
3786.000000;2.071270
3785.000000;2.155451
3784.000000;2.434323
3783.000000;2.635292
3782.000000;2.440123
3781.000000;2.508759
3780.000000;2.929345
3779.000000;2.693663
3778.000000;2.496363
3777.000000;2.537638
3776.000000;2.495838
3775.000000;2.326124
3774.000000;2.208374
3773.000000;2.138397
3772.000000;2.028595
3771.000000;1.992914
3770.000000;2.136715
3769.000000;2.271663
3768.000000;2.185501
3767.000000;2.167855
3766.000000;2.128645
3765.000000;1.960038
3764.000000;1.872013
3763.000000;1.846904
3762.000000;1.845316
3761.000000;1.883418
3760.000000;1.958720
3759.000000;2.051758
3758.000000;2.107801
3757.000000;2.082192
3756.000000;2.065033
3755.000000;2.112284
3754.000000;2.322536
3753.000000;2.414774
3752.000000;2.282130
3751.000000;2.797136
3750.000000;2.645128
3749.000000;2.182907
3748.000000;2.127965
3747.000000;2.426547
3746.000000;2.350637
3745.000000;1.926201
3744.000000;1.981921
3743.000000;2.255653
3742.000000;2.012994
3741.000000;1.813663
3740.000000;1.834564
3739.000000;2.009649
3738.000000;2.138954
3737.000000;2.139761
3736.000000;2.134875
3735.000000;2.214478
3734.000000;2.329282
3733.000000;2.388969
3732.000000;2.383649
3731.000000;2.453152
3730.000000;2.530186
3729.000000;2.357517
3728.000000;2.335152
3727.000000;2.365942
3726.000000;2.256761
3725.000000;2.316083
3724.000000;2.567971
3723.000000;2.460086
3722.000000;2.254844
3721.000000;2.282562
3720.000000;2.638477
3719.000000;2.801425
3718.000000;2.375892
3717.000000;2.227575
3716.000000;2.163371
3715.000000;2.095831
3714.000000;2.055889
3713.000000;2.122958
3712.000000;2.438684
3711.000000;2.575094
3710.000000;2.287196
3709.000000;2.195619
3708.000000;2.121522
3707.000000;2.038471
3706.000000;2.020972
3705.000000;2.124966
3704.000000;2.583595
3703.000000;2.955796
3702.000000;2.397764
3701.000000;2.358573
3700.000000;2.314082
3699.000000;2.281029
3698.000000;2.372079
3697.000000;2.511483
3696.000000;2.443798
3695.000000;2.533757
3694.000000;2.777335
3693.000000;2.550361
3692.000000;2.385773
3691.000000;2.352186
3690.000000;2.406055
3689.000000;2.628629
3688.000000;2.558359
3687.000000;2.359298
3686.000000;2.314464
3685.000000;2.506481
3684.000000;3.094818
3683.000000;2.556141
3682.000000;2.434432
3681.000000;2.771258
3680.000000;2.776870
3679.000000;2.512663
3678.000000;2.801369
3677.000000;2.587557
3676.000000;2.135266
3675.000000;2.031784
3674.000000;2.045580
3673.000000;2.031502
3672.000000;1.896284
3671.000000;1.718583
3670.000000;1.701722
3669.000000;1.854570
3668.000000;1.960033
3667.000000;1.892204
3666.000000;1.772010
3665.000000;1.732278
3664.000000;1.834049
3663.000000;1.993669
3662.000000;1.922517
3661.000000;1.861941
3660.000000;1.975186
3659.000000;2.068294
3658.000000;1.902087
3657.000000;1.815779
3656.000000;1.916663
3655.000000;2.117666
3654.000000;2.147952
3653.000000;2.040342
3652.000000;2.186410
3651.000000;2.430230
3650.000000;2.222710
3649.000000;2.300756
3648.000000;2.532326
3647.000000;2.677120
3646.000000;2.565515
3645.000000;2.482147
3644.000000;2.696396
3643.000000;2.655418
3642.000000;2.294425
3641.000000;2.300802
3640.000000;2.542719
3639.000000;2.304406
3638.000000;2.095968
3637.000000;2.177501
3636.000000;2.410155
3635.000000;2.364573
3634.000000;2.271432
3633.000000;2.295441
3632.000000;2.341763
3631.000000;2.513579
3630.000000;2.945681
3629.000000;2.850803
3628.000000;2.867095
3627.000000;3.381981
3626.000000;3.061772
3625.000000;2.425116
3624.000000;2.186861
3623.000000;2.278244
3622.000000;2.297296
3621.000000;2.077641
3620.000000;2.079762
3619.000000;2.243381
3618.000000;2.320498
3617.000000;2.315064
3616.000000;2.304821
3615.000000;2.258592
3614.000000;2.247341
3613.000000;2.305304
3612.000000;2.399339
3611.000000;2.592937
3610.000000;2.294063
3609.000000;1.998902
3608.000000;1.976516
3607.000000;2.136565
3606.000000;2.346924
3605.000000;2.464875
3604.000000;2.613876
3603.000000;3.046574
3602.000000;3.232158
3601.000000;2.822749
3600.000000;2.498988
3599.000000;2.279202
3598.000000;2.191719
3597.000000;2.238505
3596.000000;2.563307
3595.000000;2.949802
3594.000000;2.778152
3593.000000;2.652505
3592.000000;2.338815
3591.000000;2.124296
3590.000000;2.032686
3589.000000;2.063203
3588.000000;2.231866
3587.000000;2.465366
3586.000000;2.667169
3585.000000;2.708821
3584.000000;2.752341
3583.000000;3.059323
3582.000000;2.446337
3581.000000;2.143119
3580.000000;2.152429
3579.000000;2.392554
3578.000000;2.735130
3577.000000;2.544284
3576.000000;2.488056
3575.000000;2.517858
3574.000000;2.683197
3573.000000;2.673235
3572.000000;2.390035
3571.000000;2.420639
3570.000000;2.817080
3569.000000;3.132300
3568.000000;3.019873
3567.000000;3.067119
3566.000000;2.930492
3565.000000;2.910092
3564.000000;2.749168
3563.000000;2.541823
3562.000000;2.461905
3561.000000;2.622234
3560.000000;2.920310
3559.000000;2.404888
3558.000000;2.086170
3557.000000;2.002342
3556.000000;2.133570
3555.000000;2.421438
3554.000000;2.281112
3553.000000;2.165898
3552.000000;2.234609
3551.000000;2.410613
3550.000000;2.404379
3549.000000;2.155458
3548.000000;2.039240
3547.000000;2.025851
3546.000000;2.055575
3545.000000;2.127199
3544.000000;2.218072
3543.000000;2.302685
3542.000000;2.441860
3541.000000;2.844913
3540.000000;3.224642
3539.000000;2.842380
3538.000000;2.538554
3537.000000;2.331261
3536.000000;2.290787
3535.000000;2.338414
3534.000000;2.381896
3533.000000;2.441877
3532.000000;2.584890
3531.000000;2.637956
3530.000000;2.518279
3529.000000;2.617397
3528.000000;3.044858
3527.000000;2.555464
3526.000000;2.288587
3525.000000;2.267199
3524.000000;2.574176
3523.000000;3.021278
3522.000000;2.573377
3521.000000;2.573575
3520.000000;2.727351
3519.000000;2.860918
3518.000000;2.411331
3517.000000;2.168270
3516.000000;2.251497
3515.000000;2.692738
3514.000000;2.591281
3513.000000;2.146025
3512.000000;1.986701
3511.000000;1.915323
3510.000000;1.969466
3509.000000;2.156971
3508.000000;2.322221
3507.000000;2.518843
3506.000000;2.664268
3505.000000;2.350326
3504.000000;2.198247
3503.000000;2.223260
3502.000000;2.258491
3501.000000;2.404406
3500.000000;2.790921
3499.000000;2.411063
3498.000000;2.114637
3497.000000;1.966973
3496.000000;1.863145
3495.000000;1.862654
3494.000000;1.953950
3493.000000;2.134779
3492.000000;2.324164
3491.000000;2.258679
3490.000000;2.096371
3489.000000;2.007265
3488.000000;1.986980
3487.000000;2.057457
3486.000000;2.087251
3485.000000;1.964117
3484.000000;1.873171
3483.000000;1.866120
3482.000000;1.900753
3481.000000;1.989264
3480.000000;2.173294
3479.000000;2.307351
3478.000000;2.305550
3477.000000;2.344463
3476.000000;2.432943
3475.000000;2.393825
3474.000000;2.468643
3473.000000;3.003591
3472.000000;2.526243
3471.000000;2.255934
3470.000000;2.290296
3469.000000;2.289810
3468.000000;2.258024
3467.000000;2.546939
3466.000000;2.863157
3465.000000;2.410014
3464.000000;2.415732
3463.000000;2.322832
3462.000000;2.102531
3461.000000;2.000857
3460.000000;2.013762
3459.000000;2.535626
3458.000000;2.674460
3457.000000;2.048235
3456.000000;2.019146
3455.000000;2.112671
3454.000000;2.232051
3453.000000;2.345832
3452.000000;2.428788
3451.000000;2.722481
3450.000000;3.252444
3449.000000;2.991867
3448.000000;2.766593
3447.000000;2.592325
3446.000000;2.411323
3445.000000;2.292169
3444.000000;2.470520
3443.000000;2.739692
3442.000000;2.227849
3441.000000;2.116224
3440.000000;2.126773
3439.000000;2.056216
3438.000000;2.200024
3437.000000;2.329223
3436.000000;2.019409
3435.000000;1.909047
3434.000000;2.046872
3433.000000;2.088536
3432.000000;1.818893
3431.000000;1.649952
3430.000000;1.604685
3429.000000;1.645530
3428.000000;1.762897
3427.000000;1.861399
3426.000000;1.830350
3425.000000;1.727274
3424.000000;1.640002
3423.000000;1.604365
3422.000000;1.652748
3421.000000;1.786388
3420.000000;1.882762
3419.000000;1.850534
3418.000000;1.866618
3417.000000;2.105911
3416.000000;2.222406
3415.000000;1.934178
3414.000000;1.888801
3413.000000;1.958552
3412.000000;2.008547
3411.000000;2.164340
3410.000000;2.173349
3409.000000;1.952895
3408.000000;1.901316
3407.000000;2.203273
3406.000000;2.369473
3405.000000;1.960275
3404.000000;1.858017
3403.000000;1.879694
3402.000000;1.944481
3401.000000;2.054594
3400.000000;2.076022
3399.000000;1.952761
3398.000000;1.829526
3397.000000;1.811297
3396.000000;1.870687
3395.000000;2.031207
3394.000000;2.304951
3393.000000;2.142163
3392.000000;1.907231
3391.000000;1.860481
3390.000000;2.068021
3389.000000;2.256526
3388.000000;1.938763
3387.000000;1.861249
3386.000000;2.042777
3385.000000;2.270913
3384.000000;2.053765
3383.000000;1.928228
3382.000000;2.063213
3381.000000;2.391041
3380.000000;2.376338
3379.000000;1.998867
3378.000000;1.772858
3377.000000;1.689067
3376.000000;1.719375
3375.000000;1.805071
3374.000000;1.888588
3373.000000;2.075451
3372.000000;2.316710
3371.000000;2.048076
3370.000000;1.875252
3369.000000;1.947702
3368.000000;2.122526
3367.000000;2.062270
3366.000000;1.859339
3365.000000;1.778045
3364.000000;1.810999
3363.000000;2.040940
3362.000000;2.513047
3361.000000;2.308456
3360.000000;2.179864
3359.000000;2.228421
3358.000000;2.420164
3357.000000;2.736418
3356.000000;2.418071
3355.000000;2.430921
3354.000000;2.292181
3353.000000;1.946305
3352.000000;1.827746
3351.000000;1.871795
3350.000000;1.989939
3349.000000;2.126060
3348.000000;2.332787
3347.000000;2.298270
3346.000000;2.127129
3345.000000;2.096771
3344.000000;2.055547
3343.000000;2.091709
3342.000000;2.245067
3341.000000;2.157806
3340.000000;2.002297
3339.000000;1.947595
3338.000000;2.028144
3337.000000;2.210396
3336.000000;2.121425
3335.000000;2.025233
3334.000000;2.004279
3333.000000;2.014250
3332.000000;2.118569
3331.000000;1.941034
3330.000000;1.709138
3329.000000;1.678816
3328.000000;1.803185
3327.000000;1.933268
3326.000000;1.963444
3325.000000;2.069370
3324.000000;2.126465
3323.000000;1.948628
3322.000000;1.834431
3321.000000;1.849929
3320.000000;2.001849
3319.000000;2.344616
3318.000000;2.467096
3317.000000;2.257274
3316.000000;2.142711
3315.000000;2.165553
3314.000000;2.280996
3313.000000;2.535271
3312.000000;3.105347
3311.000000;2.402949
3310.000000;2.185104
3309.000000;2.113294
3308.000000;1.962754
3307.000000;1.949220
3306.000000;2.128944
3305.000000;2.187181
3304.000000;1.966913
3303.000000;1.845463
3302.000000;1.797367
3301.000000;1.830395
3300.000000;1.907619
3299.000000;1.856429
3298.000000;1.706716
3297.000000;1.590749
3296.000000;1.557030
3295.000000;1.619818
3294.000000;1.689316
3293.000000;1.697967
3292.000000;1.728994
3291.000000;1.791046
3290.000000;1.792391
3289.000000;1.933635
3288.000000;2.239215
3287.000000;1.859156
3286.000000;1.650358
3285.000000;1.679433
3284.000000;1.788956
3283.000000;1.928186
3282.000000;1.977575
3281.000000;1.847910
3280.000000;1.717829
3279.000000;1.675146
3278.000000;1.646665
3277.000000;1.738322
3276.000000;2.062351
3275.000000;1.888857
3274.000000;1.613496
3273.000000;1.603748
3272.000000;1.700991
3271.000000;1.798765
3270.000000;1.837662
3269.000000;1.842119
3268.000000;1.832482
3267.000000;1.813433
3266.000000;1.779321
3265.000000;1.843261
3264.000000;2.046475
3263.000000;1.932545
3262.000000;1.834634
3261.000000;1.976307
3260.000000;1.974431
3259.000000;1.838438
3258.000000;1.845873
3257.000000;1.917293
3256.000000;1.958566
3255.000000;1.966785
3254.000000;2.190723
3253.000000;2.621864
3252.000000;2.090653
3251.000000;1.873838
3250.000000;1.833706
3249.000000;1.942271
3248.000000;2.318805
3247.000000;2.236558
3246.000000;2.004327
3245.000000;2.029794
3244.000000;2.029302
3243.000000;1.894002
3242.000000;1.801417
3241.000000;1.776500
3240.000000;1.820789
3239.000000;1.832852
3238.000000;1.864716
3237.000000;2.150193
3236.000000;2.165474
3235.000000;1.921384
3234.000000;1.956503
3233.000000;2.212721
3232.000000;2.523963
3231.000000;2.317562
3230.000000;2.251544
3229.000000;2.376608
3228.000000;2.207528
3227.000000;2.046665
3226.000000;2.131219
3225.000000;2.106889
3224.000000;1.887096
3223.000000;1.837023
3222.000000;2.063293
3221.000000;2.468259
3220.000000;2.180757
3219.000000;1.991620
3218.000000;2.007003
3217.000000;2.169766
3216.000000;2.326457
3215.000000;2.474368
3214.000000;2.660478
3213.000000;2.524240
3212.000000;2.749866
3211.000000;2.658553
3210.000000;2.445352
3209.000000;2.397704
3208.000000;2.524634
3207.000000;2.551028
3206.000000;2.511109
3205.000000;2.879495
3204.000000;2.203322
3203.000000;1.877837
3202.000000;1.774333
3201.000000;1.799265
3200.000000;2.019809
3199.000000;1.978802
3198.000000;1.746863
3197.000000;1.734969
3196.000000;1.868656
3195.000000;1.890457
3194.000000;1.799933
3193.000000;1.823587
3192.000000;1.980161
3191.000000;2.151731
3190.000000;2.128259
3189.000000;2.028597
3188.000000;1.977986
3187.000000;1.921577
3186.000000;1.871015
3185.000000;1.992584
3184.000000;2.227102
3183.000000;1.996054
3182.000000;1.845848
3181.000000;1.905712
3180.000000;2.100936
3179.000000;2.246478
3178.000000;2.051297
3177.000000;1.933078
3176.000000;1.900364
3175.000000;1.831864
3174.000000;1.769677
3173.000000;1.772291
3172.000000;1.742510
3171.000000;1.626484
3170.000000;1.567632
3169.000000;1.627310
3168.000000;1.811209
3167.000000;1.960216
3166.000000;1.967138
3165.000000;2.081738
3164.000000;2.052727
3163.000000;1.870317
3162.000000;1.844199
3161.000000;1.892802
3160.000000;1.917197
3159.000000;1.957458
3158.000000;2.147549
3157.000000;2.526544
3156.000000;2.320537
3155.000000;2.145014
3154.000000;2.318064
3153.000000;2.418002
3152.000000;2.206074
3151.000000;2.173769
3150.000000;2.312654
3149.000000;2.280909
3148.000000;2.115391
3147.000000;1.984966
3146.000000;1.909435
3145.000000;1.919223
3144.000000;2.049595
3143.000000;2.180835
3142.000000;2.067739
3141.000000;1.987454
3140.000000;2.049287
3139.000000;2.137659
3138.000000;2.240583
3137.000000;2.316873
3136.000000;2.178337
3135.000000;2.302727
3134.000000;2.520337
3133.000000;2.054907
3132.000000;1.872113
3131.000000;1.973087
3130.000000;2.242251
3129.000000;2.251882
3128.000000;2.203823
3127.000000;2.204847
3126.000000;2.080938
3125.000000;1.985399
3124.000000;2.065170
3123.000000;2.504055
3122.000000;2.426520
3121.000000;2.118763
3120.000000;2.043359
3119.000000;2.059656
3118.000000;2.150952
3117.000000;2.477798
3116.000000;2.962968
3115.000000;2.258131
3114.000000;1.984900
3113.000000;1.905054
3112.000000;1.983299
3111.000000;2.226473
3110.000000;2.728601
3109.000000;3.094270
3108.000000;2.445987
3107.000000;2.164531
3106.000000;1.982459
3105.000000;1.931979
3104.000000;1.945366
3103.000000;1.966132
3102.000000;2.056151
3101.000000;2.346083
3100.000000;3.218611
3099.000000;2.978292
3098.000000;2.368500
3097.000000;2.052709
3096.000000;1.896084
3095.000000;1.847340
3094.000000;1.857409
3093.000000;1.925438
3092.000000;1.921519
3091.000000;1.820721
3090.000000;1.808518
3089.000000;1.994256
3088.000000;2.165580
3087.000000;2.048341
3086.000000;2.089572
3085.000000;2.477578
3084.000000;2.505214
3083.000000;2.289843
3082.000000;2.731127
3081.000000;2.575121
3080.000000;2.129653
3079.000000;2.193573
3078.000000;2.583392
3077.000000;2.408577
3076.000000;2.077140
3075.000000;2.126191
3074.000000;2.325897
3073.000000;2.074353
3072.000000;1.884774
3071.000000;1.887832
3070.000000;1.893907
3069.000000;1.847615
3068.000000;1.842320
3067.000000;1.911560
3066.000000;2.045437
3065.000000;2.193766
3064.000000;2.137175
3063.000000;1.976553
3062.000000;1.920317
3061.000000;1.985866
3060.000000;2.046081
3059.000000;2.030945
3058.000000;2.040813
3057.000000;1.949712
3056.000000;1.822485
3055.000000;1.824259
3054.000000;2.000716
3053.000000;2.188140
3052.000000;2.102086
3051.000000;2.075771
3050.000000;2.071834
3049.000000;1.984810
3048.000000;2.039119
3047.000000;2.118854
3046.000000;1.979203
3045.000000;1.931995
3044.000000;1.913727
3043.000000;1.859765
3042.000000;1.870589
3041.000000;1.817748
3040.000000;1.740012
3039.000000;1.817998
3038.000000;2.003529
3037.000000;1.939931
3036.000000;1.832363
3035.000000;1.804144
3034.000000;1.773797
3033.000000;1.814922
3032.000000;1.917532
3031.000000;1.936883
3030.000000;1.903874
3029.000000;1.841570
3028.000000;1.772548
3027.000000;1.791628
3026.000000;1.781243
3025.000000;1.707367
3024.000000;1.729930
3023.000000;1.841774
3022.000000;1.906505
3021.000000;1.931674
3020.000000;2.052003
3019.000000;2.193679
3018.000000;2.149300
3017.000000;2.091084
3016.000000;2.101398
3015.000000;2.124962
3014.000000;2.098105
3013.000000;2.022988
3012.000000;2.034281
3011.000000;2.181084
3010.000000;2.136986
3009.000000;1.951978
3008.000000;1.959303
3007.000000;2.061744
3006.000000;2.013447
3005.000000;1.949645
3004.000000;2.217026
3003.000000;2.598046
3002.000000;2.057335
3001.000000;1.851128
3000.000000;1.820843
2999.000000;1.954304
2998.000000;2.260135
2997.000000;2.139468
2996.000000;2.054352
2995.000000;2.135779
2994.000000;1.959887
2993.000000;1.807181
2992.000000;1.807609
2991.000000;1.890584
2990.000000;2.046185
2989.000000;2.153138
2988.000000;1.958777
2987.000000;1.785342
2986.000000;1.747027
2985.000000;1.792274
2984.000000;1.833308
2983.000000;1.804571
2982.000000;1.756018
2981.000000;1.706604
2980.000000;1.688757
2979.000000;1.700055
2978.000000;1.659002
2977.000000;1.611339
2976.000000;1.672816
2975.000000;1.833071
2974.000000;1.875330
2973.000000;1.986054
2972.000000;2.369600
2971.000000;2.150965
2970.000000;1.952528
2969.000000;1.892570
2968.000000;1.791980
2967.000000;1.807687
2966.000000;1.831681
2965.000000;1.900845
2964.000000;2.312326
2963.000000;2.220013
2962.000000;1.917359
2961.000000;1.941968
2960.000000;2.036298
2959.000000;2.067323
2958.000000;2.151223
2957.000000;2.406574
2956.000000;2.635533
2955.000000;2.369177
2954.000000;2.044762
2953.000000;1.915384
2952.000000;1.938856
2951.000000;1.993617
2950.000000;2.298071
2949.000000;2.591710
2948.000000;2.081161
2947.000000;2.031477
2946.000000;2.393815
2945.000000;2.588912
2944.000000;2.462517
2943.000000;2.753240
2942.000000;2.384571
2941.000000;2.103861
2940.000000;2.080518
2939.000000;2.150211
2938.000000;2.360480
2937.000000;2.664807
2936.000000;2.685281
2935.000000;2.588266
2934.000000;2.732753
2933.000000;3.021258
2932.000000;2.879270
2931.000000;2.515890
2930.000000;2.393089
2929.000000;2.549787
2928.000000;2.577082
2927.000000;2.306594
2926.000000;2.110918
2925.000000;1.922841
2924.000000;1.820478
2923.000000;1.870417
2922.000000;1.997769
2921.000000;2.004130
2920.000000;1.992490
2919.000000;2.195635
2918.000000;2.707940
2917.000000;2.624668
2916.000000;2.293408
2915.000000;2.134052
2914.000000;1.978238
2913.000000;1.936669
2912.000000;2.138106
2911.000000;2.262979
2910.000000;2.001989
2909.000000;1.978106
2908.000000;2.180495
2907.000000;2.226041
2906.000000;2.222077
2905.000000;2.325125
2904.000000;2.257630
2903.000000;2.137384
2902.000000;2.180500
2901.000000;2.448114
2900.000000;2.282284
2899.000000;1.973695
2898.000000;1.987145
2897.000000;2.326635
2896.000000;2.259932
2895.000000;1.961512
2894.000000;2.078661
2893.000000;2.335963
2892.000000;2.182241
2891.000000;1.965320
2890.000000;1.768533
2889.000000;1.654685
2888.000000;1.648256
2887.000000;1.680707
2886.000000;1.722792
2885.000000;1.876313
2884.000000;2.142975
2883.000000;2.125640
2882.000000;2.276915
2881.000000;2.768888
2880.000000;2.344502
2879.000000;2.248280
2878.000000;2.355228
2877.000000;2.439047
2876.000000;2.300949
2875.000000;2.198188
2874.000000;2.181423
2873.000000;2.292453
2872.000000;2.457273
2871.000000;2.268139
2870.000000;2.146077
2869.000000;2.165570
2868.000000;2.163739
2867.000000;1.959361
2866.000000;1.817310
2865.000000;1.837371
2864.000000;1.873313
2863.000000;1.837901
2862.000000;1.825353
2861.000000;1.752512
2860.000000;1.691329
2859.000000;1.721842
2858.000000;1.626876
2857.000000;1.497869
2856.000000;1.519468
2855.000000;1.672194
2854.000000;1.736516
2853.000000;1.686820
2852.000000;1.729545
2851.000000;1.835894
2850.000000;1.874641
2849.000000;1.852909
2848.000000;1.952877
2847.000000;2.092166
2846.000000;1.935868
2845.000000;1.845770
2844.000000;1.891995
2843.000000;1.887054
2842.000000;1.838951
2841.000000;1.986989
2840.000000;2.137534
2839.000000;1.880261
2838.000000;1.724017
2837.000000;1.691873
2836.000000;1.693859
2835.000000;1.695212
2834.000000;1.698725
2833.000000;1.806547
2832.000000;2.013611
2831.000000;1.905682
2830.000000;1.755129
2829.000000;1.831593
2828.000000;1.977921
2827.000000;1.872865
2826.000000;1.794365
2825.000000;1.996082
2824.000000;2.373406
2823.000000;1.998828
2822.000000;1.927443
2821.000000;2.152433
2820.000000;2.061201
2819.000000;1.821807
2818.000000;1.781217
2817.000000;1.854508
2816.000000;1.945308
2815.000000;1.979414
2814.000000;1.909790
2813.000000;1.922400
2812.000000;1.929706
2811.000000;1.737181
2810.000000;1.610639
2809.000000;1.630215
2808.000000;1.705637
2807.000000;1.771007
2806.000000;1.906765
2805.000000;2.018110
2804.000000;1.910215
2803.000000;1.855847
2802.000000;1.866047
2801.000000;1.860388
2800.000000;1.863768
2799.000000;1.858585
2798.000000;1.884612
2797.000000;2.029556
2796.000000;2.097832
2795.000000;1.975597
2794.000000;1.953017
2793.000000;1.975871
2792.000000;2.003579
2791.000000;2.090386
2790.000000;2.160350
2789.000000;2.085262
2788.000000;1.957197
2787.000000;1.892021
2786.000000;1.935434
2785.000000;2.056189
2784.000000;2.146052
2783.000000;2.348373
2782.000000;2.475439
2781.000000;2.272081
2780.000000;2.306509
2779.000000;2.230372
2778.000000;2.052110
2777.000000;1.984551
2776.000000;2.056300
2775.000000;2.475558
2774.000000;2.197859
2773.000000;1.896128
2772.000000;1.895313
2771.000000;1.857641
2770.000000;1.720761
2769.000000;1.706822
2768.000000;1.857564
2767.000000;1.944497
2766.000000;1.846770
2765.000000;1.847154
2764.000000;2.084609
2763.000000;2.504391
2762.000000;2.192408
2761.000000;2.037459
2760.000000;2.236019
2759.000000;2.693369
2758.000000;2.787787
2757.000000;2.336341
2756.000000;1.922105
2755.000000;1.709551
2754.000000;1.678992
2753.000000;1.795184
2752.000000;2.026799
2751.000000;2.005705
2750.000000;1.999530
2749.000000;2.546337
2748.000000;2.207878
2747.000000;1.901894
2746.000000;1.914760
2745.000000;1.974158
2744.000000;1.961680
2743.000000;2.022122
2742.000000;2.278137
2741.000000;2.219229
2740.000000;2.039030
2739.000000;1.983962
2738.000000;1.937874
2737.000000;1.882147
2736.000000;1.784411
2735.000000;1.709376
2734.000000;1.775713
2733.000000;2.011164
2732.000000;1.927558
2731.000000;1.726194
2730.000000;1.723808
2729.000000;1.721191
2728.000000;1.656636
2727.000000;1.671229
2726.000000;1.831999
2725.000000;1.889390
2724.000000;1.748227
2723.000000;1.725391
2722.000000;1.786888
2721.000000;1.713756
2720.000000;1.623954
2719.000000;1.657037
2718.000000;1.776576
2717.000000;1.871578
2716.000000;1.960125
2715.000000;2.029057
2714.000000;1.936835
2713.000000;1.918161
2712.000000;1.996911
2711.000000;1.939753
2710.000000;1.861038
2709.000000;1.774681
2708.000000;1.626761
2707.000000;1.560536
2706.000000;1.598094
2705.000000;1.638739
2704.000000;1.646370
2703.000000;1.698111
2702.000000;1.826075
2701.000000;1.975260
2700.000000;2.175164
2699.000000;2.780738
2698.000000;2.189819
2697.000000;1.834436
2696.000000;1.817862
2695.000000;1.964797
2694.000000;2.034903
2693.000000;2.141249
2692.000000;2.420014
2691.000000;2.072715
2690.000000;2.039206
2689.000000;2.346500
2688.000000;2.176804
2687.000000;1.995789
2686.000000;1.869904
2685.000000;1.713069
2684.000000;1.693687
2683.000000;1.878911
2682.000000;2.103243
2681.000000;2.205677
2680.000000;2.466633
2679.000000;2.043970
2678.000000;1.783888
2677.000000;1.758522
2676.000000;1.884161
2675.000000;2.468349
2674.000000;2.242852
2673.000000;1.904635
2672.000000;1.842755
2671.000000;1.697446
2670.000000;1.632202
2669.000000;1.710390
2668.000000;1.794985
2667.000000;1.684969
2666.000000;1.578983
2665.000000;1.556124
2664.000000;1.585937
2663.000000;1.644352
2662.000000;1.699267
2661.000000;1.761823
2660.000000;1.846271
2659.000000;1.888800
2658.000000;1.894332
2657.000000;1.961786
2656.000000;2.106855
2655.000000;2.160312
2654.000000;1.995992
2653.000000;1.878721
2652.000000;1.914480
2651.000000;2.297560
2650.000000;2.570080
2649.000000;1.994456
2648.000000;1.752425
2647.000000;1.640615
2646.000000;1.595024
2645.000000;1.559147
2644.000000;1.551100
2643.000000;1.631262
2642.000000;1.730410
2641.000000;1.735392
2640.000000;1.763723
2639.000000;1.822623
2638.000000;1.923906
2637.000000;2.139090
2636.000000;2.090227
2635.000000;2.013288
2634.000000;1.998206
2633.000000;2.117398
2632.000000;2.539563
2631.000000;2.059721
2630.000000;1.771016
2629.000000;1.670370
2628.000000;1.629473
2627.000000;1.724519
2626.000000;2.097495
2625.000000;1.936434
2624.000000;1.650832
2623.000000;1.714022
2622.000000;1.922339
2621.000000;2.122051
2620.000000;2.016338
2619.000000;1.790622
2618.000000;1.683595
2617.000000;1.701449
2616.000000;1.829191
2615.000000;2.040570
2614.000000;2.064742
2613.000000;1.929006
2612.000000;1.900414
2611.000000;1.951984
2610.000000;1.916742
2609.000000;1.828952
2608.000000;1.767392
2607.000000;1.690622
2606.000000;1.649712
2605.000000;1.712799
2604.000000;1.901070
2603.000000;2.173319
2602.000000;2.408350
2601.000000;2.202648
2600.000000;1.870730
2599.000000;1.748628
2598.000000;1.795323
2597.000000;1.805758
2596.000000;1.668805
2595.000000;1.595578
2594.000000;1.581549
2593.000000;1.587190
2592.000000;1.626069
2591.000000;1.624976
2590.000000;1.577173
2589.000000;1.590225
2588.000000;1.666609
2587.000000;1.694645
2586.000000;1.680118
2585.000000;1.758652
2584.000000;1.893163
2583.000000;1.774229
2582.000000;1.658788
2581.000000;1.650855
2580.000000;1.629270
2579.000000;1.586003
2578.000000;1.624688
2577.000000;1.795989
2576.000000;2.013479
2575.000000;2.169060
2574.000000;2.363923
2573.000000;2.038736
2572.000000;1.715562
2571.000000;1.579223
2570.000000;1.561623
2569.000000;1.631760
2568.000000;1.733142
2567.000000;1.859514
2566.000000;1.964586
2565.000000;1.896875
2564.000000;1.801209
2563.000000;1.809908
2562.000000;1.938212
2561.000000;2.229019
2560.000000;2.396404
2559.000000;1.963314
2558.000000;1.735232
2557.000000;1.704520
2556.000000;1.811336
2555.000000;2.070052
2554.000000;2.286806
2553.000000;1.944530
2552.000000;1.824801
2551.000000;1.859903
2550.000000;1.881965
2549.000000;1.882764
2548.000000;2.001536
2547.000000;2.035411
2546.000000;1.862801
2545.000000;1.828824
2544.000000;1.945885
2543.000000;2.046519
2542.000000;1.957006
2541.000000;1.850008
2540.000000;1.765653
2539.000000;1.690116
2538.000000;1.634526
2537.000000;1.582899
2536.000000;1.538278
2535.000000;1.512459
2534.000000;1.496372
2533.000000;1.497289
2532.000000;1.548246
2531.000000;1.651026
2530.000000;1.695932
2529.000000;1.670972
2528.000000;1.729191
2527.000000;1.888265
2526.000000;1.988099
2525.000000;1.996778
2524.000000;2.019958
2523.000000;2.108078
2522.000000;2.432298
2521.000000;2.936798
2520.000000;2.324513
2519.000000;2.003302
2518.000000;1.882790
2517.000000;1.829777
2516.000000;1.800625
2515.000000;1.821693
2514.000000;1.896426
2513.000000;2.080708
2512.000000;2.622114
2511.000000;2.215368
2510.000000;2.010485
2509.000000;2.182452
2508.000000;2.173748
2507.000000;2.168047
2506.000000;2.205032
2505.000000;2.017112
2504.000000;1.896407
2503.000000;1.893152
2502.000000;2.021915
2501.000000;1.947822
2500.000000;1.745630
2499.000000;1.739540
2498.000000;1.728632
2497.000000;1.588309
2496.000000;1.561351
2495.000000;1.669266
2494.000000;1.700578
2493.000000;1.592957
2492.000000;1.569391
2491.000000;1.653413
2490.000000;1.660634
2489.000000;1.529114
2488.000000;1.495832
2487.000000;1.615259
2486.000000;1.913216
2485.000000;2.282684
2484.000000;2.241651
2483.000000;2.089550
2482.000000;2.000805
2481.000000;1.967962
2480.000000;1.912464
2479.000000;1.801042
2478.000000;1.736202
2477.000000;1.802686
2476.000000;2.002873
2475.000000;2.065870
2474.000000;2.185053
2473.000000;2.284006
2472.000000;1.863293
2471.000000;1.727850
2470.000000;1.709500
2469.000000;1.692822
2468.000000;1.704043
2467.000000;1.933404
2466.000000;2.317777
2465.000000;1.990486
2464.000000;1.825030
2463.000000;1.776709
2462.000000;1.789407
2461.000000;1.857884
2460.000000;2.096668
2459.000000;2.383300
2458.000000;1.877168
2457.000000;1.611781
2456.000000;1.539212
2455.000000;1.548018
2454.000000;1.621123
2453.000000;1.765299
2452.000000;1.875004
2451.000000;1.860853
2450.000000;1.930483
2449.000000;1.947910
2448.000000;1.784390
2447.000000;1.730322
2446.000000;1.799214
2445.000000;1.919342
2444.000000;1.988003
2443.000000;1.837836
2442.000000;1.648050
2441.000000;1.573855
2440.000000;1.599026
2439.000000;1.682916
2438.000000;1.782722
2437.000000;1.913153
2436.000000;2.016558
2435.000000;1.951001
2434.000000;1.886134
2433.000000;1.918446
2432.000000;2.033884
2431.000000;2.221064
2430.000000;2.440225
2429.000000;2.436689
2428.000000;2.244660
2427.000000;2.201372
2426.000000;2.250379
2425.000000;2.091763
2424.000000;2.064886
2423.000000;2.629612
2422.000000;2.094853
2421.000000;1.850054
2420.000000;1.902639
2419.000000;2.030725
2418.000000;2.115491
2417.000000;2.383568
2416.000000;2.041449
2415.000000;1.776231
2414.000000;1.654877
2413.000000;1.594283
2412.000000;1.631344
2411.000000;1.797113
2410.000000;2.007017
2409.000000;2.196733
2408.000000;2.348284
2407.000000;2.179002
2406.000000;2.239518
2405.000000;2.238799
2404.000000;1.945302
2403.000000;1.837804
2402.000000;1.803751
2401.000000;1.670963
2400.000000;1.567443
2399.000000;1.555916
2398.000000;1.511870
2397.000000;1.424546
2396.000000;1.428938
2395.000000;1.558799
2394.000000;1.629574
2393.000000;1.563272
2392.000000;1.569155
2391.000000;1.579276
2390.000000;1.556115
2389.000000;1.597575
2388.000000;1.652460
2387.000000;1.620021
2386.000000;1.595908
2385.000000;1.569425
2384.000000;1.499504
2383.000000;1.460540
2382.000000;1.429685
2381.000000;1.386374
2380.000000;1.407549
2379.000000;1.670971
2378.000000;1.835787
2377.000000;1.554374
2376.000000;1.513071
2375.000000;1.541175
2374.000000;1.529561
2373.000000;1.638708
2372.000000;1.810369
2371.000000;1.562018
2370.000000;1.395536
2369.000000;1.396592
2368.000000;1.561964
2367.000000;1.995694
2366.000000;1.815360
2365.000000;2.267266
2364.000000;3.599314
2363.000000;2.126623
2362.000000;2.098235
2361.000000;2.095778
2360.000000;1.943329
2359.000000;1.841211
2358.000000;1.718979
2357.000000;1.610776
2356.000000;1.556568
2355.000000;1.523618
2354.000000;1.534154
2353.000000;1.644808
2352.000000;1.688511
2351.000000;1.549743
2350.000000;1.503908
2349.000000;1.733492
2348.000000;1.873786
2347.000000;1.641903
2346.000000;1.646428
2345.000000;2.223348
2344.000000;1.919926
2343.000000;1.623056
2342.000000;1.590522
2341.000000;1.634134
2340.000000;1.632710
2339.000000;1.610790
2338.000000;1.677735
2337.000000;1.903631
2336.000000;1.881077
2335.000000;1.808481
2334.000000;1.391577
2333.000000;1.236861
2332.000000;1.128561
2331.000000;1.192555
2330.000000;1.579739
2329.000000;1.881341
2328.000000;1.352020
2327.000000;1.227051
2326.000000;1.212520
2325.000000;1.237509
2324.000000;1.256554
2323.000000;1.555667
2322.000000;1.437453
2321.000000;1.084336
2320.000000;0.963763
2319.000000;0.982624
2318.000000;1.088731
2317.000000;1.266257
2316.000000;1.363618
2315.000000;1.325693
2314.000000;1.358596
2313.000000;1.590493
2312.000000;1.611372
2311.000000;1.408420
2310.000000;1.389791
2309.000000;1.505127
2308.000000;1.659397
2307.000000;1.564664
2306.000000;1.392688
2305.000000;1.373921
2304.000000;1.560461
2303.000000;1.687382
2302.000000;1.529876
2301.000000;1.680025
2300.000000;1.704995
2299.000000;1.485966
2298.000000;1.486184
2297.000000;1.582248
2296.000000;1.539711
2295.000000;1.479639
2294.000000;1.525030
2293.000000;1.714580
2292.000000;1.555941
2291.000000;1.322202
2290.000000;1.278723
2289.000000;1.403834
2288.000000;1.601001
2287.000000;1.579848
2286.000000;1.599555
2285.000000;1.720018
2284.000000;1.718780
2283.000000;1.683764
2282.000000;1.790177
2281.000000;1.822874
2280.000000;1.579475
2279.000000;1.457313
2278.000000;1.474452
2277.000000;1.616710
2276.000000;1.710769
2275.000000;1.634965
2274.000000;1.603468
2273.000000;1.776786
2272.000000;1.944774
2271.000000;1.683108
2270.000000;1.574399
2269.000000;1.747146
2268.000000;1.939202
2267.000000;1.665991
2266.000000;1.552864
2265.000000;1.612018
2264.000000;1.726884
2263.000000;1.831597
2262.000000;1.939192
2261.000000;2.088604
2260.000000;2.495656
2259.000000;2.280717
2258.000000;1.825701
2257.000000;1.707585
2256.000000;1.772262
2255.000000;1.902027
2254.000000;2.041608
2253.000000;2.467864
2252.000000;2.781654
2251.000000;2.292511
2250.000000;1.862482
2249.000000;1.680481
2248.000000;1.716923
2247.000000;1.882996
2246.000000;1.853694
2245.000000;1.742717
2244.000000;1.809015
2243.000000;1.961876
2242.000000;1.932790
2241.000000;1.782851
2240.000000;1.598390
2239.000000;1.466385
2238.000000;1.418248
2237.000000;1.420569
2236.000000;1.473489
2235.000000;1.639590
2234.000000;1.657498
2233.000000;1.415798
2232.000000;1.307638
2231.000000;1.275395
2230.000000;1.266800
2229.000000;1.313221
2228.000000;1.442659
2227.000000;1.656594
2226.000000;1.921789
2225.000000;1.953556
2224.000000;1.812384
2223.000000;1.741738
2222.000000;1.730909
2221.000000;1.701355
2220.000000;1.639254
2219.000000;1.635657
2218.000000;1.664547
2217.000000;1.649999
2216.000000;1.627503
2215.000000;2.058899
2214.000000;2.065785
2213.000000;1.754501
2212.000000;1.808861
2211.000000;1.728628
2210.000000;1.715302
2209.000000;1.914742
2208.000000;2.063446
2207.000000;2.036812
2206.000000;2.146076
2205.000000;2.547595
2204.000000;2.172536
2203.000000;1.920215
2202.000000;1.830367
2201.000000;1.955654
2200.000000;2.251763
2199.000000;1.937807
2198.000000;1.724484
2197.000000;1.651938
2196.000000;1.661292
2195.000000;1.744010
2194.000000;1.986379
2193.000000;2.251415
2192.000000;1.915996
2191.000000;1.664067
2190.000000;1.581049
2189.000000;1.634025
2188.000000;1.775460
2187.000000;1.822639
2186.000000;1.808464
2185.000000;1.895587
2184.000000;2.113846
2183.000000;2.006931
2182.000000;1.871248
2181.000000;1.908500
2180.000000;2.310548
2179.000000;1.948499
2178.000000;1.657730
2177.000000;1.609084
2176.000000;1.755272
2175.000000;2.058562
2174.000000;1.811148
2173.000000;1.573252
2172.000000;1.492067
2171.000000;1.476340
2170.000000;1.442509
2169.000000;1.424410
2168.000000;1.496387
2167.000000;1.676571
2166.000000;1.917637
2165.000000;2.276208
2164.000000;2.138495
2163.000000;1.778894
2162.000000;1.648014
2161.000000;1.550878
2160.000000;1.416448
2159.000000;1.340988
2158.000000;1.380830
2157.000000;1.510452
2156.000000;1.618384
2155.000000;1.698775
2154.000000;1.846125
2153.000000;1.890212
2152.000000;1.806748
2151.000000;1.763231
2150.000000;1.757403
2149.000000;1.763909
2148.000000;1.708740
2147.000000;1.588969
2146.000000;1.547884
2145.000000;1.633896
2144.000000;1.675547
2143.000000;1.581240
2142.000000;1.579605
2141.000000;1.596727
2140.000000;1.518876
2139.000000;1.464223
2138.000000;1.501113
2137.000000;1.613689
2136.000000;1.769270
2135.000000;1.916663
2134.000000;2.014150
2133.000000;1.993592
2132.000000;1.892036
2131.000000;1.788478
2130.000000;1.720831
2129.000000;1.739859
2128.000000;1.892262
2127.000000;2.289970
2126.000000;2.509436
2125.000000;2.248984
2124.000000;2.294756
2123.000000;2.524057
2122.000000;1.841738
2121.000000;1.619123
2120.000000;1.582614
2119.000000;1.660313
2118.000000;1.704497
2117.000000;1.673357
2116.000000;1.678417
2115.000000;1.838639
2114.000000;2.276596
2113.000000;2.064747
2112.000000;1.859775
2111.000000;2.023088
2110.000000;2.314288
2109.000000;2.516710
2108.000000;2.204197
2107.000000;2.013877
2106.000000;2.008125
2105.000000;2.164715
2104.000000;2.036278
2103.000000;1.775613
2102.000000;1.670625
2101.000000;1.693196
2100.000000;1.668365
2099.000000;1.518170
2098.000000;1.443531
2097.000000;1.481835
2096.000000;1.592253
2095.000000;1.643601
2094.000000;1.613501
2093.000000;1.638759
2092.000000;1.649120
2091.000000;1.540499
2090.000000;1.491351
2089.000000;1.569525
2088.000000;1.662809
2087.000000;1.681872
2086.000000;1.784978
2085.000000;1.935256
2084.000000;1.958290
2083.000000;2.069913
2082.000000;2.106454
2081.000000;1.897800
2080.000000;1.829406
2079.000000;1.951485
2078.000000;2.234087
2077.000000;2.429388
2076.000000;2.358705
2075.000000;2.140800
2074.000000;1.884800
2073.000000;1.732389
2072.000000;1.706328
2071.000000;1.752660
2070.000000;1.667074
2069.000000;1.524098
2068.000000;1.472266
2067.000000;1.457528
2066.000000;1.398578
2065.000000;1.359332
2064.000000;1.401780
2063.000000;1.494101
2062.000000;1.588338
2061.000000;1.725559
2060.000000;1.830366
2059.000000;1.889829
2058.000000;1.934853
2057.000000;1.657147
2056.000000;1.458729
2055.000000;1.431105
2054.000000;1.514053
2053.000000;1.574984
2052.000000;1.500090
2051.000000;1.490766
2050.000000;1.629064
2049.000000;2.138384
2048.000000;1.998650
2047.000000;1.703900
2046.000000;1.659701
2045.000000;1.761926
2044.000000;1.944807
2043.000000;1.880708
2042.000000;1.710342
2041.000000;1.619915
2040.000000;1.609171
2039.000000;1.710127
2038.000000;1.830215
2037.000000;1.748749
2036.000000;1.758297
2035.000000;1.851918
2034.000000;1.805112
2033.000000;1.762528
2032.000000;1.739367
2031.000000;1.717477
2030.000000;1.740601
2029.000000;1.693927
2028.000000;1.565427
2027.000000;1.431559
2026.000000;1.347978
2025.000000;1.387025
2024.000000;1.596243
2023.000000;2.220543
2022.000000;2.342751
2021.000000;2.523137
2020.000000;1.849549
2019.000000;1.657929
2018.000000;1.720647
2017.000000;1.961703
2016.000000;1.877780
2015.000000;1.700537
2014.000000;1.650655
2013.000000;1.588843
2012.000000;1.516033
2011.000000;1.618930
2010.000000;1.718325
2009.000000;1.403250
2008.000000;1.250901
2007.000000;1.236516
2006.000000;1.241805
2005.000000;1.214304
2004.000000;1.244108
2003.000000;1.368192
2002.000000;1.550577
2001.000000;1.741676
2000.000000;1.978690
1999.000000;2.061274
1998.000000;1.851929
1997.000000;1.755566
1996.000000;1.803059
1995.000000;1.721203
1994.000000;1.597987
1993.000000;1.627259
1992.000000;1.750046
1991.000000;1.654930
1990.000000;1.623040
1989.000000;1.876695
1988.000000;2.359393
1987.000000;1.730142
1986.000000;1.611418
1985.000000;1.598879
1984.000000;1.631383
1983.000000;1.643244
1982.000000;1.766084
1981.000000;2.179387
1980.000000;1.890664
1979.000000;1.583908
1978.000000;1.607753
1977.000000;1.684646
1976.000000;1.663120
1975.000000;1.674406
1974.000000;1.895713
1973.000000;1.823138
1972.000000;1.613218
1971.000000;1.542256
1970.000000;1.520048
1969.000000;1.520326
1968.000000;1.504661
1967.000000;1.456462
1966.000000;1.442157
1965.000000;1.465132
1964.000000;1.403706
1963.000000;1.321928
1962.000000;1.307406
1961.000000;1.307000
1960.000000;1.258041
1959.000000;1.217434
1958.000000;1.205576
1957.000000;1.210656
1956.000000;1.216382
1955.000000;1.190173
1954.000000;1.196279
1953.000000;1.339795
1952.000000;1.497189
1951.000000;1.451319
1950.000000;1.518062
1949.000000;1.637672
1948.000000;1.519248
1947.000000;1.450403
1946.000000;1.487521
1945.000000;1.463829
1944.000000;1.395552
1943.000000;1.397680
1942.000000;1.439499
1941.000000;1.460935
1940.000000;1.597655
1939.000000;1.742756
1938.000000;1.651499
1937.000000;1.603712
1936.000000;1.432411
1935.000000;1.327593
1934.000000;1.396228
1933.000000;1.586441
1932.000000;1.631212
1931.000000;1.671735
1930.000000;1.717192
1929.000000;1.585399
1928.000000;1.567992
1927.000000;1.693270
1926.000000;1.782733
1925.000000;1.723803
1924.000000;1.742662
1923.000000;1.899611
1922.000000;2.096949
1921.000000;2.085246
1920.000000;1.925578
1919.000000;1.785892
1918.000000;1.697894
1917.000000;1.690905
1916.000000;1.796376
1915.000000;1.824777
1914.000000;1.679687
1913.000000;1.510585
1912.000000;1.382976
1911.000000;1.339689
1910.000000;1.388769
1909.000000;1.472812
1908.000000;1.477097
1907.000000;1.460952
1906.000000;1.465057
1905.000000;1.436345
1904.000000;1.424006
1903.000000;1.489341
1902.000000;1.599645
1901.000000;1.605530
1900.000000;1.538213
1899.000000;1.555096
1898.000000;1.719037
1897.000000;1.977887
1896.000000;2.073792
1895.000000;2.108022
1894.000000;1.809693
1893.000000;1.578987
1892.000000;1.556454
1891.000000;1.663558
1890.000000;1.714158
1889.000000;1.659466
1888.000000;1.605828
1887.000000;1.527367
1886.000000;1.448379
1885.000000;1.382873
1884.000000;1.403719
1883.000000;1.587842
1882.000000;1.636805
1881.000000;1.447104
1880.000000;1.451644
1879.000000;1.524360
1878.000000;1.450544
1877.000000;1.430501
1876.000000;1.484542
1875.000000;1.454723
1874.000000;1.383725
1873.000000;1.348829
1872.000000;1.367298
1871.000000;1.476720
1870.000000;1.721627
1869.000000;1.832243
1868.000000;2.369719
1867.000000;2.048874
1866.000000;1.539378
1865.000000;1.481024
1864.000000;1.556631
1863.000000;1.743097
1862.000000;1.848396
1861.000000;1.814411
1860.000000;1.938167
1859.000000;2.286850
1858.000000;1.792575
1857.000000;1.619723
1856.000000;1.601947
1855.000000;1.633393
1854.000000;1.695276
1853.000000;1.751611
1852.000000;1.738523
1851.000000;1.627918
1850.000000;1.485472
1849.000000;1.379937
1848.000000;1.323616
1847.000000;1.296987
1846.000000;1.311990
1845.000000;1.401099
1844.000000;1.524329
1843.000000;1.539165
1842.000000;1.420638
1841.000000;1.314159
1840.000000;1.295375
1839.000000;1.357791
1838.000000;1.429149
1837.000000;1.448550
1836.000000;1.511852
1835.000000;1.649718
1834.000000;1.512821
1833.000000;1.359421
1832.000000;1.347913
1831.000000;1.430906
1830.000000;1.582107
1829.000000;1.825316
1828.000000;1.572312
1827.000000;1.347456
1826.000000;1.286466
1825.000000;1.271744
1824.000000;1.305957
1823.000000;1.498251
1822.000000;1.720351
1821.000000;1.742796
1820.000000;1.727105
1819.000000;1.499237
1818.000000;1.411880
1817.000000;1.472172
1816.000000;1.385036
1815.000000;1.271747
1814.000000;1.336158
1813.000000;1.583278
1812.000000;1.982209
1811.000000;2.054070
1810.000000;2.037776
1809.000000;1.965237
1808.000000;1.707747
1807.000000;1.609657
1806.000000;1.746215
1805.000000;2.655926
1804.000000;1.743592
1803.000000;1.502844
1802.000000;1.427767
1801.000000;1.358878
1800.000000;1.340989
1799.000000;1.413014
1798.000000;1.559188
1797.000000;1.752205
1796.000000;1.811055
1795.000000;1.653191
1794.000000;1.562969
1793.000000;1.559988
1792.000000;1.626250
1791.000000;1.751528
1790.000000;1.815903
1789.000000;1.615865
1788.000000;1.432670
1787.000000;1.390618
1786.000000;1.449266
1785.000000;1.556685
1784.000000;1.596172
1783.000000;1.476153
1782.000000;1.352049
1781.000000;1.318886
1780.000000;1.377478
1779.000000;1.550080
1778.000000;1.769263
1777.000000;1.602521
1776.000000;1.420197
1775.000000;1.314599
1774.000000;1.293333
1773.000000;1.379762
1772.000000;1.730000
1771.000000;2.531024
1770.000000;1.567635
1769.000000;1.504596
1768.000000;1.509342
1767.000000;1.372656
1766.000000;1.367844
1765.000000;1.555970
1764.000000;1.949437
1763.000000;2.175133
1762.000000;1.939339
1761.000000;1.852162
1760.000000;1.669965
1759.000000;1.481469
1758.000000;1.397523
1757.000000;1.362197
1756.000000;1.455939
1755.000000;1.950330
1754.000000;1.676588
1753.000000;1.473370
1752.000000;1.449486
1751.000000;1.284054
1750.000000;1.146444
1749.000000;1.095152
1748.000000;1.135355
1747.000000;1.258972
1746.000000;1.311232
1745.000000;1.325095
1744.000000;1.593660
1743.000000;2.113947
1742.000000;1.765484
1741.000000;2.117802
1740.000000;2.064437
1739.000000;1.663806
1738.000000;1.620768
1737.000000;1.664641
1736.000000;1.800084
1735.000000;2.072826
1734.000000;2.556319
1733.000000;2.352543
1732.000000;1.905677
1731.000000;1.507122
1730.000000;1.297494
1729.000000;1.247390
1728.000000;1.266048
1727.000000;1.341193
1726.000000;1.428411
1725.000000;1.434828
1724.000000;1.443817
1723.000000;1.424120
1722.000000;1.307323
1721.000000;1.264248
1720.000000;1.332190
1719.000000;1.392711
1718.000000;1.376011
1717.000000;1.398108
1716.000000;1.453098
1715.000000;1.503683
1714.000000;1.718162
1713.000000;1.924206
1712.000000;1.766487
1711.000000;1.922653
1710.000000;2.098231
1709.000000;1.828151
1708.000000;1.679434
1707.000000;1.564481
1706.000000;1.508681
1705.000000;1.942347
1704.000000;1.751831
1703.000000;1.318296
1702.000000;1.233837
1701.000000;1.259980
1700.000000;1.304040
1699.000000;1.283112
1698.000000;1.246047
1697.000000;1.280808
1696.000000;1.336475
1695.000000;1.314143
1694.000000;1.300078
1693.000000;1.292589
1692.000000;1.236934
1691.000000;1.221906
1690.000000;1.305470
1689.000000;1.445480
1688.000000;1.577999
1687.000000;1.445252
1686.000000;1.229710
1685.000000;1.209876
1684.000000;1.311927
1683.000000;1.349313
1682.000000;1.399586
1681.000000;1.460542
1680.000000;1.195773
1679.000000;1.059500
1678.000000;1.064358
1677.000000;1.066944
1676.000000;1.058406
1675.000000;1.094379
1674.000000;1.200527
1673.000000;1.492050
1672.000000;1.911464
1671.000000;1.413642
1670.000000;1.257615
1669.000000;1.235337
1668.000000;1.190048
1667.000000;1.191773
1666.000000;1.281722
1665.000000;1.396764
1664.000000;1.378212
1663.000000;1.316297
1662.000000;1.340301
1661.000000;1.407453
1660.000000;1.350930
1659.000000;1.288372
1658.000000;1.537614
1657.000000;1.734454
1656.000000;1.258801
1655.000000;1.059936
1654.000000;1.004892
1653.000000;1.009106
1652.000000;1.019221
1651.000000;1.011668
1650.000000;1.017809
1649.000000;1.071566
1648.000000;1.178819
1647.000000;1.342839
1646.000000;1.536356
1645.000000;1.603274
1644.000000;1.557225
1643.000000;1.512622
1642.000000;1.461624
1641.000000;1.404869
1640.000000;1.392507
1639.000000;1.461639
1638.000000;1.730955
1637.000000;1.911178
1636.000000;1.490158
1635.000000;1.337061
1634.000000;1.290667
1633.000000;1.298656
1632.000000;1.355622
1631.000000;1.350491
1630.000000;1.253912
1629.000000;1.213682
1628.000000;1.233345
1627.000000;1.226701
1626.000000;1.232903
1625.000000;1.361545
1624.000000;1.639656
1623.000000;1.763420
1622.000000;1.531979
1621.000000;1.334428
1620.000000;1.261770
1619.000000;1.302844
1618.000000;1.438418
1617.000000;1.672732
1616.000000;2.095585
1615.000000;2.437051
1614.000000;2.011193
1613.000000;1.793102
1612.000000;1.719906
1611.000000;1.909590
1610.000000;2.309428
1609.000000;2.089739
1608.000000;1.869718
1607.000000;1.476230
1606.000000;1.268330
1605.000000;1.195511
1604.000000;1.208534
1603.000000;1.312015
1602.000000;1.523864
1601.000000;2.023612
1600.000000;1.802710
1599.000000;1.412558
1598.000000;1.335716
1597.000000;1.401223
1596.000000;1.494357
1595.000000;1.618631
1594.000000;1.859979
1593.000000;1.458224
1592.000000;1.197973
1591.000000;1.151293
1590.000000;1.214135
1589.000000;1.304576
1588.000000;1.345562
1587.000000;1.510464
1586.000000;1.662889
1585.000000;1.371658
1584.000000;1.226929
1583.000000;1.191085
1582.000000;1.218001
1581.000000;1.379890
1580.000000;1.594292
1579.000000;2.040943
1578.000000;2.135930
1577.000000;1.371641
1576.000000;1.206117
1575.000000;1.212570
1574.000000;1.356123
1573.000000;1.620980
1572.000000;1.500252
1571.000000;1.319007
1570.000000;1.314736
1569.000000;1.303446
1568.000000;1.183988
1567.000000;1.203915
1566.000000;1.684054
1565.000000;1.531346
1564.000000;1.248228
1563.000000;1.289917
1562.000000;1.491774
1561.000000;1.566713
1560.000000;1.390976
1559.000000;1.376656
1558.000000;1.587861
1557.000000;1.406934
1556.000000;1.088922
1555.000000;1.046401
1554.000000;1.065807
1553.000000;0.962669
1552.000000;0.894861
1551.000000;0.989305
1550.000000;1.111303
1549.000000;0.944546
1548.000000;0.845303
1547.000000;0.887014
1546.000000;0.933920
1545.000000;0.956710
1544.000000;0.990123
1543.000000;1.101141
1542.000000;1.266169
1541.000000;1.179943
1540.000000;1.079682
1539.000000;1.109846
1538.000000;1.149112
1537.000000;1.072366
1536.000000;1.006424
1535.000000;1.061395
1534.000000;1.264606
1533.000000;1.472822
1532.000000;1.347100
1531.000000;1.242363
1530.000000;1.529319
1529.000000;2.385870
1528.000000;1.395690
1527.000000;1.274540
1526.000000;1.215199
1525.000000;1.103619
1524.000000;1.082056
1523.000000;1.081992
1522.000000;1.051555
1521.000000;1.015485
1520.000000;1.065111
1519.000000;1.266525
1518.000000;1.538003
1517.000000;1.430318
1516.000000;1.346684
1515.000000;1.627248
1514.000000;1.721400
1513.000000;1.278826
1512.000000;1.081392
1511.000000;1.012156
1510.000000;1.011862
1509.000000;1.056020
1508.000000;1.173415
1507.000000;1.373453
1506.000000;1.436466
1505.000000;1.475412
1504.000000;1.511404
1503.000000;1.635594
1502.000000;1.705366
1501.000000;1.390408
1500.000000;1.220636
1499.000000;1.165780
1498.000000;1.116216
1497.000000;1.080659
1496.000000;1.130013
1495.000000;1.228853
1494.000000;1.308871
1493.000000;1.377117
1492.000000;1.324440
1491.000000;1.200072
1490.000000;1.176415
1489.000000;1.208759
1488.000000;1.312490
1487.000000;1.764931
1486.000000;1.860891
1485.000000;1.846397
1484.000000;1.937415
1483.000000;1.424887
1482.000000;1.210399
1481.000000;1.110442
1480.000000;1.020847
1479.000000;0.955793
1478.000000;0.922105
1477.000000;0.910003
1476.000000;0.917505
1475.000000;0.974303
1474.000000;1.086733
1473.000000;1.197095
1472.000000;1.267012
1471.000000;1.491917
1470.000000;1.812732
1469.000000;1.546558
1468.000000;1.417530
1467.000000;1.449793
1466.000000;1.440733
1465.000000;1.412674
1464.000000;1.530955
1463.000000;1.688336
1462.000000;1.521556
1461.000000;1.295431
1460.000000;1.139517
1459.000000;1.126457
1458.000000;1.141452
1457.000000;1.086350
1456.000000;1.173560
1455.000000;1.070037
1454.000000;0.879030
1453.000000;0.879061
1452.000000;0.952304
1451.000000;1.017887
1450.000000;1.116910
1449.000000;1.366658
1448.000000;1.645041
1447.000000;1.430543
1446.000000;1.294850
1445.000000;1.278177
1444.000000;1.276119
1443.000000;1.271550
1442.000000;1.237401
1441.000000;1.153320
1440.000000;1.070537
1439.000000;1.042599
1438.000000;1.070136
1437.000000;1.130285
1436.000000;1.211769
1435.000000;1.404440
1434.000000;1.600000
1433.000000;1.498198
1432.000000;1.578712
1431.000000;1.662923
1430.000000;1.302578
1429.000000;1.094443
1428.000000;1.047431
1427.000000;1.089190
1426.000000;1.161869
1425.000000;1.156101
1424.000000;1.011406
1423.000000;0.852834
1422.000000;0.787299
1421.000000;0.804022
1420.000000;0.849999
1419.000000;0.884813
1418.000000;0.989882
1417.000000;1.244308
1416.000000;1.235105
1415.000000;1.062638
1414.000000;1.067739
1413.000000;1.163050
1412.000000;1.292923
1411.000000;1.607352
1410.000000;1.879024
1409.000000;1.480515
1408.000000;1.338607
1407.000000;1.286394
1406.000000;1.278088
1405.000000;1.401958
1404.000000;1.351295
1403.000000;1.191541
1402.000000;1.100313
1401.000000;1.034314
1400.000000;1.010808
1399.000000;1.090590
1398.000000;1.294166
1397.000000;1.271404
1396.000000;1.127142
1395.000000;1.057522
1394.000000;0.986436
1393.000000;1.018279
1392.000000;1.214262
1391.000000;1.598729
1390.000000;2.276177
1389.000000;2.196013
1388.000000;1.615415
1387.000000;1.351765
1386.000000;1.299201
1385.000000;1.354245
1384.000000;1.415329
1383.000000;1.460732
1382.000000;1.561954
1381.000000;1.908572
1380.000000;2.002700
1379.000000;1.654843
1378.000000;1.419145
1377.000000;1.258556
1376.000000;1.208589
1375.000000;1.140561
1374.000000;1.006919
1373.000000;0.956942
1372.000000;1.032263
1371.000000;1.125588
1370.000000;1.146073
1369.000000;1.189023
1368.000000;1.370307
1367.000000;1.709490
1366.000000;1.616509
1365.000000;1.301551
1364.000000;1.100462
1363.000000;0.978073
1362.000000;0.950311
1361.000000;1.007875
1360.000000;1.096090
1359.000000;1.159256
1358.000000;1.213641
1357.000000;1.330807
1356.000000;1.566514
1355.000000;1.773975
1354.000000;1.647580
1353.000000;1.386751
1352.000000;1.202747
1351.000000;1.116300
1350.000000;1.082657
1349.000000;1.075443
1348.000000;1.086898
1347.000000;1.112464
1346.000000;1.153022
1345.000000;1.204203
1344.000000;1.256156
1343.000000;1.301303
1342.000000;1.255848
1341.000000;1.073115
1340.000000;0.902804
1339.000000;0.848093
1338.000000;0.951714
1337.000000;1.151710
1336.000000;1.229273
1335.000000;1.252523
1334.000000;1.369647
1333.000000;1.554599
1332.000000;1.693980
1331.000000;1.631979
1330.000000;1.450596
1329.000000;1.343383
1328.000000;1.365297
1327.000000;1.496304
1326.000000;1.490774
1325.000000;1.506928
1324.000000;1.717514
1323.000000;1.391227
1322.000000;1.153644
1321.000000;1.138036
1320.000000;1.307046
1319.000000;1.586666
1318.000000;1.439725
1317.000000;1.394143
1316.000000;1.695830
1315.000000;1.623348
1314.000000;1.266086
1313.000000;1.178323
1312.000000;1.257704
1311.000000;1.427282
1310.000000;1.527146
1309.000000;1.701274
1308.000000;1.795848
1307.000000;1.376472
1306.000000;1.194757
1305.000000;1.189746
1304.000000;1.302481
1303.000000;1.400412
1302.000000;1.438916
1301.000000;1.814438
1300.000000;1.877507
1299.000000;1.406256
1298.000000;1.233440
1297.000000;1.179060
1296.000000;1.209013
1295.000000;1.333169
1294.000000;1.438710
1293.000000;1.357838
1292.000000;1.283967
1291.000000;1.310452
1290.000000;1.335704
1289.000000;1.263666
1288.000000;1.172320
1287.000000;1.130775
1286.000000;1.138905
1285.000000;1.169195
1284.000000;1.178942
1283.000000;1.196871
1282.000000;1.260586
1281.000000;1.332658
1280.000000;1.405372
1279.000000;1.559167
1278.000000;1.857943
1277.000000;2.050249
1276.000000;2.137442
1275.000000;2.076415
1274.000000;1.798826
1273.000000;1.437343
1272.000000;1.274576
1271.000000;1.232545
1270.000000;1.401156
1269.000000;2.266851
1268.000000;1.524479
1267.000000;1.211429
1266.000000;1.216672
1265.000000;1.262133
1264.000000;1.395532
1263.000000;1.658366
1262.000000;1.486677
1261.000000;1.205271
1260.000000;1.131245
1259.000000;1.112278
1258.000000;1.110522
1257.000000;1.116969
1256.000000;1.154995
1255.000000;1.223771
1254.000000;1.403167
1253.000000;1.705959
1252.000000;1.700015
1251.000000;2.032823
1250.000000;1.587632
1249.000000;1.142347
1248.000000;1.083544
1247.000000;1.170546
1246.000000;1.277122
1245.000000;1.339537
1244.000000;1.626377
1243.000000;1.829205
1242.000000;1.316388
1241.000000;1.097993
1240.000000;1.073101
1239.000000;1.209961
1238.000000;1.352835
1237.000000;1.304398
1236.000000;1.285368
1235.000000;1.319369
1234.000000;1.452203
1233.000000;1.772915
1232.000000;1.846983
1231.000000;1.580033
1230.000000;1.415577
1229.000000;1.330225
1228.000000;1.296020
1227.000000;1.286796
1226.000000;1.327026
1225.000000;1.482565
1224.000000;1.545812
1223.000000;1.525779
1222.000000;1.625311
1221.000000;1.789976
1220.000000;2.375798
1219.000000;1.794009
1218.000000;1.315916
1217.000000;1.145285
1216.000000;1.132783
1215.000000;1.217609
1214.000000;1.192325
1213.000000;1.140853
1212.000000;1.228932
1211.000000;1.312812
1210.000000;1.248329
1209.000000;1.196329
1208.000000;1.350049
1207.000000;1.846008
1206.000000;1.589015
1205.000000;1.319923
1204.000000;1.251945
1203.000000;1.145093
1202.000000;1.084550
1201.000000;1.092022
1200.000000;1.131258
