Criado como novo conjunto de dados;"2706_e01_daniel.spp","17102.9 Secs"
cm-1;Abs
10000.000000;0.722688
9999.000000;0.722753
9998.000000;0.722816
9997.000000;0.722883
9996.000000;0.722942
9995.000000;0.723018
9994.000000;0.723039
9993.000000;0.722785
9992.000000;0.722328
9991.000000;0.721886
9990.000000;0.721571
9989.000000;0.721356
9988.000000;0.721231
9987.000000;0.721206
9986.000000;0.721238
9985.000000;0.721252
9984.000000;0.721210
9983.000000;0.721075
9982.000000;0.720807
9981.000000;0.720489
9980.000000;0.720338
9979.000000;0.720462
9978.000000;0.720704
9977.000000;0.720850
9976.000000;0.720929
9975.000000;0.721121
9974.000000;0.721452
9973.000000;0.721727
9972.000000;0.721752
9971.000000;0.721499
9970.000000;0.721082
9969.000000;0.720722
9968.000000;0.720662
9967.000000;0.720978
9966.000000;0.721453
9965.000000;0.721769
9964.000000;0.721802
9963.000000;0.721615
9962.000000;0.721261
9961.000000;0.720769
9960.000000;0.720297
9959.000000;0.720056
9958.000000;0.720012
9957.000000;0.719858
9956.000000;0.719393
9955.000000;0.718793
9954.000000;0.718432
9953.000000;0.718520
9952.000000;0.718990
9951.000000;0.719595
9950.000000;0.720010
9949.000000;0.719959
9948.000000;0.719427
9947.000000;0.718750
9946.000000;0.718388
9945.000000;0.718557
9944.000000;0.719057
9943.000000;0.719458
9942.000000;0.719446
9941.000000;0.719056
9940.000000;0.718622
9939.000000;0.718492
9938.000000;0.718733
9937.000000;0.719085
9936.000000;0.719186
9935.000000;0.718862
9934.000000;0.718246
9933.000000;0.717663
9932.000000;0.717356
9931.000000;0.717278
9930.000000;0.717155
9929.000000;0.716797
9928.000000;0.716324
9927.000000;0.716040
9926.000000;0.716138
9925.000000;0.716550
9924.000000;0.717056
9923.000000;0.717440
9922.000000;0.717564
9921.000000;0.717395
9920.000000;0.717004
9919.000000;0.716486
9918.000000;0.715897
9917.000000;0.715290
9916.000000;0.714771
9915.000000;0.714443
9914.000000;0.714302
9913.000000;0.714281
9912.000000;0.714380
9911.000000;0.714659
9910.000000;0.715072
9909.000000;0.715417
9908.000000;0.715522
9907.000000;0.715435
9906.000000;0.715356
9905.000000;0.715430
9904.000000;0.715624
9903.000000;0.715789
9902.000000;0.715808
9901.000000;0.715673
9900.000000;0.715424
9899.000000;0.715078
9898.000000;0.714693
9897.000000;0.714503
9896.000000;0.714825
9895.000000;0.715685
9894.000000;0.716603
9893.000000;0.716922
9892.000000;0.716404
9891.000000;0.715402
9890.000000;0.714482
9889.000000;0.713996
9888.000000;0.713999
9887.000000;0.714342
9886.000000;0.714718
9885.000000;0.714794
9884.000000;0.714481
9883.000000;0.714019
9882.000000;0.713673
9881.000000;0.713401
9880.000000;0.712971
9879.000000;0.712346
9878.000000;0.711782
9877.000000;0.711505
9876.000000;0.711405
9875.000000;0.711182
9874.000000;0.710738
9873.000000;0.710317
9872.000000;0.710227
9871.000000;0.710472
9870.000000;0.710735
9869.000000;0.710743
9868.000000;0.710570
9867.000000;0.710523
9866.000000;0.710763
9865.000000;0.711179
9864.000000;0.711591
9863.000000;0.711952
9862.000000;0.712277
9861.000000;0.712517
9860.000000;0.712627
9859.000000;0.712677
9858.000000;0.712736
9857.000000;0.712685
9856.000000;0.712307
9855.000000;0.711590
9854.000000;0.710815
9853.000000;0.710283
9852.000000;0.710054
9851.000000;0.710008
9850.000000;0.710078
9849.000000;0.710278
9848.000000;0.710557
9847.000000;0.710756
9846.000000;0.710766
9845.000000;0.710661
9844.000000;0.710612
9843.000000;0.710681
9842.000000;0.710736
9841.000000;0.710609
9840.000000;0.710323
9839.000000;0.710109
9838.000000;0.710149
9837.000000;0.710330
9836.000000;0.710350
9835.000000;0.710077
9834.000000;0.709717
9833.000000;0.709529
9832.000000;0.709486
9831.000000;0.709375
9830.000000;0.709190
9829.000000;0.709183
9828.000000;0.709427
9827.000000;0.709539
9826.000000;0.709085
9825.000000;0.708185
9824.000000;0.707467
9823.000000;0.707379
9822.000000;0.707742
9821.000000;0.708063
9820.000000;0.708101
9819.000000;0.707952
9818.000000;0.707709
9817.000000;0.707333
9816.000000;0.706904
9815.000000;0.706774
9814.000000;0.707275
9813.000000;0.708287
9812.000000;0.709236
9811.000000;0.709553
9810.000000;0.709137
9809.000000;0.708349
9808.000000;0.707596
9807.000000;0.706978
9806.000000;0.706345
9805.000000;0.705629
9804.000000;0.705025
9803.000000;0.704802
9802.000000;0.705008
9801.000000;0.705427
9800.000000;0.705828
9799.000000;0.706149
9798.000000;0.706436
9797.000000;0.706696
9796.000000;0.706897
9795.000000;0.707036
9794.000000;0.707117
9793.000000;0.707075
9792.000000;0.706820
9791.000000;0.706394
9790.000000;0.705988
9789.000000;0.705752
9788.000000;0.705650
9787.000000;0.705585
9786.000000;0.705600
9785.000000;0.705816
9784.000000;0.706173
9783.000000;0.706360
9782.000000;0.706118
9781.000000;0.705539
9780.000000;0.704954
9779.000000;0.704600
9778.000000;0.704499
9777.000000;0.704620
9776.000000;0.704983
9775.000000;0.705508
9774.000000;0.705893
9773.000000;0.705797
9772.000000;0.705186
9771.000000;0.704433
9770.000000;0.704045
9769.000000;0.704252
9768.000000;0.704826
9767.000000;0.705276
9766.000000;0.705298
9765.000000;0.705060
9764.000000;0.705000
9763.000000;0.705303
9762.000000;0.705650
9761.000000;0.705562
9760.000000;0.704962
9759.000000;0.704266
9758.000000;0.703950
9757.000000;0.704095
9756.000000;0.704395
9755.000000;0.704483
9754.000000;0.704210
9753.000000;0.703678
9752.000000;0.703133
9751.000000;0.702811
9750.000000;0.702782
9749.000000;0.702880
9748.000000;0.702843
9747.000000;0.702582
9746.000000;0.702285
9745.000000;0.702248
9744.000000;0.702572
9743.000000;0.703044
9742.000000;0.703301
9741.000000;0.703123
9740.000000;0.702601
9739.000000;0.702060
9738.000000;0.701809
9737.000000;0.701948
9736.000000;0.702364
9735.000000;0.702849
9734.000000;0.703212
9733.000000;0.703307
9732.000000;0.703069
9731.000000;0.702617
9730.000000;0.702247
9729.000000;0.702209
9728.000000;0.702434
9727.000000;0.702551
9726.000000;0.702267
9725.000000;0.701664
9724.000000;0.701062
9723.000000;0.700652
9722.000000;0.700366
9721.000000;0.700117
9720.000000;0.699987
9719.000000;0.700103
9718.000000;0.700382
9717.000000;0.700553
9716.000000;0.700441
9715.000000;0.700154
9714.000000;0.699938
9713.000000;0.699922
9712.000000;0.700061
9711.000000;0.700282
9710.000000;0.700573
9709.000000;0.700897
9708.000000;0.701110
9707.000000;0.701059
9706.000000;0.700739
9705.000000;0.700292
9704.000000;0.699857
9703.000000;0.699494
9702.000000;0.699257
9701.000000;0.699233
9700.000000;0.699438
9699.000000;0.699735
9698.000000;0.699940
9697.000000;0.699972
9696.000000;0.699875
9695.000000;0.699712
9694.000000;0.699515
9693.000000;0.699305
9692.000000;0.699082
9691.000000;0.698808
9690.000000;0.698445
9689.000000;0.698040
9688.000000;0.697740
9687.000000;0.697694
9686.000000;0.697930
9685.000000;0.698280
9684.000000;0.698470
9683.000000;0.698359
9682.000000;0.698132
9681.000000;0.698111
9680.000000;0.698351
9679.000000;0.698532
9678.000000;0.698370
9677.000000;0.697992
9676.000000;0.697733
9675.000000;0.697665
9674.000000;0.697570
9673.000000;0.697325
9672.000000;0.697066
9671.000000;0.696941
9670.000000;0.696929
9669.000000;0.696987
9668.000000;0.697156
9667.000000;0.697409
9666.000000;0.697539
9665.000000;0.697379
9664.000000;0.697022
9663.000000;0.696722
9662.000000;0.696655
9661.000000;0.696837
9660.000000;0.697169
9659.000000;0.697471
9658.000000;0.697579
9657.000000;0.697501
9656.000000;0.697381
9655.000000;0.697252
9654.000000;0.696984
9653.000000;0.696585
9652.000000;0.696330
9651.000000;0.696424
9650.000000;0.696666
9649.000000;0.696682
9648.000000;0.696397
9647.000000;0.696052
9646.000000;0.695836
9645.000000;0.695760
9644.000000;0.695851
9643.000000;0.696176
9642.000000;0.696621
9641.000000;0.696873
9640.000000;0.696742
9639.000000;0.696352
9638.000000;0.695941
9637.000000;0.695649
9636.000000;0.695545
9635.000000;0.695683
9634.000000;0.696013
9633.000000;0.696359
9632.000000;0.696588
9631.000000;0.696679
9630.000000;0.696588
9629.000000;0.696206
9628.000000;0.695586
9627.000000;0.695059
9626.000000;0.694941
9625.000000;0.695196
9624.000000;0.695513
9623.000000;0.695652
9622.000000;0.695600
9621.000000;0.695450
9620.000000;0.695279
9619.000000;0.695145
9618.000000;0.695058
9617.000000;0.694960
9616.000000;0.694830
9615.000000;0.694784
9614.000000;0.694944
9613.000000;0.695236
9612.000000;0.695427
9611.000000;0.695410
9610.000000;0.695280
9609.000000;0.695090
9608.000000;0.694668
9607.000000;0.693853
9606.000000;0.692855
9605.000000;0.692167
9604.000000;0.692092
9603.000000;0.692443
9602.000000;0.692805
9601.000000;0.692976
9600.000000;0.693051
9599.000000;0.693133
9598.000000;0.693172
9597.000000;0.693128
9596.000000;0.693113
9595.000000;0.693215
9594.000000;0.693285
9593.000000;0.693089
9592.000000;0.692647
9591.000000;0.692246
9590.000000;0.692087
9589.000000;0.692085
9588.000000;0.692067
9587.000000;0.692011
9586.000000;0.692002
9585.000000;0.692039
9584.000000;0.692035
9583.000000;0.691942
9582.000000;0.691796
9581.000000;0.691673
9580.000000;0.691652
9579.000000;0.691763
9578.000000;0.691901
9577.000000;0.691858
9576.000000;0.691556
9575.000000;0.691171
9574.000000;0.690944
9573.000000;0.690923
9572.000000;0.690992
9571.000000;0.691073
9570.000000;0.691150
9569.000000;0.691149
9568.000000;0.690990
9567.000000;0.690769
9566.000000;0.690691
9565.000000;0.690771
9564.000000;0.690763
9563.000000;0.690481
9562.000000;0.690057
9561.000000;0.689766
9560.000000;0.689714
9559.000000;0.689816
9558.000000;0.689987
9557.000000;0.690193
9556.000000;0.690348
9555.000000;0.690355
9554.000000;0.690268
9553.000000;0.690301
9552.000000;0.690569
9551.000000;0.690900
9550.000000;0.690978
9549.000000;0.690680
9548.000000;0.690216
9547.000000;0.689922
9546.000000;0.689920
9545.000000;0.690030
9544.000000;0.690027
9543.000000;0.689941
9542.000000;0.690003
9541.000000;0.690293
9540.000000;0.690558
9539.000000;0.690487
9538.000000;0.690089
9537.000000;0.689650
9536.000000;0.689370
9535.000000;0.689166
9534.000000;0.688867
9533.000000;0.688464
9532.000000;0.688114
9531.000000;0.687955
9530.000000;0.687997
9529.000000;0.688127
9528.000000;0.688191
9527.000000;0.688117
9526.000000;0.688017
9525.000000;0.688089
9524.000000;0.688373
9523.000000;0.688642
9522.000000;0.688621
9521.000000;0.688274
9520.000000;0.687814
9519.000000;0.687455
9518.000000;0.687231
9517.000000;0.687055
9516.000000;0.686881
9515.000000;0.686777
9514.000000;0.686852
9513.000000;0.687105
9512.000000;0.687362
9511.000000;0.687399
9510.000000;0.687171
9509.000000;0.686859
9508.000000;0.686667
9507.000000;0.686597
9506.000000;0.686481
9505.000000;0.686196
9504.000000;0.685777
9503.000000;0.685359
9502.000000;0.685114
9501.000000;0.685187
9500.000000;0.685569
9499.000000;0.686023
9498.000000;0.686255
9497.000000;0.686206
9496.000000;0.686061
9495.000000;0.685954
9494.000000;0.685798
9493.000000;0.685499
9492.000000;0.685193
9491.000000;0.685116
9490.000000;0.685294
9489.000000;0.685531
9488.000000;0.685683
9487.000000;0.685797
9486.000000;0.685940
9485.000000;0.686017
9484.000000;0.685852
9483.000000;0.685400
9482.000000;0.684812
9481.000000;0.684334
9480.000000;0.684155
9479.000000;0.684289
9478.000000;0.684550
9477.000000;0.684683
9476.000000;0.684580
9475.000000;0.684369
9474.000000;0.684247
9473.000000;0.684249
9472.000000;0.684239
9471.000000;0.684106
9470.000000;0.683895
9469.000000;0.683721
9468.000000;0.683621
9467.000000;0.683551
9466.000000;0.683476
9465.000000;0.683420
9464.000000;0.683419
9463.000000;0.683471
9462.000000;0.683559
9461.000000;0.683665
9460.000000;0.683763
9459.000000;0.683815
9458.000000;0.683804
9457.000000;0.683754
9456.000000;0.683690
9455.000000;0.683588
9454.000000;0.683396
9453.000000;0.683108
9452.000000;0.682812
9451.000000;0.682640
9450.000000;0.682677
9449.000000;0.682888
9448.000000;0.683141
9447.000000;0.683317
9446.000000;0.683415
9445.000000;0.683513
9444.000000;0.683614
9443.000000;0.683597
9442.000000;0.683372
9441.000000;0.683027
9440.000000;0.682743
9439.000000;0.682597
9438.000000;0.682524
9437.000000;0.682459
9436.000000;0.682376
9435.000000;0.682215
9434.000000;0.681901
9433.000000;0.681519
9432.000000;0.681325
9431.000000;0.681466
9430.000000;0.681769
9429.000000;0.681942
9428.000000;0.681919
9427.000000;0.681851
9426.000000;0.681800
9425.000000;0.681630
9424.000000;0.681288
9423.000000;0.680998
9422.000000;0.681049
9421.000000;0.681457
9420.000000;0.681955
9419.000000;0.682269
9418.000000;0.682283
9417.000000;0.681987
9416.000000;0.681413
9415.000000;0.680688
9414.000000;0.680038
9413.000000;0.679656
9412.000000;0.679580
9411.000000;0.679709
9410.000000;0.679905
9409.000000;0.680070
9408.000000;0.680181
9407.000000;0.680290
9406.000000;0.680451
9405.000000;0.680606
9404.000000;0.680596
9403.000000;0.680356
9402.000000;0.680055
9401.000000;0.679961
9400.000000;0.680142
9399.000000;0.680389
9398.000000;0.680444
9397.000000;0.680281
9396.000000;0.680100
9395.000000;0.680079
9394.000000;0.680195
9393.000000;0.680275
9392.000000;0.680203
9391.000000;0.680054
9390.000000;0.679997
9389.000000;0.680077
9388.000000;0.680138
9387.000000;0.679986
9386.000000;0.679609
9385.000000;0.679172
9384.000000;0.678828
9383.000000;0.678606
9382.000000;0.678476
9381.000000;0.678419
9380.000000;0.678397
9379.000000;0.678346
9378.000000;0.678275
9377.000000;0.678288
9376.000000;0.678425
9375.000000;0.678541
9374.000000;0.678437
9373.000000;0.678093
9372.000000;0.677685
9371.000000;0.677402
9370.000000;0.677314
9369.000000;0.677411
9368.000000;0.677644
9367.000000;0.677907
9366.000000;0.678077
9365.000000;0.678118
9364.000000;0.678108
9363.000000;0.678117
9362.000000;0.678099
9361.000000;0.677925
9360.000000;0.677505
9359.000000;0.676902
9358.000000;0.676358
9357.000000;0.676173
9356.000000;0.676452
9355.000000;0.676977
9354.000000;0.677378
9353.000000;0.677448
9352.000000;0.677238
9351.000000;0.676892
9350.000000;0.676498
9349.000000;0.676124
9348.000000;0.675868
9347.000000;0.675788
9346.000000;0.675832
9345.000000;0.675906
9344.000000;0.675957
9343.000000;0.675942
9342.000000;0.675791
9341.000000;0.675496
9340.000000;0.675204
9339.000000;0.675135
9338.000000;0.675388
9337.000000;0.675844
9336.000000;0.676236
9335.000000;0.676352
9334.000000;0.676200
9333.000000;0.676007
9332.000000;0.675982
9331.000000;0.676073
9330.000000;0.676034
9329.000000;0.675739
9328.000000;0.675346
9327.000000;0.675079
9326.000000;0.674962
9325.000000;0.674851
9324.000000;0.674662
9323.000000;0.674455
9322.000000;0.674339
9321.000000;0.674388
9320.000000;0.674620
9319.000000;0.674966
9318.000000;0.675278
9317.000000;0.675440
9316.000000;0.675465
9315.000000;0.675430
9314.000000;0.675345
9313.000000;0.675178
9312.000000;0.674977
9311.000000;0.674849
9310.000000;0.674823
9309.000000;0.674814
9308.000000;0.674754
9307.000000;0.674675
9306.000000;0.674627
9305.000000;0.674583
9304.000000;0.674463
9303.000000;0.674221
9302.000000;0.673901
9301.000000;0.673632
9300.000000;0.673546
9299.000000;0.673631
9298.000000;0.673694
9297.000000;0.673530
9296.000000;0.673165
9295.000000;0.672838
9294.000000;0.672740
9293.000000;0.672833
9292.000000;0.672944
9291.000000;0.672975
9290.000000;0.672952
9289.000000;0.672925
9288.000000;0.672915
9287.000000;0.672939
9286.000000;0.673014
9285.000000;0.673104
9284.000000;0.673100
9283.000000;0.672897
9282.000000;0.672517
9281.000000;0.672137
9280.000000;0.671970
9279.000000;0.672090
9278.000000;0.672366
9277.000000;0.672577
9276.000000;0.672593
9275.000000;0.672441
9274.000000;0.672228
9273.000000;0.672040
9272.000000;0.671909
9271.000000;0.671827
9270.000000;0.671778
9269.000000;0.671773
9268.000000;0.671832
9267.000000;0.671943
9266.000000;0.672037
9265.000000;0.672039
9264.000000;0.671924
9263.000000;0.671702
9262.000000;0.671379
9261.000000;0.670987
9260.000000;0.670644
9259.000000;0.670512
9258.000000;0.670649
9257.000000;0.670934
9256.000000;0.671144
9255.000000;0.671134
9254.000000;0.670951
9253.000000;0.670786
9252.000000;0.670807
9251.000000;0.671016
9250.000000;0.671250
9249.000000;0.671338
9248.000000;0.671230
9247.000000;0.670986
9246.000000;0.670690
9245.000000;0.670425
9244.000000;0.670253
9243.000000;0.670155
9242.000000;0.670016
9241.000000;0.669745
9240.000000;0.669404
9239.000000;0.669157
9238.000000;0.669102
9237.000000;0.669194
9236.000000;0.669348
9235.000000;0.669511
9234.000000;0.669633
9233.000000;0.669649
9232.000000;0.669555
9231.000000;0.669452
9230.000000;0.669461
9229.000000;0.669588
9228.000000;0.669717
9227.000000;0.669726
9226.000000;0.669596
9225.000000;0.669399
9224.000000;0.669197
9223.000000;0.668969
9222.000000;0.668680
9221.000000;0.668386
9220.000000;0.668219
9219.000000;0.668215
9218.000000;0.668234
9217.000000;0.668130
9216.000000;0.667951
9215.000000;0.667884
9214.000000;0.668009
9213.000000;0.668214
9212.000000;0.668352
9211.000000;0.668373
9210.000000;0.668282
9209.000000;0.668074
9208.000000;0.667799
9207.000000;0.667608
9206.000000;0.667637
9205.000000;0.667860
9204.000000;0.668108
9203.000000;0.668235
9202.000000;0.668209
9201.000000;0.668080
9200.000000;0.667899
9199.000000;0.667699
9198.000000;0.667504
9197.000000;0.667332
9196.000000;0.667193
9195.000000;0.667076
9194.000000;0.666964
9193.000000;0.666868
9192.000000;0.666825
9191.000000;0.666836
9190.000000;0.666813
9189.000000;0.666659
9188.000000;0.666376
9187.000000;0.666068
9186.000000;0.665847
9185.000000;0.665788
9184.000000;0.665927
9183.000000;0.666230
9182.000000;0.666539
9181.000000;0.666672
9180.000000;0.666597
9179.000000;0.666434
9178.000000;0.666265
9177.000000;0.666049
9176.000000;0.665786
9175.000000;0.665638
9174.000000;0.665777
9173.000000;0.666160
9172.000000;0.666537
9171.000000;0.666655
9170.000000;0.666416
9169.000000;0.665899
9168.000000;0.665357
9167.000000;0.665116
9166.000000;0.665329
9165.000000;0.665789
9164.000000;0.666099
9163.000000;0.666051
9162.000000;0.665781
9161.000000;0.665533
9160.000000;0.665382
9159.000000;0.665231
9158.000000;0.665004
9157.000000;0.664749
9156.000000;0.664582
9155.000000;0.664589
9154.000000;0.664759
9153.000000;0.664976
9152.000000;0.665081
9151.000000;0.664995
9150.000000;0.664795
9149.000000;0.664629
9148.000000;0.664553
9147.000000;0.664473
9146.000000;0.664270
9145.000000;0.663960
9144.000000;0.663721
9143.000000;0.663714
9142.000000;0.663893
9141.000000;0.664005
9140.000000;0.663825
9139.000000;0.663395
9138.000000;0.662998
9137.000000;0.662892
9136.000000;0.663091
9135.000000;0.663392
9134.000000;0.663587
9133.000000;0.663613
9132.000000;0.663545
9131.000000;0.663491
9130.000000;0.663517
9129.000000;0.663625
9128.000000;0.663773
9127.000000;0.663900
9126.000000;0.663960
9125.000000;0.663932
9124.000000;0.663831
9123.000000;0.663720
9122.000000;0.663708
9121.000000;0.663880
9120.000000;0.664172
9119.000000;0.664353
9118.000000;0.664197
9117.000000;0.663706
9116.000000;0.663144
9115.000000;0.662813
9114.000000;0.662814
9113.000000;0.663021
9112.000000;0.663239
9111.000000;0.663326
9110.000000;0.663225
9109.000000;0.662967
9108.000000;0.662684
9107.000000;0.662532
9106.000000;0.662539
9105.000000;0.662576
9104.000000;0.662507
9103.000000;0.662351
9102.000000;0.662243
9101.000000;0.662259
9100.000000;0.662333
9099.000000;0.662351
9098.000000;0.662275
9097.000000;0.662144
9096.000000;0.662004
9095.000000;0.661856
9094.000000;0.661682
9093.000000;0.661486
9092.000000;0.661303
9091.000000;0.661174
9090.000000;0.661103
9089.000000;0.661057
9088.000000;0.660991
9087.000000;0.660893
9086.000000;0.660788
9085.000000;0.660721
9084.000000;0.660719
9083.000000;0.660780
9082.000000;0.660875
9081.000000;0.660953
9080.000000;0.660941
9079.000000;0.660770
9078.000000;0.660423
9077.000000;0.659971
9076.000000;0.659555
9075.000000;0.659303
9074.000000;0.659267
9073.000000;0.659427
9072.000000;0.659719
9071.000000;0.660033
9070.000000;0.660240
9069.000000;0.660258
9068.000000;0.660127
9067.000000;0.659983
9066.000000;0.659932
9065.000000;0.659971
9064.000000;0.660012
9063.000000;0.659975
9062.000000;0.659859
9061.000000;0.659754
9060.000000;0.659774
9059.000000;0.659945
9058.000000;0.660160
9057.000000;0.660282
9056.000000;0.660288
9055.000000;0.660273
9054.000000;0.660298
9053.000000;0.660281
9052.000000;0.660085
9051.000000;0.659681
9050.000000;0.659198
9049.000000;0.658835
9048.000000;0.658726
9047.000000;0.658872
9046.000000;0.659147
9045.000000;0.659392
9044.000000;0.659506
9043.000000;0.659470
9042.000000;0.659306
9041.000000;0.659068
9040.000000;0.658854
9039.000000;0.658754
9038.000000;0.658736
9037.000000;0.658658
9036.000000;0.658436
9035.000000;0.658169
9034.000000;0.658019
9033.000000;0.658024
9032.000000;0.658106
9031.000000;0.658223
9030.000000;0.658414
9029.000000;0.658657
9028.000000;0.658802
9027.000000;0.658726
9026.000000;0.658486
9025.000000;0.658259
9024.000000;0.658132
9023.000000;0.658037
9022.000000;0.657874
9021.000000;0.657646
9020.000000;0.657445
9019.000000;0.657346
9018.000000;0.657325
9017.000000;0.657291
9016.000000;0.657180
9015.000000;0.657038
9014.000000;0.656997
9013.000000;0.657127
9012.000000;0.657330
9011.000000;0.657401
9010.000000;0.657243
9009.000000;0.656986
9008.000000;0.656852
9007.000000;0.656925
9006.000000;0.657080
9005.000000;0.657135
9004.000000;0.657000
9003.000000;0.656695
9002.000000;0.656293
9001.000000;0.655909
9000.000000;0.655686
8999.000000;0.655690
8998.000000;0.655816
8997.000000;0.655875
8996.000000;0.655778
8995.000000;0.655613
8994.000000;0.655509
8993.000000;0.655485
8992.000000;0.655467
8991.000000;0.655401
8990.000000;0.655290
8989.000000;0.655152
8988.000000;0.655004
8987.000000;0.654896
8986.000000;0.654904
8985.000000;0.655031
8984.000000;0.655162
8983.000000;0.655161
8982.000000;0.655019
8981.000000;0.654873
8980.000000;0.654866
8979.000000;0.655016
8978.000000;0.655241
8977.000000;0.655467
8976.000000;0.655656
8975.000000;0.655726
8974.000000;0.655554
8973.000000;0.655127
8972.000000;0.654632
8971.000000;0.654326
8970.000000;0.654291
8969.000000;0.654387
8968.000000;0.654434
8967.000000;0.654387
8966.000000;0.654331
8965.000000;0.654358
8964.000000;0.654493
8963.000000;0.654682
8962.000000;0.654834
8961.000000;0.654890
8960.000000;0.654878
8959.000000;0.654840
8958.000000;0.654727
8957.000000;0.654454
8956.000000;0.654068
8955.000000;0.653786
8954.000000;0.653763
8953.000000;0.653902
8952.000000;0.653975
8951.000000;0.653905
8950.000000;0.653822
8949.000000;0.653840
8948.000000;0.653888
8947.000000;0.653794
8946.000000;0.653491
8945.000000;0.653096
8944.000000;0.652811
8943.000000;0.652760
8942.000000;0.652884
8941.000000;0.652988
8940.000000;0.652929
8939.000000;0.652769
8938.000000;0.652704
8937.000000;0.652837
8936.000000;0.653062
8935.000000;0.653196
8934.000000;0.653176
8933.000000;0.653088
8932.000000;0.653043
8931.000000;0.653065
8930.000000;0.653119
8929.000000;0.653178
8928.000000;0.653234
8927.000000;0.653229
8926.000000;0.653042
8925.000000;0.652590
8924.000000;0.651965
8923.000000;0.651429
8922.000000;0.651211
8921.000000;0.651323
8920.000000;0.651583
8919.000000;0.651814
8918.000000;0.651972
8917.000000;0.652089
8916.000000;0.652154
8915.000000;0.652117
8914.000000;0.651971
8913.000000;0.651786
8912.000000;0.651650
8911.000000;0.651593
8910.000000;0.651575
8909.000000;0.651543
8908.000000;0.651490
8907.000000;0.651461
8906.000000;0.651479
8905.000000;0.651496
8904.000000;0.651451
8903.000000;0.651356
8902.000000;0.651281
8901.000000;0.651242
8900.000000;0.651166
8899.000000;0.650987
8898.000000;0.650749
8897.000000;0.650559
8896.000000;0.650474
8895.000000;0.650463
8894.000000;0.650480
8893.000000;0.650492
8892.000000;0.650468
8891.000000;0.650392
8890.000000;0.650317
8889.000000;0.650355
8888.000000;0.650546
8887.000000;0.650772
8886.000000;0.650835
8885.000000;0.650640
8884.000000;0.650277
8883.000000;0.649922
8882.000000;0.649700
8881.000000;0.649622
8880.000000;0.649617
8879.000000;0.649582
8878.000000;0.649436
8877.000000;0.649184
8876.000000;0.648933
8875.000000;0.648838
8874.000000;0.648975
8873.000000;0.649263
8872.000000;0.649514
8871.000000;0.649562
8870.000000;0.649385
8869.000000;0.649121
8868.000000;0.648966
8867.000000;0.649024
8866.000000;0.649238
8865.000000;0.649471
8864.000000;0.649627
8863.000000;0.649690
8862.000000;0.649654
8861.000000;0.649497
8860.000000;0.649227
8859.000000;0.648919
8858.000000;0.648665
8857.000000;0.648516
8856.000000;0.648477
8855.000000;0.648531
8854.000000;0.648620
8853.000000;0.648650
8852.000000;0.648568
8851.000000;0.648426
8850.000000;0.648327
8849.000000;0.648311
8848.000000;0.648349
8847.000000;0.648423
8846.000000;0.648551
8845.000000;0.648700
8844.000000;0.648765
8843.000000;0.648687
8842.000000;0.648552
8841.000000;0.648493
8840.000000;0.648538
8839.000000;0.648580
8838.000000;0.648510
8837.000000;0.648322
8836.000000;0.648099
8835.000000;0.647934
8834.000000;0.647881
8833.000000;0.647921
8832.000000;0.647973
8831.000000;0.647971
8830.000000;0.647941
8829.000000;0.647968
8828.000000;0.648062
8827.000000;0.648100
8826.000000;0.647960
8825.000000;0.647688
8824.000000;0.647466
8823.000000;0.647423
8822.000000;0.647522
8821.000000;0.647643
8820.000000;0.647727
8819.000000;0.647785
8818.000000;0.647822
8817.000000;0.647810
8816.000000;0.647744
8815.000000;0.647688
8814.000000;0.647723
8813.000000;0.647849
8812.000000;0.647955
8811.000000;0.647898
8810.000000;0.647619
8809.000000;0.647207
8808.000000;0.646827
8807.000000;0.646598
8806.000000;0.646528
8805.000000;0.646567
8804.000000;0.646665
8803.000000;0.646758
8802.000000;0.646744
8801.000000;0.646572
8800.000000;0.646340
8799.000000;0.646246
8798.000000;0.646384
8797.000000;0.646642
8796.000000;0.646841
8795.000000;0.646912
8794.000000;0.646912
8793.000000;0.646899
8792.000000;0.646884
8791.000000;0.646867
8790.000000;0.646876
8789.000000;0.646924
8788.000000;0.646998
8787.000000;0.647067
8786.000000;0.647094
8785.000000;0.647018
8784.000000;0.646809
8783.000000;0.646539
8782.000000;0.646333
8781.000000;0.646234
8780.000000;0.646135
8779.000000;0.645927
8778.000000;0.645653
8777.000000;0.645481
8776.000000;0.645512
8775.000000;0.645661
8774.000000;0.645752
8773.000000;0.645700
8772.000000;0.645582
8771.000000;0.645543
8770.000000;0.645637
8769.000000;0.645787
8768.000000;0.645885
8767.000000;0.645903
8766.000000;0.645885
8765.000000;0.645860
8764.000000;0.645813
8763.000000;0.645742
8762.000000;0.645698
8761.000000;0.645734
8760.000000;0.645827
8759.000000;0.645888
8758.000000;0.645842
8757.000000;0.645691
8756.000000;0.645513
8755.000000;0.645403
8754.000000;0.645409
8753.000000;0.645509
8752.000000;0.645634
8751.000000;0.645734
8750.000000;0.645802
8749.000000;0.645838
8748.000000;0.645833
8747.000000;0.645782
8746.000000;0.645700
8745.000000;0.645582
8744.000000;0.645398
8743.000000;0.645156
8742.000000;0.644944
8741.000000;0.644865
8740.000000;0.644920
8739.000000;0.645002
8738.000000;0.645026
8737.000000;0.645025
8736.000000;0.645082
8735.000000;0.645214
8734.000000;0.645344
8733.000000;0.645401
8732.000000;0.645393
8731.000000;0.645367
8730.000000;0.645345
8729.000000;0.645317
8728.000000;0.645285
8727.000000;0.645267
8726.000000;0.645257
8725.000000;0.645226
8724.000000;0.645180
8723.000000;0.645185
8722.000000;0.645300
8721.000000;0.645478
8720.000000;0.645598
8719.000000;0.645578
8718.000000;0.645441
8717.000000;0.645264
8716.000000;0.645104
8715.000000;0.644983
8714.000000;0.644905
8713.000000;0.644853
8712.000000;0.644799
8711.000000;0.644725
8710.000000;0.644637
8709.000000;0.644545
8708.000000;0.644467
8707.000000;0.644442
8706.000000;0.644508
8705.000000;0.644632
8704.000000;0.644708
8703.000000;0.644676
8702.000000;0.644607
8701.000000;0.644626
8700.000000;0.644769
8699.000000;0.644963
8698.000000;0.645129
8697.000000;0.645234
8696.000000;0.645259
8695.000000;0.645191
8694.000000;0.645087
8693.000000;0.645058
8692.000000;0.645135
8691.000000;0.645174
8690.000000;0.644986
8689.000000;0.644547
8688.000000;0.644043
8687.000000;0.643680
8686.000000;0.643524
8685.000000;0.643539
8684.000000;0.643708
8683.000000;0.644014
8682.000000;0.644335
8681.000000;0.644463
8680.000000;0.644310
8679.000000;0.644046
8678.000000;0.643944
8677.000000;0.644070
8676.000000;0.644221
8675.000000;0.644183
8674.000000;0.643977
8673.000000;0.643794
8672.000000;0.643739
8671.000000;0.643734
8670.000000;0.643673
8669.000000;0.643564
8668.000000;0.643475
8667.000000;0.643400
8666.000000;0.643264
8665.000000;0.643038
8664.000000;0.642792
8663.000000;0.642623
8662.000000;0.642562
8661.000000;0.642565
8660.000000;0.642573
8659.000000;0.642551
8658.000000;0.642476
8657.000000;0.642344
8656.000000;0.642199
8655.000000;0.642152
8654.000000;0.642280
8653.000000;0.642520
8652.000000;0.642686
8651.000000;0.642641
8650.000000;0.642416
8649.000000;0.642137
8648.000000;0.641896
8647.000000;0.641716
8646.000000;0.641622
8645.000000;0.641627
8644.000000;0.641670
8643.000000;0.641655
8642.000000;0.641576
8641.000000;0.641516
8640.000000;0.641509
8639.000000;0.641460
8638.000000;0.641260
8637.000000;0.640929
8636.000000;0.640601
8635.000000;0.640404
8634.000000;0.640383
8633.000000;0.640511
8632.000000;0.640698
8631.000000;0.640840
8630.000000;0.640896
8629.000000;0.640909
8628.000000;0.640898
8627.000000;0.640778
8626.000000;0.640471
8625.000000;0.640051
8624.000000;0.639716
8623.000000;0.639576
8622.000000;0.639545
8621.000000;0.639457
8620.000000;0.639256
8619.000000;0.639041
8618.000000;0.638957
8617.000000;0.639048
8616.000000;0.639207
8615.000000;0.639259
8614.000000;0.639122
8613.000000;0.638888
8612.000000;0.638710
8611.000000;0.638639
8610.000000;0.638603
8609.000000;0.638526
8608.000000;0.638411
8607.000000;0.638296
8606.000000;0.638190
8605.000000;0.638080
8604.000000;0.637951
8603.000000;0.637780
8602.000000;0.637552
8601.000000;0.637301
8600.000000;0.637094
8599.000000;0.636955
8598.000000;0.636835
8597.000000;0.636706
8596.000000;0.636619
8595.000000;0.636625
8594.000000;0.636681
8593.000000;0.636685
8592.000000;0.636586
8591.000000;0.636434
8590.000000;0.636307
8589.000000;0.636235
8588.000000;0.636174
8587.000000;0.636048
8586.000000;0.635817
8585.000000;0.635538
8584.000000;0.635348
8583.000000;0.635335
8582.000000;0.635432
8581.000000;0.635475
8580.000000;0.635357
8579.000000;0.635119
8578.000000;0.634901
8577.000000;0.634839
8576.000000;0.634972
8575.000000;0.635203
8574.000000;0.635346
8573.000000;0.635267
8572.000000;0.635007
8571.000000;0.634730
8570.000000;0.634540
8569.000000;0.634394
8568.000000;0.634202
8567.000000;0.633974
8566.000000;0.633794
8565.000000;0.633687
8564.000000;0.633574
8563.000000;0.633373
8562.000000;0.633096
8561.000000;0.632839
8560.000000;0.632691
8559.000000;0.632678
8558.000000;0.632757
8557.000000;0.632837
8556.000000;0.632840
8555.000000;0.632771
8554.000000;0.632729
8553.000000;0.632781
8552.000000;0.632837
8551.000000;0.632708
8550.000000;0.632313
8549.000000;0.631802
8548.000000;0.631426
8547.000000;0.631314
8546.000000;0.631403
8545.000000;0.631549
8544.000000;0.631648
8543.000000;0.631657
8542.000000;0.631572
8541.000000;0.631427
8540.000000;0.631283
8539.000000;0.631168
8538.000000;0.631062
8537.000000;0.630931
8536.000000;0.630781
8535.000000;0.630644
8534.000000;0.630532
8533.000000;0.630441
8532.000000;0.630365
8531.000000;0.630291
8530.000000;0.630187
8529.000000;0.630023
8528.000000;0.629806
8527.000000;0.629576
8526.000000;0.629369
8525.000000;0.629214
8524.000000;0.629117
8523.000000;0.629060
8522.000000;0.629008
8521.000000;0.628969
8520.000000;0.629007
8519.000000;0.629170
8518.000000;0.629405
8517.000000;0.629589
8516.000000;0.629632
8515.000000;0.629529
8514.000000;0.629330
8513.000000;0.629105
8512.000000;0.628920
8511.000000;0.628799
8510.000000;0.628711
8509.000000;0.628630
8508.000000;0.628605
8507.000000;0.628693
8506.000000;0.628810
8505.000000;0.628748
8504.000000;0.628392
8503.000000;0.627871
8502.000000;0.627420
8501.000000;0.627131
8500.000000;0.626926
8499.000000;0.626732
8498.000000;0.626590
8497.000000;0.626554
8496.000000;0.626582
8495.000000;0.626597
8494.000000;0.626589
8493.000000;0.626607
8492.000000;0.626655
8491.000000;0.626666
8490.000000;0.626581
8489.000000;0.626407
8488.000000;0.626188
8487.000000;0.625970
8486.000000;0.625786
8485.000000;0.625652
8484.000000;0.625548
8483.000000;0.625431
8482.000000;0.625284
8481.000000;0.625136
8480.000000;0.625026
8479.000000;0.624960
8478.000000;0.624920
8477.000000;0.624882
8476.000000;0.624816
8475.000000;0.624685
8474.000000;0.624496
8473.000000;0.624328
8472.000000;0.624256
8471.000000;0.624242
8470.000000;0.624170
8469.000000;0.624009
8468.000000;0.623895
8467.000000;0.623968
8466.000000;0.624179
8465.000000;0.624303
8464.000000;0.624175
8463.000000;0.623853
8462.000000;0.623529
8461.000000;0.623333
8460.000000;0.623264
8459.000000;0.623276
8458.000000;0.623341
8457.000000;0.623434
8456.000000;0.623504
8455.000000;0.623503
8454.000000;0.623411
8453.000000;0.623230
8452.000000;0.622980
8451.000000;0.622722
8450.000000;0.622540
8449.000000;0.622457
8448.000000;0.622396
8447.000000;0.622278
8446.000000;0.622138
8445.000000;0.622083
8444.000000;0.622126
8443.000000;0.622134
8442.000000;0.621987
8441.000000;0.621730
8440.000000;0.621520
8439.000000;0.621444
8438.000000;0.621461
8437.000000;0.621508
8436.000000;0.621591
8435.000000;0.621733
8434.000000;0.621880
8433.000000;0.621904
8432.000000;0.621725
8431.000000;0.621397
8430.000000;0.621064
8429.000000;0.620837
8428.000000;0.620710
8427.000000;0.620601
8426.000000;0.620457
8425.000000;0.620306
8424.000000;0.620203
8423.000000;0.620162
8422.000000;0.620159
8421.000000;0.620176
8420.000000;0.620190
8419.000000;0.620138
8418.000000;0.619941
8417.000000;0.619590
8416.000000;0.619200
8415.000000;0.618929
8414.000000;0.618858
8413.000000;0.618942
8412.000000;0.619066
8411.000000;0.619144
8410.000000;0.619163
8409.000000;0.619171
8408.000000;0.619199
8407.000000;0.619218
8406.000000;0.619161
8405.000000;0.618996
8404.000000;0.618772
8403.000000;0.618594
8402.000000;0.618551
8401.000000;0.618665
8400.000000;0.618857
8399.000000;0.618977
8398.000000;0.618883
8397.000000;0.618555
8396.000000;0.618131
8395.000000;0.617815
8394.000000;0.617722
8393.000000;0.617813
8392.000000;0.617951
8391.000000;0.618005
8390.000000;0.617894
8389.000000;0.617594
8388.000000;0.617159
8387.000000;0.616728
8386.000000;0.616459
8385.000000;0.616400
8384.000000;0.616453
8383.000000;0.616488
8382.000000;0.616484
8381.000000;0.616518
8380.000000;0.616622
8379.000000;0.616707
8378.000000;0.616662
8377.000000;0.616483
8376.000000;0.616281
8375.000000;0.616169
8374.000000;0.616168
8373.000000;0.616215
8372.000000;0.616220
8371.000000;0.616158
8370.000000;0.616090
8369.000000;0.616094
8368.000000;0.616140
8367.000000;0.616094
8366.000000;0.615876
8365.000000;0.615583
8364.000000;0.615383
8363.000000;0.615331
8362.000000;0.615343
8361.000000;0.615333
8360.000000;0.615285
8359.000000;0.615191
8358.000000;0.615017
8357.000000;0.614787
8356.000000;0.614612
8355.000000;0.614592
8354.000000;0.614693
8353.000000;0.614780
8352.000000;0.614723
8351.000000;0.614486
8350.000000;0.614144
8349.000000;0.613844
8348.000000;0.613701
8347.000000;0.613695
8346.000000;0.613690
8345.000000;0.613587
8344.000000;0.613425
8343.000000;0.613319
8342.000000;0.613321
8341.000000;0.613371
8340.000000;0.613350
8339.000000;0.613179
8338.000000;0.612903
8337.000000;0.612683
8336.000000;0.612652
8335.000000;0.612755
8334.000000;0.612790
8333.000000;0.612639
8332.000000;0.612406
8331.000000;0.612263
8330.000000;0.612236
8329.000000;0.612212
8328.000000;0.612112
8327.000000;0.611972
8326.000000;0.611858
8325.000000;0.611787
8324.000000;0.611743
8323.000000;0.611721
8322.000000;0.611722
8321.000000;0.611748
8320.000000;0.611790
8319.000000;0.611807
8318.000000;0.611743
8317.000000;0.611597
8316.000000;0.611458
8315.000000;0.611410
8314.000000;0.611417
8313.000000;0.611379
8312.000000;0.611268
8311.000000;0.611146
8310.000000;0.611040
8309.000000;0.610894
8308.000000;0.610676
8307.000000;0.610465
8306.000000;0.610359
8305.000000;0.610348
8304.000000;0.610321
8303.000000;0.610199
8302.000000;0.610013
8301.000000;0.609864
8300.000000;0.609819
8299.000000;0.609855
8298.000000;0.609889
8297.000000;0.609859
8296.000000;0.609773
8295.000000;0.609678
8294.000000;0.609604
8293.000000;0.609551
8292.000000;0.609513
8291.000000;0.609481
8290.000000;0.609440
8289.000000;0.609385
8288.000000;0.609331
8287.000000;0.609263
8286.000000;0.609119
8285.000000;0.608860
8284.000000;0.608554
8283.000000;0.608323
8282.000000;0.608205
8281.000000;0.608138
8280.000000;0.608069
8279.000000;0.608030
8278.000000;0.608057
8277.000000;0.608107
8276.000000;0.608100
8275.000000;0.608010
8274.000000;0.607874
8273.000000;0.607751
8272.000000;0.607695
8271.000000;0.607737
8270.000000;0.607852
8269.000000;0.607948
8268.000000;0.607929
8267.000000;0.607774
8266.000000;0.607546
8265.000000;0.607342
8264.000000;0.607244
8263.000000;0.607270
8262.000000;0.607352
8261.000000;0.607383
8260.000000;0.607308
8259.000000;0.607166
8258.000000;0.607022
8257.000000;0.606899
8256.000000;0.606808
8255.000000;0.606778
8254.000000;0.606823
8253.000000;0.606877
8252.000000;0.606849
8251.000000;0.606725
8250.000000;0.606553
8249.000000;0.606359
8248.000000;0.606124
8247.000000;0.605875
8246.000000;0.605720
8245.000000;0.605726
8244.000000;0.605826
8243.000000;0.605881
8242.000000;0.605830
8241.000000;0.605725
8240.000000;0.605623
8239.000000;0.605532
8238.000000;0.605452
8237.000000;0.605425
8236.000000;0.605466
8235.000000;0.605499
8234.000000;0.605417
8233.000000;0.605214
8232.000000;0.604995
8231.000000;0.604860
8230.000000;0.604827
8229.000000;0.604862
8228.000000;0.604929
8227.000000;0.604960
8226.000000;0.604857
8225.000000;0.604583
8224.000000;0.604229
8223.000000;0.603929
8222.000000;0.603729
8221.000000;0.603593
8220.000000;0.603509
8219.000000;0.603509
8218.000000;0.603592
8217.000000;0.603683
8216.000000;0.603720
8215.000000;0.603714
8214.000000;0.603711
8213.000000;0.603717
8212.000000;0.603699
8211.000000;0.603630
8210.000000;0.603501
8209.000000;0.603311
8208.000000;0.603078
8207.000000;0.602838
8206.000000;0.602632
8205.000000;0.602480
8204.000000;0.602388
8203.000000;0.602347
8202.000000;0.602327
8201.000000;0.602303
8200.000000;0.602291
8199.000000;0.602332
8198.000000;0.602423
8197.000000;0.602491
8196.000000;0.602465
8195.000000;0.602352
8194.000000;0.602209
8193.000000;0.602072
8192.000000;0.601930
8191.000000;0.601778
8190.000000;0.601653
8189.000000;0.601606
8188.000000;0.601635
8187.000000;0.601652
8186.000000;0.601554
8185.000000;0.601339
8184.000000;0.601132
8183.000000;0.601057
8182.000000;0.601098
8181.000000;0.601140
8180.000000;0.601131
8179.000000;0.601139
8178.000000;0.601228
8177.000000;0.601354
8176.000000;0.601420
8175.000000;0.601383
8174.000000;0.601263
8173.000000;0.601075
8172.000000;0.600838
8171.000000;0.600609
8170.000000;0.600454
8169.000000;0.600371
8168.000000;0.600305
8167.000000;0.600225
8166.000000;0.600159
8165.000000;0.600129
8164.000000;0.600106
8163.000000;0.600033
8162.000000;0.599869
8161.000000;0.599632
8160.000000;0.599418
8159.000000;0.599364
8158.000000;0.599516
8157.000000;0.599743
8156.000000;0.599832
8155.000000;0.599689
8154.000000;0.599415
8153.000000;0.599183
8152.000000;0.599072
8151.000000;0.599048
8150.000000;0.599051
8149.000000;0.599052
8148.000000;0.599038
8147.000000;0.598992
8146.000000;0.598901
8145.000000;0.598790
8144.000000;0.598716
8143.000000;0.598729
8142.000000;0.598796
8141.000000;0.598810
8140.000000;0.598694
8139.000000;0.598480
8138.000000;0.598263
8137.000000;0.598075
8136.000000;0.597881
8135.000000;0.597685
8134.000000;0.597572
8133.000000;0.597581
8132.000000;0.597628
8131.000000;0.597598
8130.000000;0.597502
8129.000000;0.597446
8128.000000;0.597472
8127.000000;0.597496
8126.000000;0.597430
8125.000000;0.597289
8124.000000;0.597155
8123.000000;0.597092
8122.000000;0.597118
8121.000000;0.597228
8120.000000;0.597376
8119.000000;0.597469
8118.000000;0.597432
8117.000000;0.597273
8116.000000;0.597062
8115.000000;0.596850
8114.000000;0.596653
8113.000000;0.596492
8112.000000;0.596412
8111.000000;0.596430
8110.000000;0.596502
8109.000000;0.596566
8108.000000;0.596584
8107.000000;0.596538
8106.000000;0.596424
8105.000000;0.596286
8104.000000;0.596215
8103.000000;0.596263
8102.000000;0.596372
8101.000000;0.596422
8100.000000;0.596359
8099.000000;0.596229
8098.000000;0.596100
8097.000000;0.595986
8096.000000;0.595877
8095.000000;0.595791
8094.000000;0.595756
8093.000000;0.595758
8092.000000;0.595739
8091.000000;0.595658
8090.000000;0.595535
8089.000000;0.595425
8088.000000;0.595377
8087.000000;0.595392
8086.000000;0.595421
8085.000000;0.595399
8084.000000;0.595299
8083.000000;0.595159
8082.000000;0.595049
8081.000000;0.595008
8080.000000;0.595015
8079.000000;0.595003
8078.000000;0.594908
8077.000000;0.594717
8076.000000;0.594483
8075.000000;0.594293
8074.000000;0.594206
8073.000000;0.594219
8072.000000;0.594283
8071.000000;0.594352
8070.000000;0.594396
8069.000000;0.594381
8068.000000;0.594273
8067.000000;0.594068
8066.000000;0.593816
8065.000000;0.593599
8064.000000;0.593477
8063.000000;0.593448
8062.000000;0.593462
8061.000000;0.593471
8060.000000;0.593475
8059.000000;0.593499
8058.000000;0.593541
8057.000000;0.593541
8056.000000;0.593434
8055.000000;0.593228
8054.000000;0.593019
8053.000000;0.592913
8052.000000;0.592941
8051.000000;0.593050
8050.000000;0.593140
8049.000000;0.593133
8048.000000;0.593008
8047.000000;0.592809
8046.000000;0.592623
8045.000000;0.592525
8044.000000;0.592534
8043.000000;0.592610
8042.000000;0.592682
8041.000000;0.592689
8040.000000;0.592604
8039.000000;0.592445
8038.000000;0.592271
8037.000000;0.592145
8036.000000;0.592107
8035.000000;0.592144
8034.000000;0.592211
8033.000000;0.592255
8032.000000;0.592248
8031.000000;0.592202
8030.000000;0.592152
8029.000000;0.592114
8028.000000;0.592067
8027.000000;0.591980
8026.000000;0.591854
8025.000000;0.591725
8024.000000;0.591616
8023.000000;0.591520
8022.000000;0.591423
8021.000000;0.591339
8020.000000;0.591279
8019.000000;0.591221
8018.000000;0.591130
8017.000000;0.591006
8016.000000;0.590898
8015.000000;0.590860
8014.000000;0.590911
8013.000000;0.591014
8012.000000;0.591092
8011.000000;0.591078
8010.000000;0.590984
8009.000000;0.590897
8008.000000;0.590884
8007.000000;0.590908
8006.000000;0.590885
8005.000000;0.590807
8004.000000;0.590744
8003.000000;0.590714
8002.000000;0.590640
8001.000000;0.590457
8000.000000;0.590218
7999.000000;0.590033
7998.000000;0.589939
7997.000000;0.589893
7996.000000;0.589859
7995.000000;0.589837
7994.000000;0.589831
7993.000000;0.589833
7992.000000;0.589836
7991.000000;0.589825
7990.000000;0.589759
7989.000000;0.589620
7988.000000;0.589471
7987.000000;0.589407
7986.000000;0.589449
7985.000000;0.589523
7984.000000;0.589566
7983.000000;0.589580
7982.000000;0.589568
7981.000000;0.589487
7980.000000;0.589311
7979.000000;0.589090
7978.000000;0.588905
7977.000000;0.588786
7976.000000;0.588712
7975.000000;0.588669
7974.000000;0.588661
7973.000000;0.588670
7972.000000;0.588653
7971.000000;0.588584
7970.000000;0.588491
7969.000000;0.588441
7968.000000;0.588482
7967.000000;0.588601
7966.000000;0.588719
7965.000000;0.588749
7964.000000;0.588671
7963.000000;0.588536
7962.000000;0.588396
7961.000000;0.588262
7960.000000;0.588130
7959.000000;0.588027
7958.000000;0.587999
7957.000000;0.588040
7956.000000;0.588084
7955.000000;0.588057
7954.000000;0.587940
7953.000000;0.587783
7952.000000;0.587662
7951.000000;0.587608
7950.000000;0.587577
7949.000000;0.587504
7948.000000;0.587393
7947.000000;0.587319
7946.000000;0.587338
7945.000000;0.587396
7944.000000;0.587389
7943.000000;0.587273
7942.000000;0.587103
7941.000000;0.586966
7940.000000;0.586905
7939.000000;0.586913
7938.000000;0.586948
7937.000000;0.586945
7936.000000;0.586844
7935.000000;0.586642
7934.000000;0.586425
7933.000000;0.586313
7932.000000;0.586361
7931.000000;0.586493
7930.000000;0.586561
7929.000000;0.586491
7928.000000;0.586357
7927.000000;0.586288
7926.000000;0.586310
7925.000000;0.586324
7924.000000;0.586243
7923.000000;0.586106
7922.000000;0.586008
7921.000000;0.585974
7920.000000;0.585942
7919.000000;0.585862
7918.000000;0.585744
7917.000000;0.585631
7916.000000;0.585552
7915.000000;0.585524
7914.000000;0.585531
7913.000000;0.585513
7912.000000;0.585409
7911.000000;0.585232
7910.000000;0.585076
7909.000000;0.585023
7908.000000;0.585064
7907.000000;0.585139
7906.000000;0.585198
7905.000000;0.585224
7904.000000;0.585206
7903.000000;0.585144
7902.000000;0.585067
7901.000000;0.585018
7900.000000;0.585014
7899.000000;0.585031
7898.000000;0.585023
7897.000000;0.584952
7896.000000;0.584809
7895.000000;0.584613
7894.000000;0.584405
7893.000000;0.584221
7892.000000;0.584075
7891.000000;0.583969
7890.000000;0.583903
7889.000000;0.583873
7888.000000;0.583876
7887.000000;0.583921
7886.000000;0.584008
7885.000000;0.584106
7884.000000;0.584150
7883.000000;0.584094
7882.000000;0.583950
7881.000000;0.583783
7880.000000;0.583662
7879.000000;0.583630
7878.000000;0.583681
7877.000000;0.583755
7876.000000;0.583761
7875.000000;0.583646
7874.000000;0.583435
7873.000000;0.583211
7872.000000;0.583047
7871.000000;0.582970
7870.000000;0.582967
7869.000000;0.582998
7868.000000;0.583008
7867.000000;0.582963
7866.000000;0.582878
7865.000000;0.582797
7864.000000;0.582754
7863.000000;0.582743
7862.000000;0.582745
7861.000000;0.582738
7860.000000;0.582710
7859.000000;0.582656
7858.000000;0.582603
7857.000000;0.582591
7856.000000;0.582632
7855.000000;0.582698
7854.000000;0.582746
7853.000000;0.582747
7852.000000;0.582697
7851.000000;0.582614
7850.000000;0.582531
7849.000000;0.582482
7848.000000;0.582462
7847.000000;0.582429
7846.000000;0.582351
7845.000000;0.582245
7844.000000;0.582140
7843.000000;0.582030
7842.000000;0.581882
7841.000000;0.581698
7840.000000;0.581529
7839.000000;0.581439
7838.000000;0.581448
7837.000000;0.581525
7836.000000;0.581601
7835.000000;0.581612
7834.000000;0.581542
7833.000000;0.581440
7832.000000;0.581376
7831.000000;0.581368
7830.000000;0.581373
7829.000000;0.581344
7828.000000;0.581274
7827.000000;0.581196
7826.000000;0.581142
7825.000000;0.581124
7824.000000;0.581133
7823.000000;0.581139
7822.000000;0.581125
7821.000000;0.581110
7820.000000;0.581125
7819.000000;0.581156
7818.000000;0.581133
7817.000000;0.581001
7816.000000;0.580786
7815.000000;0.580563
7814.000000;0.580395
7813.000000;0.580297
7812.000000;0.580262
7811.000000;0.580272
7810.000000;0.580297
7809.000000;0.580299
7808.000000;0.580262
7807.000000;0.580205
7806.000000;0.580159
7805.000000;0.580136
7804.000000;0.580121
7803.000000;0.580089
7802.000000;0.580037
7801.000000;0.579982
7800.000000;0.579937
7799.000000;0.579892
7798.000000;0.579818
7797.000000;0.579704
7796.000000;0.579567
7795.000000;0.579438
7794.000000;0.579349
7793.000000;0.579322
7792.000000;0.579350
7791.000000;0.579365
7790.000000;0.579290
7789.000000;0.579129
7788.000000;0.578981
7787.000000;0.578934
7786.000000;0.578969
7785.000000;0.579004
7784.000000;0.579000
7783.000000;0.578976
7782.000000;0.578943
7781.000000;0.578883
7780.000000;0.578793
7779.000000;0.578705
7778.000000;0.578632
7777.000000;0.578542
7776.000000;0.578417
7775.000000;0.578281
7774.000000;0.578172
7773.000000;0.578093
7772.000000;0.578033
7771.000000;0.578003
7770.000000;0.578021
7769.000000;0.578076
7768.000000;0.578124
7767.000000;0.578136
7766.000000;0.578122
7765.000000;0.578115
7764.000000;0.578127
7763.000000;0.578124
7762.000000;0.578053
7761.000000;0.577901
7760.000000;0.577722
7759.000000;0.577599
7758.000000;0.577565
7757.000000;0.577586
7756.000000;0.577601
7755.000000;0.577565
7754.000000;0.577466
7753.000000;0.577324
7752.000000;0.577192
7751.000000;0.577118
7750.000000;0.577096
7749.000000;0.577075
7748.000000;0.577029
7747.000000;0.576976
7746.000000;0.576916
7745.000000;0.576801
7744.000000;0.576608
7743.000000;0.576409
7742.000000;0.576332
7741.000000;0.576426
7740.000000;0.576616
7739.000000;0.576784
7738.000000;0.576874
7737.000000;0.576899
7736.000000;0.576884
7735.000000;0.576820
7734.000000;0.576694
7733.000000;0.576530
7732.000000;0.576394
7731.000000;0.576332
7730.000000;0.576314
7729.000000;0.576262
7728.000000;0.576135
7727.000000;0.575970
7726.000000;0.575841
7725.000000;0.575782
7724.000000;0.575773
7723.000000;0.575784
7722.000000;0.575806
7721.000000;0.575844
7720.000000;0.575879
7719.000000;0.575877
7718.000000;0.575811
7717.000000;0.575688
7716.000000;0.575543
7715.000000;0.575414
7714.000000;0.575318
7713.000000;0.575255
7712.000000;0.575220
7711.000000;0.575196
7710.000000;0.575153
7709.000000;0.575069
7708.000000;0.574959
7707.000000;0.574861
7706.000000;0.574795
7705.000000;0.574744
7704.000000;0.574684
7703.000000;0.574616
7702.000000;0.574561
7701.000000;0.574546
7700.000000;0.574589
7699.000000;0.574683
7698.000000;0.574778
7697.000000;0.574802
7696.000000;0.574724
7695.000000;0.574583
7694.000000;0.574454
7693.000000;0.574388
7692.000000;0.574382
7691.000000;0.574393
7690.000000;0.574368
7689.000000;0.574290
7688.000000;0.574187
7687.000000;0.574093
7686.000000;0.573995
7685.000000;0.573862
7684.000000;0.573714
7683.000000;0.573628
7682.000000;0.573639
7681.000000;0.573684
7680.000000;0.573683
7679.000000;0.573633
7678.000000;0.573590
7677.000000;0.573574
7676.000000;0.573553
7675.000000;0.573509
7674.000000;0.573466
7673.000000;0.573452
7672.000000;0.573462
7671.000000;0.573471
7670.000000;0.573455
7669.000000;0.573388
7668.000000;0.573272
7667.000000;0.573151
7666.000000;0.573073
7665.000000;0.573034
7664.000000;0.572979
7663.000000;0.572872
7662.000000;0.572729
7661.000000;0.572596
7660.000000;0.572512
7659.000000;0.572508
7658.000000;0.572582
7657.000000;0.572672
7656.000000;0.572691
7655.000000;0.572614
7654.000000;0.572503
7653.000000;0.572421
7652.000000;0.572356
7651.000000;0.572259
7650.000000;0.572132
7649.000000;0.572024
7648.000000;0.571971
7647.000000;0.571965
7646.000000;0.571986
7645.000000;0.572017
7644.000000;0.572025
7643.000000;0.571965
7642.000000;0.571838
7641.000000;0.571707
7640.000000;0.571655
7639.000000;0.571696
7638.000000;0.571765
7637.000000;0.571781
7636.000000;0.571718
7635.000000;0.571603
7634.000000;0.571469
7633.000000;0.571335
7632.000000;0.571236
7631.000000;0.571226
7630.000000;0.571330
7629.000000;0.571482
7628.000000;0.571579
7627.000000;0.571571
7626.000000;0.571500
7625.000000;0.571421
7624.000000;0.571335
7623.000000;0.571219
7622.000000;0.571078
7621.000000;0.570941
7620.000000;0.570820
7619.000000;0.570715
7618.000000;0.570636
7617.000000;0.570588
7616.000000;0.570536
7615.000000;0.570439
7614.000000;0.570310
7613.000000;0.570219
7612.000000;0.570210
7611.000000;0.570258
7610.000000;0.570304
7609.000000;0.570319
7608.000000;0.570310
7607.000000;0.570301
7606.000000;0.570314
7605.000000;0.570357
7604.000000;0.570403
7603.000000;0.570399
7602.000000;0.570327
7601.000000;0.570228
7600.000000;0.570159
7599.000000;0.570122
7598.000000;0.570066
7597.000000;0.569966
7596.000000;0.569859
7595.000000;0.569804
7594.000000;0.569808
7593.000000;0.569828
7592.000000;0.569815
7591.000000;0.569757
7590.000000;0.569670
7589.000000;0.569583
7588.000000;0.569525
7587.000000;0.569519
7586.000000;0.569566
7585.000000;0.569629
7584.000000;0.569646
7583.000000;0.569581
7582.000000;0.569455
7581.000000;0.569324
7580.000000;0.569233
7579.000000;0.569186
7578.000000;0.569167
7577.000000;0.569168
7576.000000;0.569193
7575.000000;0.569240
7574.000000;0.569298
7573.000000;0.569347
7572.000000;0.569370
7571.000000;0.569352
7570.000000;0.569286
7569.000000;0.569184
7568.000000;0.569075
7567.000000;0.568990
7566.000000;0.568947
7565.000000;0.568943
7564.000000;0.568961
7563.000000;0.568980
7562.000000;0.568988
7561.000000;0.568984
7560.000000;0.568955
7559.000000;0.568878
7558.000000;0.568746
7557.000000;0.568594
7556.000000;0.568479
7555.000000;0.568437
7554.000000;0.568464
7553.000000;0.568531
7552.000000;0.568605
7551.000000;0.568656
7550.000000;0.568658
7549.000000;0.568614
7548.000000;0.568553
7547.000000;0.568505
7546.000000;0.568491
7545.000000;0.568524
7544.000000;0.568597
7543.000000;0.568669
7542.000000;0.568677
7541.000000;0.568602
7540.000000;0.568488
7539.000000;0.568404
7538.000000;0.568362
7537.000000;0.568321
7536.000000;0.568247
7535.000000;0.568156
7534.000000;0.568095
7533.000000;0.568083
7532.000000;0.568092
7531.000000;0.568081
7530.000000;0.568055
7529.000000;0.568068
7528.000000;0.568161
7527.000000;0.568306
7526.000000;0.568424
7525.000000;0.568462
7524.000000;0.568434
7523.000000;0.568370
7522.000000;0.568268
7521.000000;0.568120
7520.000000;0.567954
7519.000000;0.567832
7518.000000;0.567796
7517.000000;0.567850
7516.000000;0.567974
7515.000000;0.568133
7514.000000;0.568271
7513.000000;0.568320
7512.000000;0.568237
7511.000000;0.568037
7510.000000;0.567786
7509.000000;0.567568
7508.000000;0.567438
7507.000000;0.567398
7506.000000;0.567411
7505.000000;0.567456
7504.000000;0.567547
7503.000000;0.567687
7502.000000;0.567832
7501.000000;0.567914
7500.000000;0.567905
7499.000000;0.567830
7498.000000;0.567723
7497.000000;0.567605
7496.000000;0.567499
7495.000000;0.567429
7494.000000;0.567428
7493.000000;0.567479
7492.000000;0.567545
7491.000000;0.567615
7490.000000;0.567664
7489.000000;0.567676
7488.000000;0.567651
7487.000000;0.567603
7486.000000;0.567552
7485.000000;0.567513
7484.000000;0.567497
7483.000000;0.567507
7482.000000;0.567538
7481.000000;0.567587
7480.000000;0.567649
7479.000000;0.567711
7478.000000;0.567746
7477.000000;0.567737
7476.000000;0.567686
7475.000000;0.567604
7474.000000;0.567508
7473.000000;0.567435
7472.000000;0.567436
7471.000000;0.567521
7470.000000;0.567619
7469.000000;0.567642
7468.000000;0.567583
7467.000000;0.567524
7466.000000;0.567534
7465.000000;0.567611
7464.000000;0.567701
7463.000000;0.567762
7462.000000;0.567775
7461.000000;0.567747
7460.000000;0.567705
7459.000000;0.567664
7458.000000;0.567614
7457.000000;0.567551
7456.000000;0.567528
7455.000000;0.567615
7454.000000;0.567793
7453.000000;0.567947
7452.000000;0.567980
7451.000000;0.567924
7450.000000;0.567886
7449.000000;0.567925
7448.000000;0.568011
7447.000000;0.568072
7446.000000;0.568063
7445.000000;0.567980
7444.000000;0.567870
7443.000000;0.567798
7442.000000;0.567798
7441.000000;0.567834
7440.000000;0.567858
7439.000000;0.567880
7438.000000;0.567949
7437.000000;0.568059
7436.000000;0.568129
7435.000000;0.568094
7434.000000;0.567986
7433.000000;0.567897
7432.000000;0.567874
7431.000000;0.567892
7430.000000;0.567913
7429.000000;0.567940
7428.000000;0.568000
7427.000000;0.568097
7426.000000;0.568195
7425.000000;0.568261
7424.000000;0.568283
7423.000000;0.568271
7422.000000;0.568237
7421.000000;0.568197
7420.000000;0.568169
7419.000000;0.568171
7418.000000;0.568201
7417.000000;0.568251
7416.000000;0.568324
7415.000000;0.568430
7414.000000;0.568555
7413.000000;0.568654
7412.000000;0.568681
7411.000000;0.568633
7410.000000;0.568549
7409.000000;0.568480
7408.000000;0.568462
7407.000000;0.568493
7406.000000;0.568535
7405.000000;0.568550
7404.000000;0.568526
7403.000000;0.568487
7402.000000;0.568467
7401.000000;0.568491
7400.000000;0.568569
7399.000000;0.568689
7398.000000;0.568810
7397.000000;0.568897
7396.000000;0.568949
7395.000000;0.568982
7394.000000;0.569011
7393.000000;0.569056
7392.000000;0.569146
7391.000000;0.569280
7390.000000;0.569400
7389.000000;0.569434
7388.000000;0.569385
7387.000000;0.569328
7386.000000;0.569329
7385.000000;0.569381
7384.000000;0.569434
7383.000000;0.569458
7382.000000;0.569461
7381.000000;0.569464
7380.000000;0.569476
7379.000000;0.569496
7378.000000;0.569527
7377.000000;0.569567
7376.000000;0.569604
7375.000000;0.569621
7374.000000;0.569611
7373.000000;0.569593
7372.000000;0.569611
7371.000000;0.569696
7370.000000;0.569824
7369.000000;0.569924
7368.000000;0.569954
7367.000000;0.569956
7366.000000;0.570012
7365.000000;0.570158
7364.000000;0.570337
7363.000000;0.570450
7362.000000;0.570464
7361.000000;0.570444
7360.000000;0.570483
7359.000000;0.570618
7358.000000;0.570805
7357.000000;0.570946
7356.000000;0.570965
7355.000000;0.570883
7354.000000;0.570796
7353.000000;0.570780
7352.000000;0.570825
7351.000000;0.570888
7350.000000;0.570954
7349.000000;0.571034
7348.000000;0.571125
7347.000000;0.571205
7346.000000;0.571273
7345.000000;0.571354
7344.000000;0.571468
7343.000000;0.571610
7342.000000;0.571759
7341.000000;0.571876
7340.000000;0.571903
7339.000000;0.571805
7338.000000;0.571630
7337.000000;0.571495
7336.000000;0.571481
7335.000000;0.571582
7334.000000;0.571767
7333.000000;0.572024
7332.000000;0.572321
7331.000000;0.572587
7330.000000;0.572759
7329.000000;0.572822
7328.000000;0.572805
7327.000000;0.572759
7326.000000;0.572750
7325.000000;0.572831
7324.000000;0.573022
7323.000000;0.573278
7322.000000;0.573502
7321.000000;0.573629
7320.000000;0.573685
7319.000000;0.573736
7318.000000;0.573786
7317.000000;0.573789
7316.000000;0.573751
7315.000000;0.573768
7314.000000;0.573938
7313.000000;0.574237
7312.000000;0.574536
7311.000000;0.574736
7310.000000;0.574851
7309.000000;0.574938
7308.000000;0.575008
7307.000000;0.575031
7306.000000;0.575013
7305.000000;0.575008
7304.000000;0.575072
7303.000000;0.575225
7302.000000;0.575439
7301.000000;0.575659
7300.000000;0.575863
7299.000000;0.576070
7298.000000;0.576311
7297.000000;0.576589
7296.000000;0.576867
7295.000000;0.577083
7294.000000;0.577201
7293.000000;0.577251
7292.000000;0.577297
7291.000000;0.577387
7290.000000;0.577514
7289.000000;0.577637
7288.000000;0.577734
7287.000000;0.577846
7286.000000;0.578031
7285.000000;0.578284
7284.000000;0.578535
7283.000000;0.578731
7282.000000;0.578896
7281.000000;0.579085
7280.000000;0.579321
7279.000000;0.579575
7278.000000;0.579806
7277.000000;0.580001
7276.000000;0.580180
7275.000000;0.580376
7274.000000;0.580605
7273.000000;0.580849
7272.000000;0.581086
7271.000000;0.581325
7270.000000;0.581601
7269.000000;0.581925
7268.000000;0.582275
7267.000000;0.582617
7266.000000;0.582914
7265.000000;0.583127
7264.000000;0.583244
7263.000000;0.583334
7262.000000;0.583509
7261.000000;0.583819
7260.000000;0.584212
7259.000000;0.584622
7258.000000;0.585034
7257.000000;0.585450
7256.000000;0.585835
7255.000000;0.586136
7254.000000;0.586355
7253.000000;0.586562
7252.000000;0.586848
7251.000000;0.587250
7250.000000;0.587725
7249.000000;0.588198
7248.000000;0.588599
7247.000000;0.588901
7246.000000;0.589145
7245.000000;0.589377
7244.000000;0.589609
7243.000000;0.589855
7242.000000;0.590174
7241.000000;0.590597
7240.000000;0.591047
7239.000000;0.591426
7238.000000;0.591743
7237.000000;0.592085
7236.000000;0.592501
7235.000000;0.592944
7234.000000;0.593330
7233.000000;0.593656
7232.000000;0.594008
7231.000000;0.594457
7230.000000;0.594977
7229.000000;0.595501
7228.000000;0.595981
7227.000000;0.596395
7226.000000;0.596759
7225.000000;0.597133
7224.000000;0.597582
7223.000000;0.598128
7222.000000;0.598733
7221.000000;0.599296
7220.000000;0.599713
7219.000000;0.599976
7218.000000;0.600207
7217.000000;0.600556
7216.000000;0.601070
7215.000000;0.601679
7214.000000;0.602278
7213.000000;0.602798
7212.000000;0.603245
7211.000000;0.603687
7210.000000;0.604189
7209.000000;0.604745
7208.000000;0.605271
7207.000000;0.605691
7206.000000;0.606031
7205.000000;0.606402
7204.000000;0.606900
7203.000000;0.607545
7202.000000;0.608303
7201.000000;0.609101
7200.000000;0.609840
7199.000000;0.610441
7198.000000;0.610901
7197.000000;0.611297
7196.000000;0.611710
7195.000000;0.612175
7194.000000;0.612690
7193.000000;0.613235
7192.000000;0.613786
7191.000000;0.614346
7190.000000;0.614965
7189.000000;0.615686
7188.000000;0.616477
7187.000000;0.617224
7186.000000;0.617829
7185.000000;0.618302
7184.000000;0.618733
7183.000000;0.619208
7182.000000;0.619760
7181.000000;0.620401
7180.000000;0.621124
7179.000000;0.621882
7178.000000;0.622597
7177.000000;0.623200
7176.000000;0.623665
7175.000000;0.624051
7174.000000;0.624479
7173.000000;0.625050
7172.000000;0.625767
7171.000000;0.626531
7170.000000;0.627239
7169.000000;0.627892
7168.000000;0.628585
7167.000000;0.629405
7166.000000;0.630341
7165.000000;0.631341
7164.000000;0.632349
7163.000000;0.633254
7162.000000;0.633904
7161.000000;0.634280
7160.000000;0.634609
7159.000000;0.635157
7158.000000;0.635952
7157.000000;0.636810
7156.000000;0.637608
7155.000000;0.638393
7154.000000;0.639228
7153.000000;0.640031
7152.000000;0.640684
7151.000000;0.641191
7150.000000;0.641659
7149.000000;0.642180
7148.000000;0.642785
7147.000000;0.643443
7146.000000;0.644078
7145.000000;0.644647
7144.000000;0.645227
7143.000000;0.645949
7142.000000;0.646830
7141.000000;0.647728
7140.000000;0.648512
7139.000000;0.649214
7138.000000;0.649943
7137.000000;0.650694
7136.000000;0.651331
7135.000000;0.651723
7134.000000;0.651878
7133.000000;0.651948
7132.000000;0.652135
7131.000000;0.652537
7130.000000;0.653065
7129.000000;0.653559
7128.000000;0.653958
7127.000000;0.654316
7126.000000;0.654637
7125.000000;0.654803
7124.000000;0.654751
7123.000000;0.654648
7122.000000;0.654786
7121.000000;0.655295
7120.000000;0.656009
7119.000000;0.656643
7118.000000;0.657042
7117.000000;0.657230
7116.000000;0.657276
7115.000000;0.657203
7114.000000;0.657056
7113.000000;0.656960
7112.000000;0.657027
7111.000000;0.657214
7110.000000;0.657365
7109.000000;0.657385
7108.000000;0.657312
7107.000000;0.657174
7106.000000;0.656902
7105.000000;0.656527
7104.000000;0.656312
7103.000000;0.656426
7102.000000;0.656592
7101.000000;0.656363
7100.000000;0.655768
7099.000000;0.655388
7098.000000;0.655637
7097.000000;0.656173
7096.000000;0.656262
7095.000000;0.655594
7094.000000;0.654534
7093.000000;0.653639
7092.000000;0.653136
7091.000000;0.652849
7090.000000;0.652405
7089.000000;0.651497
7088.000000;0.650178
7087.000000;0.648902
7086.000000;0.648124
7085.000000;0.647773
7084.000000;0.647301
7083.000000;0.646315
7082.000000;0.644991
7081.000000;0.643757
7080.000000;0.642727
7079.000000;0.641669
7078.000000;0.640477
7077.000000;0.639399
7076.000000;0.638660
7075.000000;0.638034
7074.000000;0.636953
7073.000000;0.635101
7072.000000;0.632793
7071.000000;0.630684
7070.000000;0.629135
7069.000000;0.627984
7068.000000;0.626942
7067.000000;0.626029
7066.000000;0.625387
7065.000000;0.624763
7064.000000;0.623549
7063.000000;0.621521
7062.000000;0.619323
7061.000000;0.617895
7060.000000;0.617449
7059.000000;0.617220
7058.000000;0.616261
7057.000000;0.614324
7056.000000;0.611875
7055.000000;0.609492
7054.000000;0.607410
7053.000000;0.605476
7052.000000;0.603359
7051.000000;0.600896
7050.000000;0.598383
7049.000000;0.596440
7048.000000;0.595388
7047.000000;0.594811
7046.000000;0.593894
7045.000000;0.592199
7044.000000;0.589876
7043.000000;0.587178
7042.000000;0.584135
7041.000000;0.580867
7040.000000;0.577839
7039.000000;0.575476
7038.000000;0.573648
7037.000000;0.571820
7036.000000;0.569666
7035.000000;0.567319
7034.000000;0.565038
7033.000000;0.562891
7032.000000;0.560835
7031.000000;0.558861
7030.000000;0.556955
7029.000000;0.555049
7028.000000;0.553072
7027.000000;0.550959
7026.000000;0.548610
7025.000000;0.546010
7024.000000;0.543391
7023.000000;0.541072
7022.000000;0.539067
7021.000000;0.537108
7020.000000;0.535117
7019.000000;0.533347
7018.000000;0.531837
7017.000000;0.530031
7016.000000;0.527302
7015.000000;0.523748
7014.000000;0.520168
7013.000000;0.517299
7012.000000;0.515323
7011.000000;0.513984
7010.000000;0.512792
7009.000000;0.511123
7008.000000;0.508545
7007.000000;0.505250
7006.000000;0.501944
7005.000000;0.499166
7004.000000;0.496826
7003.000000;0.494476
7002.000000;0.491875
7001.000000;0.489152
7000.000000;0.486524
6999.000000;0.483985
6998.000000;0.481299
6997.000000;0.478313
6996.000000;0.475278
6995.000000;0.472640
6994.000000;0.470371
6993.000000;0.467785
6992.000000;0.464311
6991.000000;0.460302
6990.000000;0.456673
6989.000000;0.453848
6988.000000;0.451515
6987.000000;0.449346
6986.000000;0.447353
6985.000000;0.445365
6984.000000;0.442758
6983.000000;0.439146
6982.000000;0.435045
6981.000000;0.431444
6980.000000;0.428851
6979.000000;0.427035
6978.000000;0.425451
6977.000000;0.423595
6976.000000;0.421129
6975.000000;0.418044
6974.000000;0.414703
6973.000000;0.411540
6972.000000;0.408707
6971.000000;0.406151
6970.000000;0.403847
6969.000000;0.401742
6968.000000;0.399587
6967.000000;0.397104
6966.000000;0.394307
6965.000000;0.391521
6964.000000;0.389113
6963.000000;0.387221
6962.000000;0.385644
6961.000000;0.383913
6960.000000;0.381629
6959.000000;0.378804
6958.000000;0.375764
6957.000000;0.372720
6956.000000;0.369666
6955.000000;0.366723
6954.000000;0.364262
6953.000000;0.362445
6952.000000;0.360926
6951.000000;0.359230
6950.000000;0.357235
6949.000000;0.355086
6948.000000;0.352791
6947.000000;0.350164
6946.000000;0.347090
6945.000000;0.343655
6944.000000;0.340068
6943.000000;0.336578
6942.000000;0.333387
6941.000000;0.330582
6940.000000;0.328193
6939.000000;0.326313
6938.000000;0.324931
6937.000000;0.323663
6936.000000;0.321974
6935.000000;0.319766
6934.000000;0.317462
6933.000000;0.315397
6932.000000;0.313437
6931.000000;0.311381
6930.000000;0.309395
6929.000000;0.307750
6928.000000;0.306332
6927.000000;0.304710
6926.000000;0.302625
6925.000000;0.300238
6924.000000;0.297978
6923.000000;0.296204
6922.000000;0.294886
6921.000000;0.293580
6920.000000;0.291882
6919.000000;0.289864
6918.000000;0.287856
6917.000000;0.285891
6916.000000;0.283743
6915.000000;0.281512
6914.000000;0.279692
6913.000000;0.278515
6912.000000;0.277619
6911.000000;0.276542
6910.000000;0.275162
6909.000000;0.273495
6908.000000;0.271443
6907.000000;0.269010
6906.000000;0.266495
6905.000000;0.264244
6904.000000;0.262401
6903.000000;0.260970
6902.000000;0.259848
6901.000000;0.258745
6900.000000;0.257387
6899.000000;0.255829
6898.000000;0.254232
6897.000000;0.252363
6896.000000;0.249889
6895.000000;0.247259
6894.000000;0.245627
6893.000000;0.245569
6892.000000;0.246323
6891.000000;0.246616
6890.000000;0.245769
6889.000000;0.243771
6888.000000;0.240885
6887.000000;0.237722
6886.000000;0.235255
6885.000000;0.234132
6884.000000;0.234057
6883.000000;0.234154
6882.000000;0.233773
6881.000000;0.232752
6880.000000;0.231251
6879.000000;0.229654
6878.000000;0.228385
6877.000000;0.227553
6876.000000;0.226889
6875.000000;0.226147
6874.000000;0.225281
6873.000000;0.224232
6872.000000;0.222963
6871.000000;0.221734
6870.000000;0.220854
6869.000000;0.220090
6868.000000;0.218910
6867.000000;0.217461
6866.000000;0.216612
6865.000000;0.216734
6864.000000;0.217168
6863.000000;0.217307
6862.000000;0.217410
6861.000000;0.217819
6860.000000;0.218066
6859.000000;0.217452
6858.000000;0.216038
6857.000000;0.214449
6856.000000;0.213125
6855.000000;0.212309
6854.000000;0.212261
6853.000000;0.212726
6852.000000;0.212661
6851.000000;0.211318
6850.000000;0.209363
6849.000000;0.208219
6848.000000;0.208433
6847.000000;0.209357
6846.000000;0.210169
6845.000000;0.210439
6844.000000;0.209823
6843.000000;0.208126
6842.000000;0.205888
6841.000000;0.204321
6840.000000;0.204250
6839.000000;0.205386
6838.000000;0.206729
6837.000000;0.207414
6836.000000;0.207236
6835.000000;0.206702
6834.000000;0.206613
6833.000000;0.207345
6832.000000;0.208535
6831.000000;0.209564
6830.000000;0.210143
6829.000000;0.210259
6828.000000;0.209900
6827.000000;0.209180
6826.000000;0.208517
6825.000000;0.208217
6824.000000;0.208052
6823.000000;0.207646
6822.000000;0.207114
6821.000000;0.206910
6820.000000;0.207250
6819.000000;0.208048
6818.000000;0.209218
6817.000000;0.210560
6816.000000;0.211519
6815.000000;0.211658
6814.000000;0.211359
6813.000000;0.211514
6812.000000;0.212429
6811.000000;0.213498
6810.000000;0.214055
6809.000000;0.214139
6808.000000;0.214252
6807.000000;0.214667
6806.000000;0.215213
6805.000000;0.215547
6804.000000;0.215486
6803.000000;0.215180
6802.000000;0.214978
6801.000000;0.215055
6800.000000;0.215297
6799.000000;0.215693
6798.000000;0.216585
6797.000000;0.218136
6796.000000;0.219720
6795.000000;0.220383
6794.000000;0.219970
6793.000000;0.219385
6792.000000;0.219603
6791.000000;0.220774
6790.000000;0.222447
6789.000000;0.224204
6788.000000;0.225742
6787.000000;0.226663
6786.000000;0.226728
6785.000000;0.226316
6784.000000;0.226201
6783.000000;0.226721
6782.000000;0.227422
6781.000000;0.227698
6780.000000;0.227582
6779.000000;0.227651
6778.000000;0.228255
6777.000000;0.229138
6776.000000;0.229861
6775.000000;0.230328
6774.000000;0.230729
6773.000000;0.231131
6772.000000;0.231419
6771.000000;0.231583
6770.000000;0.231815
6769.000000;0.232277
6768.000000;0.232957
6767.000000;0.233818
6766.000000;0.234896
6765.000000;0.236154
6764.000000;0.237394
6763.000000;0.238431
6762.000000;0.239252
6761.000000;0.239955
6760.000000;0.240646
6759.000000;0.241467
6758.000000;0.242531
6757.000000;0.243697
6756.000000;0.244530
6755.000000;0.244702
6754.000000;0.244424
6753.000000;0.244345
6752.000000;0.244983
6751.000000;0.246285
6750.000000;0.247711
6749.000000;0.248691
6748.000000;0.249077
6747.000000;0.249199
6746.000000;0.249477
6745.000000;0.249997
6744.000000;0.250543
6743.000000;0.251007
6742.000000;0.251552
6741.000000;0.252324
6740.000000;0.253202
6739.000000;0.253989
6738.000000;0.254725
6737.000000;0.255586
6736.000000;0.256551
6735.000000;0.257354
6734.000000;0.257811
6733.000000;0.258040
6732.000000;0.258324
6731.000000;0.258861
6730.000000;0.259716
6729.000000;0.260874
6728.000000;0.262217
6727.000000;0.263455
6726.000000;0.264223
6725.000000;0.264383
6724.000000;0.264212
6723.000000;0.264198
6722.000000;0.264602
6721.000000;0.265261
6720.000000;0.265871
6719.000000;0.266355
6718.000000;0.266873
6717.000000;0.267550
6716.000000;0.268344
6715.000000;0.269189
6714.000000;0.270097
6713.000000;0.271076
6712.000000;0.272027
6711.000000;0.272797
6710.000000;0.273306
6709.000000;0.273598
6708.000000;0.273845
6707.000000;0.274259
6706.000000;0.274924
6705.000000;0.275736
6704.000000;0.276525
6703.000000;0.277235
6702.000000;0.277911
6701.000000;0.278577
6700.000000;0.279209
6699.000000;0.279887
6698.000000;0.280666
6697.000000;0.281439
6696.000000;0.281975
6695.000000;0.282201
6694.000000;0.282366
6693.000000;0.282812
6692.000000;0.283662
6691.000000;0.284746
6690.000000;0.285768
6689.000000;0.286513
6688.000000;0.286972
6687.000000;0.287308
6686.000000;0.287676
6685.000000;0.288076
6684.000000;0.288436
6683.000000;0.288783
6682.000000;0.289241
6681.000000;0.289861
6680.000000;0.290574
6679.000000;0.291331
6678.000000;0.292154
6677.000000;0.293023
6676.000000;0.293829
6675.000000;0.294497
6674.000000;0.295050
6673.000000;0.295522
6672.000000;0.295943
6671.000000;0.296443
6670.000000;0.297203
6669.000000;0.298211
6668.000000;0.299180
6667.000000;0.299835
6666.000000;0.300196
6665.000000;0.300475
6664.000000;0.300799
6663.000000;0.301167
6662.000000;0.301599
6661.000000;0.302160
6660.000000;0.302832
6659.000000;0.303493
6658.000000;0.304047
6657.000000;0.304507
6656.000000;0.304948
6655.000000;0.305428
6654.000000;0.305972
6653.000000;0.306582
6652.000000;0.307249
6651.000000;0.307949
6650.000000;0.308649
6649.000000;0.309312
6648.000000;0.309939
6647.000000;0.310612
6646.000000;0.311401
6645.000000;0.312222
6644.000000;0.312856
6643.000000;0.313181
6642.000000;0.313347
6641.000000;0.313625
6640.000000;0.314130
6639.000000;0.314752
6638.000000;0.315330
6637.000000;0.315819
6636.000000;0.316276
6635.000000;0.316771
6634.000000;0.317330
6633.000000;0.317935
6632.000000;0.318531
6631.000000;0.319072
6630.000000;0.319566
6629.000000;0.320076
6628.000000;0.320666
6627.000000;0.321333
6626.000000;0.321990
6625.000000;0.322543
6624.000000;0.322972
6623.000000;0.323339
6622.000000;0.323712
6621.000000;0.324113
6620.000000;0.324561
6619.000000;0.325114
6618.000000;0.325810
6617.000000;0.326566
6616.000000;0.327221
6615.000000;0.327694
6614.000000;0.328059
6613.000000;0.328440
6612.000000;0.328882
6611.000000;0.329348
6610.000000;0.329801
6609.000000;0.330256
6608.000000;0.330750
6607.000000;0.331286
6606.000000;0.331786
6605.000000;0.332150
6604.000000;0.332384
6603.000000;0.332651
6602.000000;0.333126
6601.000000;0.333803
6600.000000;0.334499
6599.000000;0.335060
6598.000000;0.335493
6597.000000;0.335892
6596.000000;0.336296
6595.000000;0.336688
6594.000000;0.337061
6593.000000;0.337432
6592.000000;0.337809
6591.000000;0.338169
6590.000000;0.338487
6589.000000;0.338782
6588.000000;0.339140
6587.000000;0.339656
6586.000000;0.340334
6585.000000;0.341059
6584.000000;0.341731
6583.000000;0.342360
6582.000000;0.342990
6581.000000;0.343559
6580.000000;0.343961
6579.000000;0.344236
6578.000000;0.344562
6577.000000;0.345030
6576.000000;0.345542
6575.000000;0.345979
6574.000000;0.346375
6573.000000;0.346830
6572.000000;0.347343
6571.000000;0.347841
6570.000000;0.348316
6569.000000;0.348824
6568.000000;0.349363
6567.000000;0.349841
6566.000000;0.350180
6565.000000;0.350410
6564.000000;0.350642
6563.000000;0.350986
6562.000000;0.351487
6561.000000;0.352080
6560.000000;0.352644
6559.000000;0.353106
6558.000000;0.353507
6557.000000;0.353925
6556.000000;0.354370
6555.000000;0.354798
6554.000000;0.355194
6553.000000;0.355593
6552.000000;0.356018
6551.000000;0.356453
6550.000000;0.356865
6549.000000;0.357247
6548.000000;0.357615
6547.000000;0.358001
6546.000000;0.358429
6545.000000;0.358874
6544.000000;0.359273
6543.000000;0.359587
6542.000000;0.359843
6541.000000;0.360095
6540.000000;0.360373
6539.000000;0.360701
6538.000000;0.361121
6537.000000;0.361658
6536.000000;0.362262
6535.000000;0.362828
6534.000000;0.363290
6533.000000;0.363660
6532.000000;0.363990
6531.000000;0.364313
6530.000000;0.364639
6529.000000;0.364973
6528.000000;0.365327
6527.000000;0.365710
6526.000000;0.366113
6525.000000;0.366504
6524.000000;0.366845
6523.000000;0.367118
6522.000000;0.367337
6521.000000;0.367544
6520.000000;0.367791
6519.000000;0.368127
6518.000000;0.368547
6517.000000;0.368975
6516.000000;0.369333
6515.000000;0.369629
6514.000000;0.369959
6513.000000;0.370383
6512.000000;0.370857
6511.000000;0.371288
6510.000000;0.371636
6509.000000;0.371931
6508.000000;0.372225
6507.000000;0.372558
6506.000000;0.372946
6505.000000;0.373381
6504.000000;0.373831
6503.000000;0.374264
6502.000000;0.374657
6501.000000;0.374993
6500.000000;0.375270
6499.000000;0.375525
6498.000000;0.375819
6497.000000;0.376173
6496.000000;0.376540
6495.000000;0.376864
6494.000000;0.377139
6493.000000;0.377393
6492.000000;0.377645
6491.000000;0.377903
6490.000000;0.378186
6489.000000;0.378514
6488.000000;0.378882
6487.000000;0.379282
6486.000000;0.379721
6485.000000;0.380188
6484.000000;0.380629
6483.000000;0.380979
6482.000000;0.381219
6481.000000;0.381371
6480.000000;0.381468
6479.000000;0.381558
6478.000000;0.381716
6477.000000;0.381995
6476.000000;0.382370
6475.000000;0.382757
6474.000000;0.383103
6473.000000;0.383421
6472.000000;0.383751
6471.000000;0.384114
6470.000000;0.384495
6469.000000;0.384859
6468.000000;0.385172
6467.000000;0.385445
6466.000000;0.385730
6465.000000;0.386055
6464.000000;0.386392
6463.000000;0.386693
6462.000000;0.386960
6461.000000;0.387237
6460.000000;0.387530
6459.000000;0.387796
6458.000000;0.388008
6457.000000;0.388205
6456.000000;0.388448
6455.000000;0.388746
6454.000000;0.389042
6453.000000;0.389283
6452.000000;0.389477
6451.000000;0.389691
6450.000000;0.389977
6449.000000;0.390312
6448.000000;0.390625
6447.000000;0.390877
6446.000000;0.391106
6445.000000;0.391373
6444.000000;0.391687
6443.000000;0.392005
6442.000000;0.392283
6441.000000;0.392521
6440.000000;0.392755
6439.000000;0.393025
6438.000000;0.393336
6437.000000;0.393650
6436.000000;0.393926
6435.000000;0.394170
6434.000000;0.394423
6433.000000;0.394687
6432.000000;0.394904
6431.000000;0.395035
6430.000000;0.395126
6429.000000;0.395261
6428.000000;0.395467
6427.000000;0.395708
6426.000000;0.395953
6425.000000;0.396200
6424.000000;0.396439
6423.000000;0.396653
6422.000000;0.396848
6421.000000;0.397058
6420.000000;0.397303
6419.000000;0.397585
6418.000000;0.397900
6417.000000;0.398229
6416.000000;0.398524
6415.000000;0.398748
6414.000000;0.398928
6413.000000;0.399133
6412.000000;0.399364
6411.000000;0.399549
6410.000000;0.399643
6409.000000;0.399715
6408.000000;0.399871
6407.000000;0.400139
6406.000000;0.400452
6405.000000;0.400734
6404.000000;0.400967
6403.000000;0.401174
6402.000000;0.401381
6401.000000;0.401598
6400.000000;0.401828
6399.000000;0.402059
6398.000000;0.402276
6397.000000;0.402476
6396.000000;0.402661
6395.000000;0.402842
6394.000000;0.403018
6393.000000;0.403182
6392.000000;0.403318
6391.000000;0.403427
6390.000000;0.403546
6389.000000;0.403719
6388.000000;0.403957
6387.000000;0.404218
6386.000000;0.404464
6385.000000;0.404692
6384.000000;0.404914
6383.000000;0.405124
6382.000000;0.405299
6381.000000;0.405439
6380.000000;0.405583
6379.000000;0.405778
6378.000000;0.406028
6377.000000;0.406281
6376.000000;0.406474
6375.000000;0.406590
6374.000000;0.406676
6373.000000;0.406789
6372.000000;0.406933
6371.000000;0.407080
6370.000000;0.407222
6369.000000;0.407391
6368.000000;0.407610
6367.000000;0.407852
6366.000000;0.408071
6365.000000;0.408248
6364.000000;0.408394
6363.000000;0.408524
6362.000000;0.408645
6361.000000;0.408761
6360.000000;0.408867
6359.000000;0.408953
6358.000000;0.409028
6357.000000;0.409128
6356.000000;0.409274
6355.000000;0.409445
6354.000000;0.409594
6353.000000;0.409713
6352.000000;0.409832
6351.000000;0.409980
6350.000000;0.410155
6349.000000;0.410352
6348.000000;0.410574
6347.000000;0.410811
6346.000000;0.411027
6345.000000;0.411189
6344.000000;0.411296
6343.000000;0.411364
6342.000000;0.411406
6341.000000;0.411447
6340.000000;0.411540
6339.000000;0.411719
6338.000000;0.411945
6337.000000;0.412130
6336.000000;0.412227
6335.000000;0.412281
6334.000000;0.412374
6333.000000;0.412533
6332.000000;0.412714
6331.000000;0.412863
6330.000000;0.412967
6329.000000;0.413052
6328.000000;0.413140
6327.000000;0.413231
6326.000000;0.413303
6325.000000;0.413335
6324.000000;0.413339
6323.000000;0.413371
6322.000000;0.413494
6321.000000;0.413717
6320.000000;0.413970
6319.000000;0.414171
6318.000000;0.414307
6317.000000;0.414425
6316.000000;0.414558
6315.000000;0.414687
6314.000000;0.414772
6313.000000;0.414817
6312.000000;0.414860
6311.000000;0.414934
6310.000000;0.415038
6309.000000;0.415158
6308.000000;0.415270
6307.000000;0.415357
6306.000000;0.415418
6305.000000;0.415481
6304.000000;0.415582
6303.000000;0.415724
6302.000000;0.415880
6301.000000;0.416020
6300.000000;0.416130
6299.000000;0.416206
6298.000000;0.416247
6297.000000;0.416258
6296.000000;0.416253
6295.000000;0.416248
6294.000000;0.416260
6293.000000;0.416305
6292.000000;0.416386
6291.000000;0.416474
6290.000000;0.416545
6289.000000;0.416619
6288.000000;0.416744
6287.000000;0.416927
6286.000000;0.417101
6285.000000;0.417203
6284.000000;0.417244
6283.000000;0.417284
6282.000000;0.417358
6281.000000;0.417453
6280.000000;0.417545
6279.000000;0.417628
6278.000000;0.417701
6277.000000;0.417765
6276.000000;0.417826
6275.000000;0.417887
6274.000000;0.417924
6273.000000;0.417915
6272.000000;0.417889
6271.000000;0.417903
6270.000000;0.417974
6269.000000;0.418064
6268.000000;0.418143
6267.000000;0.418230
6266.000000;0.418350
6265.000000;0.418477
6264.000000;0.418566
6263.000000;0.418605
6262.000000;0.418613
6261.000000;0.418601
6260.000000;0.418579
6259.000000;0.418580
6258.000000;0.418637
6257.000000;0.418737
6256.000000;0.418828
6255.000000;0.418890
6254.000000;0.418946
6253.000000;0.419013
6252.000000;0.419068
6251.000000;0.419091
6250.000000;0.419111
6249.000000;0.419168
6248.000000;0.419257
6247.000000;0.419325
6246.000000;0.419340
6245.000000;0.419323
6244.000000;0.419322
6243.000000;0.419349
6242.000000;0.419387
6241.000000;0.419424
6240.000000;0.419474
6239.000000;0.419548
6238.000000;0.419634
6237.000000;0.419710
6236.000000;0.419763
6235.000000;0.419795
6234.000000;0.419808
6233.000000;0.419814
6232.000000;0.419840
6231.000000;0.419909
6230.000000;0.420005
6229.000000;0.420084
6228.000000;0.420126
6227.000000;0.420153
6226.000000;0.420185
6225.000000;0.420209
6224.000000;0.420196
6223.000000;0.420150
6222.000000;0.420108
6221.000000;0.420099
6220.000000;0.420129
6219.000000;0.420190
6218.000000;0.420267
6217.000000;0.420339
6216.000000;0.420392
6215.000000;0.420427
6214.000000;0.420452
6213.000000;0.420467
6212.000000;0.420472
6211.000000;0.420484
6210.000000;0.420526
6209.000000;0.420599
6208.000000;0.420686
6207.000000;0.420770
6206.000000;0.420845
6205.000000;0.420906
6204.000000;0.420941
6203.000000;0.420938
6202.000000;0.420892
6201.000000;0.420818
6200.000000;0.420752
6199.000000;0.420730
6198.000000;0.420758
6197.000000;0.420803
6196.000000;0.420830
6195.000000;0.420839
6194.000000;0.420847
6193.000000;0.420859
6192.000000;0.420873
6191.000000;0.420893
6190.000000;0.420917
6189.000000;0.420926
6188.000000;0.420903
6187.000000;0.420867
6186.000000;0.420856
6185.000000;0.420874
6184.000000;0.420897
6183.000000;0.420915
6182.000000;0.420943
6181.000000;0.420991
6180.000000;0.421041
6179.000000;0.421070
6178.000000;0.421068
6177.000000;0.421034
6176.000000;0.420980
6175.000000;0.420944
6174.000000;0.420970
6173.000000;0.421054
6172.000000;0.421138
6171.000000;0.421165
6170.000000;0.421137
6169.000000;0.421092
6168.000000;0.421055
6167.000000;0.421029
6166.000000;0.421018
6165.000000;0.421037
6164.000000;0.421093
6163.000000;0.421167
6162.000000;0.421222
6161.000000;0.421226
6160.000000;0.421178
6159.000000;0.421125
6158.000000;0.421128
6157.000000;0.421199
6156.000000;0.421287
6155.000000;0.421331
6154.000000;0.421307
6153.000000;0.421234
6152.000000;0.421140
6151.000000;0.421047
6150.000000;0.420979
6149.000000;0.420947
6148.000000;0.420943
6147.000000;0.420955
6146.000000;0.420986
6145.000000;0.421045
6144.000000;0.421124
6143.000000;0.421190
6142.000000;0.421208
6141.000000;0.421169
6140.000000;0.421101
6139.000000;0.421052
6138.000000;0.421060
6137.000000;0.421121
6136.000000;0.421190
6135.000000;0.421222
6134.000000;0.421210
6133.000000;0.421177
6132.000000;0.421141
6131.000000;0.421107
6130.000000;0.421079
6129.000000;0.421063
6128.000000;0.421062
6127.000000;0.421072
6126.000000;0.421088
6125.000000;0.421105
6124.000000;0.421119
6123.000000;0.421126
6122.000000;0.421135
6121.000000;0.421158
6120.000000;0.421191
6119.000000;0.421217
6118.000000;0.421218
6117.000000;0.421192
6116.000000;0.421146
6115.000000;0.421097
6114.000000;0.421060
6113.000000;0.421046
6112.000000;0.421054
6111.000000;0.421070
6110.000000;0.421080
6109.000000;0.421081
6108.000000;0.421083
6107.000000;0.421098
6106.000000;0.421126
6105.000000;0.421144
6104.000000;0.421124
6103.000000;0.421064
6102.000000;0.420996
6101.000000;0.420968
6100.000000;0.420994
6099.000000;0.421051
6098.000000;0.421097
6097.000000;0.421111
6096.000000;0.421098
6095.000000;0.421081
6094.000000;0.421079
6093.000000;0.421097
6092.000000;0.421128
6091.000000;0.421153
6090.000000;0.421151
6089.000000;0.421116
6088.000000;0.421070
6087.000000;0.421046
6086.000000;0.421056
6085.000000;0.421081
6084.000000;0.421095
6083.000000;0.421091
6082.000000;0.421083
6081.000000;0.421090
6080.000000;0.421117
6079.000000;0.421153
6078.000000;0.421173
6077.000000;0.421144
6076.000000;0.421054
6075.000000;0.420930
6074.000000;0.420832
6073.000000;0.420806
6072.000000;0.420851
6071.000000;0.420926
6070.000000;0.420978
6069.000000;0.420989
6068.000000;0.420981
6067.000000;0.420993
6066.000000;0.421031
6065.000000;0.421059
6064.000000;0.421042
6063.000000;0.420990
6062.000000;0.420945
6061.000000;0.420931
6060.000000;0.420944
6059.000000;0.420970
6058.000000;0.421000
6057.000000;0.421012
6056.000000;0.420987
6055.000000;0.420936
6054.000000;0.420902
6053.000000;0.420910
6052.000000;0.420944
6051.000000;0.420977
6050.000000;0.421008
6049.000000;0.421055
6048.000000;0.421119
6047.000000;0.421166
6046.000000;0.421165
6045.000000;0.421112
6044.000000;0.421041
6043.000000;0.420994
6042.000000;0.420995
6041.000000;0.421020
6040.000000;0.421030
6039.000000;0.421006
6038.000000;0.420973
6037.000000;0.420969
6036.000000;0.420996
6035.000000;0.421029
6034.000000;0.421043
6033.000000;0.421037
6032.000000;0.421027
6031.000000;0.421027
6030.000000;0.421036
6029.000000;0.421043
6028.000000;0.421034
6027.000000;0.421006
6026.000000;0.420969
6025.000000;0.420936
6024.000000;0.420915
6023.000000;0.420905
6022.000000;0.420912
6021.000000;0.420935
6020.000000;0.420968
6019.000000;0.420994
6018.000000;0.420996
6017.000000;0.420965
6016.000000;0.420910
6015.000000;0.420860
6014.000000;0.420850
6013.000000;0.420902
6012.000000;0.421010
6011.000000;0.421144
6010.000000;0.421267
6009.000000;0.421350
6008.000000;0.421379
6007.000000;0.421373
6006.000000;0.421366
6005.000000;0.421379
6004.000000;0.421394
6003.000000;0.421377
6002.000000;0.421315
6001.000000;0.421229
6000.000000;0.421158
5999.000000;0.421124
5998.000000;0.421117
5997.000000;0.421110
5996.000000;0.421090
5995.000000;0.421067
5994.000000;0.421051
5993.000000;0.421045
5992.000000;0.421051
5991.000000;0.421072
5990.000000;0.421108
5989.000000;0.421140
5988.000000;0.421150
5987.000000;0.421143
5986.000000;0.421146
5985.000000;0.421183
5984.000000;0.421251
5983.000000;0.421327
5982.000000;0.421380
5981.000000;0.421388
5980.000000;0.421355
5979.000000;0.421317
5978.000000;0.421307
5977.000000;0.421323
5976.000000;0.421332
5975.000000;0.421313
5974.000000;0.421276
5973.000000;0.421243
5972.000000;0.421232
5971.000000;0.421249
5970.000000;0.421298
5969.000000;0.421363
5968.000000;0.421420
5967.000000;0.421456
5966.000000;0.421483
5965.000000;0.421510
5964.000000;0.421535
5963.000000;0.421546
5962.000000;0.421539
5961.000000;0.421519
5960.000000;0.421492
5959.000000;0.421470
5958.000000;0.421465
5957.000000;0.421474
5956.000000;0.421477
5955.000000;0.421467
5954.000000;0.421453
5953.000000;0.421451
5952.000000;0.421458
5951.000000;0.421460
5950.000000;0.421449
5949.000000;0.421428
5948.000000;0.421408
5947.000000;0.421409
5946.000000;0.421444
5945.000000;0.421504
5944.000000;0.421568
5943.000000;0.421625
5942.000000;0.421687
5941.000000;0.421763
5940.000000;0.421832
5939.000000;0.421877
5938.000000;0.421900
5937.000000;0.421923
5936.000000;0.421954
5935.000000;0.421986
5934.000000;0.422011
5933.000000;0.422033
5932.000000;0.422051
5931.000000;0.422068
5930.000000;0.422090
5929.000000;0.422118
5928.000000;0.422141
5927.000000;0.422146
5926.000000;0.422136
5925.000000;0.422133
5924.000000;0.422159
5923.000000;0.422220
5922.000000;0.422299
5921.000000;0.422362
5920.000000;0.422375
5919.000000;0.422341
5918.000000;0.422303
5917.000000;0.422300
5916.000000;0.422333
5915.000000;0.422369
5914.000000;0.422372
5913.000000;0.422334
5912.000000;0.422270
5911.000000;0.422207
5910.000000;0.422169
5909.000000;0.422153
5908.000000;0.422137
5907.000000;0.422118
5906.000000;0.422124
5905.000000;0.422184
5904.000000;0.422287
5903.000000;0.422395
5902.000000;0.422484
5901.000000;0.422548
5900.000000;0.422581
5899.000000;0.422567
5898.000000;0.422509
5897.000000;0.422438
5896.000000;0.422394
5895.000000;0.422390
5894.000000;0.422412
5893.000000;0.422438
5892.000000;0.422463
5891.000000;0.422491
5890.000000;0.422524
5889.000000;0.422551
5888.000000;0.422555
5887.000000;0.422537
5886.000000;0.422511
5885.000000;0.422485
5884.000000;0.422452
5883.000000;0.422407
5882.000000;0.422369
5881.000000;0.422366
5880.000000;0.422405
5879.000000;0.422473
5878.000000;0.422554
5877.000000;0.422633
5876.000000;0.422694
5875.000000;0.422732
5874.000000;0.422765
5873.000000;0.422820
5872.000000;0.422899
5871.000000;0.422970
5870.000000;0.422998
5869.000000;0.422975
5868.000000;0.422930
5867.000000;0.422900
5866.000000;0.422908
5865.000000;0.422947
5864.000000;0.422988
5863.000000;0.423003
5862.000000;0.422992
5861.000000;0.422976
5860.000000;0.422971
5859.000000;0.422970
5858.000000;0.422962
5857.000000;0.422950
5856.000000;0.422945
5855.000000;0.422951
5854.000000;0.422953
5853.000000;0.422944
5852.000000;0.422935
5851.000000;0.422950
5850.000000;0.422998
5849.000000;0.423063
5848.000000;0.423132
5847.000000;0.423199
5846.000000;0.423258
5845.000000;0.423290
5844.000000;0.423288
5843.000000;0.423272
5842.000000;0.423267
5841.000000;0.423266
5840.000000;0.423240
5839.000000;0.423191
5838.000000;0.423156
5837.000000;0.423158
5836.000000;0.423180
5835.000000;0.423196
5834.000000;0.423207
5833.000000;0.423235
5832.000000;0.423281
5831.000000;0.423329
5830.000000;0.423373
5829.000000;0.423409
5828.000000;0.423425
5827.000000;0.423417
5826.000000;0.423403
5825.000000;0.423405
5824.000000;0.423415
5823.000000;0.423408
5822.000000;0.423386
5821.000000;0.423392
5820.000000;0.423461
5819.000000;0.423577
5818.000000;0.423694
5817.000000;0.423774
5816.000000;0.423804
5815.000000;0.423793
5814.000000;0.423768
5813.000000;0.423761
5812.000000;0.423787
5811.000000;0.423831
5810.000000;0.423869
5809.000000;0.423887
5808.000000;0.423888
5807.000000;0.423883
5806.000000;0.423881
5805.000000;0.423883
5804.000000;0.423882
5803.000000;0.423869
5802.000000;0.423846
5801.000000;0.423821
5800.000000;0.423807
5799.000000;0.423811
5798.000000;0.423841
5797.000000;0.423902
5796.000000;0.423981
5795.000000;0.424060
5794.000000;0.424127
5793.000000;0.424176
5792.000000;0.424203
5791.000000;0.424196
5790.000000;0.424152
5789.000000;0.424096
5788.000000;0.424078
5787.000000;0.424138
5786.000000;0.424267
5785.000000;0.424407
5784.000000;0.424491
5783.000000;0.424490
5782.000000;0.424429
5781.000000;0.424355
5780.000000;0.424306
5779.000000;0.424286
5778.000000;0.424279
5777.000000;0.424265
5776.000000;0.424240
5775.000000;0.424220
5774.000000;0.424221
5773.000000;0.424234
5772.000000;0.424226
5771.000000;0.424175
5770.000000;0.424101
5769.000000;0.424051
5768.000000;0.424056
5767.000000;0.424121
5766.000000;0.424229
5765.000000;0.424352
5764.000000;0.424446
5763.000000;0.424473
5762.000000;0.424432
5761.000000;0.424361
5760.000000;0.424307
5759.000000;0.424284
5758.000000;0.424274
5757.000000;0.424259
5756.000000;0.424242
5755.000000;0.424244
5754.000000;0.424279
5753.000000;0.424336
5752.000000;0.424386
5751.000000;0.424410
5750.000000;0.424404
5749.000000;0.424376
5748.000000;0.424338
5747.000000;0.424308
5746.000000;0.424304
5745.000000;0.424322
5744.000000;0.424341
5743.000000;0.424348
5742.000000;0.424346
5741.000000;0.424345
5740.000000;0.424332
5739.000000;0.424291
5738.000000;0.424235
5737.000000;0.424198
5736.000000;0.424207
5735.000000;0.424249
5734.000000;0.424292
5733.000000;0.424315
5732.000000;0.424333
5731.000000;0.424378
5730.000000;0.424447
5729.000000;0.424490
5728.000000;0.424463
5727.000000;0.424388
5726.000000;0.424340
5725.000000;0.424353
5724.000000;0.424385
5723.000000;0.424382
5722.000000;0.424358
5721.000000;0.424362
5720.000000;0.424400
5719.000000;0.424419
5718.000000;0.424378
5717.000000;0.424292
5716.000000;0.424209
5715.000000;0.424156
5714.000000;0.424140
5713.000000;0.424158
5712.000000;0.424193
5711.000000;0.424208
5710.000000;0.424175
5709.000000;0.424098
5708.000000;0.424011
5707.000000;0.423952
5706.000000;0.423935
5705.000000;0.423953
5704.000000;0.423995
5703.000000;0.424064
5702.000000;0.424166
5701.000000;0.424286
5700.000000;0.424382
5699.000000;0.424424
5698.000000;0.424424
5697.000000;0.424418
5696.000000;0.424429
5695.000000;0.424443
5694.000000;0.424443
5693.000000;0.424441
5692.000000;0.424442
5691.000000;0.424440
5690.000000;0.424427
5689.000000;0.424413
5688.000000;0.424415
5687.000000;0.424433
5686.000000;0.424454
5685.000000;0.424469
5684.000000;0.424485
5683.000000;0.424508
5682.000000;0.424531
5681.000000;0.424533
5680.000000;0.424501
5679.000000;0.424454
5678.000000;0.424439
5677.000000;0.424481
5676.000000;0.424553
5675.000000;0.424605
5674.000000;0.424625
5673.000000;0.424649
5672.000000;0.424711
5671.000000;0.424795
5670.000000;0.424861
5669.000000;0.424895
5668.000000;0.424923
5667.000000;0.424969
5666.000000;0.425025
5665.000000;0.425062
5664.000000;0.425054
5663.000000;0.425012
5662.000000;0.424965
5661.000000;0.424943
5660.000000;0.424957
5659.000000;0.425007
5658.000000;0.425089
5657.000000;0.425193
5656.000000;0.425300
5655.000000;0.425386
5654.000000;0.425444
5653.000000;0.425479
5652.000000;0.425501
5651.000000;0.425519
5650.000000;0.425552
5649.000000;0.425625
5648.000000;0.425748
5647.000000;0.425896
5646.000000;0.426023
5645.000000;0.426096
5644.000000;0.426122
5643.000000;0.426133
5642.000000;0.426166
5641.000000;0.426245
5640.000000;0.426378
5639.000000;0.426556
5638.000000;0.426757
5637.000000;0.426945
5636.000000;0.427093
5635.000000;0.427193
5634.000000;0.427255
5633.000000;0.427297
5632.000000;0.427339
5631.000000;0.427406
5630.000000;0.427512
5629.000000;0.427645
5628.000000;0.427762
5627.000000;0.427835
5626.000000;0.427880
5625.000000;0.427952
5624.000000;0.428082
5623.000000;0.428256
5622.000000;0.428433
5621.000000;0.428590
5620.000000;0.428725
5619.000000;0.428848
5618.000000;0.428966
5617.000000;0.429084
5616.000000;0.429205
5615.000000;0.429332
5614.000000;0.429451
5613.000000;0.429554
5612.000000;0.429652
5611.000000;0.429781
5610.000000;0.429974
5609.000000;0.430217
5608.000000;0.430451
5607.000000;0.430619
5606.000000;0.430720
5605.000000;0.430800
5604.000000;0.430900
5603.000000;0.431018
5602.000000;0.431129
5601.000000;0.431231
5600.000000;0.431347
5599.000000;0.431493
5598.000000;0.431655
5597.000000;0.431808
5596.000000;0.431945
5595.000000;0.432076
5594.000000;0.432211
5593.000000;0.432347
5592.000000;0.432481
5591.000000;0.432620
5590.000000;0.432776
5589.000000;0.432948
5588.000000;0.433121
5587.000000;0.433290
5586.000000;0.433468
5585.000000;0.433670
5584.000000;0.433883
5583.000000;0.434066
5582.000000;0.434187
5581.000000;0.434256
5580.000000;0.434310
5579.000000;0.434385
5578.000000;0.434492
5577.000000;0.434633
5576.000000;0.434818
5575.000000;0.435044
5574.000000;0.435274
5573.000000;0.435454
5572.000000;0.435561
5571.000000;0.435623
5570.000000;0.435687
5569.000000;0.435775
5568.000000;0.435896
5567.000000;0.436059
5566.000000;0.436269
5565.000000;0.436502
5564.000000;0.436712
5563.000000;0.436861
5562.000000;0.436947
5561.000000;0.436997
5560.000000;0.437059
5559.000000;0.437170
5558.000000;0.437323
5557.000000;0.437471
5556.000000;0.437575
5555.000000;0.437660
5554.000000;0.437784
5553.000000;0.437956
5552.000000;0.438127
5551.000000;0.438246
5550.000000;0.438321
5549.000000;0.438397
5548.000000;0.438504
5547.000000;0.438639
5546.000000;0.438786
5545.000000;0.438924
5544.000000;0.439038
5543.000000;0.439137
5542.000000;0.439247
5541.000000;0.439378
5540.000000;0.439504
5539.000000;0.439600
5538.000000;0.439673
5537.000000;0.439756
5536.000000;0.439871
5535.000000;0.440011
5534.000000;0.440149
5533.000000;0.440257
5532.000000;0.440329
5531.000000;0.440397
5530.000000;0.440502
5529.000000;0.440657
5528.000000;0.440830
5527.000000;0.440984
5526.000000;0.441112
5525.000000;0.441227
5524.000000;0.441344
5523.000000;0.441459
5522.000000;0.441563
5521.000000;0.441644
5520.000000;0.441703
5519.000000;0.441759
5518.000000;0.441834
5517.000000;0.441929
5516.000000;0.442026
5515.000000;0.442120
5514.000000;0.442216
5513.000000;0.442304
5512.000000;0.442366
5511.000000;0.442415
5510.000000;0.442499
5509.000000;0.442627
5508.000000;0.442757
5507.000000;0.442846
5506.000000;0.442912
5505.000000;0.442991
5504.000000;0.443078
5503.000000;0.443152
5502.000000;0.443228
5501.000000;0.443346
5500.000000;0.443514
5499.000000;0.443704
5498.000000;0.443884
5497.000000;0.444059
5496.000000;0.444250
5495.000000;0.444455
5494.000000;0.444634
5493.000000;0.444745
5492.000000;0.444788
5491.000000;0.444801
5490.000000;0.444820
5489.000000;0.444831
5488.000000;0.444807
5487.000000;0.444768
5486.000000;0.444777
5485.000000;0.444882
5484.000000;0.445056
5483.000000;0.445237
5482.000000;0.445391
5481.000000;0.445509
5480.000000;0.445592
5479.000000;0.445678
5478.000000;0.445814
5477.000000;0.445982
5476.000000;0.446087
5475.000000;0.446050
5474.000000;0.445905
5473.000000;0.445784
5472.000000;0.445811
5471.000000;0.446030
5470.000000;0.446389
5469.000000;0.446766
5468.000000;0.447071
5467.000000;0.447303
5466.000000;0.447508
5465.000000;0.447698
5464.000000;0.447851
5463.000000;0.447973
5462.000000;0.448093
5461.000000;0.448181
5460.000000;0.448173
5459.000000;0.448106
5458.000000;0.448114
5457.000000;0.448263
5456.000000;0.448470
5455.000000;0.448634
5454.000000;0.448759
5453.000000;0.448926
5452.000000;0.449164
5451.000000;0.449433
5450.000000;0.449668
5449.000000;0.449829
5448.000000;0.449928
5447.000000;0.450019
5446.000000;0.450132
5445.000000;0.450266
5444.000000;0.450438
5443.000000;0.450688
5442.000000;0.450997
5441.000000;0.451257
5440.000000;0.451372
5439.000000;0.451407
5438.000000;0.451523
5437.000000;0.451780
5436.000000;0.452081
5435.000000;0.452330
5434.000000;0.452525
5433.000000;0.452724
5432.000000;0.452981
5431.000000;0.453314
5430.000000;0.453673
5429.000000;0.453981
5428.000000;0.454212
5427.000000;0.454411
5426.000000;0.454631
5425.000000;0.454874
5424.000000;0.455089
5423.000000;0.455238
5422.000000;0.455354
5421.000000;0.455516
5420.000000;0.455752
5419.000000;0.456024
5418.000000;0.456309
5417.000000;0.456632
5416.000000;0.457018
5415.000000;0.457442
5414.000000;0.457861
5413.000000;0.458263
5412.000000;0.458688
5411.000000;0.459172
5410.000000;0.459686
5409.000000;0.460125
5408.000000;0.460407
5407.000000;0.460570
5406.000000;0.460734
5405.000000;0.460967
5404.000000;0.461254
5403.000000;0.461579
5402.000000;0.461947
5401.000000;0.462365
5400.000000;0.462821
5399.000000;0.463272
5398.000000;0.463701
5397.000000;0.464133
5396.000000;0.464601
5395.000000;0.465095
5394.000000;0.465572
5393.000000;0.466010
5392.000000;0.466434
5391.000000;0.466892
5390.000000;0.467439
5389.000000;0.468076
5388.000000;0.468711
5387.000000;0.469244
5386.000000;0.469681
5385.000000;0.470113
5384.000000;0.470634
5383.000000;0.471274
5382.000000;0.471975
5381.000000;0.472676
5380.000000;0.473385
5379.000000;0.474147
5378.000000;0.474976
5377.000000;0.475839
5376.000000;0.476693
5375.000000;0.477507
5374.000000;0.478266
5373.000000;0.478975
5372.000000;0.479678
5371.000000;0.480445
5370.000000;0.481333
5369.000000;0.482325
5368.000000;0.483335
5367.000000;0.484294
5366.000000;0.485228
5365.000000;0.486209
5364.000000;0.487262
5363.000000;0.488343
5362.000000;0.489400
5361.000000;0.490461
5360.000000;0.491605
5359.000000;0.492870
5358.000000;0.494228
5357.000000;0.495623
5356.000000;0.496996
5355.000000;0.498313
5354.000000;0.499605
5353.000000;0.500937
5352.000000;0.502338
5351.000000;0.503781
5350.000000;0.505245
5349.000000;0.506758
5348.000000;0.508351
5347.000000;0.510001
5346.000000;0.511681
5345.000000;0.513418
5344.000000;0.515261
5343.000000;0.517166
5342.000000;0.519018
5341.000000;0.520763
5340.000000;0.522411
5339.000000;0.523992
5338.000000;0.525619
5337.000000;0.527448
5336.000000;0.529539
5335.000000;0.531810
5334.000000;0.534085
5333.000000;0.536171
5332.000000;0.537970
5331.000000;0.539569
5330.000000;0.541140
5329.000000;0.542722
5328.000000;0.544159
5327.000000;0.545289
5326.000000;0.546118
5325.000000;0.546710
5324.000000;0.547017
5323.000000;0.547055
5322.000000;0.547104
5321.000000;0.547395
5320.000000;0.547621
5319.000000;0.547143
5318.000000;0.545750
5317.000000;0.543847
5316.000000;0.541790
5315.000000;0.539331
5314.000000;0.535918
5313.000000;0.531254
5312.000000;0.525403
5311.000000;0.518545
5310.000000;0.510663
5309.000000;0.501263
5308.000000;0.489570
5307.000000;0.475381
5306.000000;0.459609
5305.000000;0.443543
5304.000000;0.427692
5303.000000;0.411693
5302.000000;0.395244
5301.000000;0.378984
5300.000000;0.364591
5299.000000;0.354705
5298.000000;0.353407
5297.000000;0.365109
5296.000000;0.389675
5295.000000;0.420876
5294.000000;0.453947
5293.000000;0.489995
5292.000000;0.529527
5291.000000;0.568975
5290.000000;0.605616
5289.000000;0.639281
5288.000000;0.668981
5287.000000;0.693476
5286.000000;0.714226
5285.000000;0.733337
5284.000000;0.750972
5283.000000;0.768500
5282.000000;0.789459
5281.000000;0.812585
5280.000000;0.829516
5279.000000;0.835962
5278.000000;0.839057
5277.000000;0.846781
5276.000000;0.857706
5275.000000;0.866958
5274.000000;0.875603
5273.000000;0.886469
5272.000000;0.896428
5271.000000;0.901232
5270.000000;0.903322
5269.000000;0.906816
5268.000000;0.910143
5267.000000;0.910931
5266.000000;0.912391
5265.000000;0.917263
5264.000000;0.921190
5263.000000;0.919601
5262.000000;0.915883
5261.000000;0.915142
5260.000000;0.915837
5259.000000;0.915133
5258.000000;0.916734
5257.000000;0.924077
5256.000000;0.931018
5255.000000;0.928951
5254.000000;0.919578
5253.000000;0.911265
5252.000000;0.907347
5251.000000;0.906242
5250.000000;0.908377
5249.000000;0.914583
5248.000000;0.920740
5247.000000;0.922313
5246.000000;0.922249
5245.000000;0.926337
5244.000000;0.933107
5243.000000;0.935810
5242.000000;0.932801
5241.000000;0.928336
5240.000000;0.924571
5239.000000;0.920141
5238.000000;0.915271
5237.000000;0.912441
5236.000000;0.912570
5235.000000;0.914869
5234.000000;0.918787
5233.000000;0.922604
5232.000000;0.922958
5231.000000;0.919151
5230.000000;0.915403
5229.000000;0.915489
5228.000000;0.918086
5227.000000;0.920515
5226.000000;0.922584
5225.000000;0.923593
5224.000000;0.920325
5223.000000;0.912173
5222.000000;0.904621
5221.000000;0.903193
5220.000000;0.907342
5219.000000;0.913347
5218.000000;0.919667
5217.000000;0.925832
5216.000000;0.929599
5215.000000;0.929706
5214.000000;0.928530
5213.000000;0.927952
5212.000000;0.926064
5211.000000;0.921687
5210.000000;0.918359
5209.000000;0.919995
5208.000000;0.926066
5207.000000;0.934044
5206.000000;0.942093
5205.000000;0.946266
5204.000000;0.941570
5203.000000;0.930168
5202.000000;0.921469
5201.000000;0.920558
5200.000000;0.923038
5199.000000;0.923779
5198.000000;0.924750
5197.000000;0.929008
5196.000000;0.933338
5195.000000;0.933630
5194.000000;0.932722
5193.000000;0.935568
5192.000000;0.940532
5191.000000;0.941822
5190.000000;0.938040
5189.000000;0.932758
5188.000000;0.929047
5187.000000;0.928384
5186.000000;0.931649
5185.000000;0.936432
5184.000000;0.936498
5183.000000;0.929251
5182.000000;0.920534
5181.000000;0.917155
5180.000000;0.918841
5179.000000;0.921494
5178.000000;0.924618
5177.000000;0.929818
5176.000000;0.934916
5175.000000;0.936009
5174.000000;0.933660
5173.000000;0.932009
5172.000000;0.933014
5171.000000;0.935396
5170.000000;0.937421
5169.000000;0.937458
5168.000000;0.934135
5167.000000;0.928954
5166.000000;0.926140
5165.000000;0.927385
5164.000000;0.929779
5163.000000;0.931137
5162.000000;0.933174
5161.000000;0.936505
5160.000000;0.937602
5159.000000;0.935040
5158.000000;0.934232
5157.000000;0.940161
5156.000000;0.949062
5155.000000;0.952235
5154.000000;0.946392
5153.000000;0.935746
5152.000000;0.925873
5151.000000;0.920302
5150.000000;0.920156
5149.000000;0.922943
5148.000000;0.923988
5147.000000;0.922214
5146.000000;0.921874
5145.000000;0.925852
5144.000000;0.931210
5143.000000;0.934157
5142.000000;0.935461
5141.000000;0.937084
5140.000000;0.937596
5139.000000;0.935596
5138.000000;0.933754
5137.000000;0.934536
5136.000000;0.935571
5135.000000;0.933566
5134.000000;0.929345
5133.000000;0.925013
5132.000000;0.920188
5131.000000;0.915096
5130.000000;0.913345
5129.000000;0.917198
5128.000000;0.923430
5127.000000;0.927766
5126.000000;0.930506
5125.000000;0.933580
5124.000000;0.935460
5123.000000;0.933937
5122.000000;0.931036
5121.000000;0.930165
5120.000000;0.931164
5119.000000;0.932405
5118.000000;0.934639
5117.000000;0.938251
5116.000000;0.939932
5115.000000;0.937222
5114.000000;0.933603
5113.000000;0.933948
5112.000000;0.937834
5111.000000;0.941563
5110.000000;0.944050
5109.000000;0.945858
5108.000000;0.944822
5107.000000;0.938680
5106.000000;0.930181
5105.000000;0.923964
5104.000000;0.920646
5103.000000;0.918638
5102.000000;0.919091
5101.000000;0.924006
5100.000000;0.931344
5099.000000;0.937127
5098.000000;0.941472
5097.000000;0.947277
5096.000000;0.953709
5095.000000;0.956258
5094.000000;0.953215
5093.000000;0.947244
5092.000000;0.940518
5091.000000;0.933513
5090.000000;0.927988
5089.000000;0.925746
5088.000000;0.925157
5087.000000;0.923572
5086.000000;0.922570
5085.000000;0.926649
5084.000000;0.936208
5083.000000;0.944846
5082.000000;0.945514
5081.000000;0.938145
5080.000000;0.929065
5079.000000;0.924517
5078.000000;0.926289
5077.000000;0.931353
5076.000000;0.935058
5075.000000;0.935962
5074.000000;0.936432
5073.000000;0.937498
5072.000000;0.935951
5071.000000;0.929205
5070.000000;0.920398
5069.000000;0.914944
5068.000000;0.914114
5067.000000;0.915191
5066.000000;0.916387
5065.000000;0.918305
5064.000000;0.921325
5063.000000;0.924127
5062.000000;0.925006
5061.000000;0.923148
5060.000000;0.918468
5059.000000;0.912419
5058.000000;0.908350
5057.000000;0.908634
5056.000000;0.911880
5055.000000;0.914383
5054.000000;0.913844
5053.000000;0.910552
5052.000000;0.906046
5051.000000;0.902236
5050.000000;0.900762
5049.000000;0.901393
5048.000000;0.901604
5047.000000;0.899138
5046.000000;0.894372
5045.000000;0.889353
5044.000000;0.885754
5043.000000;0.884644
5042.000000;0.886534
5041.000000;0.889996
5040.000000;0.891713
5039.000000;0.889795
5038.000000;0.885649
5037.000000;0.881219
5036.000000;0.876614
5035.000000;0.871611
5034.000000;0.867379
5033.000000;0.865270
5032.000000;0.865280
5031.000000;0.866578
5030.000000;0.868071
5029.000000;0.867774
5028.000000;0.863580
5027.000000;0.856004
5026.000000;0.848320
5025.000000;0.843015
5024.000000;0.840350
5023.000000;0.840433
5022.000000;0.843339
5021.000000;0.846430
5020.000000;0.845136
5019.000000;0.838420
5018.000000;0.830432
5017.000000;0.824957
5016.000000;0.821153
5015.000000;0.816121
5014.000000;0.809160
5013.000000;0.801622
5012.000000;0.794971
5011.000000;0.790916
5010.000000;0.790908
5009.000000;0.793489
5008.000000;0.794249
5007.000000;0.790643
5006.000000;0.785232
5005.000000;0.782091
5004.000000;0.782085
5003.000000;0.783051
5002.000000;0.782148
5001.000000;0.776949
5000.000000;0.766769
4999.000000;0.754527
4998.000000;0.745049
4997.000000;0.739837
4996.000000;0.735438
4995.000000;0.728572
4994.000000;0.720777
4993.000000;0.715762
4992.000000;0.714279
4991.000000;0.713950
4990.000000;0.712649
4989.000000;0.709657
4988.000000;0.704539
4987.000000;0.697604
4986.000000;0.690766
4985.000000;0.685350
4984.000000;0.679784
4983.000000;0.671668
4982.000000;0.661384
4981.000000;0.651612
4980.000000;0.644055
4979.000000;0.638406
4978.000000;0.633593
4977.000000;0.628397
4976.000000;0.621713
4975.000000;0.613872
4974.000000;0.606943
4973.000000;0.602311
4972.000000;0.598770
4971.000000;0.594160
4970.000000;0.587879
4969.000000;0.580508
4968.000000;0.572400
4967.000000;0.564224
4966.000000;0.557635
4965.000000;0.553285
4964.000000;0.549012
4963.000000;0.542001
4962.000000;0.532465
4961.000000;0.523252
4960.000000;0.516116
4959.000000;0.510145
4958.000000;0.503668
4957.000000;0.496109
4956.000000;0.487925
4955.000000;0.479999
4954.000000;0.473244
4953.000000;0.467940
4952.000000;0.463287
4951.000000;0.457938
4950.000000;0.450987
4949.000000;0.442414
4948.000000;0.433112
4947.000000;0.424515
4946.000000;0.417423
4945.000000;0.410883
4944.000000;0.403152
4943.000000;0.394074
4942.000000;0.385493
4941.000000;0.378789
4940.000000;0.373105
4939.000000;0.366743
4938.000000;0.359306
4937.000000;0.351471
4936.000000;0.343564
4935.000000;0.335425
4934.000000;0.327020
4933.000000;0.318262
4932.000000;0.308773
4931.000000;0.298645
4930.000000;0.289107
4929.000000;0.281741
4928.000000;0.277146
4927.000000;0.274427
4926.000000;0.271485
4925.000000;0.265916
4924.000000;0.256786
4923.000000;0.245840
4922.000000;0.235952
4921.000000;0.228093
4920.000000;0.220985
4919.000000;0.213782
4918.000000;0.207342
4917.000000;0.202158
4916.000000;0.196648
4915.000000;0.188930
4914.000000;0.179364
4913.000000;0.169853
4912.000000;0.161266
4911.000000;0.152821
4910.000000;0.143640
4909.000000;0.133863
4908.000000;0.124247
4907.000000;0.115451
4906.000000;0.107746
4905.000000;0.100866
4904.000000;0.094220
4903.000000;0.087481
4902.000000;0.080550
4901.000000;0.072905
4900.000000;0.063799
4899.000000;0.053554
4898.000000;0.043950
4897.000000;0.036638
4896.000000;0.031485
4895.000000;0.026884
4894.000000;0.021329
4893.000000;0.014352
4892.000000;0.006453
4891.000000;-0.001257
4890.000000;-0.007629
4889.000000;-0.012240
4888.000000;-0.015572
4887.000000;-0.018369
4886.000000;-0.021136
4885.000000;-0.024362
4884.000000;-0.028638
4883.000000;-0.034085
4882.000000;-0.040005
4881.000000;-0.045453
4880.000000;-0.049996
4879.000000;-0.053736
4878.000000;-0.056949
4877.000000;-0.060012
4876.000000;-0.063422
4875.000000;-0.067404
4874.000000;-0.071428
4873.000000;-0.074537
4872.000000;-0.076371
4871.000000;-0.077575
4870.000000;-0.078908
4869.000000;-0.080148
4868.000000;-0.080374
4867.000000;-0.079358
4866.000000;-0.078081
4865.000000;-0.077672
4864.000000;-0.078352
4863.000000;-0.079617
4862.000000;-0.080957
4861.000000;-0.081896
4860.000000;-0.081693
4859.000000;-0.079869
4858.000000;-0.077046
4857.000000;-0.074624
4856.000000;-0.073336
4855.000000;-0.072478
4854.000000;-0.070824
4853.000000;-0.068074
4852.000000;-0.065078
4851.000000;-0.062743
4850.000000;-0.061038
4849.000000;-0.059181
4848.000000;-0.056629
4847.000000;-0.053590
4846.000000;-0.050576
4845.000000;-0.047814
4844.000000;-0.045250
4843.000000;-0.042821
4842.000000;-0.040446
4841.000000;-0.037915
4840.000000;-0.035073
4839.000000;-0.031995
4838.000000;-0.028789
4837.000000;-0.025432
4836.000000;-0.022022
4835.000000;-0.018886
4834.000000;-0.016067
4833.000000;-0.013074
4832.000000;-0.009659
4831.000000;-0.006482
4830.000000;-0.004280
4829.000000;-0.002569
4828.000000;-0.000032
4827.000000;0.003775
4826.000000;0.007914
4825.000000;0.011446
4824.000000;0.014482
4823.000000;0.017455
4822.000000;0.020217
4821.000000;0.022558
4820.000000;0.025036
4819.000000;0.028441
4818.000000;0.032627
4817.000000;0.036622
4816.000000;0.039850
4815.000000;0.042652
4814.000000;0.045571
4813.000000;0.048642
4812.000000;0.051612
4811.000000;0.054474
4810.000000;0.057441
4809.000000;0.060561
4808.000000;0.063677
4807.000000;0.066691
4806.000000;0.069673
4805.000000;0.072666
4804.000000;0.075564
4803.000000;0.078313
4802.000000;0.081095
4801.000000;0.084164
4800.000000;0.087472
4799.000000;0.090625
4798.000000;0.093258
4797.000000;0.095371
4796.000000;0.097255
4795.000000;0.099256
4794.000000;0.101674
4793.000000;0.104628
4792.000000;0.107840
4791.000000;0.110750
4790.000000;0.113085
4789.000000;0.115193
4788.000000;0.117580
4787.000000;0.120262
4786.000000;0.122850
4785.000000;0.125187
4784.000000;0.127518
4783.000000;0.129988
4782.000000;0.132325
4781.000000;0.134221
4780.000000;0.135805
4779.000000;0.137551
4778.000000;0.139794
4777.000000;0.142465
4776.000000;0.145224
4775.000000;0.147754
4774.000000;0.149983
4773.000000;0.152085
4772.000000;0.154261
4771.000000;0.156534
4770.000000;0.158793
4769.000000;0.160958
4768.000000;0.163000
4767.000000;0.164833
4766.000000;0.166349
4765.000000;0.167595
4764.000000;0.168794
4763.000000;0.170160
4762.000000;0.171797
4761.000000;0.173743
4760.000000;0.176000
4759.000000;0.178463
4758.000000;0.180913
4757.000000;0.183132
4756.000000;0.185024
4755.000000;0.186664
4754.000000;0.188270
4753.000000;0.190058
4752.000000;0.192018
4751.000000;0.193868
4750.000000;0.195355
4749.000000;0.196563
4748.000000;0.197825
4747.000000;0.199379
4746.000000;0.201197
4745.000000;0.203078
4744.000000;0.204804
4743.000000;0.206296
4742.000000;0.207740
4741.000000;0.209448
4740.000000;0.211434
4739.000000;0.213265
4738.000000;0.214573
4737.000000;0.215629
4736.000000;0.217061
4735.000000;0.219038
4734.000000;0.221059
4733.000000;0.222625
4732.000000;0.223803
4731.000000;0.224975
4730.000000;0.226338
4729.000000;0.227852
4728.000000;0.229460
4727.000000;0.231109
4726.000000;0.232663
4725.000000;0.234008
4724.000000;0.235195
4723.000000;0.236354
4722.000000;0.237521
4721.000000;0.238675
4720.000000;0.239830
4719.000000;0.240975
4718.000000;0.242010
4717.000000;0.242902
4716.000000;0.243832
4715.000000;0.245053
4714.000000;0.246620
4713.000000;0.248367
4712.000000;0.250089
4711.000000;0.251624
4710.000000;0.252818
4709.000000;0.253628
4708.000000;0.254253
4707.000000;0.255035
4706.000000;0.256152
4705.000000;0.257465
4704.000000;0.258683
4703.000000;0.259626
4702.000000;0.260344
4701.000000;0.261050
4700.000000;0.261959
4699.000000;0.263114
4698.000000;0.264368
4697.000000;0.265555
4696.000000;0.266634
4695.000000;0.267647
4694.000000;0.268600
4693.000000;0.269504
4692.000000;0.270473
4691.000000;0.271643
4690.000000;0.272973
4689.000000;0.274233
4688.000000;0.275227
4687.000000;0.275989
4686.000000;0.276721
4685.000000;0.277592
4684.000000;0.278609
4683.000000;0.279638
4682.000000;0.280521
4681.000000;0.281208
4680.000000;0.281797
4679.000000;0.282443
4678.000000;0.283224
4677.000000;0.284112
4676.000000;0.285063
4675.000000;0.286072
4674.000000;0.287131
4673.000000;0.288194
4672.000000;0.289192
4671.000000;0.290081
4670.000000;0.290864
4669.000000;0.291607
4668.000000;0.292428
4667.000000;0.293394
4666.000000;0.294409
4665.000000;0.295240
4664.000000;0.295733
4663.000000;0.296012
4662.000000;0.296399
4661.000000;0.297121
4660.000000;0.298102
4659.000000;0.299082
4658.000000;0.299920
4657.000000;0.300707
4656.000000;0.301573
4655.000000;0.302469
4654.000000;0.303210
4653.000000;0.303733
4652.000000;0.304202
4651.000000;0.304823
4650.000000;0.305626
4649.000000;0.306460
4648.000000;0.307170
4647.000000;0.307735
4646.000000;0.308238
4645.000000;0.308763
4644.000000;0.309329
4643.000000;0.309906
4642.000000;0.310479
4641.000000;0.311069
4640.000000;0.311708
4639.000000;0.312411
4638.000000;0.313180
4637.000000;0.314006
4636.000000;0.314834
4635.000000;0.315564
4634.000000;0.316159
4633.000000;0.316731
4632.000000;0.317432
4631.000000;0.318253
4630.000000;0.319022
4629.000000;0.319629
4628.000000;0.320159
4627.000000;0.320726
4626.000000;0.321256
4625.000000;0.321562
4624.000000;0.321629
4623.000000;0.321723
4622.000000;0.322143
4621.000000;0.322921
4620.000000;0.323784
4619.000000;0.324432
4618.000000;0.324826
4617.000000;0.325185
4616.000000;0.325714
4615.000000;0.326382
4614.000000;0.327015
4613.000000;0.327536
4612.000000;0.328002
4611.000000;0.328406
4610.000000;0.328632
4609.000000;0.328671
4608.000000;0.328755
4607.000000;0.329125
4606.000000;0.329740
4605.000000;0.330369
4604.000000;0.330919
4603.000000;0.331497
4602.000000;0.332136
4601.000000;0.332656
4600.000000;0.332904
4599.000000;0.333005
4598.000000;0.333239
4597.000000;0.333718
4596.000000;0.334292
4595.000000;0.334763
4594.000000;0.335096
4593.000000;0.335405
4592.000000;0.335789
4591.000000;0.336228
4590.000000;0.336635
4589.000000;0.336980
4588.000000;0.337327
4587.000000;0.337725
4586.000000;0.338096
4585.000000;0.338305
4584.000000;0.338362
4583.000000;0.338476
4582.000000;0.338869
4581.000000;0.339553
4580.000000;0.340329
4579.000000;0.340965
4578.000000;0.341334
4577.000000;0.341430
4576.000000;0.341361
4575.000000;0.341330
4574.000000;0.341547
4573.000000;0.342051
4572.000000;0.342644
4571.000000;0.343054
4570.000000;0.343188
4569.000000;0.343208
4568.000000;0.343343
4567.000000;0.343657
4566.000000;0.344032
4565.000000;0.344356
4564.000000;0.344646
4563.000000;0.344964
4562.000000;0.345277
4561.000000;0.345478
4560.000000;0.345549
4559.000000;0.345621
4558.000000;0.345835
4557.000000;0.346196
4556.000000;0.346599
4555.000000;0.346957
4554.000000;0.347263
4553.000000;0.347536
4552.000000;0.347771
4551.000000;0.347958
4550.000000;0.348126
4549.000000;0.348322
4548.000000;0.348563
4547.000000;0.348811
4546.000000;0.349023
4545.000000;0.349197
4544.000000;0.349380
4543.000000;0.349606
4542.000000;0.349842
4541.000000;0.349999
4540.000000;0.350008
4539.000000;0.349887
4538.000000;0.349745
4537.000000;0.349716
4536.000000;0.349859
4535.000000;0.350104
4534.000000;0.350310
4533.000000;0.350393
4532.000000;0.350402
4531.000000;0.350467
4530.000000;0.350668
4529.000000;0.350961
4528.000000;0.351229
4527.000000;0.351386
4526.000000;0.351439
4525.000000;0.351464
4524.000000;0.351524
4523.000000;0.351601
4522.000000;0.351636
4521.000000;0.351635
4520.000000;0.351709
4519.000000;0.351970
4518.000000;0.352401
4517.000000;0.352850
4516.000000;0.353164
4515.000000;0.353289
4514.000000;0.353272
4513.000000;0.353192
4512.000000;0.353110
4511.000000;0.353074
4510.000000;0.353124
4509.000000;0.353287
4508.000000;0.353548
4507.000000;0.353827
4506.000000;0.354019
4505.000000;0.354109
4504.000000;0.354194
4503.000000;0.354354
4502.000000;0.354502
4501.000000;0.354448
4500.000000;0.354140
4499.000000;0.353803
4498.000000;0.353768
4497.000000;0.354171
4496.000000;0.354829
4495.000000;0.355390
4494.000000;0.355600
4493.000000;0.355467
4492.000000;0.355217
4491.000000;0.355100
4490.000000;0.355192
4489.000000;0.355366
4488.000000;0.355429
4487.000000;0.355310
4486.000000;0.355130
4485.000000;0.355101
4484.000000;0.355343
4483.000000;0.355762
4482.000000;0.356117
4481.000000;0.356223
4480.000000;0.356090
4479.000000;0.355861
4478.000000;0.355669
4477.000000;0.355577
4476.000000;0.355604
4475.000000;0.355740
4474.000000;0.355924
4473.000000;0.356102
4472.000000;0.356304
4471.000000;0.356561
4470.000000;0.356769
4469.000000;0.356752
4468.000000;0.356523
4467.000000;0.356354
4466.000000;0.356468
4465.000000;0.356724
4464.000000;0.356757
4463.000000;0.356418
4462.000000;0.355957
4461.000000;0.355741
4460.000000;0.355878
4459.000000;0.356174
4458.000000;0.356384
4457.000000;0.356452
4456.000000;0.356496
4455.000000;0.356615
4454.000000;0.356735
4453.000000;0.356689
4452.000000;0.356453
4451.000000;0.356226
4450.000000;0.356200
4449.000000;0.356322
4448.000000;0.356391
4447.000000;0.356370
4446.000000;0.356441
4445.000000;0.356700
4444.000000;0.356967
4443.000000;0.357031
4442.000000;0.356962
4441.000000;0.356997
4440.000000;0.357150
4439.000000;0.357152
4438.000000;0.356823
4437.000000;0.356363
4436.000000;0.356132
4435.000000;0.356266
4434.000000;0.356612
4433.000000;0.356975
4432.000000;0.357257
4431.000000;0.357383
4430.000000;0.357256
4429.000000;0.356876
4428.000000;0.356388
4427.000000;0.355929
4426.000000;0.355521
4425.000000;0.355174
4424.000000;0.355010
4423.000000;0.355131
4422.000000;0.355411
4421.000000;0.355548
4420.000000;0.355364
4419.000000;0.354971
4418.000000;0.354616
4417.000000;0.354446
4416.000000;0.354449
4415.000000;0.354544
4414.000000;0.354655
4413.000000;0.354721
4412.000000;0.354676
4411.000000;0.354433
4410.000000;0.353926
4409.000000;0.353205
4408.000000;0.352479
4407.000000;0.351944
4406.000000;0.351600
4405.000000;0.351314
4404.000000;0.351071
4403.000000;0.351011
4402.000000;0.351134
4401.000000;0.351134
4400.000000;0.350664
4399.000000;0.349702
4398.000000;0.348566
4397.000000;0.347619
4396.000000;0.347041
4395.000000;0.346774
4394.000000;0.346568
4393.000000;0.346142
4392.000000;0.345473
4391.000000;0.344876
4390.000000;0.344618
4389.000000;0.344515
4388.000000;0.344114
4387.000000;0.343265
4386.000000;0.342295
4385.000000;0.341563
4384.000000;0.341110
4383.000000;0.340814
4382.000000;0.340624
4381.000000;0.340435
4380.000000;0.339935
4379.000000;0.338904
4378.000000;0.337565
4377.000000;0.336404
4376.000000;0.335655
4375.000000;0.335158
4374.000000;0.334691
4373.000000;0.334177
4372.000000;0.333542
4371.000000;0.332621
4370.000000;0.331355
4369.000000;0.329931
4368.000000;0.328592
4367.000000;0.327421
4366.000000;0.326404
4365.000000;0.325557
4364.000000;0.324834
4363.000000;0.324015
4362.000000;0.322890
4361.000000;0.321567
4360.000000;0.320388
4359.000000;0.319536
4358.000000;0.318853
4357.000000;0.318063
4356.000000;0.317042
4355.000000;0.315806
4354.000000;0.314387
4353.000000;0.312840
4352.000000;0.311286
4351.000000;0.309835
4350.000000;0.308546
4349.000000;0.307519
4348.000000;0.306890
4347.000000;0.306550
4346.000000;0.305966
4345.000000;0.304598
4344.000000;0.302560
4343.000000;0.300631
4342.000000;0.299447
4341.000000;0.298863
4340.000000;0.298261
4339.000000;0.297344
4338.000000;0.296375
4337.000000;0.295679
4336.000000;0.295181
4335.000000;0.294510
4334.000000;0.293382
4333.000000;0.291766
4332.000000;0.289800
4331.000000;0.287664
4330.000000;0.285452
4329.000000;0.283109
4328.000000;0.280653
4327.000000;0.278528
4326.000000;0.277476
4325.000000;0.277763
4324.000000;0.278608
4323.000000;0.278704
4322.000000;0.277434
4321.000000;0.275382
4320.000000;0.273554
4319.000000;0.272370
4318.000000;0.271579
4317.000000;0.270816
4316.000000;0.269836
4315.000000;0.268337
4314.000000;0.266064
4313.000000;0.263242
4312.000000;0.260567
4311.000000;0.258513
4310.000000;0.256862
4309.000000;0.255142
4308.000000;0.253422
4307.000000;0.252424
4306.000000;0.252798
4305.000000;0.254441
4304.000000;0.256510
4303.000000;0.257957
4302.000000;0.258004
4301.000000;0.256355
4300.000000;0.253321
4299.000000;0.249926
4298.000000;0.247607
4297.000000;0.247255
4296.000000;0.248228
4295.000000;0.248654
4294.000000;0.247319
4293.000000;0.245169
4292.000000;0.244464
4291.000000;0.246295
4290.000000;0.249502
4289.000000;0.252249
4288.000000;0.253939
4287.000000;0.255099
4286.000000;0.256036
4285.000000;0.256597
4284.000000;0.257048
4283.000000;0.258104
4282.000000;0.259946
4281.000000;0.262152
4280.000000;0.264785
4279.000000;0.268453
4278.000000;0.272776
4277.000000;0.275896
4276.000000;0.276599
4275.000000;0.276228
4274.000000;0.277448
4273.000000;0.281498
4272.000000;0.287584
4271.000000;0.294401
4270.000000;0.300871
4269.000000;0.305760
4268.000000;0.308470
4267.000000;0.310591
4266.000000;0.315006
4265.000000;0.322640
4264.000000;0.331358
4263.000000;0.338909
4262.000000;0.345658
4261.000000;0.353048
4260.000000;0.360727
4259.000000;0.367129
4258.000000;0.372218
4257.000000;0.377827
4256.000000;0.385321
4255.000000;0.394409
4254.000000;0.404242
4253.000000;0.414157
4252.000000;0.423175
4251.000000;0.430302
4250.000000;0.435989
4249.000000;0.442332
4248.000000;0.451173
4247.000000;0.462365
4246.000000;0.474231
4245.000000;0.485354
4244.000000;0.495379
4243.000000;0.504322
4242.000000;0.511948
4241.000000;0.518322
4240.000000;0.524613
4239.000000;0.532486
4238.000000;0.542619
4237.000000;0.554423
4236.000000;0.567441
4235.000000;0.582188
4234.000000;0.598453
4233.000000;0.613282
4232.000000;0.622789
4231.000000;0.626653
4230.000000;0.628924
4229.000000;0.633649
4228.000000;0.641791
4227.000000;0.652647
4226.000000;0.665514
4225.000000;0.678778
4224.000000;0.689882
4223.000000;0.698389
4222.000000;0.707370
4221.000000;0.719375
4220.000000;0.732904
4219.000000;0.745002
4218.000000;0.755507
4217.000000;0.766050
4216.000000;0.776159
4215.000000;0.783704
4214.000000;0.788855
4213.000000;0.794597
4212.000000;0.803438
4211.000000;0.816062
4210.000000;0.832477
4209.000000;0.851542
4208.000000;0.869538
4207.000000;0.882197
4206.000000;0.889197
4205.000000;0.894466
4204.000000;0.901284
4203.000000;0.909586
4202.000000;0.918597
4201.000000;0.928705
4200.000000;0.939555
4199.000000;0.950045
4198.000000;0.961208
4197.000000;0.975653
4196.000000;0.992700
4195.000000;1.007137
4194.000000;1.015335
4193.000000;1.020235
4192.000000;1.027029
4191.000000;1.036251
4190.000000;1.044196
4189.000000;1.048815
4188.000000;1.052644
4187.000000;1.059834
4186.000000;1.072203
4185.000000;1.088406
4184.000000;1.104658
4183.000000;1.116777
4182.000000;1.124250
4181.000000;1.131309
4180.000000;1.143871
4179.000000;1.165518
4178.000000;1.193495
4177.000000;1.218423
4176.000000;1.232460
4175.000000;1.237649
4174.000000;1.242725
4173.000000;1.254435
4172.000000;1.270555
4171.000000;1.282197
4170.000000;1.287029
4169.000000;1.292943
4168.000000;1.304312
4167.000000;1.312964
4166.000000;1.311760
4165.000000;1.308895
4164.000000;1.316126
4163.000000;1.329881
4162.000000;1.333850
4161.000000;1.323447
4160.000000;1.313698
4159.000000;1.318991
4158.000000;1.336277
4157.000000;1.350817
4156.000000;1.357802
4155.000000;1.367890
4154.000000;1.388162
4153.000000;1.409931
4152.000000;1.419026
4151.000000;1.416089
4150.000000;1.416623
4149.000000;1.430648
4148.000000;1.456249
4147.000000;1.487164
4146.000000;1.516164
4145.000000;1.536941
4144.000000;1.542698
4143.000000;1.533532
4142.000000;1.527971
4141.000000;1.540200
4140.000000;1.564595
4139.000000;1.585334
4138.000000;1.590826
4137.000000;1.584777
4136.000000;1.580737
4135.000000;1.585040
4134.000000;1.589988
4133.000000;1.583963
4132.000000;1.566993
4131.000000;1.558361
4130.000000;1.580738
4129.000000;1.632255
4128.000000;1.681122
4127.000000;1.699571
4126.000000;1.702376
4125.000000;1.715876
4124.000000;1.733482
4123.000000;1.726569
4122.000000;1.691477
4121.000000;1.659182
4120.000000;1.655904
4119.000000;1.681980
4118.000000;1.716457
4117.000000;1.738415
4116.000000;1.744534
4115.000000;1.733979
4114.000000;1.711903
4113.000000;1.689494
4112.000000;1.675558
4111.000000;1.685726
4110.000000;1.722004
4109.000000;1.759662
4108.000000;1.787271
4107.000000;1.822390
4106.000000;1.854722
4105.000000;1.845196
4104.000000;1.799290
4103.000000;1.767324
4102.000000;1.786159
4101.000000;1.855022
4100.000000;1.928568
4099.000000;1.947920
4098.000000;1.922050
4097.000000;1.905254
4096.000000;1.929429
4095.000000;1.987631
4094.000000;2.037375
4093.000000;2.053318
4092.000000;2.045740
4091.000000;2.028842
4090.000000;2.017653
4089.000000;2.016757
4088.000000;2.004989
4087.000000;1.957263
4086.000000;1.896432
4085.000000;1.856241
4084.000000;1.844247
4083.000000;1.853746
4082.000000;1.874178
4081.000000;1.901905
4080.000000;1.930060
4079.000000;1.931802
4078.000000;1.914103
4077.000000;1.911032
4076.000000;1.923939
4075.000000;1.932211
4074.000000;1.932546
4073.000000;1.930091
4072.000000;1.916313
4071.000000;1.897946
4070.000000;1.891037
4069.000000;1.907646
4068.000000;1.953785
4067.000000;2.023909
4066.000000;2.096894
4065.000000;2.125351
4064.000000;2.079513
4063.000000;2.017799
4062.000000;2.003078
4061.000000;2.064078
4060.000000;2.205696
4059.000000;2.358728
4058.000000;2.385843
4057.000000;2.324193
4056.000000;2.205963
4055.000000;2.097842
4054.000000;2.049631
4053.000000;2.062462
4052.000000;2.126391
4051.000000;2.220217
4050.000000;2.315357
4049.000000;2.330703
4048.000000;2.250094
4047.000000;2.197165
4046.000000;2.205232
4045.000000;2.180975
4044.000000;2.082481
4043.000000;2.008210
4042.000000;1.995173
4041.000000;2.007805
4040.000000;2.018180
4039.000000;2.046793
4038.000000;2.131921
4037.000000;2.269296
4036.000000;2.393875
4035.000000;2.337874
4034.000000;2.121697
4033.000000;2.004699
4032.000000;1.989278
4031.000000;2.041547
4030.000000;2.110986
4029.000000;2.118913
4028.000000;2.094799
4027.000000;2.073861
4026.000000;2.059930
4025.000000;2.078275
4024.000000;2.105412
4023.000000;2.120632
4022.000000;2.143069
4021.000000;2.208100
4020.000000;2.340265
4019.000000;2.331636
4018.000000;2.185923
4017.000000;2.099418
4016.000000;2.072723
4015.000000;2.099560
4014.000000;2.173997
4013.000000;2.264640
4012.000000;2.327655
4011.000000;2.359084
4010.000000;2.386359
4009.000000;2.324560
4008.000000;2.244146
4007.000000;2.273345
4006.000000;2.325614
4005.000000;2.236886
4004.000000;2.165457
4003.000000;2.186501
4002.000000;2.285478
4001.000000;2.419188
4000.000000;2.375633
3999.000000;2.161251
3998.000000;2.042031
3997.000000;2.042614
3996.000000;2.135395
3995.000000;2.266079
3994.000000;2.351772
3993.000000;2.303290
3992.000000;2.207370
3991.000000;2.170759
3990.000000;2.196503
3989.000000;2.242978
3988.000000;2.260173
3987.000000;2.275142
3986.000000;2.341158
3985.000000;2.426089
3984.000000;2.482442
3983.000000;2.599245
3982.000000;2.924206
3981.000000;3.734724
3980.000000;2.969121
3979.000000;2.914036
3978.000000;3.003634
3977.000000;2.942195
3976.000000;2.763750
3975.000000;2.664986
3974.000000;2.622319
3973.000000;2.565876
3972.000000;2.505212
3971.000000;2.482551
3970.000000;2.461222
3969.000000;2.395373
3968.000000;2.330885
3967.000000;2.335982
3966.000000;2.385892
3965.000000;2.370485
3964.000000;2.280533
3963.000000;2.203646
3962.000000;2.179158
3961.000000;2.179681
3960.000000;2.153185
3959.000000;2.107668
3958.000000;2.098642
3957.000000;2.149875
3956.000000;2.202823
3955.000000;2.200917
3954.000000;2.183460
3953.000000;2.193876
3952.000000;2.280533
3951.000000;2.472244
3950.000000;2.598211
3949.000000;2.450463
3948.000000;2.355803
3947.000000;2.401852
3946.000000;2.650450
3945.000000;3.130405
3944.000000;3.346988
3943.000000;3.068242
3942.000000;2.819793
3941.000000;2.848876
3940.000000;3.111347
3939.000000;3.595530
3938.000000;3.081155
3937.000000;2.807463
3936.000000;2.807237
3935.000000;2.362553
3934.000000;2.125850
3933.000000;2.134341
3932.000000;2.334622
3931.000000;2.971367
3930.000000;2.841454
3929.000000;2.573133
3928.000000;2.512778
3927.000000;2.593428
3926.000000;3.018326
3925.000000;3.003743
3924.000000;2.679556
3923.000000;2.671264
3922.000000;2.682971
3921.000000;2.675675
3920.000000;2.703655
3919.000000;2.760476
3918.000000;2.875698
3917.000000;3.005344
3916.000000;2.861845
3915.000000;2.701441
3914.000000;2.683225
3913.000000;2.690777
3912.000000;2.583972
3911.000000;2.465175
3910.000000;2.422806
3909.000000;2.443605
3908.000000;2.516953
3907.000000;2.624754
3906.000000;2.693928
3905.000000;2.651699
3904.000000;2.583204
3903.000000;2.591221
3902.000000;2.669442
3901.000000;2.716782
3900.000000;2.748050
3899.000000;2.869649
3898.000000;2.988418
3897.000000;3.074596
3896.000000;3.023684
3895.000000;2.503241
3894.000000;2.257737
3893.000000;2.223213
3892.000000;2.356078
3891.000000;2.704553
3890.000000;3.078822
3889.000000;2.759998
3888.000000;2.627228
3887.000000;2.691515
3886.000000;2.885809
3885.000000;3.401490
3884.000000;3.573190
3883.000000;3.266018
3882.000000;3.388683
3881.000000;3.042032
3880.000000;2.783986
3879.000000;2.726500
3878.000000;2.780545
3877.000000;2.870129
3876.000000;2.903190
3875.000000;2.782652
3874.000000;2.587027
3873.000000;2.529982
3872.000000;2.658486
3871.000000;2.703126
3870.000000;2.601072
3869.000000;2.628007
3868.000000;2.789909
3867.000000;3.090458
3866.000000;3.281809
3865.000000;3.046264
3864.000000;2.911620
3863.000000;2.881135
3862.000000;2.827940
3861.000000;2.740600
3860.000000;2.694859
3859.000000;2.662281
3858.000000;2.545480
3857.000000;2.421401
3856.000000;2.420679
3855.000000;2.599012
3854.000000;3.037109
3853.000000;3.288727
3852.000000;3.128565
3851.000000;2.956367
3850.000000;2.820274
3849.000000;2.761547
3848.000000;2.756473
3847.000000;2.781899
3846.000000;2.944515
3845.000000;2.768952
3844.000000;2.468706
3843.000000;2.432324
3842.000000;2.605880
3841.000000;2.810991
3840.000000;2.695698
3839.000000;2.619201
3838.000000;2.589529
3837.000000;2.568774
3836.000000;2.583859
3835.000000;2.637232
3834.000000;2.701911
3833.000000;2.790381
3832.000000;2.980108
3831.000000;3.083013
3830.000000;2.978164
3829.000000;3.009383
3828.000000;3.287392
3827.000000;4.044915
3826.000000;3.598242
3825.000000;3.088003
3824.000000;2.902932
3823.000000;2.882485
3822.000000;2.842653
3821.000000;2.765930
3820.000000;2.711628
3819.000000;2.688176
3818.000000;2.708572
3817.000000;2.734013
3816.000000;2.831631
3815.000000;2.926323
3814.000000;2.610337
3813.000000;2.442171
3812.000000;2.511927
3811.000000;2.766026
3810.000000;2.967684
3809.000000;2.820262
3808.000000;2.602017
3807.000000;2.481760
3806.000000;2.435597
3805.000000;2.418272
3804.000000;2.500463
3803.000000;2.732728
3802.000000;3.249569
3801.000000;3.114369
3800.000000;2.883116
3799.000000;3.098869
3798.000000;3.486980
3797.000000;3.087511
3796.000000;2.809271
3795.000000;2.590279
3794.000000;2.493189
3793.000000;2.540302
3792.000000;2.720918
3791.000000;3.004373
3790.000000;2.834420
3789.000000;2.631178
3788.000000;2.575490
3787.000000;2.702525
3786.000000;3.001042
3785.000000;2.759603
3784.000000;2.583884
3783.000000;2.640142
3782.000000;2.867079
3781.000000;3.030042
3780.000000;2.906425
3779.000000;2.751190
3778.000000;2.542556
3777.000000;2.429761
3776.000000;2.444538
3775.000000;2.560279
3774.000000;2.704622
3773.000000;2.760574
3772.000000;2.740893
3771.000000;2.867187
3770.000000;3.458086
3769.000000;2.875042
3768.000000;2.696610
3767.000000;2.756055
3766.000000;2.765561
3765.000000;2.734955
3764.000000;2.808693
3763.000000;2.753240
3762.000000;2.517752
3761.000000;2.404614
3760.000000;2.414969
3759.000000;2.522173
3758.000000;2.653818
3757.000000;2.661575
3756.000000;2.578469
3755.000000;2.545180
3754.000000;2.611765
3753.000000;2.792135
3752.000000;2.934900
3751.000000;2.953536
3750.000000;3.026867
3749.000000;3.125927
3748.000000;3.226041
3747.000000;3.530419
3746.000000;3.490706
3745.000000;3.330134
3744.000000;3.468492
3743.000000;3.320338
3742.000000;3.100591
3741.000000;3.007405
3740.000000;2.971424
3739.000000;2.893471
3738.000000;2.736357
3737.000000;2.619443
3736.000000;2.605110
3735.000000;2.692952
3734.000000;2.768487
3733.000000;2.714247
3732.000000;2.642836
3731.000000;2.625986
3730.000000;2.707071
3729.000000;2.892193
3728.000000;2.903984
3727.000000;2.673148
3726.000000;2.534474
3725.000000;2.546074
3724.000000;2.662359
3723.000000;2.777504
3722.000000;2.795815
3721.000000;2.771259
3720.000000;2.753046
3719.000000;2.696468
3718.000000;2.826253
3717.000000;3.329002
3716.000000;3.035165
3715.000000;2.941760
3714.000000;3.214364
3713.000000;3.363335
3712.000000;2.955940
3711.000000;2.790717
3710.000000;2.713498
3709.000000;2.647241
3708.000000;2.594028
3707.000000;2.549574
3706.000000;2.514554
3705.000000;2.541982
3704.000000;2.725964
3703.000000;2.837897
3702.000000;2.743259
3701.000000;2.645778
3700.000000;2.484540
3699.000000;2.433869
3698.000000;2.500217
3697.000000;2.550152
3696.000000;2.450076
3695.000000;2.291959
3694.000000;2.224708
3693.000000;2.289287
3692.000000;2.416202
3691.000000;2.495427
3690.000000;2.572313
3689.000000;2.750701
3688.000000;3.030227
3687.000000;2.994544
3686.000000;3.046003
3685.000000;3.015699
3684.000000;2.665603
3683.000000;2.604264
3682.000000;2.741851
3681.000000;2.836117
3680.000000;2.807080
3679.000000;2.687258
3678.000000;2.940361
3677.000000;2.941799
3676.000000;2.504764
3675.000000;2.449940
3674.000000;2.509236
3673.000000;2.632764
3672.000000;2.683068
3671.000000;2.582862
3670.000000;2.475406
3669.000000;2.480429
3668.000000;2.692394
3667.000000;3.172745
3666.000000;3.120274
3665.000000;2.699108
3664.000000;2.376564
3663.000000;2.210542
3662.000000;2.209398
3661.000000;2.325995
3660.000000;2.507216
3659.000000;2.581309
3658.000000;2.674044
3657.000000;3.090159
3656.000000;3.203292
3655.000000;2.893134
3654.000000;2.787225
3653.000000;2.769716
3652.000000;2.825731
3651.000000;2.876293
3650.000000;3.000134
3649.000000;3.023153
3648.000000;2.833419
3647.000000;2.718834
3646.000000;2.667303
3645.000000;2.638996
3644.000000;2.643403
3643.000000;2.729561
3642.000000;2.868706
3641.000000;2.937260
3640.000000;2.867256
3639.000000;2.548894
3638.000000;2.282028
3637.000000;2.139078
3636.000000;2.115655
3635.000000;2.199215
3634.000000;2.432000
3633.000000;3.012008
3632.000000;2.850889
3631.000000;2.638769
3630.000000;2.700784
3629.000000;2.843196
3628.000000;2.989488
3627.000000;3.038524
3626.000000;2.982502
3625.000000;2.727800
3624.000000;2.482982
3623.000000;2.380541
3622.000000;2.421599
3621.000000;2.514890
3620.000000;2.535578
3619.000000;2.558368
3618.000000;2.667370
3617.000000;2.865927
3616.000000;3.016632
3615.000000;3.153419
3614.000000;3.172700
3613.000000;2.652569
3612.000000;2.437936
3611.000000;2.483215
3610.000000;2.635189
3609.000000;2.721895
3608.000000;2.659195
3607.000000;2.538598
3606.000000;2.441203
3605.000000;2.418638
3604.000000;2.475208
3603.000000;2.616458
3602.000000;2.733515
3601.000000;2.607572
3600.000000;2.465270
3599.000000;2.387043
3598.000000;2.378801
3597.000000;2.420782
3596.000000;2.467965
3595.000000;2.512770
3594.000000;2.573357
3593.000000;2.967747
3592.000000;3.071136
3591.000000;2.583826
3590.000000;2.509587
3589.000000;2.590149
3588.000000;2.737685
3587.000000;2.824856
3586.000000;2.813592
3585.000000;2.791226
3584.000000;2.744583
3583.000000;2.748774
3582.000000;2.845039
3581.000000;2.797833
3580.000000;2.703593
3579.000000;2.710253
3578.000000;2.858455
3577.000000;3.003748
3576.000000;2.628323
3575.000000;2.440753
3574.000000;2.418935
3573.000000;2.328622
3572.000000;2.141935
3571.000000;2.005526
3570.000000;1.997678
3569.000000;2.201646
3568.000000;2.562446
3567.000000;2.515337
3566.000000;2.449765
3565.000000;2.555218
3564.000000;2.681239
3563.000000;2.690901
3562.000000;2.631210
3561.000000;2.720987
3560.000000;2.681647
3559.000000;2.479424
3558.000000;2.478800
3557.000000;2.712115
3556.000000;3.007799
3555.000000;2.766034
3554.000000;2.532809
3553.000000;2.533757
3552.000000;2.714406
3551.000000;2.753694
3550.000000;2.556299
3549.000000;2.461242
3548.000000;2.500847
3547.000000;2.546052
3546.000000;2.463647
3545.000000;2.287380
3544.000000;2.167277
3543.000000;2.196111
3542.000000;2.374422
3541.000000;2.484000
3540.000000;2.379926
3539.000000;2.260415
3538.000000;2.184741
3537.000000;2.206640
3536.000000;2.277596
3535.000000;2.329835
3534.000000;2.405448
3533.000000;2.571464
3532.000000;2.813689
3531.000000;3.037455
3530.000000;3.218310
3529.000000;2.808024
3528.000000;2.499877
3527.000000;2.346196
3526.000000;2.262299
3525.000000;2.218539
3524.000000;2.170510
3523.000000;2.095558
3522.000000;2.061490
3521.000000;2.115464
3520.000000;2.444314
3519.000000;2.965979
3518.000000;2.440410
3517.000000;2.256956
3516.000000;2.095843
3515.000000;2.004300
3514.000000;2.036229
3513.000000;2.167317
3512.000000;2.435079
3511.000000;2.603674
3510.000000;2.671547
3509.000000;2.940313
3508.000000;2.618619
3507.000000;2.302604
3506.000000;2.213420
3505.000000;2.243479
3504.000000;2.398691
3503.000000;2.666887
3502.000000;2.823332
3501.000000;2.631789
3500.000000;2.461869
3499.000000;2.422315
3498.000000;2.518590
3497.000000;2.905654
3496.000000;3.212345
3495.000000;2.758042
3494.000000;2.583441
3493.000000;2.506482
3492.000000;2.575985
3491.000000;2.556370
3490.000000;2.431660
3489.000000;2.473899
3488.000000;2.534543
3487.000000;2.473560
3486.000000;2.372918
3485.000000;2.303434
3484.000000;2.236420
3483.000000;2.161573
3482.000000;2.161079
3481.000000;2.265169
3480.000000;2.387675
3479.000000;2.392146
3478.000000;2.360719
3477.000000;2.285531
3476.000000;2.209914
3475.000000;2.186617
3474.000000;2.330791
3473.000000;2.821904
3472.000000;2.554510
3471.000000;2.295388
3470.000000;2.308420
3469.000000;2.434278
3468.000000;2.648401
3467.000000;2.875047
3466.000000;2.931589
3465.000000;2.708043
3464.000000;2.621846
3463.000000;2.614436
3462.000000;2.393546
3461.000000;2.120004
3460.000000;1.978581
3459.000000;1.974051
3458.000000;2.100135
3457.000000;2.337148
3456.000000;2.720201
3455.000000;2.961954
3454.000000;2.656785
3453.000000;2.416217
3452.000000;2.297094
3451.000000;2.210245
3450.000000;2.261047
3449.000000;2.622625
3448.000000;2.466351
3447.000000;2.199398
3446.000000;2.234571
3445.000000;2.443550
3444.000000;2.514628
3443.000000;2.361602
3442.000000;2.285070
3441.000000;2.252023
3440.000000;2.263809
3439.000000;2.307543
3438.000000;2.214931
3437.000000;2.088410
3436.000000;2.083018
3435.000000;2.181773
3434.000000;2.254238
3433.000000;2.277381
3432.000000;2.611015
3431.000000;2.774110
3430.000000;2.214052
3429.000000;2.018457
3428.000000;1.994890
3427.000000;2.143332
3426.000000;2.521739
3425.000000;2.612412
3424.000000;2.502631
3423.000000;2.629102
3422.000000;2.811869
3421.000000;2.752274
3420.000000;2.527647
3419.000000;2.364569
3418.000000;2.313937
3417.000000;2.392313
3416.000000;2.541843
3415.000000;2.583445
3414.000000;2.549824
3413.000000;2.546973
3412.000000;2.527540
3411.000000;2.420745
3410.000000;2.444244
3409.000000;2.791661
3408.000000;2.567111
3407.000000;2.211003
3406.000000;2.142252
3405.000000;2.209067
3404.000000;2.371229
3403.000000;2.506241
3402.000000;2.625887
3401.000000;2.497483
3400.000000;2.217365
3399.000000;2.125882
3398.000000;2.185567
3397.000000;2.262967
3396.000000;2.133816
3395.000000;1.973116
3394.000000;1.871516
3393.000000;1.867916
3392.000000;1.957101
3391.000000;2.217630
3390.000000;2.919034
3389.000000;2.455126
3388.000000;2.186838
3387.000000;2.251368
3386.000000;2.423480
3385.000000;2.353694
3384.000000;2.133125
3383.000000;2.014168
3382.000000;1.944310
3381.000000;1.934251
3380.000000;1.969370
3379.000000;2.158548
3378.000000;2.580499
3377.000000;2.417749
3376.000000;2.173328
3375.000000;2.265013
3374.000000;2.772077
3373.000000;2.488071
3372.000000;2.040869
3371.000000;1.917812
3370.000000;1.898914
3369.000000;2.055337
3368.000000;2.372481
3367.000000;2.265363
3366.000000;2.155829
3365.000000;2.382602
3364.000000;3.150142
3363.000000;2.734327
3362.000000;2.376737
3361.000000;2.169515
3360.000000;2.076369
3359.000000;2.121420
3358.000000;2.063359
3357.000000;1.952958
3356.000000;1.954097
3355.000000;2.033672
3354.000000;2.155377
3353.000000;2.175387
3352.000000;2.006148
3351.000000;1.938936
3350.000000;2.003901
3349.000000;2.195451
3348.000000;2.316385
3347.000000;2.242755
3346.000000;2.519199
3345.000000;2.669166
3344.000000;2.260390
3343.000000;2.283238
3342.000000;2.353684
3341.000000;2.169072
3340.000000;2.131309
3339.000000;2.282290
3338.000000;2.356927
3337.000000;2.142780
3336.000000;1.986209
3335.000000;1.966997
3334.000000;2.066659
3333.000000;2.293298
3332.000000;2.668357
3331.000000;2.862422
3330.000000;2.697410
3329.000000;2.482909
3328.000000;2.155953
3327.000000;1.937088
3326.000000;1.838252
3325.000000;1.834169
3324.000000;1.913569
3323.000000;2.033119
3322.000000;2.126750
3321.000000;2.182824
3320.000000;2.164628
3319.000000;2.067954
3318.000000;2.016544
3317.000000;2.035682
3316.000000;2.055894
3315.000000;2.152452
3314.000000;2.398019
3313.000000;2.393496
3312.000000;2.266649
3311.000000;2.278127
3310.000000;2.344103
3309.000000;2.524975
3308.000000;2.709061
3307.000000;2.533083
3306.000000;2.525789
3305.000000;2.883499
3304.000000;2.661428
3303.000000;2.268194
3302.000000;2.113641
3301.000000;2.042012
3300.000000;1.970910
3299.000000;1.943974
3298.000000;1.992916
3297.000000;2.137669
3296.000000;2.300449
3295.000000;2.356571
3294.000000;2.722778
3293.000000;2.587276
3292.000000;2.145625
3291.000000;2.076136
3290.000000;2.140914
3289.000000;2.217074
3288.000000;2.230022
3287.000000;2.277442
3286.000000;2.441614
3285.000000;2.456723
3284.000000;2.322262
3283.000000;2.318632
3282.000000;2.430695
3281.000000;2.593260
3280.000000;2.699003
3279.000000;2.485273
3278.000000;2.279752
3277.000000;2.250014
3276.000000;2.409446
3275.000000;2.694577
3274.000000;3.110075
3273.000000;2.879293
3272.000000;2.388858
3271.000000;2.180166
3270.000000;2.075025
3269.000000;2.059484
3268.000000;2.152016
3267.000000;2.451814
3266.000000;2.821721
3265.000000;2.469391
3264.000000;2.435439
3263.000000;2.510315
3262.000000;2.245113
3261.000000;2.125462
3260.000000;2.197981
3259.000000;2.291644
3258.000000;2.205665
3257.000000;2.088048
3256.000000;2.105031
3255.000000;2.254048
3254.000000;2.263867
3253.000000;2.112994
3252.000000;2.092800
3251.000000;2.198768
3250.000000;2.449010
3249.000000;2.542161
3248.000000;2.441123
3247.000000;2.691919
3246.000000;2.393522
3245.000000;2.054431
3244.000000;2.002883
3243.000000;2.033291
3242.000000;2.041774
3241.000000;2.012060
3240.000000;2.117431
3239.000000;2.276073
3238.000000;2.131816
3237.000000;2.037373
3236.000000;2.134949
3235.000000;2.508422
3234.000000;2.613085
3233.000000;2.370587
3232.000000;2.316501
3231.000000;2.062381
3230.000000;1.860153
3229.000000;1.827551
3228.000000;1.960635
3227.000000;2.285184
3226.000000;2.496933
3225.000000;2.344847
3224.000000;2.513448
3223.000000;2.902255
3222.000000;2.558711
3221.000000;2.567365
3220.000000;2.797163
3219.000000;2.749227
3218.000000;2.537770
3217.000000;2.320840
3216.000000;2.242754
3215.000000;2.349924
3214.000000;2.489349
3213.000000;2.351916
3212.000000;2.185030
3211.000000;2.146597
3210.000000;2.220060
3209.000000;2.429338
3208.000000;2.544493
3207.000000;2.699395
3206.000000;2.788760
3205.000000;2.662564
3204.000000;3.167497
3203.000000;2.396363
3202.000000;2.025259
3201.000000;1.957744
3200.000000;2.008224
3199.000000;2.097350
3198.000000;2.034147
3197.000000;1.924193
3196.000000;1.874691
3195.000000;1.876571
3194.000000;1.885114
3193.000000;1.934553
3192.000000;2.095621
3191.000000;2.081102
3190.000000;1.892446
3189.000000;1.849559
3188.000000;1.924534
3187.000000;2.065781
3186.000000;2.189559
3185.000000;2.246608
3184.000000;2.268969
3183.000000;2.318717
3182.000000;2.497834
3181.000000;2.398517
3180.000000;2.132371
3179.000000;2.019729
3178.000000;2.041118
3177.000000;2.065361
3176.000000;1.972209
3175.000000;1.910265
3174.000000;1.948471
3173.000000;2.065896
3172.000000;2.207886
3171.000000;2.244210
3170.000000;2.179141
3169.000000;2.132444
3168.000000;2.157506
3167.000000;2.366525
3166.000000;2.557481
3165.000000;2.270749
3164.000000;2.124028
3163.000000;2.086753
3162.000000;2.078514
3161.000000;2.094998
3160.000000;2.180190
3159.000000;2.510706
3158.000000;2.708413
3157.000000;2.535471
3156.000000;2.738286
3155.000000;3.046284
3154.000000;2.828824
3153.000000;2.956086
3152.000000;2.801443
3151.000000;2.278209
3150.000000;2.067080
3149.000000;2.032090
3148.000000;2.151952
3147.000000;2.434097
3146.000000;2.769608
3145.000000;3.179209
3144.000000;2.773743
3143.000000;2.478320
3142.000000;2.318933
3141.000000;2.159610
3140.000000;2.115733
3139.000000;2.257806
3138.000000;2.575342
3137.000000;2.537462
3136.000000;2.262670
3135.000000;2.105531
3134.000000;2.038168
3133.000000;2.121740
3132.000000;2.502768
3131.000000;2.931344
3130.000000;2.436620
3129.000000;2.218505
3128.000000;2.203559
3127.000000;2.374217
3126.000000;3.180626
3125.000000;2.788416
3124.000000;2.602113
3123.000000;3.099070
3122.000000;2.313777
3121.000000;1.995473
3120.000000;1.926391
3119.000000;1.988007
3118.000000;2.128298
3117.000000;2.208114
3116.000000;2.242843
3115.000000;2.224306
3114.000000;2.194688
3113.000000;2.220349
3112.000000;2.325964
3111.000000;2.761053
3110.000000;3.259372
3109.000000;2.608345
3108.000000;2.670706
3107.000000;2.913690
3106.000000;2.384284
3105.000000;2.091285
3104.000000;2.043954
3103.000000;2.162604
3102.000000;2.376646
3101.000000;2.422794
3100.000000;2.401294
3099.000000;2.602863
3098.000000;2.628166
3097.000000;2.329542
3096.000000;2.218536
3095.000000;2.249760
3094.000000;2.294911
3093.000000;2.243598
3092.000000;2.143676
3091.000000;2.080502
3090.000000;2.216014
3089.000000;2.507159
3088.000000;2.300970
3087.000000;2.181002
3086.000000;2.342744
3085.000000;2.723154
3084.000000;2.778385
3083.000000;2.604871
3082.000000;2.478047
3081.000000;2.326263
3080.000000;2.340630
3079.000000;2.441358
3078.000000;2.567387
3077.000000;2.523503
3076.000000;2.304929
3075.000000;2.266074
3074.000000;2.397772
3073.000000;2.403601
3072.000000;2.211003
3071.000000;2.047045
3070.000000;1.963246
3069.000000;1.939221
3068.000000;1.943286
3067.000000;1.965691
3066.000000;1.998900
3065.000000;2.026020
3064.000000;2.045538
3063.000000;2.089217
3062.000000;2.181020
3061.000000;2.303905
3060.000000;2.448634
3059.000000;2.358853
3058.000000;2.152351
3057.000000;2.134137
3056.000000;2.293132
3055.000000;2.611383
3054.000000;3.039986
3053.000000;2.871523
3052.000000;2.738314
3051.000000;3.054492
3050.000000;3.204990
3049.000000;2.676710
3048.000000;2.495155
3047.000000;2.527291
3046.000000;2.401768
3045.000000;2.192449
3044.000000;2.160466
3043.000000;2.424401
3042.000000;2.678242
3041.000000;2.411077
3040.000000;2.284885
3039.000000;2.173585
3038.000000;2.133696
3037.000000;2.263001
3036.000000;2.626928
3035.000000;2.650249
3034.000000;2.340893
3033.000000;2.447822
3032.000000;2.775953
3031.000000;2.533157
3030.000000;2.327289
3029.000000;2.300967
3028.000000;2.295845
3027.000000;2.275016
3026.000000;2.271453
3025.000000;2.241953
3024.000000;2.127773
3023.000000;2.018871
3022.000000;1.976244
3021.000000;1.990270
3020.000000;2.042928
3019.000000;2.088091
3018.000000;2.113951
3017.000000;2.112428
3016.000000;2.075251
3015.000000;1.994597
3014.000000;1.970249
3013.000000;2.016234
3012.000000;2.259111
3011.000000;2.934736
3010.000000;2.410723
3009.000000;2.184513
3008.000000;2.187321
3007.000000;2.407067
3006.000000;2.778377
3005.000000;2.334877
3004.000000;2.134856
3003.000000;2.095206
3002.000000;2.102412
3001.000000;2.073139
3000.000000;2.035491
2999.000000;2.017701
2998.000000;2.052401
2997.000000;2.168322
2996.000000;2.476605
2995.000000;3.094187
2994.000000;3.018750
2993.000000;2.895708
2992.000000;2.858378
2991.000000;3.439919
2990.000000;2.615923
2989.000000;2.256796
2988.000000;2.220327
2987.000000;2.272967
2986.000000;2.444049
2985.000000;2.396470
2984.000000;2.179259
2983.000000;2.115544
2982.000000;2.185635
2981.000000;2.513483
2980.000000;3.068781
2979.000000;2.611782
2978.000000;2.437245
2977.000000;2.234606
2976.000000;2.063589
2975.000000;2.055730
2974.000000;2.194459
2973.000000;2.345148
2972.000000;2.261552
2971.000000;2.216244
2970.000000;2.262716
2969.000000;2.166332
2968.000000;2.051200
2967.000000;2.059609
2966.000000;2.122850
2965.000000;2.183119
2964.000000;2.233735
2963.000000;2.201609
2962.000000;2.136633
2961.000000;2.175311
2960.000000;2.322104
2959.000000;2.394360
2958.000000;2.277256
2957.000000;2.154196
2956.000000;2.125215
2955.000000;2.173264
2954.000000;2.179969
2953.000000;2.102541
2952.000000;2.085920
2951.000000;2.152321
2950.000000;2.193108
2949.000000;2.170250
2948.000000;2.140084
2947.000000;2.117199
2946.000000;2.074674
2945.000000;2.018818
2944.000000;2.125401
2943.000000;2.318941
2942.000000;2.160708
2941.000000;2.072861
2940.000000;2.278951
2939.000000;2.849492
2938.000000;2.653534
2937.000000;2.449445
2936.000000;2.455392
2935.000000;2.425153
2934.000000;2.458018
2933.000000;2.684987
2932.000000;3.359385
2931.000000;2.727702
2930.000000;2.437551
2929.000000;2.451001
2928.000000;2.638767
2927.000000;2.650906
2926.000000;2.328842
2925.000000;2.110601
2924.000000;2.036137
2923.000000;2.126485
2922.000000;2.453627
2921.000000;3.028630
2920.000000;2.968764
2919.000000;2.870948
2918.000000;2.818094
2917.000000;2.748336
2916.000000;2.547869
2915.000000;2.449471
2914.000000;2.763039
2913.000000;2.658986
2912.000000;2.417191
2911.000000;2.411752
2910.000000;2.209725
2909.000000;2.190527
2908.000000;2.490716
2907.000000;2.377529
2906.000000;2.161277
2905.000000;2.147750
2904.000000;2.190406
2903.000000;2.269390
2902.000000;2.453299
2901.000000;2.771914
2900.000000;3.014363
2899.000000;2.565905
2898.000000;2.186587
2897.000000;2.069991
2896.000000;2.112608
2895.000000;2.214066
2894.000000;2.283614
2893.000000;2.392652
2892.000000;2.525101
2891.000000;2.321708
2890.000000;2.078919
2889.000000;1.977030
2888.000000;2.017811
2887.000000;2.153409
2886.000000;2.159454
2885.000000;2.135144
2884.000000;2.195305
2883.000000;2.147688
2882.000000;2.073703
2881.000000;2.109955
2880.000000;2.157688
2879.000000;2.106871
2878.000000;2.100150
2877.000000;2.221775
2876.000000;2.382709
2875.000000;2.402267
2874.000000;2.359032
2873.000000;2.367137
2872.000000;2.558623
2871.000000;2.538300
2870.000000;2.171324
2869.000000;2.036485
2868.000000;2.060958
2867.000000;2.239866
2866.000000;2.792221
2865.000000;3.033564
2864.000000;2.368112
2863.000000;2.115528
2862.000000;2.033052
2861.000000;2.045471
2860.000000;2.069461
2859.000000;2.165467
2858.000000;2.621560
2857.000000;2.821154
2856.000000;2.649737
2855.000000;2.801752
2854.000000;2.420536
2853.000000;2.171027
2852.000000;2.051802
2851.000000;2.030752
2850.000000;2.224922
2849.000000;2.601337
2848.000000;2.667991
2847.000000;2.470625
2846.000000;2.112565
2845.000000;1.989408
2844.000000;2.082503
2843.000000;2.308023
2842.000000;2.605052
2841.000000;2.611419
2840.000000;2.257691
2839.000000;2.019147
2838.000000;1.945606
2837.000000;1.981947
2836.000000;2.107832
2835.000000;2.122298
2834.000000;2.013409
2833.000000;2.017439
2832.000000;2.190383
2831.000000;2.513986
2830.000000;2.569443
2829.000000;2.419979
2828.000000;2.511407
2827.000000;2.864944
2826.000000;2.639124
2825.000000;2.363223
2824.000000;2.239171
2823.000000;2.136582
2822.000000;2.007539
2821.000000;1.888191
2820.000000;1.854867
2819.000000;2.000087
2818.000000;2.229362
2817.000000;2.095884
2816.000000;1.998337
2815.000000;2.050250
2814.000000;2.120477
2813.000000;2.106557
2812.000000;2.002460
2811.000000;1.906289
2810.000000;1.859862
2809.000000;1.870879
2808.000000;1.912292
2807.000000;1.980436
2806.000000;2.075575
2805.000000;2.293427
2804.000000;2.657434
2803.000000;2.326274
2802.000000;2.150002
2801.000000;2.123526
2800.000000;2.003692
2799.000000;1.930572
2798.000000;2.002488
2797.000000;2.190662
2796.000000;2.196194
2795.000000;1.975199
2794.000000;1.794522
2793.000000;1.715236
2792.000000;1.735799
2791.000000;1.836107
2790.000000;1.991534
2789.000000;2.195309
2788.000000;2.342399
2787.000000;2.250216
2786.000000;2.110991
2785.000000;2.021097
2784.000000;1.969823
2783.000000;1.939282
2782.000000;1.875651
2781.000000;1.774620
2780.000000;1.706799
2779.000000;1.719600
2778.000000;1.823413
2777.000000;1.994630
2776.000000;2.145181
2775.000000;2.163081
2774.000000;2.066084
2773.000000;1.993761
2772.000000;2.024324
2771.000000;2.195737
2770.000000;2.376582
2769.000000;2.247688
2768.000000;2.055838
2767.000000;1.931906
2766.000000;1.929865
2765.000000;2.087134
2764.000000;2.279434
2763.000000;2.201727
2762.000000;2.047363
2761.000000;1.953407
2760.000000;1.929854
2759.000000;1.979462
2758.000000;2.058488
2757.000000;2.151819
2756.000000;2.238728
2755.000000;2.323307
2754.000000;2.476673
2753.000000;2.277821
2752.000000;2.028171
2751.000000;1.953628
2750.000000;2.001259
2749.000000;2.145586
2748.000000;2.252070
2747.000000;2.189748
2746.000000;2.093129
2745.000000;2.057452
2744.000000;2.051886
2743.000000;2.032832
2742.000000;2.010917
2741.000000;1.994211
2740.000000;1.998242
2739.000000;2.058001
2738.000000;2.270800
2737.000000;2.725433
2736.000000;2.730696
2735.000000;2.477983
2734.000000;2.444342
2733.000000;2.553198
2732.000000;2.577904
2731.000000;2.376125
2730.000000;2.243922
2729.000000;2.361813
2728.000000;2.686714
2727.000000;2.413937
2726.000000;2.248433
2725.000000;2.282770
2724.000000;2.211470
2723.000000;2.138237
2722.000000;2.196871
2721.000000;2.308418
2720.000000;2.325203
2719.000000;2.242884
2718.000000;2.033269
2717.000000;1.875906
2716.000000;1.839836
2715.000000;1.880177
2714.000000;1.908443
2713.000000;1.911523
2712.000000;1.950959
2711.000000;2.014348
2710.000000;2.111045
2709.000000;2.204466
2708.000000;2.173722
2707.000000;2.130488
2706.000000;2.225882
2705.000000;2.431884
2704.000000;2.449755
2703.000000;2.772443
2702.000000;2.682014
2701.000000;2.065496
2700.000000;1.819867
2699.000000;1.728412
2698.000000;1.750016
2697.000000;1.871368
2696.000000;2.057024
2695.000000;2.246928
2694.000000;2.481551
2693.000000;2.433017
2692.000000;2.187664
2691.000000;2.093844
2690.000000;2.066977
2689.000000;1.983866
2688.000000;1.871928
2687.000000;1.838917
2686.000000;1.929684
2685.000000;2.201303
2684.000000;2.528876
2683.000000;2.536882
2682.000000;2.512361
2681.000000;2.324452
2680.000000;2.215204
2679.000000;2.168426
2678.000000;2.174859
2677.000000;2.272876
2676.000000;2.377740
2675.000000;2.296102
2674.000000;2.043843
2673.000000;1.874993
2672.000000;1.852994
2671.000000;1.902524
2670.000000;1.895440
2669.000000;1.890829
2668.000000;1.971277
2667.000000;2.042863
2666.000000;2.048174
2665.000000;2.065838
2664.000000;2.219440
2663.000000;2.394168
2662.000000;2.034453
2661.000000;1.849931
2660.000000;1.841613
2659.000000;1.889130
2658.000000;1.859589
2657.000000;1.744481
2656.000000;1.666656
2655.000000;1.676821
2654.000000;1.787919
2653.000000;2.015673
2652.000000;2.197160
2651.000000;2.090025
2650.000000;2.020394
2649.000000;2.118333
2648.000000;2.277419
2647.000000;2.257806
2646.000000;2.191785
2645.000000;2.220444
2644.000000;2.232467
2643.000000;2.120871
2642.000000;2.130293
2641.000000;2.379887
2640.000000;2.629793
2639.000000;2.609915
2638.000000;2.491732
2637.000000;2.441819
2636.000000;2.625924
2635.000000;2.579804
2634.000000;2.259876
2633.000000;2.223017
2632.000000;2.351961
2631.000000;2.439417
2630.000000;2.400484
2629.000000;2.312717
2628.000000;2.130968
2627.000000;1.957870
2626.000000;1.876947
2625.000000;1.884624
2624.000000;1.996125
2623.000000;2.257998
2622.000000;2.663225
2621.000000;2.756849
2620.000000;2.362097
2619.000000;2.138443
2618.000000;2.133380
2617.000000;2.380444
2616.000000;2.719930
2615.000000;2.420722
2614.000000;2.274354
2613.000000;2.191504
2612.000000;2.085103
2611.000000;2.011930
2610.000000;2.015574
2609.000000;2.183273
2608.000000;2.509937
2607.000000;2.828757
2606.000000;2.508632
2605.000000;2.038014
2604.000000;1.841453
2603.000000;1.754673
2602.000000;1.723908
2601.000000;1.731303
2600.000000;1.775258
2599.000000;1.865663
2598.000000;1.980405
2597.000000;2.056934
2596.000000;2.107911
2595.000000;2.279951
2594.000000;2.403439
2593.000000;2.214095
2592.000000;2.125908
2591.000000;2.195583
2590.000000;2.299807
2589.000000;2.159075
2588.000000;1.989952
2587.000000;1.965592
2586.000000;2.063694
2585.000000;2.218514
2584.000000;2.260612
2583.000000;2.128392
2582.000000;1.996704
2581.000000;1.950400
2580.000000;2.002254
2579.000000;2.061083
2578.000000;1.996057
2577.000000;1.940714
2576.000000;2.009260
2575.000000;2.288262
2574.000000;2.567534
2573.000000;2.624307
2572.000000;2.666177
2571.000000;2.179884
2570.000000;1.931360
2569.000000;1.862879
2568.000000;1.965869
2567.000000;2.301653
2566.000000;2.753594
2565.000000;2.685305
2564.000000;2.536683
2563.000000;3.050918
2562.000000;2.551217
2561.000000;2.115509
2560.000000;1.975359
2559.000000;1.958036
2558.000000;2.039800
2557.000000;2.151948
2556.000000;2.203109
2555.000000;2.217820
2554.000000;2.261125
2553.000000;2.244399
2552.000000;2.148465
2551.000000;2.029713
2550.000000;1.918478
2549.000000;1.839985
2548.000000;1.785786
2547.000000;1.770276
2546.000000;1.814409
2545.000000;2.041475
2544.000000;2.282092
2543.000000;2.027021
2542.000000;1.926368
2541.000000;2.041981
2540.000000;2.314447
2539.000000;2.329111
2538.000000;2.404722
2537.000000;2.914585
2536.000000;2.584925
2535.000000;2.473840
2534.000000;2.414500
2533.000000;2.109682
2532.000000;1.880831
2531.000000;1.790758
2530.000000;1.833820
2529.000000;1.994271
2528.000000;2.293482
2527.000000;2.658156
2526.000000;2.319808
2525.000000;2.038176
2524.000000;1.918410
2523.000000;1.934265
2522.000000;2.133534
2521.000000;2.444152
2520.000000;2.178479
2519.000000;1.962178
2518.000000;1.868732
2517.000000;1.786524
2516.000000;1.769688
2515.000000;1.852709
2514.000000;1.920186
2513.000000;1.859875
2512.000000;1.781150
2511.000000;1.741526
2510.000000;1.752600
2509.000000;1.810431
2508.000000;1.884428
2507.000000;1.930719
2506.000000;1.918526
2505.000000;1.867884
2504.000000;1.806247
2503.000000;1.750178
2502.000000;1.721614
2501.000000;1.725609
2500.000000;1.742520
2499.000000;1.762362
2498.000000;1.796679
2497.000000;1.802102
2496.000000;1.741725
2495.000000;1.688809
2494.000000;1.697733
2493.000000;1.809019
2492.000000;2.019954
2491.000000;2.088342
2490.000000;2.023308
2489.000000;1.997703
2488.000000;1.965082
2487.000000;1.972596
2486.000000;1.955544
2485.000000;1.861019
2484.000000;1.766788
2483.000000;1.725928
2482.000000;1.751344
2481.000000;1.826846
2480.000000;1.882958
2479.000000;1.850907
2478.000000;1.823576
2477.000000;1.878669
2476.000000;1.973832
2475.000000;1.966542
2474.000000;1.880219
2473.000000;1.858698
2472.000000;2.088367
2471.000000;2.681734
2470.000000;2.059787
2469.000000;1.965823
2468.000000;2.148958
2467.000000;2.470820
2466.000000;2.213408
2465.000000;1.966850
2464.000000;1.818685
2463.000000;1.749949
2462.000000;1.767683
2461.000000;1.865890
2460.000000;2.057401
2459.000000;2.357382
2458.000000;2.284359
2457.000000;2.335374
2456.000000;2.648481
2455.000000;2.195917
2454.000000;2.110715
2453.000000;2.436883
2452.000000;2.346801
2451.000000;2.153811
2450.000000;2.243579
2449.000000;2.317025
2448.000000;2.226354
2447.000000;2.486117
2446.000000;2.285467
2445.000000;1.862432
2444.000000;1.711415
2443.000000;1.707747
2442.000000;1.810417
2441.000000;1.873397
2440.000000;1.810588
2439.000000;1.720695
2438.000000;1.680375
2437.000000;1.768012
2436.000000;1.941026
2435.000000;1.984633
2434.000000;2.467453
2433.000000;2.399612
2432.000000;1.930364
2431.000000;1.893118
2430.000000;1.831021
2429.000000;1.803453
2428.000000;1.873179
2427.000000;2.114778
2426.000000;2.125229
2425.000000;1.905009
2424.000000;1.820784
2423.000000;1.817801
2422.000000;1.886081
2421.000000;2.179176
2420.000000;2.560387
2419.000000;1.972507
2418.000000;1.855695
2417.000000;1.835013
2416.000000;1.933546
2415.000000;2.175627
2414.000000;2.012942
2413.000000;1.811040
2412.000000;1.816498
2411.000000;1.938498
2410.000000;2.099055
2409.000000;2.474677
2408.000000;2.202403
2407.000000;1.783062
2406.000000;1.658179
2405.000000;1.661093
2404.000000;1.775379
2403.000000;1.838539
2402.000000;1.777172
2401.000000;1.768623
2400.000000;1.829808
2399.000000;1.812378
2398.000000;1.703573
2397.000000;1.614386
2396.000000;1.591140
2395.000000;1.662649
2394.000000;1.851479
2393.000000;2.073666
2392.000000;2.000292
2391.000000;1.874280
2390.000000;1.842652
2389.000000;1.844254
2388.000000;1.846866
2387.000000;1.879941
2386.000000;1.961273
2385.000000;2.012876
2384.000000;1.941815
2383.000000;1.875674
2382.000000;1.989665
2381.000000;2.466800
2380.000000;2.477409
2379.000000;2.347324
2378.000000;2.166301
2377.000000;1.963015
2376.000000;2.000050
2375.000000;2.290409
2374.000000;2.777144
2373.000000;2.473710
2372.000000;2.288158
2371.000000;2.123503
2370.000000;2.091299
2369.000000;2.170456
2368.000000;2.127799
2367.000000;1.998105
2366.000000;1.950025
2365.000000;1.996471
2364.000000;2.106893
2363.000000;2.347044
2362.000000;2.784761
2361.000000;2.576067
2360.000000;2.330709
2359.000000;2.170130
2358.000000;2.115086
2357.000000;2.228797
2356.000000;2.603101
2355.000000;2.534296
2354.000000;2.173108
2353.000000;2.043408
2352.000000;2.021625
2351.000000;2.160194
2350.000000;2.948272
2349.000000;2.670211
2348.000000;2.194247
2347.000000;1.986771
2346.000000;1.878217
2345.000000;2.107450
2344.000000;2.391042
2343.000000;2.144169
2342.000000;2.355794
2341.000000;2.875538
2340.000000;2.310952
2339.000000;2.234854
2338.000000;2.325413
2337.000000;2.373653
2336.000000;2.288089
2335.000000;2.136486
2334.000000;2.079097
2333.000000;2.117063
2332.000000;2.146213
2331.000000;2.109268
2330.000000;2.127454
2329.000000;2.215999
2328.000000;2.200472
2327.000000;2.145464
2326.000000;2.210227
2325.000000;2.407250
2324.000000;2.423352
2323.000000;2.299604
2322.000000;2.280192
2321.000000;2.291304
2320.000000;2.490548
2319.000000;2.752973
2318.000000;2.321766
2317.000000;1.976313
2316.000000;1.780650
2315.000000;1.684027
2314.000000;1.700167
2313.000000;1.782756
2312.000000;1.893059
2311.000000;2.126656
2310.000000;2.176324
2309.000000;1.954596
2308.000000;1.823963
2307.000000;1.773560
2306.000000;1.895334
2305.000000;2.083662
2304.000000;1.904469
2303.000000;1.730788
2302.000000;1.722768
2301.000000;2.116022
2300.000000;2.280578
2299.000000;1.851592
2298.000000;1.874750
2297.000000;2.173934
2296.000000;2.654221
2295.000000;2.281140
2294.000000;2.117728
2293.000000;1.934235
2292.000000;1.854433
2291.000000;1.935394
2290.000000;2.521386
2289.000000;2.134921
2288.000000;1.807935
2287.000000;1.747960
2286.000000;1.808451
2285.000000;1.952229
2284.000000;2.042081
2283.000000;1.893655
2282.000000;1.827740
2281.000000;1.860857
2280.000000;1.835101
2279.000000;1.770287
2278.000000;1.832149
2277.000000;2.078499
2276.000000;2.232739
2275.000000;2.141714
2274.000000;2.222490
2273.000000;2.157026
2272.000000;2.015723
2271.000000;1.992966
2270.000000;2.296487
2269.000000;2.582669
2268.000000;2.243036
2267.000000;2.453074
2266.000000;2.160267
2265.000000;1.878408
2264.000000;1.857814
2263.000000;2.022781
2262.000000;2.383475
2261.000000;2.517627
2260.000000;2.531113
2259.000000;2.411256
2258.000000;2.350931
2257.000000;2.355073
2256.000000;2.389945
2255.000000;2.379067
2254.000000;2.231563
2253.000000;2.050017
2252.000000;1.925465
2251.000000;1.871557
2250.000000;1.811857
2249.000000;1.725614
2248.000000;1.666163
2247.000000;1.635917
2246.000000;1.597168
2245.000000;1.557806
2244.000000;1.557996
2243.000000;1.617040
2242.000000;1.748844
2241.000000;1.957231
2240.000000;2.180086
2239.000000;2.188745
2238.000000;2.096811
2237.000000;2.103453
2236.000000;1.971811
2235.000000;1.785007
2234.000000;1.700996
2233.000000;1.708930
2232.000000;1.836084
2231.000000;2.191737
2230.000000;2.036020
2229.000000;1.773198
2228.000000;1.673090
2227.000000;1.620186
2226.000000;1.590025
2225.000000;1.571639
2224.000000;1.595234
2223.000000;1.711634
2222.000000;1.949635
2221.000000;2.220789
2220.000000;2.237613
2219.000000;2.099440
2218.000000;2.046344
2217.000000;2.091381
2216.000000;2.155176
2215.000000;2.122664
2214.000000;1.980669
2213.000000;1.826368
2212.000000;1.700598
2211.000000;1.657993
2210.000000;1.750183
2209.000000;1.973263
2208.000000;1.887555
2207.000000;1.805826
2206.000000;1.955415
2205.000000;2.264730
2204.000000;1.883385
2203.000000;1.759782
2202.000000;1.808654
2201.000000;1.936798
2200.000000;1.932130
2199.000000;1.749895
2198.000000;1.612453
2197.000000;1.600226
2196.000000;1.731961
2195.000000;1.857276
2194.000000;1.790160
2193.000000;1.782947
2192.000000;1.921273
2191.000000;2.074763
2190.000000;2.010421
2189.000000;1.942896
2188.000000;1.954763
2187.000000;2.076909
2186.000000;2.215064
2185.000000;1.889773
2184.000000;1.682524
2183.000000;1.661286
2182.000000;1.811422
2181.000000;2.088380
2180.000000;1.933098
2179.000000;1.855117
2178.000000;1.856923
2177.000000;1.853454
2176.000000;1.898756
2175.000000;2.062089
2174.000000;2.283212
2173.000000;2.207442
2172.000000;2.137836
2171.000000;2.333091
2170.000000;2.644244
2169.000000;2.260050
2168.000000;2.169006
2167.000000;2.244585
2166.000000;2.320842
2165.000000;2.147931
2164.000000;1.867183
2163.000000;1.648454
2162.000000;1.549915
2161.000000;1.583094
2160.000000;1.866224
2159.000000;2.205207
2158.000000;1.761728
2157.000000;1.618794
2156.000000;1.671734
2155.000000;1.831808
2154.000000;1.904150
2153.000000;1.786998
2152.000000;1.814105
2151.000000;2.113154
2150.000000;2.203797
2149.000000;1.982881
2148.000000;1.975292
2147.000000;1.904957
2146.000000;1.786172
2145.000000;1.731239
2144.000000;1.768282
2143.000000;1.871661
2142.000000;1.930486
2141.000000;1.870457
2140.000000;1.817408
2139.000000;1.878691
2138.000000;1.924211
2137.000000;1.782123
2136.000000;1.665983
2135.000000;1.670199
2134.000000;1.768123
2133.000000;1.788126
2132.000000;1.639887
2131.000000;1.517301
2130.000000;1.516673
2129.000000;1.670024
2128.000000;1.870264
2127.000000;1.818555
2126.000000;1.939982
2125.000000;2.318620
2124.000000;1.706004
2123.000000;1.569374
2122.000000;1.608985
2121.000000;1.760647
2120.000000;1.920986
2119.000000;1.991701
2118.000000;1.920598
2117.000000;1.855790
2116.000000;2.003410
2115.000000;2.469852
2114.000000;2.203565
2113.000000;2.029467
2112.000000;2.259907
2111.000000;2.243807
2110.000000;2.187538
2109.000000;1.982018
2108.000000;1.711896
2107.000000;1.656834
2106.000000;1.787288
2105.000000;2.256221
2104.000000;2.582940
2103.000000;2.285225
2102.000000;2.178276
2101.000000;2.056453
2100.000000;2.018420
2099.000000;2.160854
2098.000000;3.027188
2097.000000;1.931988
2096.000000;1.680321
2095.000000;1.598843
2094.000000;1.638999
2093.000000;1.707375
2092.000000;1.681345
2091.000000;1.628840
2090.000000;1.653366
2089.000000;1.783198
2088.000000;1.875079
2087.000000;1.863024
2086.000000;1.935253
2085.000000;1.802306
2084.000000;1.602976
2083.000000;1.469174
2082.000000;1.375151
2081.000000;1.350823
2080.000000;1.406183
2079.000000;1.532918
2078.000000;1.676613
2077.000000;1.758237
2076.000000;2.008260
2075.000000;2.100279
2074.000000;1.701706
2073.000000;1.628098
2072.000000;1.739495
2071.000000;1.852290
2070.000000;1.944464
2069.000000;2.109711
2068.000000;2.128524
2067.000000;1.992269
2066.000000;1.736546
2065.000000;1.539606
2064.000000;1.468132
2063.000000;1.514539
2062.000000;1.643766
2061.000000;1.790219
2060.000000;1.902586
2059.000000;1.951323
2058.000000;1.938540
2057.000000;1.918737
2056.000000;1.942818
2055.000000;2.102385
2054.000000;2.203429
2053.000000;2.058061
2052.000000;1.986640
2051.000000;2.021122
2050.000000;1.953577
2049.000000;1.850479
2048.000000;1.911899
2047.000000;1.879959
2046.000000;1.664495
2045.000000;1.566064
2044.000000;1.599678
2043.000000;1.758984
2042.000000;2.042430
2041.000000;2.487953
2040.000000;2.526081
2039.000000;2.135499
2038.000000;2.024704
2037.000000;1.962587
2036.000000;1.853228
2035.000000;1.865578
2034.000000;1.844147
2033.000000;1.618580
2032.000000;1.513108
2031.000000;1.560020
2030.000000;1.710026
2029.000000;1.793593
2028.000000;1.741214
2027.000000;1.692944
2026.000000;1.711928
2025.000000;1.792047
2024.000000;1.835216
2023.000000;1.885608
2022.000000;1.930154
2021.000000;1.767701
2020.000000;1.626428
2019.000000;1.595061
2018.000000;1.647567
2017.000000;1.717000
2016.000000;1.696708
2015.000000;1.611121
2014.000000;1.564800
2013.000000;1.566544
2012.000000;1.583062
2011.000000;1.599293
2010.000000;1.626593
2009.000000;1.685417
2008.000000;1.794129
2007.000000;1.885347
2006.000000;1.819458
2005.000000;1.749524
2004.000000;1.828375
2003.000000;1.921217
2002.000000;1.862714
2001.000000;1.873485
2000.000000;2.003717
1999.000000;1.961273
1998.000000;1.817393
1997.000000;1.838166
1996.000000;2.168646
1995.000000;1.857692
1994.000000;1.704243
1993.000000;1.787414
1992.000000;1.878677
1991.000000;1.984273
1990.000000;2.416151
1989.000000;2.297587
1988.000000;2.261352
1987.000000;2.455454
1986.000000;2.188612
1985.000000;2.120367
1984.000000;2.058138
1983.000000;2.027065
1982.000000;2.059976
1981.000000;1.973202
1980.000000;1.846070
1979.000000;1.764723
1978.000000;1.719562
1977.000000;1.762328
1976.000000;1.896143
1975.000000;1.946028
1974.000000;1.861927
1973.000000;1.716922
1972.000000;1.547608
1971.000000;1.442572
1970.000000;1.442618
1969.000000;1.554379
1968.000000;1.749496
1967.000000;1.911883
1966.000000;1.878066
1965.000000;1.756838
1964.000000;1.698481
1963.000000;1.727984
1962.000000;1.717869
1961.000000;1.580439
1960.000000;1.498733
1959.000000;1.545282
1958.000000;1.802293
1957.000000;2.280396
1956.000000;2.205851
1955.000000;2.172792
1954.000000;1.957356
1953.000000;1.846027
1952.000000;1.941713
1951.000000;2.008278
1950.000000;1.969400
1949.000000;2.023815
1948.000000;2.090493
1947.000000;2.061096
1946.000000;1.751907
1945.000000;1.519032
1944.000000;1.437132
1943.000000;1.466532
1942.000000;1.571453
1941.000000;1.581995
1940.000000;1.492377
1939.000000;1.481444
1938.000000;1.612538
1937.000000;1.959383
1936.000000;2.756722
1935.000000;2.216273
1934.000000;2.046461
1933.000000;2.021494
1932.000000;2.182405
1931.000000;1.941966
1930.000000;1.747685
1929.000000;1.723082
1928.000000;1.653777
1927.000000;1.598263
1926.000000;1.665478
1925.000000;1.799685
1924.000000;1.885190
1923.000000;1.882293
1922.000000;1.755213
1921.000000;1.557027
1920.000000;1.398555
1919.000000;1.319372
1918.000000;1.304539
1917.000000;1.293273
1916.000000;1.266503
1915.000000;1.278452
1914.000000;1.348336
1913.000000;1.436975
1912.000000;1.544042
1911.000000;1.772515
1910.000000;1.933043
1909.000000;1.738932
1908.000000;1.699156
1907.000000;1.749504
1906.000000;1.744580
1905.000000;1.774964
1904.000000;2.064272
1903.000000;1.919135
1902.000000;1.575759
1901.000000;1.531716
1900.000000;1.635668
1899.000000;1.929410
1898.000000;1.997122
1897.000000;1.702543
1896.000000;1.547462
1895.000000;1.521008
1894.000000;1.638530
1893.000000;1.764959
1892.000000;1.777823
1891.000000;2.034145
1890.000000;1.999020
1889.000000;1.701891
1888.000000;1.561383
1887.000000;1.440241
1886.000000;1.360114
1885.000000;1.346062
1884.000000;1.383598
1883.000000;1.431492
1882.000000;1.417142
1881.000000;1.365530
1880.000000;1.362529
1879.000000;1.428122
1878.000000;1.530047
1877.000000;1.581526
1876.000000;1.522696
1875.000000;1.443880
1874.000000;1.429037
1873.000000;1.513080
1872.000000;1.701821
1871.000000;2.113740
1870.000000;2.269727
1869.000000;1.821639
1868.000000;1.652301
1867.000000;1.631778
1866.000000;1.712343
1865.000000;1.845823
1864.000000;1.924097
1863.000000;1.830086
1862.000000;1.691887
1861.000000;1.595155
1860.000000;1.600629
1859.000000;1.758776
1858.000000;2.098573
1857.000000;2.319145
1856.000000;2.090310
1855.000000;1.809816
1854.000000;1.582766
1853.000000;1.455633
1852.000000;1.422824
1851.000000;1.459183
1850.000000;1.534616
1849.000000;1.634061
1848.000000;1.718398
1847.000000;1.663583
1846.000000;1.543533
1845.000000;1.497738
1844.000000;1.558009
1843.000000;1.679816
1842.000000;1.716423
1841.000000;1.674046
1840.000000;1.688786
1839.000000;1.825896
1838.000000;2.034365
1837.000000;1.973644
1836.000000;1.705062
1835.000000;1.533638
1834.000000;1.510648
1833.000000;1.646513
1832.000000;2.122097
1831.000000;2.096396
1830.000000;1.745857
1829.000000;1.791299
1828.000000;1.879983
1827.000000;1.648110
1826.000000;1.640257
1825.000000;1.882607
1824.000000;2.233172
1823.000000;2.105130
1822.000000;2.047467
1821.000000;2.023757
1820.000000;2.362740
1819.000000;2.695217
1818.000000;2.077352
1817.000000;2.138911
1816.000000;2.310245
1815.000000;2.043332
1814.000000;1.662555
1813.000000;1.420820
1812.000000;1.302648
1811.000000;1.264883
1810.000000;1.262285
1809.000000;1.276327
1808.000000;1.330696
1807.000000;1.450361
1806.000000;1.587369
1805.000000;1.573154
1804.000000;1.400222
1803.000000;1.267279
1802.000000;1.241104
1801.000000;1.293925
1800.000000;1.346933
1799.000000;1.375872
1798.000000;1.429753
1797.000000;1.525440
1796.000000;1.694139
1795.000000;1.914246
1794.000000;1.965595
1793.000000;2.305375
1792.000000;2.425325
1791.000000;1.751946
1790.000000;1.680275
1789.000000;1.801094
1788.000000;2.000294
1787.000000;1.847682
1786.000000;1.587010
1785.000000;1.422471
1784.000000;1.376514
1783.000000;1.472277
1782.000000;1.744144
1781.000000;1.999784
1780.000000;1.869992
1779.000000;1.775834
1778.000000;1.699457
1777.000000;1.664441
1776.000000;1.734093
1775.000000;1.896722
1774.000000;2.097047
1773.000000;2.234757
1772.000000;2.257384
1771.000000;2.086037
1770.000000;1.814794
1769.000000;1.667088
1768.000000;1.702139
1767.000000;1.870956
1766.000000;2.355505
1765.000000;2.210469
1764.000000;1.670381
1763.000000;1.521810
1762.000000;1.461547
1761.000000;1.396100
1760.000000;1.311867
1759.000000;1.256899
1758.000000;1.220629
1757.000000;1.203920
1756.000000;1.246758
1755.000000;1.406343
1754.000000;1.714597
1753.000000;2.129828
1752.000000;2.237060
1751.000000;1.931854
1750.000000;1.865314
1749.000000;1.853353
1748.000000;1.791821
1747.000000;1.673473
1746.000000;1.491968
1745.000000;1.415399
1744.000000;1.463474
1743.000000;1.569468
1742.000000;1.619025
1741.000000;1.573765
1740.000000;1.523898
1739.000000;1.598004
1738.000000;1.737967
1737.000000;1.683885
1736.000000;1.633864
1735.000000;1.569749
1734.000000;1.482637
1733.000000;1.553517
1732.000000;1.660648
1731.000000;1.613151
1730.000000;1.736003
1729.000000;2.033011
1728.000000;1.651413
1727.000000;1.476728
1726.000000;1.547773
1725.000000;1.774211
1724.000000;1.980359
1723.000000;1.887161
1722.000000;2.026123
1721.000000;2.744221
1720.000000;2.147994
1719.000000;2.211160
1718.000000;1.806992
1717.000000;1.479045
1716.000000;1.414909
1715.000000;1.462360
1714.000000;1.755978
1713.000000;2.246144
1712.000000;1.799450
1711.000000;1.619917
1710.000000;1.502246
1709.000000;1.430678
1708.000000;1.425867
1707.000000;1.461184
1706.000000;1.483303
1705.000000;1.527978
1704.000000;1.729974
1703.000000;2.189272
1702.000000;1.951179
1701.000000;1.707515
1700.000000;1.843251
1699.000000;1.990400
1698.000000;1.764594
1697.000000;1.780407
1696.000000;1.759914
1695.000000;1.646499
1694.000000;1.512039
1693.000000;1.461484
1692.000000;1.549900
1691.000000;1.823798
1690.000000;1.960855
1689.000000;1.895318
1688.000000;1.865121
1687.000000;1.648336
1686.000000;1.536019
1685.000000;1.553610
1684.000000;1.738931
1683.000000;2.265018
1682.000000;2.419043
1681.000000;2.009103
1680.000000;1.921124
1679.000000;1.926691
1678.000000;1.971207
1677.000000;1.884054
1676.000000;1.734585
1675.000000;1.999084
1674.000000;1.818754
1673.000000;1.430853
1672.000000;1.415030
1671.000000;1.597930
1670.000000;1.904961
1669.000000;1.817103
1668.000000;1.661009
1667.000000;1.534167
1666.000000;1.412627
1665.000000;1.330239
1664.000000;1.263976
1663.000000;1.200936
1662.000000;1.174158
1661.000000;1.216050
1660.000000;1.311249
1659.000000;1.392561
1658.000000;1.396993
1657.000000;1.354561
1656.000000;1.328915
1655.000000;1.360559
1654.000000;1.453000
1653.000000;1.503577
1652.000000;1.396440
1651.000000;1.304882
1650.000000;1.305620
1649.000000;1.307164
1648.000000;1.308873
1647.000000;1.355629
1646.000000;1.458118
1645.000000;1.431596
1644.000000;1.341289
1643.000000;1.415025
1642.000000;1.633913
1641.000000;1.712470
1640.000000;1.738377
1639.000000;2.061880
1638.000000;2.000695
1637.000000;1.640098
1636.000000;1.631227
1635.000000;1.933802
1634.000000;1.789029
1633.000000;1.482415
1632.000000;1.583838
1631.000000;1.976529
1630.000000;1.874970
1629.000000;1.511658
1628.000000;1.435348
1627.000000;1.471655
1626.000000;1.536830
1625.000000;1.539127
1624.000000;1.448230
1623.000000;1.347141
1622.000000;1.343461
1621.000000;1.505189
1620.000000;1.713895
1619.000000;1.672532
1618.000000;1.600647
1617.000000;1.629135
1616.000000;1.779244
1615.000000;2.059727
1614.000000;2.298723
1613.000000;2.168399
1612.000000;1.785532
1611.000000;1.498872
1610.000000;1.363009
1609.000000;1.305565
1608.000000;1.248391
1607.000000;1.181753
1606.000000;1.162965
1605.000000;1.209850
1604.000000;1.266878
1603.000000;1.358667
1602.000000;1.383816
1601.000000;1.260912
1600.000000;1.262764
1599.000000;1.452919
1598.000000;1.563224
1597.000000;1.490842
1596.000000;1.539244
1595.000000;1.768719
1594.000000;1.989465
1593.000000;1.722884
1592.000000;1.441792
1591.000000;1.339994
1590.000000;1.390860
1589.000000;1.575376
1588.000000;1.776244
1587.000000;1.699525
1586.000000;1.569323
1585.000000;1.494145
1584.000000;1.429583
1583.000000;1.302838
1582.000000;1.168467
1581.000000;1.132224
1580.000000;1.249618
1579.000000;1.735462
1578.000000;1.964690
1577.000000;1.558272
1576.000000;1.678482
1575.000000;1.748424
1574.000000;1.605420
1573.000000;1.425622
1572.000000;1.320083
1571.000000;1.272395
1570.000000;1.231099
1569.000000;1.197228
1568.000000;1.184673
1567.000000;1.228025
1566.000000;1.323713
1565.000000;1.439571
1564.000000;1.500288
1563.000000;1.452862
1562.000000;1.421495
1561.000000;1.447340
1560.000000;1.541292
1559.000000;1.627319
1558.000000;1.455245
1557.000000;1.497331
1556.000000;1.724425
1555.000000;1.501917
1554.000000;1.381425
1553.000000;1.268805
1552.000000;1.177592
1551.000000;1.143324
1550.000000;1.171702
1549.000000;1.242810
1548.000000;1.326476
1547.000000;1.439460
1546.000000;1.545966
1545.000000;1.547782
1544.000000;1.616989
1543.000000;1.837294
1542.000000;1.746279
1541.000000;1.527090
1540.000000;1.452287
1539.000000;1.455262
1538.000000;1.528054
1537.000000;1.590403
1536.000000;1.459581
1535.000000;1.334058
1534.000000;1.297121
1533.000000;1.301989
1532.000000;1.345431
1531.000000;1.481608
1530.000000;1.434586
1529.000000;1.235301
1528.000000;1.185827
1527.000000;1.283641
1526.000000;1.419840
1525.000000;1.468638
1524.000000;1.550893
1523.000000;1.764974
1522.000000;1.699239
1521.000000;1.422368
1520.000000;1.302530
1519.000000;1.324936
1518.000000;1.458980
1517.000000;1.512754
1516.000000;1.399437
1515.000000;1.339971
1514.000000;1.446421
1513.000000;1.814268
1512.000000;1.843224
1511.000000;1.844706
1510.000000;2.187458
1509.000000;1.565477
1508.000000;1.353895
1507.000000;1.349626
1506.000000;1.353770
1505.000000;1.382529
1504.000000;1.483070
1503.000000;1.468002
1502.000000;1.408973
1501.000000;1.436723
1500.000000;1.547704
1499.000000;1.560673
1498.000000;1.392900
1497.000000;1.231339
1496.000000;1.160924
1495.000000;1.150084
1494.000000;1.170451
1493.000000;1.176446
1492.000000;1.096697
1491.000000;1.016622
1490.000000;1.058406
1489.000000;1.238190
1488.000000;1.508485
1487.000000;1.822879
1486.000000;1.822889
1485.000000;1.619147
1484.000000;1.477475
1483.000000;1.381756
1482.000000;1.343805
1481.000000;1.333168
1480.000000;1.292429
1479.000000;1.219259
1478.000000;1.171669
1477.000000;1.182289
1476.000000;1.227467
1475.000000;1.253664
1474.000000;1.252902
1473.000000;1.241924
1472.000000;1.187710
1471.000000;1.077289
1470.000000;1.012358
1469.000000;1.053164
1468.000000;1.163141
1467.000000;1.301325
1466.000000;1.427284
1465.000000;1.595250
1464.000000;1.818941
1463.000000;1.724053
1462.000000;1.683446
1461.000000;1.790587
1460.000000;1.755281
1459.000000;1.473718
1458.000000;1.319018
1457.000000;1.286818
1456.000000;1.480805
1455.000000;2.408857
1454.000000;1.647689
1453.000000;1.452647
1452.000000;1.479314
1451.000000;1.514226
1450.000000;1.595129
1449.000000;1.568964
1448.000000;1.418568
1447.000000;1.301052
1446.000000;1.287928
1445.000000;1.339267
1444.000000;1.463453
1443.000000;1.653808
1442.000000;1.533455
1441.000000;1.341261
1440.000000;1.364793
1439.000000;1.577725
1438.000000;1.952071
1437.000000;2.026942
1436.000000;1.802414
1435.000000;1.718095
1434.000000;1.739413
1433.000000;1.754905
1432.000000;1.652971
1431.000000;1.572353
1430.000000;1.608772
1429.000000;1.772792
1428.000000;1.998313
1427.000000;2.108005
1426.000000;1.826926
1425.000000;1.559579
1424.000000;1.451304
1423.000000;1.651591
1422.000000;1.998893
1421.000000;1.525604
1420.000000;1.417335
1419.000000;1.533524
1418.000000;1.615237
1417.000000;1.546004
1416.000000;1.396527
1415.000000;1.284930
1414.000000;1.251475
1413.000000;1.286777
1412.000000;1.342039
1411.000000;1.413317
1410.000000;1.483486
1409.000000;1.496679
1408.000000;1.495193
1407.000000;1.533695
1406.000000;1.469827
1405.000000;1.289764
1404.000000;1.158044
1403.000000;1.134410
1402.000000;1.216166
1401.000000;1.313978
1400.000000;1.399064
1399.000000;1.685585
1398.000000;1.807095
1397.000000;1.473402
1396.000000;1.330731
1395.000000;1.276585
1394.000000;1.309048
1393.000000;1.529459
1392.000000;2.086291
1391.000000;2.199752
1390.000000;2.041815
1389.000000;1.883690
1388.000000;1.673522
1387.000000;1.774359
1386.000000;1.913664
1385.000000;1.617050
1384.000000;1.416255
1383.000000;1.348975
1382.000000;1.450830
1381.000000;1.917950
1380.000000;1.700848
1379.000000;1.392380
1378.000000;1.385413
1377.000000;1.501499
1376.000000;1.753162
1375.000000;1.757907
1374.000000;1.742786
1373.000000;1.952568
1372.000000;1.573896
1371.000000;1.371791
1370.000000;1.399310
1369.000000;1.350643
1368.000000;1.260988
1367.000000;1.298941
1366.000000;1.476935
1365.000000;1.593128
1364.000000;1.390777
1363.000000;1.176478
1362.000000;1.072313
1361.000000;1.085475
1360.000000;1.195749
1359.000000;1.373416
1358.000000;1.646030
1357.000000;2.106970
1356.000000;2.352452
1355.000000;1.730737
1354.000000;1.425867
1353.000000;1.412027
1352.000000;1.687847
1351.000000;1.659757
1350.000000;1.449275
1349.000000;1.429493
1348.000000;1.510083
1347.000000;1.855051
1346.000000;1.986037
1345.000000;1.789766
1344.000000;1.880664
1343.000000;2.061849
1342.000000;2.123768
1341.000000;1.945653
1340.000000;1.867776
1339.000000;1.876706
1338.000000;1.838447
1337.000000;1.640102
1336.000000;1.466361
1335.000000;1.571080
1334.000000;1.950603
1333.000000;1.655220
1332.000000;1.441121
1331.000000;1.688620
1330.000000;1.809374
1329.000000;1.368587
1328.000000;1.183355
1327.000000;1.179060
1326.000000;1.300413
1325.000000;1.472130
1324.000000;1.551680
1323.000000;1.613560
1322.000000;1.765789
1321.000000;1.858615
1320.000000;1.769512
1319.000000;1.839755
1318.000000;2.135010
1317.000000;2.058934
1316.000000;1.802960
1315.000000;1.699834
1314.000000;1.732811
1313.000000;1.875455
1312.000000;2.012004
1311.000000;1.949835
1310.000000;1.730673
1309.000000;1.523170
1308.000000;1.437767
1307.000000;1.405489
1306.000000;1.316208
1305.000000;1.249600
1304.000000;1.246280
1303.000000;1.280988
1302.000000;1.373908
1301.000000;1.510460
1300.000000;1.528820
1299.000000;1.472030
1298.000000;1.469113
1297.000000;1.450697
1296.000000;1.393090
1295.000000;1.359171
1294.000000;1.433495
1293.000000;1.552759
1292.000000;1.588148
1291.000000;1.672570
1290.000000;2.055543
1289.000000;2.061247
1288.000000;1.428719
1287.000000;1.179986
1286.000000;1.118429
1285.000000;1.159391
1284.000000;1.241916
1283.000000;1.295826
1282.000000;1.357012
1281.000000;1.535603
1280.000000;1.841777
1279.000000;2.252127
1278.000000;1.902258
1277.000000;1.464514
1276.000000;1.396046
1275.000000;1.543033
1274.000000;1.711757
1273.000000;1.982537
1272.000000;2.023630
1271.000000;1.582790
1270.000000;1.368577
1269.000000;1.359934
1268.000000;1.569970
1267.000000;1.541070
1266.000000;1.301408
1265.000000;1.243790
1264.000000;1.263216
1263.000000;1.285059
1262.000000;1.291976
1261.000000;1.309416
1260.000000;1.413122
1259.000000;1.699004
1258.000000;2.049731
1257.000000;2.253630
1256.000000;1.963800
1255.000000;1.540860
1254.000000;1.308694
1253.000000;1.121909
1252.000000;1.015053
1251.000000;0.990531
1250.000000;1.023328
1249.000000;1.140388
1248.000000;1.245938
1247.000000;1.187280
1246.000000;1.127968
1245.000000;1.155567
1244.000000;1.240309
1243.000000;1.431975
1242.000000;1.606464
1241.000000;1.480504
1240.000000;1.435825
1239.000000;1.443773
1238.000000;1.488710
1237.000000;1.803796
1236.000000;1.815259
1235.000000;1.483593
1234.000000;1.427745
1233.000000;1.508262
1232.000000;1.411544
1231.000000;1.590944
1230.000000;1.843559
1229.000000;1.233242
1228.000000;1.097921
1227.000000;1.341230
1226.000000;1.500762
1225.000000;1.308270
1224.000000;1.462441
1223.000000;1.588998
1222.000000;1.366301
1221.000000;1.482994
1220.000000;1.811860
1219.000000;1.584095
1218.000000;1.481014
1217.000000;1.423297
1216.000000;1.228427
1215.000000;1.127752
1214.000000;1.074281
1213.000000;1.090986
1212.000000;1.200287
1211.000000;1.465109
1210.000000;2.048923
1209.000000;1.752263
1208.000000;1.411075
1207.000000;1.412243
1206.000000;1.491796
1205.000000;1.484120
1204.000000;1.631840
1203.000000;1.448651
1202.000000;1.133428
1201.000000;1.040547
1200.000000;1.010863
