Criado como novo conjunto de dados;"2706_e01_daniel.spp","14762.5 Secs"
cm-1;Abs
10000.000000;0.804167
9999.000000;0.804499
9998.000000;0.804831
9997.000000;0.805164
9996.000000;0.805497
9995.000000;0.805829
9994.000000;0.806165
9993.000000;0.806495
9992.000000;0.806835
9991.000000;0.807158
9990.000000;0.807520
9989.000000;0.807675
9988.000000;0.807456
9987.000000;0.807408
9986.000000;0.807961
9985.000000;0.808740
9984.000000;0.808980
9983.000000;0.808482
9982.000000;0.807810
9981.000000;0.807531
9980.000000;0.807588
9979.000000;0.807531
9978.000000;0.807124
9977.000000;0.806528
9976.000000;0.806004
9975.000000;0.805721
9974.000000;0.805810
9973.000000;0.806325
9972.000000;0.807020
9971.000000;0.807381
9970.000000;0.807082
9969.000000;0.806334
9968.000000;0.805639
9967.000000;0.805271
9966.000000;0.805117
9965.000000;0.804946
9964.000000;0.804661
9963.000000;0.804345
9962.000000;0.804204
9961.000000;0.804419
9960.000000;0.804872
9959.000000;0.805104
9958.000000;0.804765
9957.000000;0.804096
9956.000000;0.803712
9955.000000;0.803893
9954.000000;0.804288
9953.000000;0.804385
9952.000000;0.804042
9951.000000;0.803507
9950.000000;0.803097
9949.000000;0.802976
9948.000000;0.803090
9947.000000;0.803223
9946.000000;0.803235
9945.000000;0.803270
9944.000000;0.803531
9943.000000;0.803838
9942.000000;0.803694
9941.000000;0.802922
9940.000000;0.801992
9939.000000;0.801532
9938.000000;0.801708
9937.000000;0.802235
9936.000000;0.802781
9935.000000;0.803126
9934.000000;0.803112
9933.000000;0.802709
9932.000000;0.802101
9931.000000;0.801529
9930.000000;0.801098
9929.000000;0.800872
9928.000000;0.800977
9927.000000;0.801397
9926.000000;0.801802
9925.000000;0.801865
9924.000000;0.801709
9923.000000;0.801786
9922.000000;0.802309
9921.000000;0.803002
9920.000000;0.803442
9919.000000;0.803483
9918.000000;0.803282
9917.000000;0.803032
9916.000000;0.802742
9915.000000;0.802244
9914.000000;0.801435
9913.000000;0.800511
9912.000000;0.799869
9911.000000;0.799739
9910.000000;0.800013
9909.000000;0.800458
9908.000000;0.800951
9907.000000;0.801374
9906.000000;0.801492
9905.000000;0.801172
9904.000000;0.800620
9903.000000;0.800146
9902.000000;0.799765
9901.000000;0.799283
9900.000000;0.798733
9899.000000;0.798450
9898.000000;0.798640
9897.000000;0.799107
9896.000000;0.799502
9895.000000;0.799704
9894.000000;0.799824
9893.000000;0.799941
9892.000000;0.799946
9891.000000;0.799675
9890.000000;0.799164
9889.000000;0.798730
9888.000000;0.798687
9887.000000;0.798951
9886.000000;0.799059
9885.000000;0.798700
9884.000000;0.798091
9883.000000;0.797691
9882.000000;0.797647
9881.000000;0.797720
9880.000000;0.797656
9879.000000;0.797401
9878.000000;0.797012
9877.000000;0.796607
9876.000000;0.796399
9875.000000;0.796543
9874.000000;0.796871
9873.000000;0.797019
9872.000000;0.796883
9871.000000;0.796791
9870.000000;0.797091
9869.000000;0.797729
9868.000000;0.798329
9867.000000;0.798587
9866.000000;0.798481
9865.000000;0.798183
9864.000000;0.797895
9863.000000;0.797736
9862.000000;0.797699
9861.000000;0.797681
9860.000000;0.797563
9859.000000;0.797261
9858.000000;0.796774
9857.000000;0.796240
9856.000000;0.795882
9855.000000;0.795788
9854.000000;0.795782
9853.000000;0.795635
9852.000000;0.795365
9851.000000;0.795211
9850.000000;0.795330
9849.000000;0.795652
9848.000000;0.795977
9847.000000;0.796090
9846.000000;0.795806
9845.000000;0.795150
9844.000000;0.794495
9843.000000;0.794306
9842.000000;0.794640
9841.000000;0.795067
9840.000000;0.795182
9839.000000;0.795021
9838.000000;0.794849
9837.000000;0.794726
9836.000000;0.794476
9835.000000;0.794027
9834.000000;0.793575
9833.000000;0.793389
9832.000000;0.793540
9831.000000;0.793835
9830.000000;0.793964
9829.000000;0.793746
9828.000000;0.793263
9827.000000;0.792781
9826.000000;0.792521
9825.000000;0.792554
9824.000000;0.792846
9823.000000;0.793302
9822.000000;0.793724
9821.000000;0.793878
9820.000000;0.793689
9819.000000;0.793301
9818.000000;0.792906
9817.000000;0.792571
9816.000000;0.792282
9815.000000;0.792065
9814.000000;0.791971
9813.000000;0.791988
9812.000000;0.792036
9811.000000;0.792027
9810.000000;0.791888
9809.000000;0.791578
9808.000000;0.791170
9807.000000;0.790838
9806.000000;0.790691
9805.000000;0.790652
9804.000000;0.790570
9803.000000;0.790407
9802.000000;0.790236
9801.000000;0.790114
9800.000000;0.790063
9799.000000;0.790179
9798.000000;0.790592
9797.000000;0.791255
9796.000000;0.791829
9795.000000;0.791886
9794.000000;0.791290
9793.000000;0.790361
9792.000000;0.789613
9791.000000;0.789319
9790.000000;0.789362
9789.000000;0.789495
9788.000000;0.789673
9787.000000;0.789993
9786.000000;0.790385
9785.000000;0.790583
9784.000000;0.790461
9783.000000;0.790223
9782.000000;0.790085
9781.000000;0.789929
9780.000000;0.789496
9779.000000;0.788870
9778.000000;0.788500
9777.000000;0.788680
9776.000000;0.789201
9775.000000;0.789606
9774.000000;0.789661
9773.000000;0.789439
9772.000000;0.789096
9771.000000;0.788755
9770.000000;0.788555
9769.000000;0.788597
9768.000000;0.788789
9767.000000;0.788881
9766.000000;0.788720
9765.000000;0.788434
9764.000000;0.788287
9763.000000;0.788390
9762.000000;0.788587
9761.000000;0.788617
9760.000000;0.788364
9759.000000;0.787972
9758.000000;0.787714
9757.000000;0.787726
9756.000000;0.787872
9755.000000;0.787895
9754.000000;0.787687
9753.000000;0.787393
9752.000000;0.787238
9751.000000;0.787289
9750.000000;0.787408
9749.000000;0.787404
9748.000000;0.787232
9747.000000;0.787020
9746.000000;0.786892
9745.000000;0.786807
9744.000000;0.786646
9743.000000;0.786463
9742.000000;0.786494
9741.000000;0.786826
9740.000000;0.787205
9739.000000;0.787321
9738.000000;0.787200
9737.000000;0.787092
9736.000000;0.787062
9735.000000;0.786940
9734.000000;0.786681
9733.000000;0.786500
9732.000000;0.786517
9731.000000;0.786573
9730.000000;0.786546
9729.000000;0.786609
9728.000000;0.786923
9727.000000;0.787275
9726.000000;0.787323
9725.000000;0.787086
9724.000000;0.786874
9723.000000;0.786800
9722.000000;0.786693
9721.000000;0.786519
9720.000000;0.786526
9719.000000;0.786826
9718.000000;0.787086
9717.000000;0.786871
9716.000000;0.786157
9715.000000;0.785331
9714.000000;0.784742
9713.000000;0.784402
9712.000000;0.784092
9711.000000;0.783666
9710.000000;0.783239
9709.000000;0.783100
9708.000000;0.783413
9707.000000;0.784001
9706.000000;0.784461
9705.000000;0.784508
9704.000000;0.784161
9703.000000;0.783633
9702.000000;0.783156
9701.000000;0.782915
9700.000000;0.782993
9699.000000;0.783294
9698.000000;0.783623
9697.000000;0.783862
9696.000000;0.783999
9695.000000;0.783994
9694.000000;0.783789
9693.000000;0.783465
9692.000000;0.783208
9691.000000;0.783045
9690.000000;0.782789
9689.000000;0.782371
9688.000000;0.782038
9687.000000;0.782073
9686.000000;0.782417
9685.000000;0.782753
9684.000000;0.782875
9683.000000;0.782827
9682.000000;0.782732
9681.000000;0.782663
9680.000000;0.782647
9679.000000;0.782665
9678.000000;0.782642
9677.000000;0.782510
9676.000000;0.782283
9675.000000;0.782009
9674.000000;0.781723
9673.000000;0.781539
9672.000000;0.781644
9671.000000;0.782032
9670.000000;0.782330
9669.000000;0.782109
9668.000000;0.781397
9667.000000;0.780676
9666.000000;0.780337
9665.000000;0.780316
9664.000000;0.780319
9663.000000;0.780217
9662.000000;0.780072
9661.000000;0.779912
9660.000000;0.779689
9659.000000;0.779434
9658.000000;0.779308
9657.000000;0.779441
9656.000000;0.779795
9655.000000;0.780230
9654.000000;0.780627
9653.000000;0.780920
9652.000000;0.781061
9651.000000;0.781034
9650.000000;0.780893
9649.000000;0.780738
9648.000000;0.780640
9647.000000;0.780573
9646.000000;0.780437
9645.000000;0.780114
9644.000000;0.779553
9643.000000;0.778842
9642.000000;0.778232
9641.000000;0.778019
9640.000000;0.778296
9639.000000;0.778853
9638.000000;0.779350
9637.000000;0.779577
9636.000000;0.779526
9635.000000;0.779256
9634.000000;0.778807
9633.000000;0.778215
9632.000000;0.777546
9631.000000;0.776869
9630.000000;0.776277
9629.000000;0.775917
9628.000000;0.775917
9627.000000;0.776244
9626.000000;0.776698
9625.000000;0.777091
9624.000000;0.777369
9623.000000;0.777552
9622.000000;0.777621
9621.000000;0.777547
9620.000000;0.777371
9619.000000;0.777174
9618.000000;0.776959
9617.000000;0.776627
9616.000000;0.776105
9615.000000;0.775524
9614.000000;0.775225
9613.000000;0.775482
9612.000000;0.776185
9611.000000;0.776868
9610.000000;0.777152
9609.000000;0.777091
9608.000000;0.777004
9607.000000;0.777058
9606.000000;0.777157
9605.000000;0.777192
9604.000000;0.777169
9603.000000;0.777080
9602.000000;0.776856
9601.000000;0.776532
9600.000000;0.776265
9599.000000;0.776100
9598.000000;0.775869
9597.000000;0.775465
9596.000000;0.775062
9595.000000;0.774918
9594.000000;0.775035
9593.000000;0.775156
9592.000000;0.775043
9591.000000;0.774684
9590.000000;0.774299
9589.000000;0.774235
9588.000000;0.774741
9587.000000;0.775689
9586.000000;0.776551
9585.000000;0.776812
9584.000000;0.776425
9583.000000;0.775782
9582.000000;0.775288
9581.000000;0.775059
9580.000000;0.774976
9579.000000;0.774859
9578.000000;0.774590
9577.000000;0.774182
9576.000000;0.773784
9575.000000;0.773560
9574.000000;0.773552
9573.000000;0.773685
9572.000000;0.773884
9571.000000;0.774119
9570.000000;0.774351
9569.000000;0.774535
9568.000000;0.774655
9567.000000;0.774710
9566.000000;0.774656
9565.000000;0.774438
9564.000000;0.774094
9563.000000;0.773764
9562.000000;0.773569
9561.000000;0.773490
9560.000000;0.773379
9559.000000;0.773092
9558.000000;0.772660
9557.000000;0.772306
9556.000000;0.772265
9555.000000;0.772543
9554.000000;0.772906
9553.000000;0.773119
9552.000000;0.773153
9551.000000;0.773121
9550.000000;0.773105
9549.000000;0.773112
9548.000000;0.773125
9547.000000;0.773113
9546.000000;0.773027
9545.000000;0.772856
9544.000000;0.772685
9543.000000;0.772610
9542.000000;0.772614
9541.000000;0.772556
9540.000000;0.772304
9539.000000;0.771867
9538.000000;0.771415
9537.000000;0.771142
9536.000000;0.771077
9535.000000;0.771048
9534.000000;0.770915
9533.000000;0.770802
9532.000000;0.770954
9531.000000;0.771374
9530.000000;0.771748
9529.000000;0.771793
9528.000000;0.771534
9527.000000;0.771184
9526.000000;0.770913
9525.000000;0.770819
9524.000000;0.770950
9523.000000;0.771182
9522.000000;0.771225
9521.000000;0.770924
9520.000000;0.770465
9519.000000;0.770130
9518.000000;0.769950
9517.000000;0.769797
9516.000000;0.769694
9515.000000;0.769804
9514.000000;0.770111
9513.000000;0.770363
9512.000000;0.770369
9511.000000;0.770163
9510.000000;0.769862
9509.000000;0.769549
9508.000000;0.769322
9507.000000;0.769290
9506.000000;0.769414
9505.000000;0.769483
9504.000000;0.769317
9503.000000;0.768937
9502.000000;0.768510
9501.000000;0.768245
9500.000000;0.768310
9499.000000;0.768678
9498.000000;0.769017
9497.000000;0.768946
9496.000000;0.768485
9495.000000;0.768094
9494.000000;0.768148
9493.000000;0.768530
9492.000000;0.768853
9491.000000;0.768941
9490.000000;0.768917
9489.000000;0.768887
9488.000000;0.768789
9487.000000;0.768550
9486.000000;0.768227
9485.000000;0.767914
9484.000000;0.767624
9483.000000;0.767333
9482.000000;0.767112
9481.000000;0.767128
9480.000000;0.767470
9479.000000;0.767953
9478.000000;0.768159
9477.000000;0.767767
9476.000000;0.766915
9475.000000;0.766148
9474.000000;0.765932
9473.000000;0.766257
9472.000000;0.766729
9471.000000;0.767005
9470.000000;0.767009
9469.000000;0.766810
9468.000000;0.766462
9467.000000;0.766027
9466.000000;0.765647
9465.000000;0.765460
9464.000000;0.765478
9463.000000;0.765579
9462.000000;0.765644
9461.000000;0.765641
9460.000000;0.765627
9459.000000;0.765694
9458.000000;0.765888
9457.000000;0.766141
9456.000000;0.766296
9455.000000;0.766254
9454.000000;0.766087
9453.000000;0.765942
9452.000000;0.765832
9451.000000;0.765641
9450.000000;0.765347
9449.000000;0.765126
9448.000000;0.765140
9447.000000;0.765284
9446.000000;0.765288
9445.000000;0.765038
9444.000000;0.764674
9443.000000;0.764398
9442.000000;0.764293
9441.000000;0.764370
9440.000000;0.764607
9439.000000;0.764873
9438.000000;0.764961
9437.000000;0.764839
9436.000000;0.764781
9435.000000;0.765067
9434.000000;0.765573
9433.000000;0.765810
9432.000000;0.765422
9431.000000;0.764565
9430.000000;0.763746
9429.000000;0.763365
9428.000000;0.763439
9427.000000;0.763682
9426.000000;0.763783
9425.000000;0.763620
9424.000000;0.763287
9423.000000;0.762941
9422.000000;0.762664
9421.000000;0.762447
9420.000000;0.762278
9419.000000;0.762179
9418.000000;0.762185
9417.000000;0.762308
9416.000000;0.762509
9415.000000;0.762705
9414.000000;0.762831
9413.000000;0.762933
9412.000000;0.763147
9411.000000;0.763499
9410.000000;0.763790
9409.000000;0.763776
9408.000000;0.763466
9407.000000;0.763118
9406.000000;0.762939
9405.000000;0.762892
9404.000000;0.762840
9403.000000;0.762743
9402.000000;0.762634
9401.000000;0.762465
9400.000000;0.762128
9399.000000;0.761635
9398.000000;0.761184
9397.000000;0.761001
9396.000000;0.761151
9395.000000;0.761518
9394.000000;0.761895
9393.000000;0.762078
9392.000000;0.761932
9391.000000;0.761483
9390.000000;0.760976
9389.000000;0.760761
9388.000000;0.761027
9387.000000;0.761606
9386.000000;0.762078
9385.000000;0.762115
9384.000000;0.761711
9383.000000;0.761095
9382.000000;0.760497
9381.000000;0.760041
9380.000000;0.759794
9379.000000;0.759789
9378.000000;0.759966
9377.000000;0.760177
9376.000000;0.760313
9375.000000;0.760390
9374.000000;0.760475
9373.000000;0.760545
9372.000000;0.760487
9371.000000;0.760216
9370.000000;0.759779
9369.000000;0.759336
9368.000000;0.759076
9367.000000;0.759111
9366.000000;0.759402
9365.000000;0.759740
9364.000000;0.759854
9363.000000;0.759609
9362.000000;0.759118
9361.000000;0.758648
9360.000000;0.758393
9359.000000;0.758339
9358.000000;0.758346
9357.000000;0.758323
9356.000000;0.758308
9355.000000;0.758362
9354.000000;0.758441
9353.000000;0.758427
9352.000000;0.758303
9351.000000;0.758213
9350.000000;0.758284
9349.000000;0.758422
9348.000000;0.758406
9347.000000;0.758192
9346.000000;0.758010
9345.000000;0.758064
9344.000000;0.758227
9343.000000;0.758174
9342.000000;0.757798
9341.000000;0.757341
9340.000000;0.757104
9339.000000;0.757167
9338.000000;0.757440
9337.000000;0.757844
9336.000000;0.758282
9335.000000;0.758564
9334.000000;0.758486
9333.000000;0.758017
9332.000000;0.757310
9331.000000;0.756587
9330.000000;0.756082
9329.000000;0.756005
9328.000000;0.756379
9327.000000;0.756933
9326.000000;0.757306
9325.000000;0.757386
9324.000000;0.757319
9323.000000;0.757185
9322.000000;0.756872
9321.000000;0.756345
9320.000000;0.755882
9319.000000;0.755847
9318.000000;0.756271
9317.000000;0.756772
9316.000000;0.756899
9315.000000;0.756507
9314.000000;0.755824
9313.000000;0.755251
9312.000000;0.755086
9311.000000;0.755360
9310.000000;0.755864
9309.000000;0.756314
9308.000000;0.756513
9307.000000;0.756396
9306.000000;0.756019
9305.000000;0.755543
9304.000000;0.755179
9303.000000;0.755059
9302.000000;0.755141
9301.000000;0.755245
9300.000000;0.755206
9299.000000;0.755015
9298.000000;0.754813
9297.000000;0.754741
9296.000000;0.754750
9295.000000;0.754623
9294.000000;0.754218
9293.000000;0.753687
9292.000000;0.753349
9291.000000;0.753364
9290.000000;0.753601
9289.000000;0.753828
9288.000000;0.753945
9287.000000;0.753983
9286.000000;0.753965
9285.000000;0.753866
9284.000000;0.753680
9283.000000;0.753480
9282.000000;0.753390
9281.000000;0.753496
9280.000000;0.753765
9279.000000;0.754068
9278.000000;0.754309
9277.000000;0.754486
9276.000000;0.754591
9275.000000;0.754503
9274.000000;0.754109
9273.000000;0.753502
9272.000000;0.752940
9271.000000;0.752585
9270.000000;0.752375
9269.000000;0.752176
9268.000000;0.751943
9267.000000;0.751716
9266.000000;0.751574
9265.000000;0.751642
9264.000000;0.752002
9263.000000;0.752531
9262.000000;0.752922
9261.000000;0.752973
9260.000000;0.752782
9259.000000;0.752557
9258.000000;0.752373
9257.000000;0.752193
9256.000000;0.752027
9255.000000;0.751915
9254.000000;0.751795
9253.000000;0.751543
9252.000000;0.751160
9251.000000;0.750805
9250.000000;0.750652
9249.000000;0.750742
9248.000000;0.750967
9247.000000;0.751133
9246.000000;0.751090
9245.000000;0.750878
9244.000000;0.750715
9243.000000;0.750777
9242.000000;0.751013
9241.000000;0.751240
9240.000000;0.751333
9239.000000;0.751285
9238.000000;0.751131
9237.000000;0.750943
9236.000000;0.750826
9235.000000;0.750818
9234.000000;0.750799
9233.000000;0.750620
9232.000000;0.750306
9231.000000;0.750038
9230.000000;0.749960
9229.000000;0.750068
9228.000000;0.750271
9227.000000;0.750446
9226.000000;0.750469
9225.000000;0.750299
9224.000000;0.750027
9223.000000;0.749772
9222.000000;0.749535
9221.000000;0.749250
9220.000000;0.748950
9219.000000;0.748746
9218.000000;0.748663
9217.000000;0.748626
9216.000000;0.748632
9215.000000;0.748799
9214.000000;0.749181
9213.000000;0.749630
9212.000000;0.749914
9211.000000;0.749923
9210.000000;0.749707
9209.000000;0.749379
9208.000000;0.749038
9207.000000;0.748749
9206.000000;0.748530
9205.000000;0.748358
9204.000000;0.748218
9203.000000;0.748120
9202.000000;0.748064
9201.000000;0.748027
9200.000000;0.747993
9199.000000;0.747958
9198.000000;0.747910
9197.000000;0.747816
9196.000000;0.747657
9195.000000;0.747455
9194.000000;0.747271
9193.000000;0.747186
9192.000000;0.747242
9191.000000;0.747378
9190.000000;0.747472
9189.000000;0.747470
9188.000000;0.747448
9187.000000;0.747471
9186.000000;0.747467
9185.000000;0.747337
9184.000000;0.747139
9183.000000;0.747048
9182.000000;0.747129
9181.000000;0.747286
9180.000000;0.747440
9179.000000;0.747628
9178.000000;0.747874
9177.000000;0.748060
9176.000000;0.748013
9175.000000;0.747688
9174.000000;0.747193
9173.000000;0.746683
9172.000000;0.746280
9171.000000;0.746045
9170.000000;0.745987
9169.000000;0.746093
9168.000000;0.746341
9167.000000;0.746649
9166.000000;0.746833
9165.000000;0.746719
9164.000000;0.746337
9163.000000;0.745921
9162.000000;0.745663
9161.000000;0.745526
9160.000000;0.745370
9159.000000;0.745177
9158.000000;0.745077
9157.000000;0.745168
9156.000000;0.745416
9155.000000;0.745724
9154.000000;0.746028
9153.000000;0.746298
9152.000000;0.746478
9151.000000;0.746464
9150.000000;0.746155
9149.000000;0.745550
9148.000000;0.744817
9147.000000;0.744223
9146.000000;0.743950
9145.000000;0.743957
9144.000000;0.744030
9143.000000;0.743977
9142.000000;0.743790
9141.000000;0.743653
9140.000000;0.743767
9139.000000;0.744156
9138.000000;0.744609
9137.000000;0.744851
9136.000000;0.744776
9135.000000;0.744491
9134.000000;0.744152
9133.000000;0.743845
9132.000000;0.743632
9131.000000;0.743616
9130.000000;0.743834
9129.000000;0.744136
9128.000000;0.744273
9127.000000;0.744148
9126.000000;0.743910
9125.000000;0.743782
9124.000000;0.743835
9123.000000;0.743958
9122.000000;0.743974
9121.000000;0.743763
9120.000000;0.743332
9119.000000;0.742822
9118.000000;0.742439
9117.000000;0.742305
9116.000000;0.742368
9115.000000;0.742490
9114.000000;0.742594
9113.000000;0.742685
9112.000000;0.742746
9111.000000;0.742713
9110.000000;0.742572
9109.000000;0.742422
9108.000000;0.742364
9107.000000;0.742397
9106.000000;0.742481
9105.000000;0.742626
9104.000000;0.742824
9103.000000;0.742933
9102.000000;0.742757
9101.000000;0.742291
9100.000000;0.741784
9099.000000;0.741501
9098.000000;0.741485
9097.000000;0.741591
9096.000000;0.741678
9095.000000;0.741691
9094.000000;0.741625
9093.000000;0.741502
9092.000000;0.741365
9091.000000;0.741226
9090.000000;0.741043
9089.000000;0.740801
9088.000000;0.740588
9087.000000;0.740529
9086.000000;0.740639
9085.000000;0.740794
9084.000000;0.740866
9083.000000;0.740837
9082.000000;0.740775
9081.000000;0.740745
9080.000000;0.740741
9079.000000;0.740694
9078.000000;0.740533
9077.000000;0.740274
9076.000000;0.740038
9075.000000;0.739950
9074.000000;0.740021
9073.000000;0.740150
9072.000000;0.740208
9071.000000;0.740108
9070.000000;0.739827
9069.000000;0.739447
9068.000000;0.739148
9067.000000;0.739101
9066.000000;0.739331
9065.000000;0.739704
9064.000000;0.740031
9063.000000;0.740178
9062.000000;0.740101
9061.000000;0.739853
9060.000000;0.739564
9059.000000;0.739352
9058.000000;0.739247
9057.000000;0.739224
9056.000000;0.739271
9055.000000;0.739362
9054.000000;0.739388
9053.000000;0.739217
9052.000000;0.738861
9051.000000;0.738498
9050.000000;0.738301
9049.000000;0.738281
9048.000000;0.738311
9047.000000;0.738275
9046.000000;0.738154
9045.000000;0.738036
9044.000000;0.738045
9043.000000;0.738200
9042.000000;0.738332
9041.000000;0.738227
9040.000000;0.737883
9039.000000;0.737563
9038.000000;0.737517
9037.000000;0.737707
9036.000000;0.737880
9035.000000;0.737865
9034.000000;0.737715
9033.000000;0.737579
9032.000000;0.737516
9031.000000;0.737474
9030.000000;0.737381
9029.000000;0.737235
9028.000000;0.737118
9027.000000;0.737140
9026.000000;0.737319
9025.000000;0.737508
9024.000000;0.737502
9023.000000;0.737240
9022.000000;0.736890
9021.000000;0.736685
9020.000000;0.736693
9019.000000;0.736762
9018.000000;0.736696
9017.000000;0.736460
9016.000000;0.736221
9015.000000;0.736162
9014.000000;0.736297
9013.000000;0.736462
9012.000000;0.736520
9011.000000;0.736520
9010.000000;0.736593
9009.000000;0.736717
9008.000000;0.736714
9007.000000;0.736507
9006.000000;0.736302
9005.000000;0.736340
9004.000000;0.736539
9003.000000;0.736530
9002.000000;0.736117
9001.000000;0.735556
9000.000000;0.735273
8999.000000;0.735399
8998.000000;0.735706
8997.000000;0.735923
8996.000000;0.735939
8995.000000;0.735729
8994.000000;0.735293
8993.000000;0.734773
8992.000000;0.734454
8991.000000;0.734495
8990.000000;0.734744
8989.000000;0.734922
8988.000000;0.734934
8987.000000;0.734870
8986.000000;0.734768
8985.000000;0.734547
8984.000000;0.734208
8983.000000;0.733937
8982.000000;0.733935
8981.000000;0.734201
8980.000000;0.734545
8979.000000;0.734766
8978.000000;0.734807
8977.000000;0.734761
8976.000000;0.734763
8975.000000;0.734833
8974.000000;0.734821
8973.000000;0.734580
8972.000000;0.734165
8971.000000;0.733813
8970.000000;0.733682
8969.000000;0.733712
8968.000000;0.733754
8967.000000;0.733760
8966.000000;0.733779
8965.000000;0.733823
8964.000000;0.733824
8963.000000;0.733717
8962.000000;0.733527
8961.000000;0.733363
8960.000000;0.733353
8959.000000;0.733523
8958.000000;0.733732
8957.000000;0.733766
8956.000000;0.733552
8955.000000;0.733228
8954.000000;0.732979
8953.000000;0.732847
8952.000000;0.732762
8951.000000;0.732688
8950.000000;0.732642
8949.000000;0.732603
8948.000000;0.732514
8947.000000;0.732389
8946.000000;0.732327
8945.000000;0.732379
8944.000000;0.732473
8943.000000;0.732488
8942.000000;0.732376
8941.000000;0.732186
8940.000000;0.732020
8939.000000;0.731958
8938.000000;0.731998
8937.000000;0.732035
8936.000000;0.731976
8935.000000;0.731877
8934.000000;0.731902
8933.000000;0.732094
8932.000000;0.732264
8931.000000;0.732192
8930.000000;0.731893
8929.000000;0.731601
8928.000000;0.731488
8927.000000;0.731494
8926.000000;0.731452
8925.000000;0.731317
8924.000000;0.731186
8923.000000;0.731129
8922.000000;0.731074
8921.000000;0.730899
8920.000000;0.730599
8919.000000;0.730329
8918.000000;0.730245
8917.000000;0.730327
8916.000000;0.730392
8915.000000;0.730302
8914.000000;0.730128
8913.000000;0.730092
8912.000000;0.730345
8911.000000;0.730818
8910.000000;0.731268
8909.000000;0.731465
8908.000000;0.731351
8907.000000;0.731049
8906.000000;0.730724
8905.000000;0.730441
8904.000000;0.730168
8903.000000;0.729898
8902.000000;0.729698
8901.000000;0.729633
8900.000000;0.729667
8899.000000;0.729716
8898.000000;0.729754
8897.000000;0.729788
8896.000000;0.729766
8895.000000;0.729588
8894.000000;0.729255
8893.000000;0.728914
8892.000000;0.728716
8891.000000;0.728693
8890.000000;0.728802
8889.000000;0.729015
8888.000000;0.729284
8887.000000;0.729470
8886.000000;0.729427
8885.000000;0.729168
8884.000000;0.728877
8883.000000;0.728725
8882.000000;0.728706
8881.000000;0.728671
8880.000000;0.728487
8879.000000;0.728180
8878.000000;0.727929
8877.000000;0.727922
8876.000000;0.728183
8875.000000;0.728537
8874.000000;0.728770
8873.000000;0.728812
8872.000000;0.728752
8871.000000;0.728687
8870.000000;0.728621
8869.000000;0.728493
8868.000000;0.728247
8867.000000;0.727891
8866.000000;0.727527
8865.000000;0.727318
8864.000000;0.727351
8863.000000;0.727526
8862.000000;0.727629
8861.000000;0.727545
8860.000000;0.727359
8859.000000;0.727228
8858.000000;0.727227
8857.000000;0.727345
8856.000000;0.727555
8855.000000;0.727794
8854.000000;0.727934
8853.000000;0.727860
8852.000000;0.727601
8851.000000;0.727327
8850.000000;0.727193
8849.000000;0.727202
8848.000000;0.727238
8847.000000;0.727185
8846.000000;0.727030
8845.000000;0.726857
8844.000000;0.726777
8843.000000;0.726833
8842.000000;0.726969
8841.000000;0.727076
8840.000000;0.727095
8839.000000;0.727047
8838.000000;0.726997
8837.000000;0.726992
8836.000000;0.727024
8835.000000;0.727041
8834.000000;0.726975
8833.000000;0.726789
8832.000000;0.726522
8831.000000;0.726282
8830.000000;0.726173
8829.000000;0.726209
8828.000000;0.726289
8827.000000;0.726279
8826.000000;0.726134
8825.000000;0.725943
8824.000000;0.725850
8823.000000;0.725912
8822.000000;0.726048
8821.000000;0.726141
8820.000000;0.726148
8819.000000;0.726123
8818.000000;0.726117
8817.000000;0.726119
8816.000000;0.726094
8815.000000;0.726057
8814.000000;0.726069
8813.000000;0.726140
8812.000000;0.726181
8811.000000;0.726086
8810.000000;0.725838
8809.000000;0.725529
8808.000000;0.725264
8807.000000;0.725096
8806.000000;0.725015
8805.000000;0.724972
8804.000000;0.724906
8803.000000;0.724804
8802.000000;0.724736
8801.000000;0.724792
8800.000000;0.724936
8799.000000;0.725015
8798.000000;0.724939
8797.000000;0.724802
8796.000000;0.724766
8795.000000;0.724879
8794.000000;0.725043
8793.000000;0.725144
8792.000000;0.725125
8791.000000;0.724981
8790.000000;0.724780
8789.000000;0.724649
8788.000000;0.724658
8787.000000;0.724700
8786.000000;0.724587
8785.000000;0.724279
8784.000000;0.723947
8783.000000;0.723767
8782.000000;0.723746
8781.000000;0.723780
8780.000000;0.723800
8779.000000;0.723807
8778.000000;0.723828
8777.000000;0.723888
8776.000000;0.723989
8775.000000;0.724070
8774.000000;0.724043
8773.000000;0.723922
8772.000000;0.723882
8771.000000;0.724084
8770.000000;0.724463
8769.000000;0.724749
8768.000000;0.724701
8767.000000;0.724312
8766.000000;0.723794
8765.000000;0.723402
8764.000000;0.723257
8763.000000;0.723315
8762.000000;0.723467
8761.000000;0.723663
8760.000000;0.723912
8759.000000;0.724168
8758.000000;0.724290
8757.000000;0.724168
8756.000000;0.723857
8755.000000;0.723525
8754.000000;0.723294
8753.000000;0.723157
8752.000000;0.723061
8751.000000;0.723012
8750.000000;0.723065
8749.000000;0.723218
8748.000000;0.723356
8747.000000;0.723328
8746.000000;0.723116
8745.000000;0.722881
8744.000000;0.722799
8743.000000;0.722864
8742.000000;0.722901
8741.000000;0.722788
8740.000000;0.722600
8739.000000;0.722521
8738.000000;0.722658
8737.000000;0.722964
8736.000000;0.723288
8735.000000;0.723471
8734.000000;0.723449
8733.000000;0.723323
8732.000000;0.723271
8731.000000;0.723338
8730.000000;0.723371
8729.000000;0.723236
8728.000000;0.723035
8727.000000;0.723012
8726.000000;0.723236
8725.000000;0.723487
8724.000000;0.723479
8723.000000;0.723143
8722.000000;0.722657
8721.000000;0.722270
8720.000000;0.722120
8719.000000;0.722181
8718.000000;0.722314
8717.000000;0.722377
8716.000000;0.722337
8715.000000;0.722287
8714.000000;0.722331
8713.000000;0.722440
8712.000000;0.722449
8711.000000;0.722219
8710.000000;0.721814
8709.000000;0.721467
8708.000000;0.721378
8707.000000;0.721542
8706.000000;0.721785
8705.000000;0.721933
8704.000000;0.721933
8703.000000;0.721852
8702.000000;0.721811
8701.000000;0.721900
8700.000000;0.722098
8699.000000;0.722264
8698.000000;0.722266
8697.000000;0.722105
8696.000000;0.721893
8695.000000;0.721720
8694.000000;0.721609
8693.000000;0.721596
8692.000000;0.721729
8691.000000;0.721959
8690.000000;0.722108
8689.000000;0.722016
8688.000000;0.721690
8687.000000;0.721274
8686.000000;0.720909
8685.000000;0.720677
8684.000000;0.720613
8683.000000;0.720686
8682.000000;0.720789
8681.000000;0.720821
8680.000000;0.720770
8679.000000;0.720717
8678.000000;0.720762
8677.000000;0.720948
8676.000000;0.721227
8675.000000;0.721450
8674.000000;0.721452
8673.000000;0.721192
8672.000000;0.720791
8671.000000;0.720421
8670.000000;0.720178
8669.000000;0.720073
8668.000000;0.720083
8667.000000;0.720140
8666.000000;0.720154
8665.000000;0.720099
8664.000000;0.720056
8663.000000;0.720116
8662.000000;0.720261
8661.000000;0.720390
8660.000000;0.720431
8659.000000;0.720375
8658.000000;0.720262
8657.000000;0.720182
8656.000000;0.720241
8655.000000;0.720423
8654.000000;0.720553
8653.000000;0.720455
8652.000000;0.720140
8651.000000;0.719764
8650.000000;0.719436
8649.000000;0.719152
8648.000000;0.718886
8647.000000;0.718650
8646.000000;0.718467
8645.000000;0.718367
8644.000000;0.718383
8643.000000;0.718486
8642.000000;0.718539
8641.000000;0.718433
8640.000000;0.718230
8639.000000;0.718091
8638.000000;0.718056
8637.000000;0.718009
8636.000000;0.717876
8635.000000;0.717717
8634.000000;0.717618
8633.000000;0.717578
8632.000000;0.717563
8631.000000;0.717562
8630.000000;0.717546
8629.000000;0.717454
8628.000000;0.717279
8627.000000;0.717087
8626.000000;0.716902
8625.000000;0.716651
8624.000000;0.716300
8623.000000;0.715972
8622.000000;0.715845
8621.000000;0.715972
8620.000000;0.716226
8619.000000;0.716409
8618.000000;0.716376
8617.000000;0.716119
8616.000000;0.715795
8615.000000;0.715609
8614.000000;0.715618
8613.000000;0.715668
8612.000000;0.715587
8611.000000;0.715374
8610.000000;0.715158
8609.000000;0.715012
8608.000000;0.714920
8607.000000;0.714855
8606.000000;0.714787
8605.000000;0.714637
8604.000000;0.714336
8603.000000;0.713969
8602.000000;0.713738
8601.000000;0.713733
8600.000000;0.713832
8599.000000;0.713864
8598.000000;0.713812
8597.000000;0.713774
8596.000000;0.713771
8595.000000;0.713711
8594.000000;0.713546
8593.000000;0.713368
8592.000000;0.713292
8591.000000;0.713299
8590.000000;0.713240
8589.000000;0.713012
8588.000000;0.712677
8587.000000;0.712398
8586.000000;0.712270
8585.000000;0.712240
8584.000000;0.712183
8583.000000;0.712045
8582.000000;0.711883
8581.000000;0.711769
8580.000000;0.711694
8579.000000;0.711592
8578.000000;0.711464
8577.000000;0.711417
8576.000000;0.711536
8575.000000;0.711747
8574.000000;0.711861
8573.000000;0.711766
8572.000000;0.711515
8571.000000;0.711239
8570.000000;0.711032
8569.000000;0.710930
8568.000000;0.710923
8567.000000;0.710947
8566.000000;0.710888
8565.000000;0.710682
8564.000000;0.710394
8563.000000;0.710141
8562.000000;0.709987
8561.000000;0.709930
8560.000000;0.709959
8559.000000;0.710030
8558.000000;0.710022
8557.000000;0.709797
8556.000000;0.709363
8555.000000;0.708896
8554.000000;0.708581
8553.000000;0.708462
8552.000000;0.708454
8551.000000;0.708479
8550.000000;0.708545
8549.000000;0.708720
8548.000000;0.709009
8547.000000;0.709266
8546.000000;0.709251
8545.000000;0.708874
8544.000000;0.708333
8543.000000;0.707953
8542.000000;0.707855
8541.000000;0.707887
8540.000000;0.707860
8539.000000;0.707757
8538.000000;0.707662
8537.000000;0.707594
8536.000000;0.707524
8535.000000;0.707478
8534.000000;0.707493
8533.000000;0.707499
8532.000000;0.707350
8531.000000;0.707003
8530.000000;0.706589
8529.000000;0.706280
8528.000000;0.706137
8527.000000;0.706079
8526.000000;0.705979
8525.000000;0.705768
8524.000000;0.705504
8523.000000;0.705328
8522.000000;0.705323
8521.000000;0.705398
8520.000000;0.705382
8519.000000;0.705211
8518.000000;0.704980
8517.000000;0.704807
8516.000000;0.704709
8515.000000;0.704643
8514.000000;0.704591
8513.000000;0.704562
8512.000000;0.704542
8511.000000;0.704511
8510.000000;0.704481
8509.000000;0.704470
8508.000000;0.704459
8507.000000;0.704413
8506.000000;0.704345
8505.000000;0.704315
8504.000000;0.704344
8503.000000;0.704396
8502.000000;0.704426
8501.000000;0.704410
8500.000000;0.704314
8499.000000;0.704085
8498.000000;0.703726
8497.000000;0.703343
8496.000000;0.703064
8495.000000;0.702906
8494.000000;0.702769
8493.000000;0.702571
8492.000000;0.702339
8491.000000;0.702150
8490.000000;0.702024
8489.000000;0.701922
8488.000000;0.701829
8487.000000;0.701787
8486.000000;0.701832
8485.000000;0.701934
8484.000000;0.702018
8483.000000;0.702026
8482.000000;0.701942
8481.000000;0.701767
8480.000000;0.701510
8479.000000;0.701209
8478.000000;0.700956
8477.000000;0.700851
8476.000000;0.700911
8475.000000;0.701023
8474.000000;0.701024
8473.000000;0.700847
8472.000000;0.700580
8471.000000;0.700357
8470.000000;0.700238
8469.000000;0.700203
8468.000000;0.700243
8467.000000;0.700366
8466.000000;0.700521
8465.000000;0.700597
8464.000000;0.700522
8463.000000;0.700348
8462.000000;0.700173
8461.000000;0.700030
8460.000000;0.699885
8459.000000;0.699714
8458.000000;0.699527
8457.000000;0.699328
8456.000000;0.699121
8455.000000;0.698954
8454.000000;0.698888
8453.000000;0.698919
8452.000000;0.698982
8451.000000;0.699037
8450.000000;0.699093
8449.000000;0.699125
8448.000000;0.699034
8447.000000;0.698766
8446.000000;0.698435
8445.000000;0.698235
8444.000000;0.698236
8443.000000;0.698310
8442.000000;0.698260
8441.000000;0.697995
8440.000000;0.697576
8439.000000;0.697168
8438.000000;0.696955
8437.000000;0.697036
8436.000000;0.697342
8435.000000;0.697664
8434.000000;0.697814
8433.000000;0.697753
8432.000000;0.697574
8431.000000;0.697372
8430.000000;0.697172
8429.000000;0.696954
8428.000000;0.696700
8427.000000;0.696423
8426.000000;0.696191
8425.000000;0.696112
8424.000000;0.696250
8423.000000;0.696520
8422.000000;0.696717
8421.000000;0.696695
8420.000000;0.696497
8419.000000;0.696284
8418.000000;0.696130
8417.000000;0.695938
8416.000000;0.695588
8415.000000;0.695121
8414.000000;0.694728
8413.000000;0.694559
8412.000000;0.694584
8411.000000;0.694670
8410.000000;0.694735
8409.000000;0.694795
8408.000000;0.694871
8407.000000;0.694924
8406.000000;0.694897
8405.000000;0.694773
8404.000000;0.694577
8403.000000;0.694358
8402.000000;0.694198
8401.000000;0.694188
8400.000000;0.694330
8399.000000;0.694495
8398.000000;0.694513
8397.000000;0.694323
8396.000000;0.694003
8395.000000;0.693668
8394.000000;0.693388
8393.000000;0.693197
8392.000000;0.693118
8391.000000;0.693143
8390.000000;0.693214
8389.000000;0.693257
8388.000000;0.693220
8387.000000;0.693087
8386.000000;0.692873
8385.000000;0.692629
8384.000000;0.692433
8383.000000;0.692347
8382.000000;0.692386
8381.000000;0.692511
8380.000000;0.692632
8379.000000;0.692645
8378.000000;0.692498
8377.000000;0.692249
8376.000000;0.692020
8375.000000;0.691892
8374.000000;0.691851
8373.000000;0.691851
8372.000000;0.691863
8371.000000;0.691870
8370.000000;0.691852
8369.000000;0.691809
8368.000000;0.691779
8367.000000;0.691784
8366.000000;0.691779
8365.000000;0.691688
8364.000000;0.691482
8363.000000;0.691196
8362.000000;0.690884
8361.000000;0.690591
8360.000000;0.690354
8359.000000;0.690192
8358.000000;0.690093
8357.000000;0.690031
8356.000000;0.690006
8355.000000;0.690020
8354.000000;0.690038
8353.000000;0.690003
8352.000000;0.689902
8351.000000;0.689784
8350.000000;0.689690
8349.000000;0.689603
8348.000000;0.689481
8347.000000;0.689307
8346.000000;0.689092
8345.000000;0.688857
8344.000000;0.688650
8343.000000;0.688529
8342.000000;0.688501
8341.000000;0.688468
8340.000000;0.688321
8339.000000;0.688075
8338.000000;0.687877
8337.000000;0.687847
8336.000000;0.687935
8335.000000;0.687989
8334.000000;0.687927
8333.000000;0.687812
8332.000000;0.687749
8331.000000;0.687762
8330.000000;0.687780
8329.000000;0.687735
8328.000000;0.687639
8327.000000;0.687567
8326.000000;0.687556
8325.000000;0.687567
8324.000000;0.687545
8323.000000;0.687521
8322.000000;0.687596
8321.000000;0.687795
8320.000000;0.687976
8319.000000;0.687936
8318.000000;0.687616
8317.000000;0.687165
8316.000000;0.686787
8315.000000;0.686568
8314.000000;0.686446
8313.000000;0.686311
8312.000000;0.686113
8311.000000;0.685905
8310.000000;0.685786
8309.000000;0.685801
8308.000000;0.685891
8307.000000;0.685954
8306.000000;0.685944
8305.000000;0.685861
8304.000000;0.685701
8303.000000;0.685482
8302.000000;0.685321
8301.000000;0.685361
8300.000000;0.685583
8299.000000;0.685778
8298.000000;0.685775
8297.000000;0.685623
8296.000000;0.685475
8295.000000;0.685357
8294.000000;0.685176
8293.000000;0.684901
8292.000000;0.684632
8291.000000;0.684469
8290.000000;0.684420
8289.000000;0.684432
8288.000000;0.684443
8287.000000;0.684382
8286.000000;0.684210
8285.000000;0.683987
8284.000000;0.683830
8283.000000;0.683781
8282.000000;0.683783
8281.000000;0.683792
8280.000000;0.683822
8279.000000;0.683876
8278.000000;0.683895
8277.000000;0.683842
8276.000000;0.683747
8275.000000;0.683642
8274.000000;0.683503
8273.000000;0.683310
8272.000000;0.683120
8271.000000;0.682992
8270.000000;0.682901
8269.000000;0.682783
8268.000000;0.682646
8267.000000;0.682553
8266.000000;0.682514
8265.000000;0.682465
8264.000000;0.682360
8263.000000;0.682244
8262.000000;0.682197
8261.000000;0.682229
8260.000000;0.682257
8259.000000;0.682193
8258.000000;0.682050
8257.000000;0.681929
8256.000000;0.681888
8255.000000;0.681861
8254.000000;0.681754
8253.000000;0.681573
8252.000000;0.681400
8251.000000;0.681244
8250.000000;0.681032
8249.000000;0.680751
8248.000000;0.680507
8247.000000;0.680386
8246.000000;0.680343
8245.000000;0.680305
8244.000000;0.680294
8243.000000;0.680364
8242.000000;0.680467
8241.000000;0.680485
8240.000000;0.680378
8239.000000;0.680229
8238.000000;0.680134
8237.000000;0.680116
8236.000000;0.680130
8235.000000;0.680100
8234.000000;0.679975
8233.000000;0.679790
8232.000000;0.679661
8231.000000;0.679656
8230.000000;0.679705
8229.000000;0.679699
8228.000000;0.679638
8227.000000;0.679594
8226.000000;0.679560
8225.000000;0.679458
8224.000000;0.679304
8223.000000;0.679234
8222.000000;0.679320
8221.000000;0.679448
8220.000000;0.679449
8219.000000;0.679287
8218.000000;0.679061
8217.000000;0.678875
8216.000000;0.678774
8215.000000;0.678754
8214.000000;0.678764
8213.000000;0.678710
8212.000000;0.678536
8211.000000;0.678295
8210.000000;0.678105
8209.000000;0.678019
8208.000000;0.677988
8207.000000;0.677928
8206.000000;0.677809
8205.000000;0.677654
8204.000000;0.677503
8203.000000;0.677389
8202.000000;0.677324
8201.000000;0.677313
8200.000000;0.677362
8199.000000;0.677466
8198.000000;0.677573
8197.000000;0.677592
8196.000000;0.677462
8195.000000;0.677239
8194.000000;0.677051
8193.000000;0.676981
8192.000000;0.676987
8191.000000;0.676968
8190.000000;0.676875
8189.000000;0.676754
8188.000000;0.676681
8187.000000;0.676666
8186.000000;0.676640
8185.000000;0.676524
8184.000000;0.676311
8183.000000;0.676067
8182.000000;0.675862
8181.000000;0.675724
8180.000000;0.675659
8179.000000;0.675678
8178.000000;0.675790
8177.000000;0.675948
8176.000000;0.676067
8175.000000;0.676086
8174.000000;0.676026
8173.000000;0.675951
8172.000000;0.675894
8171.000000;0.675823
8170.000000;0.675690
8169.000000;0.675493
8168.000000;0.675290
8167.000000;0.675153
8166.000000;0.675113
8165.000000;0.675130
8164.000000;0.675115
8163.000000;0.674996
8162.000000;0.674780
8161.000000;0.674556
8160.000000;0.674430
8159.000000;0.674449
8158.000000;0.674563
8157.000000;0.674658
8156.000000;0.674631
8155.000000;0.674449
8154.000000;0.674176
8153.000000;0.673919
8152.000000;0.673751
8151.000000;0.673675
8150.000000;0.673641
8149.000000;0.673592
8148.000000;0.673492
8147.000000;0.673333
8146.000000;0.673153
8145.000000;0.673031
8144.000000;0.673016
8143.000000;0.673074
8142.000000;0.673109
8141.000000;0.673045
8140.000000;0.672889
8139.000000;0.672694
8138.000000;0.672506
8137.000000;0.672339
8136.000000;0.672199
8135.000000;0.672097
8134.000000;0.672046
8133.000000;0.672051
8132.000000;0.672100
8131.000000;0.672167
8130.000000;0.672228
8129.000000;0.672281
8128.000000;0.672328
8127.000000;0.672349
8126.000000;0.672295
8125.000000;0.672117
8124.000000;0.671833
8123.000000;0.671529
8122.000000;0.671309
8121.000000;0.671209
8120.000000;0.671179
8119.000000;0.671160
8118.000000;0.671167
8117.000000;0.671252
8116.000000;0.671398
8115.000000;0.671490
8114.000000;0.671439
8113.000000;0.671278
8112.000000;0.671113
8111.000000;0.671017
8110.000000;0.671005
8109.000000;0.671083
8108.000000;0.671220
8107.000000;0.671305
8106.000000;0.671213
8105.000000;0.670953
8104.000000;0.670683
8103.000000;0.670538
8102.000000;0.670506
8101.000000;0.670494
8100.000000;0.670452
8099.000000;0.670387
8098.000000;0.670291
8097.000000;0.670152
8096.000000;0.670004
8095.000000;0.669917
8094.000000;0.669902
8093.000000;0.669895
8092.000000;0.669840
8091.000000;0.669745
8090.000000;0.669652
8089.000000;0.669567
8088.000000;0.669471
8087.000000;0.669375
8086.000000;0.669320
8085.000000;0.669312
8084.000000;0.669276
8083.000000;0.669145
8082.000000;0.668958
8081.000000;0.668849
8080.000000;0.668882
8079.000000;0.668972
8078.000000;0.668981
8077.000000;0.668875
8076.000000;0.668733
8075.000000;0.668630
8074.000000;0.668556
8073.000000;0.668471
8072.000000;0.668377
8071.000000;0.668318
8070.000000;0.668321
8069.000000;0.668361
8068.000000;0.668368
8067.000000;0.668288
8066.000000;0.668157
8065.000000;0.668091
8064.000000;0.668159
8063.000000;0.668282
8062.000000;0.668310
8061.000000;0.668189
8060.000000;0.667994
8059.000000;0.667812
8058.000000;0.667668
8057.000000;0.667559
8056.000000;0.667479
8055.000000;0.667394
8054.000000;0.667269
8053.000000;0.667143
8052.000000;0.667095
8051.000000;0.667110
8050.000000;0.667052
8049.000000;0.666830
8048.000000;0.666529
8047.000000;0.666316
8046.000000;0.666263
8045.000000;0.666315
8044.000000;0.666375
8043.000000;0.666378
8042.000000;0.666316
8041.000000;0.666261
8040.000000;0.666300
8039.000000;0.666410
8038.000000;0.666446
8037.000000;0.666314
8036.000000;0.666093
8035.000000;0.665910
8034.000000;0.665777
8033.000000;0.665652
8032.000000;0.665591
8031.000000;0.665681
8030.000000;0.665847
8029.000000;0.665865
8028.000000;0.665630
8027.000000;0.665292
8026.000000;0.665079
8025.000000;0.665063
8024.000000;0.665147
8023.000000;0.665211
8022.000000;0.665196
8021.000000;0.665106
8020.000000;0.664995
8019.000000;0.664930
8018.000000;0.664927
8017.000000;0.664932
8016.000000;0.664890
8015.000000;0.664828
8014.000000;0.664824
8013.000000;0.664907
8012.000000;0.665009
8011.000000;0.665023
8010.000000;0.664901
8009.000000;0.664697
8008.000000;0.664518
8007.000000;0.664432
8006.000000;0.664425
8005.000000;0.664447
8004.000000;0.664458
8003.000000;0.664429
8002.000000;0.664318
8001.000000;0.664110
8000.000000;0.663864
7999.000000;0.663677
7998.000000;0.663584
7997.000000;0.663537
7996.000000;0.663486
7995.000000;0.663443
7994.000000;0.663448
7993.000000;0.663488
7992.000000;0.663488
7991.000000;0.663381
7990.000000;0.663182
7989.000000;0.662983
7988.000000;0.662871
7987.000000;0.662850
7986.000000;0.662844
7985.000000;0.662797
7984.000000;0.662733
7983.000000;0.662709
7982.000000;0.662725
7981.000000;0.662724
7980.000000;0.662673
7979.000000;0.662595
7978.000000;0.662529
7977.000000;0.662478
7976.000000;0.662415
7975.000000;0.662329
7974.000000;0.662232
7973.000000;0.662153
7972.000000;0.662104
7971.000000;0.662076
7970.000000;0.662044
7969.000000;0.661999
7968.000000;0.661953
7967.000000;0.661924
7966.000000;0.661918
7965.000000;0.661937
7964.000000;0.661965
7963.000000;0.661960
7962.000000;0.661881
7961.000000;0.661741
7960.000000;0.661614
7959.000000;0.661554
7958.000000;0.661547
7957.000000;0.661539
7956.000000;0.661500
7955.000000;0.661425
7954.000000;0.661316
7953.000000;0.661184
7952.000000;0.661053
7951.000000;0.660920
7950.000000;0.660752
7949.000000;0.660548
7948.000000;0.660371
7947.000000;0.660283
7946.000000;0.660266
7945.000000;0.660252
7944.000000;0.660204
7943.000000;0.660138
7942.000000;0.660084
7941.000000;0.660067
7940.000000;0.660110
7939.000000;0.660204
7938.000000;0.660302
7937.000000;0.660370
7936.000000;0.660410
7935.000000;0.660407
7934.000000;0.660303
7933.000000;0.660070
7932.000000;0.659775
7931.000000;0.659513
7930.000000;0.659307
7929.000000;0.659137
7928.000000;0.659025
7927.000000;0.659008
7926.000000;0.659048
7925.000000;0.659071
7924.000000;0.659074
7923.000000;0.659115
7922.000000;0.659188
7921.000000;0.659205
7920.000000;0.659114
7919.000000;0.658952
7918.000000;0.658778
7917.000000;0.658621
7916.000000;0.658527
7915.000000;0.658542
7914.000000;0.658617
7913.000000;0.658610
7912.000000;0.658455
7911.000000;0.658250
7910.000000;0.658136
7909.000000;0.658134
7908.000000;0.658165
7907.000000;0.658174
7906.000000;0.658155
7905.000000;0.658106
7904.000000;0.658026
7903.000000;0.657953
7902.000000;0.657930
7901.000000;0.657937
7900.000000;0.657906
7899.000000;0.657801
7898.000000;0.657640
7897.000000;0.657454
7896.000000;0.657265
7895.000000;0.657113
7894.000000;0.657045
7893.000000;0.657081
7892.000000;0.657178
7891.000000;0.657252
7890.000000;0.657235
7889.000000;0.657119
7888.000000;0.656967
7887.000000;0.656865
7886.000000;0.656852
7885.000000;0.656890
7884.000000;0.656896
7883.000000;0.656798
7882.000000;0.656584
7881.000000;0.656317
7880.000000;0.656121
7879.000000;0.656093
7878.000000;0.656202
7877.000000;0.656317
7876.000000;0.656324
7875.000000;0.656232
7874.000000;0.656125
7873.000000;0.656071
7872.000000;0.656066
7871.000000;0.656078
7870.000000;0.656083
7869.000000;0.656077
7868.000000;0.656063
7867.000000;0.656026
7866.000000;0.655938
7865.000000;0.655795
7864.000000;0.655646
7863.000000;0.655542
7862.000000;0.655486
7861.000000;0.655429
7860.000000;0.655351
7859.000000;0.655289
7858.000000;0.655297
7857.000000;0.655384
7856.000000;0.655492
7855.000000;0.655516
7854.000000;0.655370
7853.000000;0.655085
7852.000000;0.654830
7851.000000;0.654771
7850.000000;0.654900
7849.000000;0.655066
7848.000000;0.655143
7847.000000;0.655118
7846.000000;0.655001
7845.000000;0.654770
7844.000000;0.654460
7843.000000;0.654213
7842.000000;0.654157
7841.000000;0.654266
7840.000000;0.654399
7839.000000;0.654447
7838.000000;0.654397
7837.000000;0.654283
7836.000000;0.654151
7835.000000;0.654045
7834.000000;0.653973
7833.000000;0.653882
7832.000000;0.653732
7831.000000;0.653576
7830.000000;0.653516
7829.000000;0.653572
7828.000000;0.653657
7827.000000;0.653676
7826.000000;0.653611
7825.000000;0.653509
7824.000000;0.653426
7823.000000;0.653390
7822.000000;0.653386
7821.000000;0.653362
7820.000000;0.653284
7819.000000;0.653174
7818.000000;0.653085
7817.000000;0.653037
7816.000000;0.653015
7815.000000;0.653000
7814.000000;0.652985
7813.000000;0.652949
7812.000000;0.652878
7811.000000;0.652792
7810.000000;0.652733
7809.000000;0.652712
7808.000000;0.652698
7807.000000;0.652653
7806.000000;0.652563
7805.000000;0.652429
7804.000000;0.652274
7803.000000;0.652156
7802.000000;0.652132
7801.000000;0.652194
7800.000000;0.652271
7799.000000;0.652285
7798.000000;0.652211
7797.000000;0.652069
7796.000000;0.651911
7795.000000;0.651797
7794.000000;0.651742
7793.000000;0.651698
7792.000000;0.651611
7791.000000;0.651505
7790.000000;0.651451
7789.000000;0.651463
7788.000000;0.651477
7787.000000;0.651439
7786.000000;0.651378
7785.000000;0.651336
7784.000000;0.651297
7783.000000;0.651230
7782.000000;0.651152
7781.000000;0.651109
7780.000000;0.651099
7779.000000;0.651072
7778.000000;0.651005
7777.000000;0.650909
7776.000000;0.650775
7775.000000;0.650574
7774.000000;0.650330
7773.000000;0.650135
7772.000000;0.650048
7771.000000;0.650027
7770.000000;0.649999
7769.000000;0.649962
7768.000000;0.649970
7767.000000;0.650028
7766.000000;0.650067
7765.000000;0.650029
7764.000000;0.649941
7763.000000;0.649863
7762.000000;0.649818
7761.000000;0.649783
7760.000000;0.649733
7759.000000;0.649657
7758.000000;0.649549
7757.000000;0.649415
7756.000000;0.649280
7755.000000;0.649177
7754.000000;0.649118
7753.000000;0.649106
7752.000000;0.649146
7751.000000;0.649211
7750.000000;0.649233
7749.000000;0.649170
7748.000000;0.649059
7747.000000;0.648971
7746.000000;0.648913
7745.000000;0.648824
7744.000000;0.648673
7743.000000;0.648496
7742.000000;0.648346
7741.000000;0.648236
7740.000000;0.648181
7739.000000;0.648206
7738.000000;0.648298
7737.000000;0.648377
7736.000000;0.648374
7735.000000;0.648308
7734.000000;0.648249
7733.000000;0.648230
7732.000000;0.648224
7731.000000;0.648193
7730.000000;0.648115
7729.000000;0.647987
7728.000000;0.647834
7727.000000;0.647702
7726.000000;0.647615
7725.000000;0.647556
7724.000000;0.647511
7723.000000;0.647501
7722.000000;0.647533
7721.000000;0.647546
7720.000000;0.647472
7719.000000;0.647334
7718.000000;0.647210
7717.000000;0.647132
7716.000000;0.647071
7715.000000;0.647025
7714.000000;0.647036
7713.000000;0.647114
7712.000000;0.647195
7711.000000;0.647211
7710.000000;0.647147
7709.000000;0.647014
7708.000000;0.646817
7707.000000;0.646583
7706.000000;0.646375
7705.000000;0.646244
7704.000000;0.646184
7703.000000;0.646162
7702.000000;0.646169
7701.000000;0.646202
7700.000000;0.646230
7699.000000;0.646214
7698.000000;0.646146
7697.000000;0.646058
7696.000000;0.645990
7695.000000;0.645967
7694.000000;0.645994
7693.000000;0.646043
7692.000000;0.646063
7691.000000;0.646020
7690.000000;0.645914
7689.000000;0.645762
7688.000000;0.645574
7687.000000;0.645379
7686.000000;0.645233
7685.000000;0.645168
7684.000000;0.645163
7683.000000;0.645167
7682.000000;0.645151
7681.000000;0.645116
7680.000000;0.645075
7679.000000;0.645035
7678.000000;0.644999
7677.000000;0.644961
7676.000000;0.644912
7675.000000;0.644859
7674.000000;0.644820
7673.000000;0.644786
7672.000000;0.644730
7671.000000;0.644655
7670.000000;0.644595
7669.000000;0.644550
7668.000000;0.644461
7667.000000;0.644290
7666.000000;0.644091
7665.000000;0.643941
7664.000000;0.643848
7663.000000;0.643777
7662.000000;0.643737
7661.000000;0.643762
7660.000000;0.643828
7659.000000;0.643860
7658.000000;0.643830
7657.000000;0.643784
7656.000000;0.643756
7655.000000;0.643718
7654.000000;0.643643
7653.000000;0.643555
7652.000000;0.643484
7651.000000;0.643410
7650.000000;0.643303
7649.000000;0.643184
7648.000000;0.643100
7647.000000;0.643077
7646.000000;0.643111
7645.000000;0.643180
7644.000000;0.643231
7643.000000;0.643194
7642.000000;0.643060
7641.000000;0.642914
7640.000000;0.642846
7639.000000;0.642854
7638.000000;0.642860
7637.000000;0.642809
7636.000000;0.642708
7635.000000;0.642581
7634.000000;0.642448
7633.000000;0.642331
7632.000000;0.642263
7631.000000;0.642250
7630.000000;0.642266
7629.000000;0.642280
7628.000000;0.642272
7627.000000;0.642225
7626.000000;0.642134
7625.000000;0.642012
7624.000000;0.641884
7623.000000;0.641781
7622.000000;0.641723
7621.000000;0.641707
7620.000000;0.641685
7619.000000;0.641606
7618.000000;0.641478
7617.000000;0.641387
7616.000000;0.641396
7615.000000;0.641469
7614.000000;0.641511
7613.000000;0.641476
7612.000000;0.641393
7611.000000;0.641315
7610.000000;0.641268
7609.000000;0.641255
7608.000000;0.641242
7607.000000;0.641189
7606.000000;0.641110
7605.000000;0.641089
7604.000000;0.641183
7603.000000;0.641323
7602.000000;0.641371
7601.000000;0.641272
7600.000000;0.641084
7599.000000;0.640887
7598.000000;0.640713
7597.000000;0.640590
7596.000000;0.640553
7595.000000;0.640590
7594.000000;0.640630
7593.000000;0.640632
7592.000000;0.640622
7591.000000;0.640634
7590.000000;0.640648
7589.000000;0.640631
7588.000000;0.640578
7587.000000;0.640495
7586.000000;0.640370
7585.000000;0.640215
7584.000000;0.640081
7583.000000;0.640007
7582.000000;0.639978
7581.000000;0.639961
7580.000000;0.639937
7579.000000;0.639889
7578.000000;0.639791
7577.000000;0.639657
7576.000000;0.639554
7575.000000;0.639530
7574.000000;0.639563
7573.000000;0.639614
7572.000000;0.639686
7571.000000;0.639782
7570.000000;0.639857
7569.000000;0.639863
7568.000000;0.639815
7567.000000;0.639753
7566.000000;0.639675
7565.000000;0.639569
7564.000000;0.639468
7563.000000;0.639417
7562.000000;0.639394
7561.000000;0.639332
7560.000000;0.639212
7559.000000;0.639073
7558.000000;0.638937
7557.000000;0.638808
7556.000000;0.638721
7555.000000;0.638734
7554.000000;0.638845
7553.000000;0.638978
7552.000000;0.639060
7551.000000;0.639067
7550.000000;0.639003
7549.000000;0.638877
7548.000000;0.638732
7547.000000;0.638633
7546.000000;0.638605
7545.000000;0.638619
7544.000000;0.638624
7543.000000;0.638584
7542.000000;0.638482
7541.000000;0.638354
7540.000000;0.638295
7539.000000;0.638375
7538.000000;0.638544
7537.000000;0.638669
7536.000000;0.638669
7535.000000;0.638566
7534.000000;0.638412
7533.000000;0.638227
7532.000000;0.638047
7531.000000;0.637940
7530.000000;0.637947
7529.000000;0.638047
7528.000000;0.638192
7527.000000;0.638333
7526.000000;0.638417
7525.000000;0.638409
7524.000000;0.638346
7523.000000;0.638301
7522.000000;0.638281
7521.000000;0.638223
7520.000000;0.638106
7519.000000;0.637995
7518.000000;0.637943
7517.000000;0.637923
7516.000000;0.637893
7515.000000;0.637869
7514.000000;0.637868
7513.000000;0.637842
7512.000000;0.637750
7511.000000;0.637639
7510.000000;0.637583
7509.000000;0.637574
7508.000000;0.637546
7507.000000;0.637486
7506.000000;0.637441
7505.000000;0.637428
7504.000000;0.637416
7503.000000;0.637383
7502.000000;0.637345
7501.000000;0.637328
7500.000000;0.637354
7499.000000;0.637438
7498.000000;0.637569
7497.000000;0.637677
7496.000000;0.637702
7495.000000;0.637659
7494.000000;0.637618
7493.000000;0.637608
7492.000000;0.637591
7491.000000;0.637546
7490.000000;0.637482
7489.000000;0.637455
7488.000000;0.637437
7487.000000;0.637391
7486.000000;0.637304
7485.000000;0.637195
7484.000000;0.637111
7483.000000;0.637102
7482.000000;0.637177
7481.000000;0.637280
7480.000000;0.637347
7479.000000;0.637370
7478.000000;0.637375
7477.000000;0.637356
7476.000000;0.637286
7475.000000;0.637185
7474.000000;0.637122
7473.000000;0.637128
7472.000000;0.637155
7471.000000;0.637147
7470.000000;0.637104
7469.000000;0.637069
7468.000000;0.637065
7467.000000;0.637083
7466.000000;0.637100
7465.000000;0.637089
7464.000000;0.637036
7463.000000;0.636977
7462.000000;0.636980
7461.000000;0.637079
7460.000000;0.637225
7459.000000;0.637323
7458.000000;0.637324
7457.000000;0.637252
7456.000000;0.637178
7455.000000;0.637154
7454.000000;0.637180
7453.000000;0.637216
7452.000000;0.637231
7451.000000;0.637230
7450.000000;0.637229
7449.000000;0.637219
7448.000000;0.637185
7447.000000;0.637139
7446.000000;0.637113
7445.000000;0.637112
7444.000000;0.637116
7443.000000;0.637123
7442.000000;0.637166
7441.000000;0.637248
7440.000000;0.637304
7439.000000;0.637260
7438.000000;0.637118
7437.000000;0.636957
7436.000000;0.636867
7435.000000;0.636876
7434.000000;0.636949
7433.000000;0.637023
7432.000000;0.637055
7431.000000;0.637044
7430.000000;0.637014
7429.000000;0.636987
7428.000000;0.636979
7427.000000;0.637008
7426.000000;0.637080
7425.000000;0.637166
7424.000000;0.637217
7423.000000;0.637225
7422.000000;0.637217
7421.000000;0.637206
7420.000000;0.637167
7419.000000;0.637092
7418.000000;0.637036
7417.000000;0.637057
7416.000000;0.637148
7415.000000;0.637238
7414.000000;0.637258
7413.000000;0.637184
7412.000000;0.637036
7411.000000;0.636878
7410.000000;0.636795
7409.000000;0.636830
7408.000000;0.636950
7407.000000;0.637078
7406.000000;0.637174
7405.000000;0.637252
7404.000000;0.637317
7403.000000;0.637339
7402.000000;0.637294
7401.000000;0.637212
7400.000000;0.637150
7399.000000;0.637124
7398.000000;0.637104
7397.000000;0.637060
7396.000000;0.637011
7395.000000;0.636999
7394.000000;0.637034
7393.000000;0.637079
7392.000000;0.637096
7391.000000;0.637095
7390.000000;0.637117
7389.000000;0.637174
7388.000000;0.637232
7387.000000;0.637260
7386.000000;0.637294
7385.000000;0.637396
7384.000000;0.637563
7383.000000;0.637711
7382.000000;0.637770
7381.000000;0.637760
7380.000000;0.637738
7379.000000;0.637698
7378.000000;0.637572
7377.000000;0.637350
7376.000000;0.637139
7375.000000;0.637088
7374.000000;0.637242
7373.000000;0.637501
7372.000000;0.637727
7371.000000;0.637848
7370.000000;0.637871
7369.000000;0.637846
7368.000000;0.637862
7367.000000;0.638000
7366.000000;0.638252
7365.000000;0.638480
7364.000000;0.638520
7363.000000;0.638335
7362.000000;0.638056
7361.000000;0.637870
7360.000000;0.637866
7359.000000;0.637984
7358.000000;0.638085
7357.000000;0.638064
7356.000000;0.637922
7355.000000;0.637764
7354.000000;0.637726
7353.000000;0.637849
7352.000000;0.638041
7351.000000;0.638168
7350.000000;0.638186
7349.000000;0.638178
7348.000000;0.638264
7347.000000;0.638472
7346.000000;0.638708
7345.000000;0.638845
7344.000000;0.638822
7343.000000;0.638668
7342.000000;0.638463
7341.000000;0.638299
7340.000000;0.638257
7339.000000;0.638367
7338.000000;0.638574
7337.000000;0.638774
7336.000000;0.638900
7335.000000;0.638968
7334.000000;0.639046
7333.000000;0.639191
7332.000000;0.639397
7331.000000;0.639576
7330.000000;0.639614
7329.000000;0.639484
7328.000000;0.639296
7327.000000;0.639201
7326.000000;0.639226
7325.000000;0.639287
7324.000000;0.639344
7323.000000;0.639449
7322.000000;0.639636
7321.000000;0.639852
7320.000000;0.640058
7319.000000;0.640282
7318.000000;0.640529
7317.000000;0.640706
7316.000000;0.640733
7315.000000;0.640675
7314.000000;0.640648
7313.000000;0.640674
7312.000000;0.640705
7311.000000;0.640749
7310.000000;0.640850
7309.000000;0.640965
7308.000000;0.640979
7307.000000;0.640893
7306.000000;0.640871
7305.000000;0.641068
7304.000000;0.641473
7303.000000;0.641968
7302.000000;0.642422
7301.000000;0.642720
7300.000000;0.642818
7299.000000;0.642832
7298.000000;0.642968
7297.000000;0.643279
7296.000000;0.643598
7295.000000;0.643749
7294.000000;0.643741
7293.000000;0.643714
7292.000000;0.643768
7291.000000;0.643914
7290.000000;0.644141
7289.000000;0.644421
7288.000000;0.644683
7287.000000;0.644876
7286.000000;0.645036
7285.000000;0.645225
7284.000000;0.645405
7283.000000;0.645494
7282.000000;0.645503
7281.000000;0.645552
7280.000000;0.645733
7279.000000;0.646014
7278.000000;0.646293
7277.000000;0.646485
7276.000000;0.646557
7275.000000;0.646541
7274.000000;0.646532
7273.000000;0.646636
7272.000000;0.646874
7271.000000;0.647171
7270.000000;0.647459
7269.000000;0.647735
7268.000000;0.648021
7267.000000;0.648306
7266.000000;0.648564
7265.000000;0.648797
7264.000000;0.649034
7263.000000;0.649305
7262.000000;0.649629
7261.000000;0.649999
7260.000000;0.650367
7259.000000;0.650673
7258.000000;0.650904
7257.000000;0.651112
7256.000000;0.651335
7255.000000;0.651556
7254.000000;0.651747
7253.000000;0.651933
7252.000000;0.652165
7251.000000;0.652444
7250.000000;0.652701
7249.000000;0.652870
7248.000000;0.652952
7247.000000;0.653025
7246.000000;0.653180
7245.000000;0.653449
7244.000000;0.653811
7243.000000;0.654245
7242.000000;0.654779
7241.000000;0.655423
7240.000000;0.656074
7239.000000;0.656582
7238.000000;0.656885
7237.000000;0.657058
7236.000000;0.657224
7235.000000;0.657449
7234.000000;0.657753
7233.000000;0.658155
7232.000000;0.658651
7231.000000;0.659185
7230.000000;0.659666
7229.000000;0.660040
7228.000000;0.660299
7227.000000;0.660453
7226.000000;0.660579
7225.000000;0.660826
7224.000000;0.661307
7223.000000;0.661982
7222.000000;0.662671
7221.000000;0.663198
7220.000000;0.663526
7219.000000;0.663768
7218.000000;0.664069
7217.000000;0.664483
7216.000000;0.664958
7215.000000;0.665415
7214.000000;0.665842
7213.000000;0.666312
7212.000000;0.666902
7211.000000;0.667608
7210.000000;0.668329
7209.000000;0.668923
7208.000000;0.669288
7207.000000;0.669436
7206.000000;0.669519
7205.000000;0.669757
7204.000000;0.670267
7203.000000;0.670972
7202.000000;0.671715
7201.000000;0.672414
7200.000000;0.673053
7199.000000;0.673616
7198.000000;0.674097
7197.000000;0.674553
7196.000000;0.675054
7195.000000;0.675591
7194.000000;0.676113
7193.000000;0.676633
7192.000000;0.677206
7191.000000;0.677802
7190.000000;0.678309
7189.000000;0.678707
7188.000000;0.679124
7187.000000;0.679690
7186.000000;0.680374
7185.000000;0.681007
7184.000000;0.681430
7183.000000;0.681637
7182.000000;0.681816
7181.000000;0.682248
7180.000000;0.683059
7179.000000;0.684068
7178.000000;0.684954
7177.000000;0.685563
7176.000000;0.685999
7175.000000;0.686456
7174.000000;0.687056
7173.000000;0.687819
7172.000000;0.688665
7171.000000;0.689430
7170.000000;0.689992
7169.000000;0.690409
7168.000000;0.690855
7167.000000;0.691431
7166.000000;0.692095
7165.000000;0.692767
7164.000000;0.693396
7163.000000;0.693934
7162.000000;0.694378
7161.000000;0.694872
7160.000000;0.695610
7159.000000;0.696567
7158.000000;0.697464
7157.000000;0.698067
7156.000000;0.698429
7155.000000;0.698789
7154.000000;0.699352
7153.000000;0.700180
7152.000000;0.701185
7151.000000;0.702161
7150.000000;0.702936
7149.000000;0.703529
7148.000000;0.704068
7147.000000;0.704570
7146.000000;0.704956
7145.000000;0.705281
7144.000000;0.705755
7143.000000;0.706413
7142.000000;0.707000
7141.000000;0.707313
7140.000000;0.707513
7139.000000;0.707937
7138.000000;0.708675
7137.000000;0.709479
7136.000000;0.710082
7135.000000;0.710467
7134.000000;0.710838
7133.000000;0.711389
7132.000000;0.712099
7131.000000;0.712739
7130.000000;0.713123
7129.000000;0.713326
7128.000000;0.713573
7127.000000;0.713912
7126.000000;0.714168
7125.000000;0.714241
7124.000000;0.714288
7123.000000;0.714526
7122.000000;0.715013
7121.000000;0.715670
7120.000000;0.716349
7119.000000;0.716807
7118.000000;0.716833
7117.000000;0.716553
7116.000000;0.716417
7115.000000;0.716729
7114.000000;0.717360
7113.000000;0.718038
7112.000000;0.718689
7111.000000;0.719278
7110.000000;0.719523
7109.000000;0.719109
7108.000000;0.718150
7107.000000;0.717214
7106.000000;0.716844
7105.000000;0.717143
7104.000000;0.717772
7103.000000;0.718237
7102.000000;0.718167
7101.000000;0.717437
7100.000000;0.716157
7099.000000;0.714625
7098.000000;0.713266
7097.000000;0.712437
7096.000000;0.712111
7095.000000;0.711857
7094.000000;0.711360
7093.000000;0.710856
7092.000000;0.710748
7091.000000;0.710873
7090.000000;0.710552
7089.000000;0.709451
7088.000000;0.708035
7087.000000;0.707056
7086.000000;0.706838
7085.000000;0.707161
7084.000000;0.707533
7083.000000;0.707424
7082.000000;0.706506
7081.000000;0.704898
7080.000000;0.703054
7079.000000;0.701338
7078.000000;0.699848
7077.000000;0.698584
7076.000000;0.697447
7075.000000;0.696093
7074.000000;0.694306
7073.000000;0.692597
7072.000000;0.691850
7071.000000;0.692131
7070.000000;0.692335
7069.000000;0.691337
7068.000000;0.689120
7067.000000;0.686460
7066.000000;0.684009
7065.000000;0.682060
7064.000000;0.680635
7063.000000;0.679345
7062.000000;0.677582
7061.000000;0.675311
7060.000000;0.673280
7059.000000;0.672043
7058.000000;0.671223
7057.000000;0.670258
7056.000000;0.669329
7055.000000;0.668875
7054.000000;0.668572
7053.000000;0.667591
7052.000000;0.665701
7051.000000;0.663341
7050.000000;0.660764
7049.000000;0.657863
7048.000000;0.654816
7047.000000;0.652136
7046.000000;0.650012
7045.000000;0.648200
7044.000000;0.646560
7043.000000;0.645099
7042.000000;0.643475
7041.000000;0.641212
7040.000000;0.638523
7039.000000;0.636279
7038.000000;0.634951
7037.000000;0.634089
7036.000000;0.632981
7035.000000;0.631288
7034.000000;0.628877
7033.000000;0.625689
7032.000000;0.622115
7031.000000;0.618997
7030.000000;0.616910
7029.000000;0.615754
7028.000000;0.615144
7027.000000;0.614703
7026.000000;0.613742
7025.000000;0.611316
7024.000000;0.607223
7023.000000;0.602595
7022.000000;0.598953
7021.000000;0.596763
7020.000000;0.595217
7019.000000;0.593244
7018.000000;0.590446
7017.000000;0.587244
7016.000000;0.584441
7015.000000;0.582535
7014.000000;0.581185
7013.000000;0.579505
7012.000000;0.577121
7011.000000;0.574646
7010.000000;0.572780
7009.000000;0.571264
7008.000000;0.569170
7007.000000;0.566087
7006.000000;0.562530
7005.000000;0.559167
7004.000000;0.556181
7003.000000;0.553522
7002.000000;0.551306
7001.000000;0.549589
7000.000000;0.547973
6999.000000;0.545860
6998.000000;0.543082
6997.000000;0.540065
6996.000000;0.537315
6995.000000;0.534908
6994.000000;0.532511
6993.000000;0.529750
6992.000000;0.526511
6991.000000;0.523048
6990.000000;0.519906
6989.000000;0.517608
6988.000000;0.516180
6987.000000;0.514904
6986.000000;0.512736
6985.000000;0.509178
6984.000000;0.504765
6983.000000;0.500599
6982.000000;0.497449
6981.000000;0.495260
6980.000000;0.493385
6979.000000;0.491227
6978.000000;0.488670
6977.000000;0.485982
6976.000000;0.483363
6975.000000;0.480657
6974.000000;0.477593
6973.000000;0.474200
6972.000000;0.470802
6971.000000;0.467637
6970.000000;0.464773
6969.000000;0.462446
6968.000000;0.461001
6967.000000;0.460210
6966.000000;0.459061
6965.000000;0.456773
6964.000000;0.453804
6963.000000;0.451180
6962.000000;0.448991
6961.000000;0.446315
6960.000000;0.442734
6959.000000;0.439100
6958.000000;0.436436
6957.000000;0.434683
6956.000000;0.433059
6955.000000;0.431200
6954.000000;0.429326
6953.000000;0.427575
6952.000000;0.425742
6951.000000;0.423651
6950.000000;0.421337
6949.000000;0.418866
6948.000000;0.416319
6947.000000;0.413901
6946.000000;0.411763
6945.000000;0.409725
6944.000000;0.407424
6943.000000;0.404717
6942.000000;0.401778
6941.000000;0.398860
6940.000000;0.396163
6939.000000;0.393790
6938.000000;0.391659
6937.000000;0.389592
6936.000000;0.387618
6935.000000;0.385931
6934.000000;0.384379
6933.000000;0.382366
6932.000000;0.379582
6931.000000;0.376547
6930.000000;0.374027
6929.000000;0.372117
6928.000000;0.370326
6927.000000;0.368381
6926.000000;0.366461
6925.000000;0.364760
6924.000000;0.363271
6923.000000;0.361907
6922.000000;0.360451
6921.000000;0.358525
6920.000000;0.356007
6919.000000;0.353338
6918.000000;0.351029
6917.000000;0.349079
6916.000000;0.347281
6915.000000;0.345795
6914.000000;0.344805
6913.000000;0.343846
6912.000000;0.342234
6911.000000;0.340102
6910.000000;0.338250
6909.000000;0.336934
6908.000000;0.335511
6907.000000;0.333450
6906.000000;0.331041
6905.000000;0.328965
6904.000000;0.327696
6903.000000;0.327390
6902.000000;0.327710
6901.000000;0.327646
6900.000000;0.326164
6899.000000;0.323305
6898.000000;0.320092
6897.000000;0.317272
6896.000000;0.314722
6895.000000;0.312225
6894.000000;0.310153
6893.000000;0.309016
6892.000000;0.308776
6891.000000;0.308894
6890.000000;0.308643
6889.000000;0.307346
6888.000000;0.304943
6887.000000;0.302482
6886.000000;0.301380
6885.000000;0.301878
6884.000000;0.302751
6883.000000;0.302756
6882.000000;0.301724
6881.000000;0.300035
6880.000000;0.297932
6879.000000;0.295811
6878.000000;0.294444
6877.000000;0.294165
6876.000000;0.294281
6875.000000;0.293859
6874.000000;0.292794
6873.000000;0.291680
6872.000000;0.290991
6871.000000;0.290715
6870.000000;0.290373
6869.000000;0.289186
6868.000000;0.286801
6867.000000;0.284165
6866.000000;0.282995
6865.000000;0.283882
6864.000000;0.285500
6863.000000;0.286209
6862.000000;0.285739
6861.000000;0.284697
6860.000000;0.283215
6859.000000;0.281082
6858.000000;0.278763
6857.000000;0.277255
6856.000000;0.277016
6855.000000;0.277692
6854.000000;0.278710
6853.000000;0.279496
6852.000000;0.279379
6851.000000;0.278099
6850.000000;0.276376
6849.000000;0.275327
6848.000000;0.275311
6847.000000;0.275873
6846.000000;0.276603
6845.000000;0.277316
6844.000000;0.277536
6843.000000;0.276724
6842.000000;0.275217
6841.000000;0.274256
6840.000000;0.274647
6839.000000;0.275827
6838.000000;0.276586
6837.000000;0.276336
6836.000000;0.275462
6835.000000;0.274739
6834.000000;0.274671
6833.000000;0.275245
6832.000000;0.276081
6831.000000;0.276812
6830.000000;0.277328
6829.000000;0.277669
6828.000000;0.277820
6827.000000;0.277768
6826.000000;0.277618
6825.000000;0.277431
6824.000000;0.277049
6823.000000;0.276335
6822.000000;0.275527
6821.000000;0.275162
6820.000000;0.275677
6819.000000;0.277161
6818.000000;0.279282
6817.000000;0.281288
6816.000000;0.282345
6815.000000;0.282231
6814.000000;0.281576
6813.000000;0.281166
6812.000000;0.281117
6811.000000;0.281041
6810.000000;0.280841
6809.000000;0.280900
6808.000000;0.281472
6807.000000;0.282284
6806.000000;0.282866
6805.000000;0.283054
6804.000000;0.283080
6803.000000;0.283342
6802.000000;0.284077
6801.000000;0.285085
6800.000000;0.285827
6799.000000;0.286008
6798.000000;0.286013
6797.000000;0.286488
6796.000000;0.287492
6795.000000;0.288406
6794.000000;0.288712
6793.000000;0.288600
6792.000000;0.288692
6791.000000;0.289407
6790.000000;0.290782
6789.000000;0.292647
6788.000000;0.294648
6787.000000;0.296188
6786.000000;0.296723
6785.000000;0.296300
6784.000000;0.295625
6783.000000;0.295402
6782.000000;0.295682
6781.000000;0.296025
6780.000000;0.296184
6779.000000;0.296347
6778.000000;0.296690
6777.000000;0.297066
6776.000000;0.297345
6775.000000;0.297796
6774.000000;0.298735
6773.000000;0.299942
6772.000000;0.300837
6771.000000;0.301214
6770.000000;0.301444
6769.000000;0.301911
6768.000000;0.302614
6767.000000;0.303427
6766.000000;0.304355
6765.000000;0.305365
6764.000000;0.306299
6763.000000;0.307184
6762.000000;0.308301
6761.000000;0.309707
6760.000000;0.310970
6759.000000;0.311708
6758.000000;0.312131
6757.000000;0.312699
6756.000000;0.313440
6755.000000;0.314016
6754.000000;0.314346
6753.000000;0.314737
6752.000000;0.315375
6751.000000;0.316059
6750.000000;0.316539
6749.000000;0.316831
6748.000000;0.317075
6747.000000;0.317326
6746.000000;0.317587
6745.000000;0.317925
6744.000000;0.318469
6743.000000;0.319401
6742.000000;0.320873
6741.000000;0.322742
6740.000000;0.324411
6739.000000;0.325231
6738.000000;0.325176
6737.000000;0.324915
6736.000000;0.325106
6735.000000;0.325794
6734.000000;0.326599
6733.000000;0.327244
6732.000000;0.327692
6731.000000;0.327989
6730.000000;0.328262
6729.000000;0.328789
6728.000000;0.329759
6727.000000;0.330942
6726.000000;0.331848
6725.000000;0.332313
6724.000000;0.332704
6723.000000;0.333416
6722.000000;0.334358
6721.000000;0.335128
6720.000000;0.335580
6719.000000;0.335956
6718.000000;0.336487
6717.000000;0.337121
6716.000000;0.337753
6715.000000;0.338474
6714.000000;0.339422
6713.000000;0.340486
6712.000000;0.341368
6711.000000;0.341931
6710.000000;0.342327
6709.000000;0.342756
6708.000000;0.343249
6707.000000;0.343733
6706.000000;0.344204
6705.000000;0.344752
6704.000000;0.345454
6703.000000;0.346282
6702.000000;0.347108
6701.000000;0.347805
6700.000000;0.348382
6699.000000;0.349007
6698.000000;0.349777
6697.000000;0.350564
6696.000000;0.351049
6695.000000;0.351190
6694.000000;0.351325
6693.000000;0.351797
6692.000000;0.352635
6691.000000;0.353577
6690.000000;0.354405
6689.000000;0.355114
6688.000000;0.355822
6687.000000;0.356599
6686.000000;0.357402
6685.000000;0.358102
6684.000000;0.358592
6683.000000;0.358892
6682.000000;0.359157
6681.000000;0.359554
6680.000000;0.360143
6679.000000;0.360885
6678.000000;0.361724
6677.000000;0.362621
6676.000000;0.363529
6675.000000;0.364387
6674.000000;0.365111
6673.000000;0.365614
6672.000000;0.365871
6671.000000;0.366009
6670.000000;0.366274
6669.000000;0.366824
6668.000000;0.367563
6667.000000;0.368248
6666.000000;0.368754
6665.000000;0.369209
6664.000000;0.369832
6663.000000;0.370671
6662.000000;0.371534
6661.000000;0.372166
6660.000000;0.372503
6659.000000;0.372726
6658.000000;0.373060
6657.000000;0.373568
6656.000000;0.374145
6655.000000;0.374690
6654.000000;0.375211
6653.000000;0.375764
6652.000000;0.376378
6651.000000;0.377068
6650.000000;0.377853
6649.000000;0.378693
6648.000000;0.379449
6647.000000;0.379974
6646.000000;0.380259
6645.000000;0.380459
6644.000000;0.380776
6643.000000;0.381315
6642.000000;0.382022
6641.000000;0.382724
6640.000000;0.383251
6639.000000;0.383549
6638.000000;0.383701
6637.000000;0.383871
6636.000000;0.384219
6635.000000;0.384811
6634.000000;0.385562
6633.000000;0.386280
6632.000000;0.386825
6631.000000;0.387231
6630.000000;0.387654
6629.000000;0.388205
6628.000000;0.388880
6627.000000;0.389610
6626.000000;0.390310
6625.000000;0.390891
6624.000000;0.391300
6623.000000;0.391580
6622.000000;0.391818
6621.000000;0.392045
6620.000000;0.392265
6619.000000;0.392577
6618.000000;0.393141
6617.000000;0.393974
6616.000000;0.394880
6615.000000;0.395641
6614.000000;0.396213
6613.000000;0.396678
6612.000000;0.397117
6611.000000;0.397590
6610.000000;0.398173
6609.000000;0.398880
6608.000000;0.399608
6607.000000;0.400234
6606.000000;0.400732
6605.000000;0.401115
6604.000000;0.401355
6603.000000;0.401459
6602.000000;0.401566
6601.000000;0.401832
6600.000000;0.402257
6599.000000;0.402726
6598.000000;0.403203
6597.000000;0.403748
6596.000000;0.404350
6595.000000;0.404881
6594.000000;0.405279
6593.000000;0.405630
6592.000000;0.406037
6591.000000;0.406490
6590.000000;0.406941
6589.000000;0.407411
6588.000000;0.407950
6587.000000;0.408544
6586.000000;0.409134
6585.000000;0.409698
6584.000000;0.410242
6583.000000;0.410749
6582.000000;0.411184
6581.000000;0.411563
6580.000000;0.411948
6579.000000;0.412383
6578.000000;0.412854
6577.000000;0.413321
6576.000000;0.413765
6575.000000;0.414188
6574.000000;0.414584
6573.000000;0.414913
6572.000000;0.415130
6571.000000;0.415265
6570.000000;0.415455
6569.000000;0.415841
6568.000000;0.416422
6567.000000;0.417062
6566.000000;0.417653
6565.000000;0.418207
6564.000000;0.418756
6563.000000;0.419236
6562.000000;0.419546
6561.000000;0.419708
6560.000000;0.419887
6559.000000;0.420237
6558.000000;0.420767
6557.000000;0.421363
6556.000000;0.421920
6555.000000;0.422410
6554.000000;0.422867
6553.000000;0.423309
6552.000000;0.423709
6551.000000;0.424020
6550.000000;0.424244
6549.000000;0.424455
6548.000000;0.424741
6547.000000;0.425129
6546.000000;0.425592
6545.000000;0.426099
6544.000000;0.426618
6543.000000;0.427092
6542.000000;0.427463
6541.000000;0.427744
6540.000000;0.428034
6539.000000;0.428413
6538.000000;0.428837
6537.000000;0.429193
6536.000000;0.429446
6535.000000;0.429692
6534.000000;0.430045
6533.000000;0.430510
6532.000000;0.430999
6531.000000;0.431445
6530.000000;0.431850
6529.000000;0.432254
6528.000000;0.432684
6527.000000;0.433144
6526.000000;0.433615
6525.000000;0.434051
6524.000000;0.434411
6523.000000;0.434700
6522.000000;0.434951
6521.000000;0.435182
6520.000000;0.435404
6519.000000;0.435680
6518.000000;0.436084
6517.000000;0.436573
6516.000000;0.436965
6515.000000;0.437127
6514.000000;0.437150
6513.000000;0.437254
6512.000000;0.437556
6511.000000;0.438000
6510.000000;0.438490
6509.000000;0.438996
6508.000000;0.439507
6507.000000;0.439978
6506.000000;0.440382
6505.000000;0.440764
6504.000000;0.441177
6503.000000;0.441597
6502.000000;0.441959
6501.000000;0.442250
6500.000000;0.442518
6499.000000;0.442811
6498.000000;0.443142
6497.000000;0.443494
6496.000000;0.443820
6495.000000;0.444048
6494.000000;0.444144
6493.000000;0.444166
6492.000000;0.444236
6491.000000;0.444430
6490.000000;0.444727
6489.000000;0.445071
6488.000000;0.445437
6487.000000;0.445826
6486.000000;0.446232
6485.000000;0.446634
6484.000000;0.447021
6483.000000;0.447377
6482.000000;0.447670
6481.000000;0.447878
6480.000000;0.448039
6479.000000;0.448245
6478.000000;0.448564
6477.000000;0.448972
6476.000000;0.449379
6475.000000;0.449717
6474.000000;0.449987
6473.000000;0.450237
6472.000000;0.450505
6471.000000;0.450797
6470.000000;0.451086
6469.000000;0.451329
6468.000000;0.451509
6467.000000;0.451663
6466.000000;0.451866
6465.000000;0.452158
6464.000000;0.452511
6463.000000;0.452869
6462.000000;0.453207
6461.000000;0.453532
6460.000000;0.453837
6459.000000;0.454100
6458.000000;0.454311
6457.000000;0.454492
6456.000000;0.454672
6455.000000;0.454887
6454.000000;0.455165
6453.000000;0.455506
6452.000000;0.455879
6451.000000;0.456251
6450.000000;0.456617
6449.000000;0.456959
6448.000000;0.457218
6447.000000;0.457356
6446.000000;0.457454
6445.000000;0.457651
6444.000000;0.457996
6443.000000;0.458385
6442.000000;0.458699
6441.000000;0.458929
6440.000000;0.459141
6439.000000;0.459368
6438.000000;0.459597
6437.000000;0.459816
6436.000000;0.460032
6435.000000;0.460246
6434.000000;0.460457
6433.000000;0.460680
6432.000000;0.460928
6431.000000;0.461180
6430.000000;0.461414
6429.000000;0.461647
6428.000000;0.461912
6427.000000;0.462205
6426.000000;0.462477
6425.000000;0.462691
6424.000000;0.462849
6423.000000;0.462964
6422.000000;0.463060
6421.000000;0.463186
6420.000000;0.463391
6419.000000;0.463669
6418.000000;0.463966
6417.000000;0.464224
6416.000000;0.464426
6415.000000;0.464583
6414.000000;0.464726
6413.000000;0.464897
6412.000000;0.465129
6411.000000;0.465409
6410.000000;0.465688
6409.000000;0.465924
6408.000000;0.466114
6407.000000;0.466270
6406.000000;0.466411
6405.000000;0.466563
6404.000000;0.466755
6403.000000;0.466991
6402.000000;0.467259
6401.000000;0.467554
6400.000000;0.467865
6399.000000;0.468139
6398.000000;0.468301
6397.000000;0.468337
6396.000000;0.468324
6395.000000;0.468363
6394.000000;0.468489
6393.000000;0.468676
6392.000000;0.468896
6391.000000;0.469143
6390.000000;0.469410
6389.000000;0.469667
6388.000000;0.469892
6387.000000;0.470080
6386.000000;0.470234
6385.000000;0.470339
6384.000000;0.470386
6383.000000;0.470406
6382.000000;0.470464
6381.000000;0.470615
6380.000000;0.470858
6379.000000;0.471148
6378.000000;0.471443
6377.000000;0.471719
6376.000000;0.471965
6375.000000;0.472172
6374.000000;0.472332
6373.000000;0.472438
6372.000000;0.472490
6371.000000;0.472515
6370.000000;0.472584
6369.000000;0.472765
6368.000000;0.473039
6367.000000;0.473296
6366.000000;0.473438
6365.000000;0.473471
6364.000000;0.473480
6363.000000;0.473541
6362.000000;0.473671
6361.000000;0.473848
6360.000000;0.474038
6359.000000;0.474214
6358.000000;0.474377
6357.000000;0.474559
6356.000000;0.474775
6355.000000;0.474992
6354.000000;0.475165
6353.000000;0.475303
6352.000000;0.475447
6351.000000;0.475609
6350.000000;0.475754
6349.000000;0.475849
6348.000000;0.475904
6347.000000;0.475939
6346.000000;0.475974
6345.000000;0.476032
6344.000000;0.476132
6343.000000;0.476262
6342.000000;0.476394
6341.000000;0.476521
6340.000000;0.476669
6339.000000;0.476850
6338.000000;0.477026
6337.000000;0.477140
6336.000000;0.477178
6335.000000;0.477180
6334.000000;0.477205
6333.000000;0.477293
6332.000000;0.477438
6331.000000;0.477602
6330.000000;0.477758
6329.000000;0.477907
6328.000000;0.478059
6327.000000;0.478208
6326.000000;0.478338
6325.000000;0.478450
6324.000000;0.478548
6323.000000;0.478627
6322.000000;0.478692
6321.000000;0.478781
6320.000000;0.478915
6319.000000;0.479058
6318.000000;0.479141
6317.000000;0.479157
6316.000000;0.479173
6315.000000;0.479251
6314.000000;0.479384
6313.000000;0.479528
6312.000000;0.479644
6311.000000;0.479710
6310.000000;0.479718
6309.000000;0.479693
6308.000000;0.479684
6307.000000;0.479723
6306.000000;0.479807
6305.000000;0.479915
6304.000000;0.480042
6303.000000;0.480177
6302.000000;0.480309
6301.000000;0.480438
6300.000000;0.480564
6299.000000;0.480660
6298.000000;0.480692
6297.000000;0.480669
6296.000000;0.480652
6295.000000;0.480686
6294.000000;0.480758
6293.000000;0.480836
6292.000000;0.480908
6291.000000;0.480960
6290.000000;0.480967
6289.000000;0.480942
6288.000000;0.480960
6287.000000;0.481086
6286.000000;0.481302
6285.000000;0.481525
6284.000000;0.481686
6283.000000;0.481765
6282.000000;0.481775
6281.000000;0.481753
6280.000000;0.481749
6279.000000;0.481786
6278.000000;0.481843
6277.000000;0.481888
6276.000000;0.481921
6275.000000;0.481966
6274.000000;0.482031
6273.000000;0.482108
6272.000000;0.482188
6271.000000;0.482251
6270.000000;0.482266
6269.000000;0.482228
6268.000000;0.482189
6267.000000;0.482212
6266.000000;0.482303
6265.000000;0.482420
6264.000000;0.482528
6263.000000;0.482616
6262.000000;0.482681
6261.000000;0.482724
6260.000000;0.482770
6259.000000;0.482839
6258.000000;0.482925
6257.000000;0.483002
6256.000000;0.483058
6255.000000;0.483097
6254.000000;0.483114
6253.000000;0.483095
6252.000000;0.483055
6251.000000;0.483028
6250.000000;0.483037
6249.000000;0.483079
6248.000000;0.483146
6247.000000;0.483228
6246.000000;0.483297
6245.000000;0.483323
6244.000000;0.483300
6243.000000;0.483249
6242.000000;0.483200
6241.000000;0.483192
6240.000000;0.483257
6239.000000;0.483383
6238.000000;0.483502
6237.000000;0.483544
6236.000000;0.483517
6235.000000;0.483498
6234.000000;0.483539
6233.000000;0.483623
6232.000000;0.483701
6231.000000;0.483742
6230.000000;0.483738
6229.000000;0.483699
6228.000000;0.483663
6227.000000;0.483679
6226.000000;0.483768
6225.000000;0.483888
6224.000000;0.483969
6223.000000;0.483981
6222.000000;0.483951
6221.000000;0.483934
6220.000000;0.483963
6219.000000;0.484023
6218.000000;0.484063
6217.000000;0.484042
6216.000000;0.483965
6215.000000;0.483882
6214.000000;0.483843
6213.000000;0.483867
6212.000000;0.483929
6211.000000;0.483987
6210.000000;0.484022
6209.000000;0.484055
6208.000000;0.484115
6207.000000;0.484190
6206.000000;0.484232
6205.000000;0.484220
6204.000000;0.484186
6203.000000;0.484170
6202.000000;0.484163
6201.000000;0.484140
6200.000000;0.484119
6199.000000;0.484138
6198.000000;0.484197
6197.000000;0.484244
6196.000000;0.484254
6195.000000;0.484259
6194.000000;0.484287
6193.000000;0.484312
6192.000000;0.484284
6191.000000;0.484198
6190.000000;0.484107
6189.000000;0.484063
6188.000000;0.484075
6187.000000;0.484111
6186.000000;0.484142
6185.000000;0.484168
6184.000000;0.484204
6183.000000;0.484248
6182.000000;0.484277
6181.000000;0.484272
6180.000000;0.484242
6179.000000;0.484203
6178.000000;0.484158
6177.000000;0.484102
6176.000000;0.484052
6175.000000;0.484034
6174.000000;0.484056
6173.000000;0.484106
6172.000000;0.484168
6171.000000;0.484225
6170.000000;0.484246
6169.000000;0.484212
6168.000000;0.484138
6167.000000;0.484076
6166.000000;0.484062
6165.000000;0.484096
6164.000000;0.484151
6163.000000;0.484200
6162.000000;0.484215
6161.000000;0.484192
6160.000000;0.484167
6159.000000;0.484189
6158.000000;0.484264
6157.000000;0.484332
6156.000000;0.484326
6155.000000;0.484231
6154.000000;0.484095
6153.000000;0.483984
6152.000000;0.483940
6151.000000;0.483959
6150.000000;0.484012
6149.000000;0.484071
6148.000000;0.484135
6147.000000;0.484204
6146.000000;0.484248
6145.000000;0.484232
6144.000000;0.484166
6143.000000;0.484110
6142.000000;0.484100
6141.000000;0.484105
6140.000000;0.484072
6139.000000;0.483997
6138.000000;0.483919
6137.000000;0.483863
6136.000000;0.483823
6135.000000;0.483791
6134.000000;0.483783
6133.000000;0.483809
6132.000000;0.483854
6131.000000;0.483895
6130.000000;0.483923
6129.000000;0.483939
6128.000000;0.483935
6127.000000;0.483898
6126.000000;0.483831
6125.000000;0.483750
6124.000000;0.483682
6123.000000;0.483649
6122.000000;0.483662
6121.000000;0.483722
6120.000000;0.483817
6119.000000;0.483921
6118.000000;0.483998
6117.000000;0.484009
6116.000000;0.483930
6115.000000;0.483780
6114.000000;0.483618
6113.000000;0.483505
6112.000000;0.483467
6111.000000;0.483491
6110.000000;0.483548
6109.000000;0.483612
6108.000000;0.483656
6107.000000;0.483657
6106.000000;0.483613
6105.000000;0.483546
6104.000000;0.483475
6103.000000;0.483402
6102.000000;0.483334
6101.000000;0.483296
6100.000000;0.483308
6099.000000;0.483352
6098.000000;0.483392
6097.000000;0.483420
6096.000000;0.483456
6095.000000;0.483503
6094.000000;0.483539
6093.000000;0.483550
6092.000000;0.483543
6091.000000;0.483531
6090.000000;0.483517
6089.000000;0.483508
6088.000000;0.483514
6087.000000;0.483522
6086.000000;0.483508
6085.000000;0.483472
6084.000000;0.483440
6083.000000;0.483422
6082.000000;0.483401
6081.000000;0.483374
6080.000000;0.483361
6079.000000;0.483367
6078.000000;0.483360
6077.000000;0.483318
6076.000000;0.483270
6075.000000;0.483243
6074.000000;0.483229
6073.000000;0.483214
6072.000000;0.483212
6071.000000;0.483230
6070.000000;0.483232
6069.000000;0.483183
6068.000000;0.483112
6067.000000;0.483073
6066.000000;0.483072
6065.000000;0.483070
6064.000000;0.483048
6063.000000;0.483018
6062.000000;0.482983
6061.000000;0.482938
6060.000000;0.482902
6059.000000;0.482906
6058.000000;0.482945
6057.000000;0.482975
6056.000000;0.482978
6055.000000;0.482978
6054.000000;0.482987
6053.000000;0.482980
6052.000000;0.482947
6051.000000;0.482910
6050.000000;0.482894
6049.000000;0.482899
6048.000000;0.482924
6047.000000;0.482979
6046.000000;0.483052
6045.000000;0.483095
6044.000000;0.483080
6043.000000;0.483034
6042.000000;0.483008
6041.000000;0.483013
6040.000000;0.483019
6039.000000;0.482999
6038.000000;0.482955
6037.000000;0.482909
6036.000000;0.482880
6035.000000;0.482869
6034.000000;0.482860
6033.000000;0.482847
6032.000000;0.482836
6031.000000;0.482827
6030.000000;0.482792
6029.000000;0.482721
6028.000000;0.482658
6027.000000;0.482668
6026.000000;0.482755
6025.000000;0.482852
6024.000000;0.482887
6023.000000;0.482848
6022.000000;0.482765
6021.000000;0.482683
6020.000000;0.482648
6019.000000;0.482687
6018.000000;0.482778
6017.000000;0.482864
6016.000000;0.482904
6015.000000;0.482897
6014.000000;0.482858
6013.000000;0.482807
6012.000000;0.482781
6011.000000;0.482810
6010.000000;0.482871
6009.000000;0.482897
6008.000000;0.482861
6007.000000;0.482807
6006.000000;0.482775
6005.000000;0.482747
6004.000000;0.482689
6003.000000;0.482606
6002.000000;0.482540
6001.000000;0.482513
6000.000000;0.482529
5999.000000;0.482586
5998.000000;0.482671
5997.000000;0.482744
5996.000000;0.482770
5995.000000;0.482750
5994.000000;0.482708
5993.000000;0.482658
5992.000000;0.482618
5991.000000;0.482606
5990.000000;0.482624
5989.000000;0.482636
5988.000000;0.482611
5987.000000;0.482559
5986.000000;0.482513
5985.000000;0.482479
5984.000000;0.482446
5983.000000;0.482414
5982.000000;0.482401
5981.000000;0.482419
5980.000000;0.482459
5979.000000;0.482503
5978.000000;0.482528
5977.000000;0.482522
5976.000000;0.482497
5975.000000;0.482488
5974.000000;0.482513
5973.000000;0.482558
5972.000000;0.482603
5971.000000;0.482654
5970.000000;0.482714
5969.000000;0.482761
5968.000000;0.482776
5967.000000;0.482762
5966.000000;0.482735
5965.000000;0.482698
5964.000000;0.482655
5963.000000;0.482634
5962.000000;0.482649
5961.000000;0.482673
5960.000000;0.482673
5959.000000;0.482656
5958.000000;0.482649
5957.000000;0.482643
5956.000000;0.482607
5955.000000;0.482541
5954.000000;0.482478
5953.000000;0.482436
5952.000000;0.482415
5951.000000;0.482428
5950.000000;0.482493
5949.000000;0.482584
5948.000000;0.482639
5947.000000;0.482633
5946.000000;0.482602
5945.000000;0.482587
5944.000000;0.482593
5943.000000;0.482605
5942.000000;0.482621
5941.000000;0.482646
5940.000000;0.482671
5939.000000;0.482697
5938.000000;0.482739
5937.000000;0.482802
5936.000000;0.482868
5935.000000;0.482917
5934.000000;0.482949
5933.000000;0.482968
5932.000000;0.482968
5931.000000;0.482952
5930.000000;0.482945
5929.000000;0.482961
5928.000000;0.482988
5927.000000;0.483002
5926.000000;0.483008
5925.000000;0.483016
5924.000000;0.483024
5923.000000;0.483021
5922.000000;0.483015
5921.000000;0.483026
5920.000000;0.483058
5919.000000;0.483092
5918.000000;0.483105
5917.000000;0.483090
5916.000000;0.483045
5915.000000;0.482978
5914.000000;0.482911
5913.000000;0.482869
5912.000000;0.482858
5911.000000;0.482862
5910.000000;0.482862
5909.000000;0.482859
5908.000000;0.482865
5907.000000;0.482889
5906.000000;0.482937
5905.000000;0.483012
5904.000000;0.483106
5903.000000;0.483189
5902.000000;0.483232
5901.000000;0.483225
5900.000000;0.483176
5899.000000;0.483097
5898.000000;0.483007
5897.000000;0.482946
5896.000000;0.482958
5895.000000;0.483035
5894.000000;0.483107
5893.000000;0.483111
5892.000000;0.483050
5891.000000;0.482971
5890.000000;0.482907
5889.000000;0.482857
5888.000000;0.482835
5887.000000;0.482872
5886.000000;0.482963
5885.000000;0.483049
5884.000000;0.483069
5883.000000;0.483027
5882.000000;0.482978
5881.000000;0.482971
5880.000000;0.483018
5879.000000;0.483099
5878.000000;0.483168
5877.000000;0.483182
5876.000000;0.483141
5875.000000;0.483103
5874.000000;0.483129
5873.000000;0.483209
5872.000000;0.483277
5871.000000;0.483285
5870.000000;0.483251
5869.000000;0.483226
5868.000000;0.483235
5867.000000;0.483258
5866.000000;0.483269
5865.000000;0.483263
5864.000000;0.483261
5863.000000;0.483282
5862.000000;0.483314
5861.000000;0.483322
5860.000000;0.483279
5859.000000;0.483196
5858.000000;0.483115
5857.000000;0.483072
5856.000000;0.483075
5855.000000;0.483111
5854.000000;0.483161
5853.000000;0.483208
5852.000000;0.483233
5851.000000;0.483218
5850.000000;0.483167
5849.000000;0.483113
5848.000000;0.483108
5847.000000;0.483182
5846.000000;0.483303
5845.000000;0.483402
5844.000000;0.483431
5843.000000;0.483399
5842.000000;0.483345
5841.000000;0.483294
5840.000000;0.483250
5839.000000;0.483213
5838.000000;0.483187
5837.000000;0.483178
5836.000000;0.483192
5835.000000;0.483223
5834.000000;0.483255
5833.000000;0.483270
5832.000000;0.483262
5831.000000;0.483240
5830.000000;0.483216
5829.000000;0.483194
5828.000000;0.483185
5827.000000;0.483207
5826.000000;0.483264
5825.000000;0.483332
5824.000000;0.483381
5823.000000;0.483409
5822.000000;0.483433
5821.000000;0.483465
5820.000000;0.483503
5819.000000;0.483542
5818.000000;0.483578
5817.000000;0.483611
5816.000000;0.483644
5815.000000;0.483682
5814.000000;0.483722
5813.000000;0.483751
5812.000000;0.483760
5811.000000;0.483759
5810.000000;0.483761
5809.000000;0.483774
5808.000000;0.483800
5807.000000;0.483835
5806.000000;0.483867
5805.000000;0.483874
5804.000000;0.483848
5803.000000;0.483803
5802.000000;0.483751
5801.000000;0.483692
5800.000000;0.483637
5799.000000;0.483613
5798.000000;0.483638
5797.000000;0.483690
5796.000000;0.483736
5795.000000;0.483767
5794.000000;0.483793
5793.000000;0.483804
5792.000000;0.483780
5791.000000;0.483726
5790.000000;0.483687
5789.000000;0.483706
5788.000000;0.483787
5787.000000;0.483895
5786.000000;0.483975
5785.000000;0.483993
5784.000000;0.483952
5783.000000;0.483887
5782.000000;0.483835
5781.000000;0.483802
5780.000000;0.483779
5779.000000;0.483762
5778.000000;0.483759
5777.000000;0.483769
5776.000000;0.483782
5775.000000;0.483789
5774.000000;0.483780
5773.000000;0.483750
5772.000000;0.483701
5771.000000;0.483654
5770.000000;0.483636
5769.000000;0.483651
5768.000000;0.483681
5767.000000;0.483705
5766.000000;0.483721
5765.000000;0.483745
5764.000000;0.483787
5763.000000;0.483835
5762.000000;0.483854
5761.000000;0.483816
5760.000000;0.483736
5759.000000;0.483659
5758.000000;0.483599
5757.000000;0.483532
5756.000000;0.483447
5755.000000;0.483370
5754.000000;0.483333
5753.000000;0.483336
5752.000000;0.483362
5751.000000;0.483416
5750.000000;0.483497
5749.000000;0.483568
5748.000000;0.483589
5747.000000;0.483568
5746.000000;0.483551
5745.000000;0.483556
5744.000000;0.483562
5743.000000;0.483551
5742.000000;0.483532
5741.000000;0.483512
5740.000000;0.483484
5739.000000;0.483440
5738.000000;0.483392
5737.000000;0.483350
5736.000000;0.483327
5735.000000;0.483335
5734.000000;0.483382
5733.000000;0.483446
5732.000000;0.483495
5731.000000;0.483517
5730.000000;0.483521
5729.000000;0.483511
5728.000000;0.483474
5727.000000;0.483420
5726.000000;0.483380
5725.000000;0.483359
5724.000000;0.483333
5723.000000;0.483284
5722.000000;0.483232
5721.000000;0.483202
5720.000000;0.483189
5719.000000;0.483171
5718.000000;0.483139
5717.000000;0.483104
5716.000000;0.483078
5715.000000;0.483069
5714.000000;0.483072
5713.000000;0.483063
5712.000000;0.483021
5711.000000;0.482955
5710.000000;0.482900
5709.000000;0.482872
5708.000000;0.482857
5707.000000;0.482848
5706.000000;0.482853
5705.000000;0.482873
5704.000000;0.482894
5703.000000;0.482913
5702.000000;0.482947
5701.000000;0.483001
5700.000000;0.483040
5699.000000;0.483037
5698.000000;0.483013
5697.000000;0.482996
5696.000000;0.482985
5695.000000;0.482954
5694.000000;0.482921
5693.000000;0.482909
5692.000000;0.482927
5691.000000;0.482933
5690.000000;0.482895
5689.000000;0.482839
5688.000000;0.482799
5687.000000;0.482784
5686.000000;0.482781
5685.000000;0.482794
5684.000000;0.482833
5683.000000;0.482891
5682.000000;0.482945
5681.000000;0.482972
5680.000000;0.482972
5679.000000;0.482955
5678.000000;0.482933
5677.000000;0.482917
5676.000000;0.482911
5675.000000;0.482913
5674.000000;0.482916
5673.000000;0.482918
5672.000000;0.482922
5671.000000;0.482934
5670.000000;0.482957
5669.000000;0.482995
5668.000000;0.483046
5667.000000;0.483099
5666.000000;0.483146
5665.000000;0.483190
5664.000000;0.483230
5663.000000;0.483242
5662.000000;0.483199
5661.000000;0.483125
5660.000000;0.483101
5659.000000;0.483199
5658.000000;0.483393
5657.000000;0.483578
5656.000000;0.483677
5655.000000;0.483697
5654.000000;0.483691
5653.000000;0.483688
5652.000000;0.483681
5651.000000;0.483659
5650.000000;0.483629
5649.000000;0.483617
5648.000000;0.483662
5647.000000;0.483794
5646.000000;0.483991
5645.000000;0.484174
5644.000000;0.484268
5643.000000;0.484266
5642.000000;0.484222
5641.000000;0.484197
5640.000000;0.484232
5639.000000;0.484350
5638.000000;0.484541
5637.000000;0.484747
5636.000000;0.484886
5635.000000;0.484918
5634.000000;0.484888
5633.000000;0.484877
5632.000000;0.484937
5631.000000;0.485052
5630.000000;0.485163
5629.000000;0.485234
5628.000000;0.485287
5627.000000;0.485380
5626.000000;0.485528
5625.000000;0.485673
5624.000000;0.485755
5623.000000;0.485794
5622.000000;0.485876
5621.000000;0.486047
5620.000000;0.486265
5619.000000;0.486454
5618.000000;0.486589
5617.000000;0.486704
5616.000000;0.486835
5615.000000;0.486981
5614.000000;0.487114
5613.000000;0.487214
5612.000000;0.487284
5611.000000;0.487358
5610.000000;0.487462
5609.000000;0.487590
5608.000000;0.487715
5607.000000;0.487824
5606.000000;0.487938
5605.000000;0.488077
5604.000000;0.488226
5603.000000;0.488346
5602.000000;0.488422
5601.000000;0.488489
5600.000000;0.488590
5599.000000;0.488738
5598.000000;0.488910
5597.000000;0.489077
5596.000000;0.489219
5595.000000;0.489330
5594.000000;0.489416
5593.000000;0.489508
5592.000000;0.489639
5591.000000;0.489808
5590.000000;0.489970
5589.000000;0.490081
5588.000000;0.490138
5587.000000;0.490164
5586.000000;0.490186
5585.000000;0.490243
5584.000000;0.490389
5583.000000;0.490640
5582.000000;0.490925
5581.000000;0.491138
5580.000000;0.491251
5579.000000;0.491331
5578.000000;0.491450
5577.000000;0.491619
5576.000000;0.491814
5575.000000;0.492009
5574.000000;0.492164
5573.000000;0.492245
5572.000000;0.492269
5571.000000;0.492305
5570.000000;0.492394
5569.000000;0.492512
5568.000000;0.492632
5567.000000;0.492776
5566.000000;0.492959
5565.000000;0.493141
5564.000000;0.493280
5563.000000;0.493388
5562.000000;0.493493
5561.000000;0.493579
5560.000000;0.493625
5559.000000;0.493661
5558.000000;0.493730
5557.000000;0.493817
5556.000000;0.493886
5555.000000;0.493962
5554.000000;0.494096
5553.000000;0.494262
5552.000000;0.494378
5551.000000;0.494420
5550.000000;0.494451
5549.000000;0.494525
5548.000000;0.494635
5547.000000;0.494765
5546.000000;0.494917
5545.000000;0.495066
5544.000000;0.495156
5543.000000;0.495184
5542.000000;0.495213
5541.000000;0.495292
5540.000000;0.495400
5539.000000;0.495508
5538.000000;0.495635
5537.000000;0.495797
5536.000000;0.495948
5535.000000;0.496030
5534.000000;0.496042
5533.000000;0.496034
5532.000000;0.496056
5531.000000;0.496143
5530.000000;0.496312
5529.000000;0.496533
5528.000000;0.496724
5527.000000;0.496832
5526.000000;0.496893
5525.000000;0.496977
5524.000000;0.497092
5523.000000;0.497187
5522.000000;0.497223
5521.000000;0.497212
5520.000000;0.497187
5519.000000;0.497173
5518.000000;0.497187
5517.000000;0.497241
5516.000000;0.497332
5515.000000;0.497447
5514.000000;0.497566
5513.000000;0.497669
5512.000000;0.497744
5511.000000;0.497812
5510.000000;0.497922
5509.000000;0.498098
5508.000000;0.498309
5507.000000;0.498493
5506.000000;0.498597
5505.000000;0.498595
5504.000000;0.498502
5503.000000;0.498397
5502.000000;0.498380
5501.000000;0.498495
5500.000000;0.498694
5499.000000;0.498905
5498.000000;0.499093
5497.000000;0.499244
5496.000000;0.499321
5495.000000;0.499291
5494.000000;0.499188
5493.000000;0.499095
5492.000000;0.499073
5491.000000;0.499118
5490.000000;0.499173
5489.000000;0.499197
5488.000000;0.499223
5487.000000;0.499339
5486.000000;0.499596
5485.000000;0.499932
5484.000000;0.500236
5483.000000;0.500480
5482.000000;0.500717
5481.000000;0.500961
5480.000000;0.501123
5479.000000;0.501127
5478.000000;0.501020
5477.000000;0.500924
5476.000000;0.500919
5475.000000;0.501022
5474.000000;0.501221
5473.000000;0.501469
5472.000000;0.501677
5471.000000;0.501804
5470.000000;0.501912
5469.000000;0.502068
5468.000000;0.502218
5467.000000;0.502241
5466.000000;0.502118
5465.000000;0.501941
5464.000000;0.501799
5463.000000;0.501715
5462.000000;0.501699
5461.000000;0.501778
5460.000000;0.501978
5459.000000;0.502289
5458.000000;0.502655
5457.000000;0.502999
5456.000000;0.503258
5455.000000;0.503418
5454.000000;0.503511
5453.000000;0.503573
5452.000000;0.503624
5451.000000;0.503696
5450.000000;0.503815
5449.000000;0.503941
5448.000000;0.503989
5447.000000;0.503939
5446.000000;0.503896
5445.000000;0.503992
5444.000000;0.504236
5443.000000;0.504501
5442.000000;0.504672
5441.000000;0.504777
5440.000000;0.504949
5439.000000;0.505248
5438.000000;0.505571
5437.000000;0.505787
5436.000000;0.505916
5435.000000;0.506103
5434.000000;0.506418
5433.000000;0.506717
5432.000000;0.506810
5431.000000;0.506694
5430.000000;0.506565
5429.000000;0.506620
5428.000000;0.506888
5427.000000;0.507222
5426.000000;0.507442
5425.000000;0.507519
5424.000000;0.507610
5423.000000;0.507887
5422.000000;0.508344
5421.000000;0.508807
5420.000000;0.509154
5419.000000;0.509415
5418.000000;0.509656
5417.000000;0.509861
5416.000000;0.509977
5415.000000;0.510025
5414.000000;0.510085
5413.000000;0.510181
5412.000000;0.510264
5411.000000;0.510345
5410.000000;0.510528
5409.000000;0.510895
5408.000000;0.511406
5407.000000;0.511968
5406.000000;0.512525
5405.000000;0.513061
5404.000000;0.513565
5403.000000;0.514044
5402.000000;0.514507
5401.000000;0.514934
5400.000000;0.515281
5399.000000;0.515562
5398.000000;0.515855
5397.000000;0.516205
5396.000000;0.516568
5395.000000;0.516888
5394.000000;0.517163
5393.000000;0.517451
5392.000000;0.517819
5391.000000;0.518310
5390.000000;0.518932
5389.000000;0.519640
5388.000000;0.520329
5387.000000;0.520900
5386.000000;0.521354
5385.000000;0.521778
5384.000000;0.522241
5383.000000;0.522774
5382.000000;0.523415
5381.000000;0.524164
5380.000000;0.524939
5379.000000;0.525625
5378.000000;0.526170
5377.000000;0.526632
5376.000000;0.527130
5375.000000;0.527744
5374.000000;0.528460
5373.000000;0.529202
5372.000000;0.529934
5371.000000;0.530737
5370.000000;0.531735
5369.000000;0.532923
5368.000000;0.534144
5367.000000;0.535240
5366.000000;0.536184
5365.000000;0.537051
5364.000000;0.537905
5363.000000;0.538762
5362.000000;0.539646
5361.000000;0.540579
5360.000000;0.541560
5359.000000;0.542593
5358.000000;0.543714
5357.000000;0.544922
5356.000000;0.546136
5355.000000;0.547274
5354.000000;0.548367
5353.000000;0.549521
5352.000000;0.550749
5351.000000;0.551968
5350.000000;0.553171
5349.000000;0.554483
5348.000000;0.555974
5347.000000;0.557489
5346.000000;0.558808
5345.000000;0.559970
5344.000000;0.561319
5343.000000;0.563109
5342.000000;0.565149
5341.000000;0.566977
5340.000000;0.568381
5339.000000;0.569678
5338.000000;0.571362
5337.000000;0.573463
5336.000000;0.575504
5335.000000;0.577145
5334.000000;0.578550
5333.000000;0.579994
5332.000000;0.581432
5331.000000;0.582708
5330.000000;0.583944
5329.000000;0.585365
5328.000000;0.586897
5327.000000;0.588279
5326.000000;0.589437
5325.000000;0.590349
5324.000000;0.590771
5323.000000;0.590626
5322.000000;0.590429
5321.000000;0.590657
5320.000000;0.590777
5319.000000;0.589705
5318.000000;0.587277
5317.000000;0.584373
5316.000000;0.581476
5315.000000;0.578107
5314.000000;0.573881
5313.000000;0.569052
5312.000000;0.563543
5311.000000;0.556505
5310.000000;0.547440
5309.000000;0.536845
5308.000000;0.525200
5307.000000;0.512294
5306.000000;0.498097
5305.000000;0.483193
5304.000000;0.467524
5303.000000;0.449915
5302.000000;0.430138
5301.000000;0.410649
5300.000000;0.394924
5299.000000;0.385124
5298.000000;0.383209
5297.000000;0.392348
5296.000000;0.412726
5295.000000;0.438996
5294.000000;0.467640
5293.000000;0.501365
5292.000000;0.541721
5291.000000;0.584618
5290.000000;0.626129
5289.000000;0.665544
5288.000000;0.701311
5287.000000;0.731512
5286.000000;0.758010
5285.000000;0.783328
5284.000000;0.805468
5283.000000;0.822209
5282.000000;0.836934
5281.000000;0.851893
5280.000000;0.861961
5279.000000;0.864337
5278.000000;0.866040
5277.000000;0.873619
5276.000000;0.882270
5275.000000;0.883766
5274.000000;0.881304
5273.000000;0.884622
5272.000000;0.894850
5271.000000;0.905448
5270.000000;0.914427
5269.000000;0.924832
5268.000000;0.934861
5267.000000;0.939164
5266.000000;0.939364
5265.000000;0.942626
5264.000000;0.949490
5263.000000;0.953460
5262.000000;0.953408
5261.000000;0.954567
5260.000000;0.955800
5259.000000;0.949664
5258.000000;0.936743
5257.000000;0.927518
5256.000000;0.927867
5255.000000;0.932374
5254.000000;0.933506
5253.000000;0.930512
5252.000000;0.927465
5251.000000;0.928396
5250.000000;0.935242
5249.000000;0.947637
5248.000000;0.962424
5247.000000;0.974156
5246.000000;0.980316
5245.000000;0.983341
5244.000000;0.984933
5243.000000;0.983146
5242.000000;0.976723
5241.000000;0.968506
5240.000000;0.962254
5239.000000;0.958376
5238.000000;0.954157
5237.000000;0.947168
5236.000000;0.938169
5235.000000;0.931071
5234.000000;0.929811
5233.000000;0.934446
5232.000000;0.940838
5231.000000;0.944945
5230.000000;0.946154
5229.000000;0.945644
5228.000000;0.943906
5227.000000;0.941413
5226.000000;0.939782
5225.000000;0.940848
5224.000000;0.945518
5223.000000;0.953488
5222.000000;0.962053
5221.000000;0.965365
5220.000000;0.959144
5219.000000;0.947139
5218.000000;0.938066
5217.000000;0.936374
5216.000000;0.939521
5215.000000;0.942786
5214.000000;0.943163
5213.000000;0.939382
5212.000000;0.932262
5211.000000;0.925830
5210.000000;0.925278
5209.000000;0.932519
5208.000000;0.945238
5207.000000;0.959525
5206.000000;0.970253
5205.000000;0.971902
5204.000000;0.964249
5203.000000;0.954165
5202.000000;0.948477
5201.000000;0.947054
5200.000000;0.945605
5199.000000;0.943765
5198.000000;0.944615
5197.000000;0.947115
5196.000000;0.946638
5195.000000;0.943647
5194.000000;0.943589
5193.000000;0.946641
5192.000000;0.946101
5191.000000;0.939871
5190.000000;0.934388
5189.000000;0.933990
5188.000000;0.935526
5187.000000;0.936416
5186.000000;0.940100
5185.000000;0.948314
5184.000000;0.955173
5183.000000;0.954774
5182.000000;0.949695
5181.000000;0.946154
5180.000000;0.946139
5179.000000;0.948820
5178.000000;0.954182
5177.000000;0.959864
5176.000000;0.959368
5175.000000;0.950036
5174.000000;0.938469
5173.000000;0.932299
5172.000000;0.932070
5171.000000;0.934780
5170.000000;0.939654
5169.000000;0.945939
5168.000000;0.949666
5167.000000;0.948653
5166.000000;0.946836
5165.000000;0.948289
5164.000000;0.951142
5163.000000;0.951306
5162.000000;0.948234
5161.000000;0.943242
5160.000000;0.936579
5159.000000;0.929660
5158.000000;0.926327
5157.000000;0.928604
5156.000000;0.934297
5155.000000;0.941563
5154.000000;0.951925
5153.000000;0.964935
5152.000000;0.973582
5151.000000;0.970530
5150.000000;0.957232
5149.000000;0.941768
5148.000000;0.931395
5147.000000;0.930217
5146.000000;0.937579
5145.000000;0.945574
5144.000000;0.944364
5143.000000;0.934580
5142.000000;0.928054
5141.000000;0.932860
5140.000000;0.944000
5139.000000;0.951377
5138.000000;0.952714
5137.000000;0.952849
5136.000000;0.954471
5135.000000;0.956568
5134.000000;0.958824
5133.000000;0.961449
5132.000000;0.962578
5131.000000;0.960808
5130.000000;0.957396
5129.000000;0.952463
5128.000000;0.944035
5127.000000;0.934306
5126.000000;0.931394
5125.000000;0.940181
5124.000000;0.954317
5123.000000;0.961517
5122.000000;0.957271
5121.000000;0.948628
5120.000000;0.943872
5119.000000;0.944319
5118.000000;0.946198
5117.000000;0.945249
5116.000000;0.939984
5115.000000;0.934126
5114.000000;0.933424
5113.000000;0.938094
5112.000000;0.941252
5111.000000;0.937820
5110.000000;0.932138
5109.000000;0.932354
5108.000000;0.941008
5107.000000;0.954128
5106.000000;0.965677
5105.000000;0.970469
5104.000000;0.966246
5103.000000;0.956518
5102.000000;0.949390
5101.000000;0.950377
5100.000000;0.957020
5099.000000;0.961639
5098.000000;0.958712
5097.000000;0.949181
5096.000000;0.938857
5095.000000;0.933968
5094.000000;0.936254
5093.000000;0.939997
5092.000000;0.937219
5091.000000;0.928262
5090.000000;0.921966
5089.000000;0.924902
5088.000000;0.935731
5087.000000;0.948858
5086.000000;0.958089
5085.000000;0.957473
5084.000000;0.945488
5083.000000;0.930149
5082.000000;0.924053
5081.000000;0.931786
5080.000000;0.945534
5079.000000;0.954279
5078.000000;0.954416
5077.000000;0.949234
5076.000000;0.942525
5075.000000;0.936666
5074.000000;0.933910
5073.000000;0.934253
5072.000000;0.933885
5071.000000;0.930573
5070.000000;0.927915
5069.000000;0.930353
5068.000000;0.936793
5067.000000;0.941948
5066.000000;0.941665
5065.000000;0.935479
5064.000000;0.927211
5063.000000;0.923846
5062.000000;0.929657
5061.000000;0.939065
5060.000000;0.939980
5059.000000;0.928621
5058.000000;0.914079
5057.000000;0.905445
5056.000000;0.903472
5055.000000;0.904811
5054.000000;0.906096
5053.000000;0.902556
5052.000000;0.891179
5051.000000;0.877732
5050.000000;0.873099
5049.000000;0.881045
5048.000000;0.894626
5047.000000;0.906592
5046.000000;0.916275
5045.000000;0.921810
5044.000000;0.917636
5043.000000;0.906236
5042.000000;0.901526
5041.000000;0.912129
5040.000000;0.928775
5039.000000;0.935767
5038.000000;0.930624
5037.000000;0.920428
5036.000000;0.907599
5035.000000;0.892828
5034.000000;0.882530
5033.000000;0.880149
5032.000000;0.877187
5031.000000;0.865548
5030.000000;0.853410
5029.000000;0.854677
5028.000000;0.868507
5027.000000;0.880857
5026.000000;0.884515
5025.000000;0.884958
5024.000000;0.884896
5023.000000;0.878955
5022.000000;0.866896
5021.000000;0.857204
5020.000000;0.852502
5019.000000;0.846093
5018.000000;0.836291
5017.000000;0.830965
5016.000000;0.833828
5015.000000;0.837080
5014.000000;0.832994
5013.000000;0.824958
5012.000000;0.819747
5011.000000;0.818239
5010.000000;0.819322
5009.000000;0.825069
5008.000000;0.833526
5007.000000;0.833920
5006.000000;0.820201
5005.000000;0.801969
5004.000000;0.792429
5003.000000;0.793721
5002.000000;0.798876
5001.000000;0.801766
5000.000000;0.799959
4999.000000;0.792746
4998.000000;0.781990
4997.000000;0.772762
4996.000000;0.768545
4995.000000;0.766308
4994.000000;0.760567
4993.000000;0.751070
4992.000000;0.741806
4991.000000;0.734721
4990.000000;0.729246
4989.000000;0.726260
4988.000000;0.727594
4987.000000;0.731213
4986.000000;0.731153
4985.000000;0.724061
4984.000000;0.712699
4983.000000;0.702032
4982.000000;0.694516
4981.000000;0.689234
4980.000000;0.683249
4979.000000;0.673917
4978.000000;0.661839
4977.000000;0.651039
4976.000000;0.645181
4975.000000;0.644351
4974.000000;0.645701
4973.000000;0.646204
4972.000000;0.643700
4971.000000;0.636746
4970.000000;0.625864
4969.000000;0.614114
4968.000000;0.604566
4967.000000;0.597436
4966.000000;0.590733
4965.000000;0.583191
4964.000000;0.575619
4963.000000;0.569754
4962.000000;0.566585
4961.000000;0.565194
4960.000000;0.562660
4959.000000;0.556508
4958.000000;0.547888
4957.000000;0.540503
4956.000000;0.535958
4955.000000;0.531905
4954.000000;0.525478
4953.000000;0.516792
4952.000000;0.507518
4951.000000;0.498006
4950.000000;0.488061
4949.000000;0.479140
4948.000000;0.472751
4947.000000;0.467614
4946.000000;0.461240
4945.000000;0.453581
4944.000000;0.446655
4943.000000;0.441134
4942.000000;0.435749
4941.000000;0.429829
4940.000000;0.424037
4939.000000;0.418095
4938.000000;0.410383
4937.000000;0.400739
4936.000000;0.391094
4935.000000;0.382459
4934.000000;0.373615
4933.000000;0.363685
4932.000000;0.353688
4931.000000;0.344298
4930.000000;0.334585
4929.000000;0.324575
4928.000000;0.316715
4927.000000;0.312492
4926.000000;0.309156
4925.000000;0.302466
4924.000000;0.292232
4923.000000;0.282380
4922.000000;0.275683
4921.000000;0.271251
4920.000000;0.267226
4919.000000;0.262929
4918.000000;0.257622
4917.000000;0.250145
4916.000000;0.241115
4915.000000;0.233070
4914.000000;0.226936
4913.000000;0.220345
4912.000000;0.211046
4911.000000;0.200246
4910.000000;0.190591
4909.000000;0.182437
4908.000000;0.174296
4907.000000;0.165786
4906.000000;0.157870
4905.000000;0.150676
4904.000000;0.143241
4903.000000;0.135297
4902.000000;0.127468
4901.000000;0.119713
4900.000000;0.111346
4899.000000;0.102725
4898.000000;0.095283
4897.000000;0.089494
4896.000000;0.084112
4895.000000;0.077917
4894.000000;0.070988
4893.000000;0.063870
4892.000000;0.056741
4891.000000;0.049990
4890.000000;0.044549
4889.000000;0.040767
4888.000000;0.037630
4887.000000;0.033891
4886.000000;0.029556
4885.000000;0.025585
4884.000000;0.022329
4883.000000;0.018909
4882.000000;0.014254
4881.000000;0.008462
4880.000000;0.002805
4879.000000;-0.001570
4878.000000;-0.004642
4877.000000;-0.007228
4876.000000;-0.010104
4875.000000;-0.013484
4874.000000;-0.017005
4873.000000;-0.019900
4872.000000;-0.021460
4871.000000;-0.021742
4870.000000;-0.021637
4869.000000;-0.021864
4868.000000;-0.022219
4867.000000;-0.022259
4866.000000;-0.022269
4865.000000;-0.022841
4864.000000;-0.023906
4863.000000;-0.024902
4862.000000;-0.025682
4861.000000;-0.026389
4860.000000;-0.026550
4859.000000;-0.025369
4858.000000;-0.023103
4857.000000;-0.021178
4856.000000;-0.020436
4855.000000;-0.019935
4854.000000;-0.018079
4853.000000;-0.014611
4852.000000;-0.010878
4851.000000;-0.008278
4850.000000;-0.006889
4849.000000;-0.005680
4848.000000;-0.003745
4847.000000;-0.000991
4846.000000;0.002235
4845.000000;0.005690
4844.000000;0.009121
4843.000000;0.012035
4842.000000;0.014160
4841.000000;0.016040
4840.000000;0.018659
4839.000000;0.022386
4838.000000;0.026685
4837.000000;0.030871
4836.000000;0.034578
4835.000000;0.037515
4834.000000;0.039533
4833.000000;0.041239
4832.000000;0.043756
4831.000000;0.047306
4830.000000;0.050649
4829.000000;0.052575
4828.000000;0.053496
4827.000000;0.054869
4826.000000;0.057440
4825.000000;0.060797
4824.000000;0.064344
4823.000000;0.067871
4822.000000;0.071315
4821.000000;0.074756
4820.000000;0.078695
4819.000000;0.083569
4818.000000;0.088806
4817.000000;0.093065
4816.000000;0.095715
4815.000000;0.097597
4814.000000;0.099979
4813.000000;0.103214
4812.000000;0.106752
4811.000000;0.110046
4810.000000;0.112950
4809.000000;0.115454
4808.000000;0.117608
4807.000000;0.119706
4806.000000;0.122112
4805.000000;0.124821
4804.000000;0.127538
4803.000000;0.130201
4802.000000;0.133135
4801.000000;0.136530
4800.000000;0.140081
4799.000000;0.143374
4798.000000;0.146358
4797.000000;0.149186
4796.000000;0.151768
4795.000000;0.153899
4794.000000;0.155808
4793.000000;0.158113
4792.000000;0.161119
4791.000000;0.164450
4790.000000;0.167542
4789.000000;0.170217
4788.000000;0.172590
4787.000000;0.174735
4786.000000;0.176759
4785.000000;0.178978
4784.000000;0.181638
4783.000000;0.184499
4782.000000;0.187036
4781.000000;0.189050
4780.000000;0.190823
4779.000000;0.192716
4778.000000;0.194835
4777.000000;0.197101
4776.000000;0.199364
4775.000000;0.201439
4774.000000;0.203259
4773.000000;0.205030
4772.000000;0.207043
4771.000000;0.209315
4770.000000;0.211585
4769.000000;0.213678
4768.000000;0.215651
4767.000000;0.217591
4766.000000;0.219504
4765.000000;0.221420
4764.000000;0.223375
4763.000000;0.225265
4762.000000;0.226958
4761.000000;0.228603
4760.000000;0.230556
4759.000000;0.232921
4758.000000;0.235397
4757.000000;0.237639
4756.000000;0.239525
4755.000000;0.241034
4754.000000;0.242212
4753.000000;0.243376
4752.000000;0.244992
4751.000000;0.247133
4750.000000;0.249323
4749.000000;0.251112
4748.000000;0.252543
4747.000000;0.253884
4746.000000;0.255203
4745.000000;0.256504
4744.000000;0.258002
4743.000000;0.259910
4742.000000;0.262102
4741.000000;0.264290
4740.000000;0.266363
4739.000000;0.268242
4738.000000;0.269670
4737.000000;0.270543
4736.000000;0.271319
4735.000000;0.272641
4734.000000;0.274556
4733.000000;0.276538
4732.000000;0.278227
4731.000000;0.279729
4730.000000;0.281155
4729.000000;0.282352
4728.000000;0.283299
4727.000000;0.284372
4726.000000;0.285924
4725.000000;0.287798
4724.000000;0.289486
4723.000000;0.290633
4722.000000;0.291278
4721.000000;0.291779
4720.000000;0.292607
4719.000000;0.294050
4718.000000;0.295921
4717.000000;0.297684
4716.000000;0.298970
4715.000000;0.299894
4714.000000;0.300792
4713.000000;0.301872
4712.000000;0.303194
4711.000000;0.304766
4710.000000;0.306404
4709.000000;0.307687
4708.000000;0.308319
4707.000000;0.308513
4706.000000;0.308828
4705.000000;0.309671
4704.000000;0.311040
4703.000000;0.312671
4702.000000;0.314245
4701.000000;0.315520
4700.000000;0.316451
4699.000000;0.317211
4698.000000;0.318032
4697.000000;0.319019
4696.000000;0.320126
4695.000000;0.321231
4694.000000;0.322198
4693.000000;0.322988
4692.000000;0.323771
4691.000000;0.324791
4690.000000;0.326033
4689.000000;0.327177
4688.000000;0.328002
4687.000000;0.328692
4686.000000;0.329574
4685.000000;0.330707
4684.000000;0.331914
4683.000000;0.333111
4682.000000;0.334317
4681.000000;0.335423
4680.000000;0.336227
4679.000000;0.336755
4678.000000;0.337300
4677.000000;0.338091
4676.000000;0.339048
4675.000000;0.339944
4674.000000;0.340653
4673.000000;0.341225
4672.000000;0.341804
4671.000000;0.342517
4670.000000;0.343338
4669.000000;0.344086
4668.000000;0.344658
4667.000000;0.345236
4666.000000;0.346124
4665.000000;0.347356
4664.000000;0.348639
4663.000000;0.349694
4662.000000;0.350512
4661.000000;0.351234
4660.000000;0.351946
4659.000000;0.352657
4658.000000;0.353362
4657.000000;0.354024
4656.000000;0.354579
4655.000000;0.355011
4654.000000;0.355392
4653.000000;0.355832
4652.000000;0.356471
4651.000000;0.357439
4650.000000;0.358688
4649.000000;0.359889
4648.000000;0.360680
4647.000000;0.361051
4646.000000;0.361335
4645.000000;0.361800
4644.000000;0.362420
4643.000000;0.363067
4642.000000;0.363674
4641.000000;0.364166
4640.000000;0.364442
4639.000000;0.364580
4638.000000;0.364877
4637.000000;0.365516
4636.000000;0.366345
4635.000000;0.367095
4634.000000;0.367701
4633.000000;0.368257
4632.000000;0.368801
4631.000000;0.369325
4630.000000;0.369888
4629.000000;0.370550
4628.000000;0.371257
4627.000000;0.371915
4626.000000;0.372514
4625.000000;0.373044
4624.000000;0.373426
4623.000000;0.373672
4622.000000;0.374019
4621.000000;0.374664
4620.000000;0.375463
4619.000000;0.376115
4618.000000;0.376582
4617.000000;0.377083
4616.000000;0.377705
4615.000000;0.378276
4614.000000;0.378679
4613.000000;0.379042
4612.000000;0.379523
4611.000000;0.380077
4610.000000;0.380553
4609.000000;0.380867
4608.000000;0.380993
4607.000000;0.380932
4606.000000;0.380810
4605.000000;0.380895
4604.000000;0.381379
4603.000000;0.382174
4602.000000;0.383024
4601.000000;0.383761
4600.000000;0.384398
4599.000000;0.385024
4598.000000;0.385711
4597.000000;0.386461
4596.000000;0.387174
4595.000000;0.387681
4594.000000;0.387887
4593.000000;0.387903
4592.000000;0.387982
4591.000000;0.388319
4590.000000;0.388906
4589.000000;0.389560
4588.000000;0.390068
4587.000000;0.390326
4586.000000;0.390373
4585.000000;0.390321
4584.000000;0.390275
4583.000000;0.390316
4582.000000;0.390496
4581.000000;0.390785
4580.000000;0.391072
4579.000000;0.391292
4578.000000;0.391522
4577.000000;0.391889
4576.000000;0.392374
4575.000000;0.392786
4574.000000;0.392969
4573.000000;0.392978
4572.000000;0.393023
4571.000000;0.393270
4570.000000;0.393699
4569.000000;0.394117
4568.000000;0.394299
4567.000000;0.394201
4566.000000;0.394040
4565.000000;0.394143
4564.000000;0.394668
4563.000000;0.395485
4562.000000;0.396316
4561.000000;0.396957
4560.000000;0.397378
4559.000000;0.397641
4558.000000;0.397766
4557.000000;0.397715
4556.000000;0.397526
4555.000000;0.397406
4554.000000;0.397570
4553.000000;0.397951
4552.000000;0.398221
4551.000000;0.398165
4550.000000;0.397937
4549.000000;0.397829
4548.000000;0.397906
4547.000000;0.398024
4546.000000;0.398118
4545.000000;0.398260
4544.000000;0.398453
4543.000000;0.398593
4542.000000;0.398672
4541.000000;0.398854
4540.000000;0.399267
4539.000000;0.399829
4538.000000;0.400353
4537.000000;0.400717
4536.000000;0.400881
4535.000000;0.400845
4534.000000;0.400678
4533.000000;0.400526
4532.000000;0.400526
4531.000000;0.400739
4530.000000;0.401146
4529.000000;0.401607
4528.000000;0.401864
4527.000000;0.401711
4526.000000;0.401237
4525.000000;0.400799
4524.000000;0.400719
4523.000000;0.401044
4522.000000;0.401581
4521.000000;0.402041
4520.000000;0.402168
4519.000000;0.401909
4518.000000;0.401533
4517.000000;0.401455
4516.000000;0.401851
4515.000000;0.402515
4514.000000;0.403089
4513.000000;0.403333
4512.000000;0.403197
4511.000000;0.402835
4510.000000;0.402606
4509.000000;0.402855
4508.000000;0.403540
4507.000000;0.404211
4506.000000;0.404474
4505.000000;0.404373
4504.000000;0.404205
4503.000000;0.404120
4502.000000;0.404053
4501.000000;0.403909
4500.000000;0.403657
4499.000000;0.403326
4498.000000;0.403055
4497.000000;0.403044
4496.000000;0.403329
4495.000000;0.403686
4494.000000;0.403899
4493.000000;0.404044
4492.000000;0.404339
4491.000000;0.404818
4490.000000;0.405280
4489.000000;0.405509
4488.000000;0.405399
4487.000000;0.404950
4486.000000;0.404361
4485.000000;0.404047
4484.000000;0.404321
4483.000000;0.405006
4482.000000;0.405552
4481.000000;0.405580
4480.000000;0.405192
4479.000000;0.404740
4478.000000;0.404468
4477.000000;0.404412
4476.000000;0.404483
4475.000000;0.404551
4474.000000;0.404541
4473.000000;0.404513
4472.000000;0.404605
4471.000000;0.404849
4470.000000;0.405111
4469.000000;0.405235
4468.000000;0.405198
4467.000000;0.405139
4466.000000;0.405224
4465.000000;0.405459
4464.000000;0.405602
4463.000000;0.405373
4462.000000;0.404846
4461.000000;0.404506
4460.000000;0.404765
4459.000000;0.405470
4458.000000;0.406067
4457.000000;0.406191
4456.000000;0.405945
4455.000000;0.405631
4454.000000;0.405453
4453.000000;0.405492
4452.000000;0.405745
4451.000000;0.406062
4450.000000;0.406189
4449.000000;0.405972
4448.000000;0.405486
4447.000000;0.404920
4446.000000;0.404450
4445.000000;0.404203
4444.000000;0.404221
4443.000000;0.404408
4442.000000;0.404607
4441.000000;0.404765
4440.000000;0.404912
4439.000000;0.404977
4438.000000;0.404770
4437.000000;0.404213
4436.000000;0.403508
4435.000000;0.403034
4434.000000;0.403138
4433.000000;0.403927
4432.000000;0.405088
4431.000000;0.405948
4430.000000;0.405981
4429.000000;0.405339
4428.000000;0.404704
4427.000000;0.404557
4426.000000;0.404803
4425.000000;0.405091
4424.000000;0.405193
4423.000000;0.404959
4422.000000;0.404238
4421.000000;0.403136
4420.000000;0.402179
4419.000000;0.401926
4418.000000;0.402479
4417.000000;0.403462
4416.000000;0.404295
4415.000000;0.404388
4414.000000;0.403405
4413.000000;0.401699
4412.000000;0.400264
4411.000000;0.399827
4410.000000;0.400024
4409.000000;0.399836
4408.000000;0.398823
4407.000000;0.397554
4406.000000;0.396811
4405.000000;0.396880
4404.000000;0.397680
4403.000000;0.398988
4402.000000;0.400215
4401.000000;0.400493
4400.000000;0.399522
4399.000000;0.398090
4398.000000;0.397269
4397.000000;0.397230
4396.000000;0.397254
4395.000000;0.396722
4394.000000;0.395643
4393.000000;0.394333
4392.000000;0.393114
4391.000000;0.392376
4390.000000;0.392355
4389.000000;0.392672
4388.000000;0.392551
4387.000000;0.391687
4386.000000;0.390494
4385.000000;0.389374
4384.000000;0.388295
4383.000000;0.387340
4382.000000;0.387066
4381.000000;0.387767
4380.000000;0.388774
4379.000000;0.389128
4378.000000;0.388673
4377.000000;0.387877
4376.000000;0.386748
4375.000000;0.384744
4374.000000;0.381849
4373.000000;0.379031
4372.000000;0.377328
4371.000000;0.376805
4370.000000;0.376601
4369.000000;0.375720
4368.000000;0.373783
4367.000000;0.371342
4366.000000;0.369594
4365.000000;0.369436
4364.000000;0.370586
4363.000000;0.371763
4362.000000;0.371787
4361.000000;0.370439
4360.000000;0.368406
4359.000000;0.366733
4358.000000;0.366261
4357.000000;0.366982
4356.000000;0.367706
4355.000000;0.366887
4354.000000;0.364030
4353.000000;0.360008
4352.000000;0.356075
4351.000000;0.353132
4350.000000;0.351807
4349.000000;0.352270
4348.000000;0.353626
4347.000000;0.354253
4346.000000;0.353306
4345.000000;0.351443
4344.000000;0.349777
4343.000000;0.348763
4342.000000;0.348350
4341.000000;0.348334
4340.000000;0.348034
4339.000000;0.346504
4338.000000;0.343740
4337.000000;0.340952
4336.000000;0.339061
4335.000000;0.337624
4334.000000;0.335885
4333.000000;0.334089
4332.000000;0.332813
4331.000000;0.331734
4330.000000;0.330128
4329.000000;0.328178
4328.000000;0.326720
4327.000000;0.325920
4326.000000;0.325199
4325.000000;0.324287
4324.000000;0.323391
4323.000000;0.322524
4322.000000;0.321514
4321.000000;0.320482
4320.000000;0.319485
4319.000000;0.318033
4318.000000;0.315902
4317.000000;0.314075
4316.000000;0.313753
4315.000000;0.314633
4314.000000;0.315203
4313.000000;0.314557
4312.000000;0.312889
4311.000000;0.310397
4310.000000;0.307045
4309.000000;0.303473
4308.000000;0.300918
4307.000000;0.299950
4306.000000;0.300037
4305.000000;0.300410
4304.000000;0.300657
4303.000000;0.300526
4302.000000;0.299889
4301.000000;0.298857
4300.000000;0.297405
4299.000000;0.295549
4298.000000;0.294423
4297.000000;0.295899
4296.000000;0.299610
4295.000000;0.301653
4294.000000;0.298699
4293.000000;0.292682
4292.000000;0.288706
4291.000000;0.288979
4290.000000;0.291626
4289.000000;0.294684
4288.000000;0.297877
4287.000000;0.300633
4286.000000;0.301585
4285.000000;0.300842
4284.000000;0.300247
4283.000000;0.300547
4282.000000;0.300898
4281.000000;0.301844
4280.000000;0.305564
4279.000000;0.311719
4278.000000;0.316083
4277.000000;0.315438
4276.000000;0.311750
4275.000000;0.309707
4274.000000;0.312324
4273.000000;0.320203
4272.000000;0.332083
4271.000000;0.344026
4270.000000;0.350857
4269.000000;0.351294
4268.000000;0.349759
4267.000000;0.351156
4266.000000;0.356038
4265.000000;0.362237
4264.000000;0.368699
4263.000000;0.375170
4262.000000;0.380607
4261.000000;0.384756
4260.000000;0.389805
4259.000000;0.398396
4258.000000;0.410898
4257.000000;0.425685
4256.000000;0.440304
4255.000000;0.451149
4254.000000;0.455215
4253.000000;0.454425
4252.000000;0.455358
4251.000000;0.462569
4250.000000;0.474198
4249.000000;0.485245
4248.000000;0.493158
4247.000000;0.498674
4246.000000;0.503446
4245.000000;0.509356
4244.000000;0.518637
4243.000000;0.531902
4242.000000;0.547149
4241.000000;0.562319
4240.000000;0.577176
4239.000000;0.590807
4238.000000;0.600509
4237.000000;0.605894
4236.000000;0.610907
4235.000000;0.618488
4234.000000;0.626812
4233.000000;0.633853
4232.000000;0.641405
4231.000000;0.650791
4230.000000;0.659071
4229.000000;0.664219
4228.000000;0.670182
4227.000000;0.681334
4226.000000;0.695702
4225.000000;0.709189
4224.000000;0.722345
4223.000000;0.736800
4222.000000;0.749733
4221.000000;0.757908
4220.000000;0.763477
4219.000000;0.769999
4218.000000;0.777608
4217.000000;0.787284
4216.000000;0.804999
4215.000000;0.832812
4214.000000;0.859272
4213.000000;0.871202
4212.000000;0.873792
4211.000000;0.882316
4210.000000;0.898275
4209.000000;0.909158
4208.000000;0.909748
4207.000000;0.908351
4206.000000;0.911125
4205.000000;0.916759
4204.000000;0.926368
4203.000000;0.942185
4202.000000;0.956667
4201.000000;0.958614
4200.000000;0.951442
4199.000000;0.949216
4198.000000;0.956185
4197.000000;0.964980
4196.000000;0.975235
4195.000000;0.998699
4194.000000;1.038625
4193.000000;1.077643
4192.000000;1.097782
4191.000000;1.107726
4190.000000;1.127535
4189.000000;1.159036
4188.000000;1.191871
4187.000000;1.225276
4186.000000;1.250061
4185.000000;1.236081
4184.000000;1.182010
4183.000000;1.128075
4182.000000;1.104393
4181.000000;1.110530
4180.000000;1.129530
4179.000000;1.141667
4178.000000;1.135403
4177.000000;1.118206
4176.000000;1.107838
4175.000000;1.120885
4174.000000;1.162419
4173.000000;1.215526
4172.000000;1.254754
4171.000000;1.279948
4170.000000;1.311908
4169.000000;1.352990
4168.000000;1.381421
4167.000000;1.393489
4166.000000;1.410809
4165.000000;1.436671
4164.000000;1.450709
4163.000000;1.450876
4162.000000;1.454199
4161.000000;1.455273
4160.000000;1.437939
4159.000000;1.408647
4158.000000;1.387501
4157.000000;1.382523
4156.000000;1.390997
4155.000000;1.416360
4154.000000;1.459766
4153.000000;1.492803
4152.000000;1.481272
4151.000000;1.445553
4150.000000;1.431803
4149.000000;1.454182
4148.000000;1.486848
4147.000000;1.497501
4146.000000;1.495765
4145.000000;1.517322
4144.000000;1.571995
4143.000000;1.624359
4142.000000;1.628312
4141.000000;1.572971
4140.000000;1.498013
4139.000000;1.457986
4138.000000;1.473795
4137.000000;1.537350
4136.000000;1.610144
4135.000000;1.622825
4134.000000;1.579315
4133.000000;1.560822
4132.000000;1.604318
4131.000000;1.692968
4130.000000;1.763159
4129.000000;1.769259
4128.000000;1.754496
4127.000000;1.765483
4126.000000;1.775619
4125.000000;1.733890
4124.000000;1.657894
4123.000000;1.600306
4122.000000;1.586353
4121.000000;1.609401
4120.000000;1.652469
4119.000000;1.674445
4118.000000;1.626523
4117.000000;1.549817
4116.000000;1.508037
4115.000000;1.537664
4114.000000;1.653595
4113.000000;1.832821
4112.000000;1.969696
4111.000000;1.945867
4110.000000;1.864931
4109.000000;1.804073
4108.000000;1.744379
4107.000000;1.729789
4106.000000;1.792724
4105.000000;1.873902
4104.000000;1.869905
4103.000000;1.818049
4102.000000;1.823288
4101.000000;1.924176
4100.000000;2.118378
4099.000000;2.328349
4098.000000;2.345923
4097.000000;2.157237
4096.000000;1.918257
4095.000000;1.781163
4094.000000;1.771393
4093.000000;1.851439
4092.000000;1.961470
4091.000000;1.969855
4090.000000;1.853265
4089.000000;1.769530
4088.000000;1.754906
4087.000000;1.799350
4086.000000;1.891278
4085.000000;1.994470
4084.000000;2.077246
4083.000000;2.121788
4082.000000;2.084255
4081.000000;1.978974
4080.000000;1.882524
4079.000000;1.821333
4078.000000;1.795733
4077.000000;1.837213
4076.000000;1.987072
4075.000000;2.476603
4074.000000;2.644604
4073.000000;2.352601
4072.000000;2.339894
4071.000000;2.176495
4070.000000;2.014598
4069.000000;1.899104
4068.000000;1.881317
4067.000000;1.980380
4066.000000;2.106112
4065.000000;1.975152
4064.000000;1.758344
4063.000000;1.637509
4062.000000;1.622295
4061.000000;1.695754
4060.000000;1.844842
4059.000000;2.046479
4058.000000;2.077778
4057.000000;2.000508
4056.000000;2.021962
4055.000000;2.143201
4054.000000;2.301831
4053.000000;2.280234
4052.000000;2.532074
4051.000000;2.796043
4050.000000;2.296560
4049.000000;2.129527
4048.000000;2.063380
4047.000000;2.106957
4046.000000;2.135878
4045.000000;2.046728
4044.000000;1.956143
4043.000000;1.924176
4042.000000;1.965785
4041.000000;2.059032
4040.000000;2.146657
4039.000000;2.220752
4038.000000;2.284522
4037.000000;2.291217
4036.000000;2.277386
4035.000000;2.299195
4034.000000;2.366971
4033.000000;2.409538
4032.000000;2.295092
4031.000000;2.217576
4030.000000;2.240472
4029.000000;2.270147
4028.000000;2.239242
4027.000000;2.193288
4026.000000;2.229270
4025.000000;2.343618
4024.000000;2.707125
4023.000000;3.045902
4022.000000;2.592216
4021.000000;2.756505
4020.000000;2.645183
4019.000000;2.503158
4018.000000;2.864983
4017.000000;2.745335
4016.000000;2.442673
4015.000000;2.257111
4014.000000;2.185999
4013.000000;2.163197
4012.000000;2.189694
4011.000000;2.356263
4010.000000;2.400133
4009.000000;2.338278
4008.000000;2.171314
4007.000000;2.062697
4006.000000;2.118252
4005.000000;2.236424
4004.000000;2.510589
4003.000000;2.325369
4002.000000;2.011019
4001.000000;2.012557
4000.000000;2.407841
3999.000000;2.803686
3998.000000;2.104921
3997.000000;1.958937
3996.000000;2.045194
3995.000000;2.391164
3994.000000;2.284424
3993.000000;1.956022
3992.000000;1.821643
3991.000000;1.802036
3990.000000;1.947588
3989.000000;2.415191
3988.000000;2.391948
3987.000000;2.025924
3986.000000;1.899192
3985.000000;1.884713
3984.000000;1.948314
3983.000000;2.014953
3982.000000;1.940270
3981.000000;1.798643
3980.000000;1.737284
3979.000000;1.775655
3978.000000;1.931816
3977.000000;2.122008
3976.000000;2.077862
3975.000000;2.032935
3974.000000;2.115188
3973.000000;2.185574
3972.000000;2.051102
3971.000000;1.919024
3970.000000;1.898404
3969.000000;1.944546
3968.000000;1.987921
3967.000000;1.946368
3966.000000;1.900741
3965.000000;1.969335
3964.000000;2.133697
3963.000000;2.421063
3962.000000;2.629986
3961.000000;2.467689
3960.000000;2.507558
3959.000000;2.281264
3958.000000;2.124984
3957.000000;2.178757
3956.000000;2.242130
3955.000000;2.177046
3954.000000;2.095071
3953.000000;2.127584
3952.000000;2.242071
3951.000000;2.335920
3950.000000;2.444224
3949.000000;2.495464
3948.000000;2.322504
3947.000000;2.107921
3946.000000;1.969280
3945.000000;1.935343
3944.000000;1.960275
3943.000000;2.034079
3942.000000;2.373686
3941.000000;2.390450
3940.000000;2.018883
3939.000000;1.875174
3938.000000;1.816167
3937.000000;1.885201
3936.000000;2.074879
3935.000000;2.426215
3934.000000;2.675085
3933.000000;2.411852
3932.000000;2.495446
3931.000000;2.695520
3930.000000;2.878055
3929.000000;2.708105
3928.000000;2.533205
3927.000000;2.828556
3926.000000;2.427580
3925.000000;2.104141
3924.000000;1.994337
3923.000000;2.008784
3922.000000;2.358495
3921.000000;2.729145
3920.000000;2.182197
3919.000000;2.000559
3918.000000;2.048349
3917.000000;2.408379
3916.000000;2.129365
3915.000000;1.874557
3914.000000;1.915880
3913.000000;2.174920
3912.000000;2.359971
3911.000000;1.883852
3910.000000;1.745843
3909.000000;1.893296
3908.000000;2.204140
3907.000000;2.125442
3906.000000;1.832682
3905.000000;1.764165
3904.000000;1.838764
3903.000000;2.046380
3902.000000;2.620283
3901.000000;2.122730
3900.000000;1.796918
3899.000000;1.853465
3898.000000;2.087088
3897.000000;2.328966
3896.000000;2.641599
3895.000000;2.518559
3894.000000;2.432016
3893.000000;2.345128
3892.000000;2.556427
3891.000000;2.484761
3890.000000;2.213186
3889.000000;2.347104
3888.000000;2.579298
3887.000000;2.517712
3886.000000;2.180622
3885.000000;1.950320
3884.000000;1.898235
3883.000000;1.904070
3882.000000;1.877623
3881.000000;1.909185
3880.000000;2.127205
3879.000000;2.306070
3878.000000;2.104192
3877.000000;1.955542
3876.000000;1.895270
3875.000000;1.876428
3874.000000;1.899959
3873.000000;2.114297
3872.000000;2.343536
3871.000000;2.116942
3870.000000;2.046656
3869.000000;2.038828
3868.000000;2.212296
3867.000000;2.503503
3866.000000;2.110955
3865.000000;1.881058
3864.000000;1.823489
3863.000000;1.885233
3862.000000;1.948515
3861.000000;1.880665
3860.000000;1.785584
3859.000000;1.719972
3858.000000;1.707990
3857.000000;1.771822
3856.000000;1.901961
3855.000000;2.004428
3854.000000;1.989007
3853.000000;1.941584
3852.000000;1.946280
3851.000000;2.159855
3850.000000;2.755803
3849.000000;2.534186
3848.000000;2.527947
3847.000000;2.909026
3846.000000;2.565627
3845.000000;2.232710
3844.000000;2.069290
3843.000000;2.083080
3842.000000;2.127033
3841.000000;2.145754
3840.000000;2.488300
3839.000000;2.877754
3838.000000;2.517902
3837.000000;2.401742
3836.000000;2.136255
3835.000000;2.009650
3834.000000;1.920034
3833.000000;1.860526
3832.000000;1.814740
3831.000000;1.734164
3830.000000;1.721648
3829.000000;1.779519
3828.000000;1.967324
3827.000000;1.992139
3826.000000;1.825605
3825.000000;1.853326
3824.000000;2.050526
3823.000000;2.466366
3822.000000;2.234851
3821.000000;1.854018
3820.000000;1.785461
3819.000000;1.914930
3818.000000;2.089544
3817.000000;2.033218
3816.000000;1.809641
3815.000000;1.714301
3814.000000;1.818720
3813.000000;2.070818
3812.000000;2.483558
3811.000000;2.470872
3810.000000;2.336239
3809.000000;2.389327
3808.000000;2.346142
3807.000000;2.489181
3806.000000;2.313744
3805.000000;2.142966
3804.000000;2.204176
3803.000000;2.366832
3802.000000;2.298475
3801.000000;1.958962
3800.000000;1.872539
3799.000000;1.999086
3798.000000;2.207505
3797.000000;2.474454
3796.000000;2.107255
3795.000000;1.881262
3794.000000;1.896456
3793.000000;2.005314
3792.000000;2.267518
3791.000000;2.118879
3790.000000;1.879468
3789.000000;1.947817
3788.000000;2.108739
3787.000000;2.132227
3786.000000;1.951260
3785.000000;1.827509
3784.000000;1.925005
3783.000000;2.102524
3782.000000;2.614234
3781.000000;2.440905
3780.000000;1.875005
3779.000000;1.758846
3778.000000;1.772554
3777.000000;1.929479
3776.000000;2.132526
3775.000000;1.900323
3774.000000;1.756470
3773.000000;1.774617
3772.000000;1.917264
3771.000000;2.290788
3770.000000;2.271726
3769.000000;2.028012
3768.000000;2.103740
3767.000000;2.526411
3766.000000;2.436997
3765.000000;1.956291
3764.000000;1.802982
3763.000000;1.853213
3762.000000;2.014855
3761.000000;2.274785
3760.000000;2.731949
3759.000000;2.457138
3758.000000;2.200995
3757.000000;2.194721
3756.000000;2.166945
3755.000000;2.140301
3754.000000;2.127644
3753.000000;2.079647
3752.000000;1.996360
3751.000000;1.937037
3750.000000;1.920199
3749.000000;1.920146
3748.000000;1.923114
3747.000000;1.925657
3746.000000;1.918739
3745.000000;1.880362
3744.000000;1.824226
3743.000000;1.837030
3742.000000;1.951323
3741.000000;2.064713
3740.000000;1.998302
3739.000000;1.924188
3738.000000;2.030267
3737.000000;2.288831
3736.000000;2.560134
3735.000000;2.795724
3734.000000;2.884929
3733.000000;2.638176
3732.000000;2.311143
3731.000000;2.021004
3730.000000;1.868118
3729.000000;1.886683
3728.000000;2.040888
3727.000000;2.030558
3726.000000;1.812902
3725.000000;1.711128
3724.000000;1.764902
3723.000000;1.972538
3722.000000;2.414224
3721.000000;3.051291
3720.000000;2.684474
3719.000000;2.531126
3718.000000;2.520506
3717.000000;2.327492
3716.000000;2.197231
3715.000000;2.150724
3714.000000;2.083042
3713.000000;2.055505
3712.000000;2.204003
3711.000000;2.586198
3710.000000;2.997184
3709.000000;2.707578
3708.000000;2.404050
3707.000000;2.353417
3706.000000;2.282134
3705.000000;2.254521
3704.000000;2.371010
3703.000000;2.307095
3702.000000;2.209576
3701.000000;2.174530
3700.000000;2.191889
3699.000000;2.401958
3698.000000;2.853543
3697.000000;2.780828
3696.000000;2.251680
3695.000000;2.044284
3694.000000;2.096528
3693.000000;2.292101
3692.000000;2.547592
3691.000000;2.486387
3690.000000;2.201130
3689.000000;2.163791
3688.000000;2.246850
3687.000000;2.331442
3686.000000;2.737871
3685.000000;2.555594
3684.000000;2.193313
3683.000000;2.094046
3682.000000;2.355500
3681.000000;2.953271
3680.000000;2.158237
3679.000000;1.968119
3678.000000;1.991666
3677.000000;2.139142
3676.000000;2.486713
3675.000000;2.292771
3674.000000;2.107364
3673.000000;2.229010
3672.000000;2.479767
3671.000000;2.516206
3670.000000;2.267495
3669.000000;2.231631
3668.000000;2.232050
3667.000000;2.145805
3666.000000;2.198575
3665.000000;2.097686
3664.000000;1.980346
3663.000000;1.978726
3662.000000;2.060952
3661.000000;2.404355
3660.000000;2.445812
3659.000000;2.341207
3658.000000;2.722339
3657.000000;2.553091
3656.000000;2.620918
3655.000000;2.632030
3654.000000;2.270534
3653.000000;2.229393
3652.000000;2.070962
3651.000000;1.954089
3650.000000;2.171295
3649.000000;2.529769
3648.000000;2.376935
3647.000000;2.161406
3646.000000;1.969149
3645.000000;1.878871
3644.000000;1.837290
3643.000000;1.790161
3642.000000;1.709363
3641.000000;1.623038
3640.000000;1.604106
3639.000000;1.653039
3638.000000;1.737708
3637.000000;1.875951
3636.000000;2.043427
3635.000000;2.055953
3634.000000;2.010642
3633.000000;2.018299
3632.000000;1.983170
3631.000000;1.874262
3630.000000;1.780823
3629.000000;1.728734
3628.000000;1.681084
3627.000000;1.631598
3626.000000;1.615604
3625.000000;1.659259
3624.000000;1.734967
3623.000000;1.731371
3622.000000;1.702138
3621.000000;1.741093
3620.000000;1.791357
3619.000000;1.840324
3618.000000;1.834417
3617.000000;1.818433
3616.000000;1.852713
3615.000000;2.002312
3614.000000;2.632328
3613.000000;2.293553
3612.000000;1.946631
3611.000000;1.971961
3610.000000;2.081744
3609.000000;2.172169
3608.000000;1.941311
3607.000000;1.776367
3606.000000;1.773583
3605.000000;1.948075
3604.000000;2.120053
3603.000000;1.873692
3602.000000;1.737823
3601.000000;1.737132
3600.000000;1.779483
3599.000000;1.848127
3598.000000;1.937627
3597.000000;2.060957
3596.000000;2.137148
3595.000000;2.068289
3594.000000;1.949383
3593.000000;1.902200
3592.000000;1.929144
3591.000000;2.011441
3590.000000;2.156433
3589.000000;2.206182
3588.000000;2.049746
3587.000000;1.992462
3586.000000;1.981133
3585.000000;2.110257
3584.000000;2.391025
3583.000000;1.936744
3582.000000;1.704604
3581.000000;1.692666
3580.000000;1.763225
3579.000000;1.834842
3578.000000;1.785634
3577.000000;1.727735
3576.000000;1.746825
3575.000000;1.833990
3574.000000;1.987955
3573.000000;2.155233
3572.000000;2.117485
3571.000000;2.016439
3570.000000;2.105956
3569.000000;2.428394
3568.000000;2.399546
3567.000000;2.035161
3566.000000;1.869416
3565.000000;1.850821
3564.000000;1.950417
3563.000000;2.421153
3562.000000;2.354285
3561.000000;1.816806
3560.000000;1.696495
3559.000000;1.793222
3558.000000;2.135806
3557.000000;2.365779
3556.000000;2.029646
3555.000000;1.916467
3554.000000;2.036646
3553.000000;2.139784
3552.000000;1.953830
3551.000000;1.859182
3550.000000;1.907140
3549.000000;2.019273
3548.000000;2.053896
3547.000000;1.968193
3546.000000;1.926124
3545.000000;1.968512
3544.000000;2.026070
3543.000000;2.034796
3542.000000;2.065636
3541.000000;2.280886
3540.000000;2.661762
3539.000000;2.535449
3538.000000;2.527251
3537.000000;2.620672
3536.000000;2.368066
3535.000000;2.128595
3534.000000;1.953874
3533.000000;1.880640
3532.000000;1.913359
3531.000000;2.063087
3530.000000;2.276655
3529.000000;2.105859
3528.000000;1.786768
3527.000000;1.671862
3526.000000;1.720684
3525.000000;1.981304
3524.000000;2.446566
3523.000000;1.899669
3522.000000;1.677949
3521.000000;1.703480
3520.000000;1.845286
3519.000000;2.247325
3518.000000;2.373983
3517.000000;1.857893
3516.000000;1.820494
3515.000000;1.981294
3514.000000;1.994906
3513.000000;1.927011
3512.000000;1.892746
3511.000000;1.895765
3510.000000;2.101362
3509.000000;2.641120
3508.000000;2.417099
3507.000000;2.114591
3506.000000;1.998620
3505.000000;1.982484
3504.000000;2.093886
3503.000000;2.338940
3502.000000;2.464697
3501.000000;2.216071
3500.000000;2.189172
3499.000000;2.457305
3498.000000;2.437503
3497.000000;2.139989
3496.000000;1.956902
3495.000000;1.983259
3494.000000;2.227477
3493.000000;2.766982
3492.000000;2.856923
3491.000000;2.078065
3490.000000;1.818799
3489.000000;1.724034
3488.000000;1.734882
3487.000000;1.983529
3486.000000;2.126393
3485.000000;1.776920
3484.000000;1.630543
3483.000000;1.624065
3482.000000;1.748316
3481.000000;1.991044
3480.000000;1.919013
3479.000000;1.726398
3478.000000;1.672673
3477.000000;1.754198
3476.000000;1.916357
3475.000000;1.859243
3474.000000;1.705850
3473.000000;1.619256
3472.000000;1.601100
3471.000000;1.645379
3470.000000;1.721339
3469.000000;1.808407
3468.000000;1.874385
3467.000000;1.862720
3466.000000;1.845456
3465.000000;1.971401
3464.000000;2.409313
3463.000000;2.857764
3462.000000;2.172024
3461.000000;1.853927
3460.000000;1.814551
3459.000000;1.943401
3458.000000;2.034787
3457.000000;2.401024
3456.000000;2.440446
3455.000000;2.038386
3454.000000;2.006085
3453.000000;1.909199
3452.000000;1.856210
3451.000000;2.001032
3450.000000;2.467535
3449.000000;2.969862
3448.000000;2.481025
3447.000000;2.218640
3446.000000;2.228663
3445.000000;2.500497
3444.000000;2.399240
3443.000000;2.226781
3442.000000;2.104746
3441.000000;1.946977
3440.000000;1.936301
3439.000000;2.138626
3438.000000;2.379356
3437.000000;2.184992
3436.000000;1.996122
3435.000000;2.028913
3434.000000;2.223112
3433.000000;2.204047
3432.000000;2.353384
3431.000000;2.794632
3430.000000;2.490454
3429.000000;2.505782
3428.000000;2.783866
3427.000000;2.264217
3426.000000;1.977320
3425.000000;1.937349
3424.000000;1.946315
3423.000000;1.925940
3422.000000;1.915778
3421.000000;1.984277
3420.000000;1.982657
3419.000000;1.895243
3418.000000;1.884408
3417.000000;1.909533
3416.000000;1.956097
3415.000000;2.018144
3414.000000;1.890050
3413.000000;1.736512
3412.000000;1.676540
3411.000000;1.660079
3410.000000;1.669263
3409.000000;1.684196
3408.000000;1.685344
3407.000000;1.692654
3406.000000;1.711792
3405.000000;1.749542
3404.000000;1.800186
3403.000000;1.833364
3402.000000;1.868109
3401.000000;1.921903
3400.000000;2.034493
3399.000000;2.393521
3398.000000;2.227219
3397.000000;1.959299
3396.000000;1.907633
3395.000000;1.893840
3394.000000;1.912247
3393.000000;2.028198
3392.000000;2.192304
3391.000000;2.149135
3390.000000;2.085722
3389.000000;2.101675
3388.000000;2.121519
3387.000000;1.954664
3386.000000;1.814429
3385.000000;1.851583
3384.000000;2.111568
3383.000000;2.035893
3382.000000;1.662662
3381.000000;1.497897
3380.000000;1.457258
3379.000000;1.535325
3378.000000;1.780127
3377.000000;2.010790
3376.000000;1.803698
3375.000000;1.676111
3374.000000;1.703760
3373.000000;1.851954
3372.000000;2.305769
3371.000000;2.422186
3370.000000;2.046334
3369.000000;1.933847
3368.000000;1.982660
3367.000000;2.121688
3366.000000;1.989934
3365.000000;1.842645
3364.000000;1.793550
3363.000000;1.800365
3362.000000;1.796275
3361.000000;1.721424
3360.000000;1.642819
3359.000000;1.620454
3358.000000;1.683624
3357.000000;1.839803
3356.000000;2.050668
3355.000000;2.165383
3354.000000;2.078904
3353.000000;1.967560
3352.000000;1.957333
3351.000000;1.954122
3350.000000;1.871463
3349.000000;1.867823
3348.000000;1.977685
3347.000000;2.249142
3346.000000;2.292332
3345.000000;1.999446
3344.000000;1.851380
3343.000000;1.768026
3342.000000;1.757281
3341.000000;1.883436
3340.000000;2.276596
3339.000000;2.294395
3338.000000;1.976197
3337.000000;1.842520
3336.000000;1.861116
3335.000000;2.087934
3334.000000;2.447672
3333.000000;2.090956
3332.000000;1.856663
3331.000000;1.730057
3330.000000;1.695421
3329.000000;1.737372
3328.000000;1.797497
3327.000000;1.730790
3326.000000;1.577039
3325.000000;1.487423
3324.000000;1.504133
3323.000000;1.625605
3322.000000;1.799710
3321.000000;1.816243
3320.000000;1.713440
3319.000000;1.697942
3318.000000;1.779587
3317.000000;1.902108
3316.000000;1.974852
3315.000000;1.953089
3314.000000;1.894236
3313.000000;1.872688
3312.000000;1.896500
3311.000000;1.911290
3310.000000;1.892814
3309.000000;1.884785
3308.000000;1.894121
3307.000000;1.867474
3306.000000;1.796157
3305.000000;1.745656
3304.000000;1.790760
3303.000000;1.864051
3302.000000;1.740759
3301.000000;1.595528
3300.000000;1.566451
3299.000000;1.673580
3298.000000;1.983540
3297.000000;2.159210
3296.000000;1.991737
3295.000000;2.002721
3294.000000;2.388611
3293.000000;2.491346
3292.000000;2.125548
3291.000000;2.188967
3290.000000;2.393616
3289.000000;2.277943
3288.000000;2.087279
3287.000000;1.983626
3286.000000;1.938172
3285.000000;1.942726
3284.000000;1.889387
3283.000000;1.750958
3282.000000;1.642829
3281.000000;1.604430
3280.000000;1.652873
3279.000000;1.810436
3278.000000;1.986162
3277.000000;1.933398
3276.000000;1.868851
3275.000000;1.925840
3274.000000;2.025307
3273.000000;2.001578
3272.000000;2.053567
3271.000000;2.260067
3270.000000;2.160756
3269.000000;1.976002
3268.000000;1.963681
3267.000000;2.558694
3266.000000;2.192243
3265.000000;1.767340
3264.000000;1.671859
3263.000000;1.636383
3262.000000;1.717015
3261.000000;1.901627
3260.000000;2.155845
3259.000000;2.294218
3258.000000;1.976929
3257.000000;1.792894
3256.000000;1.770934
3255.000000;1.874952
3254.000000;1.994180
3253.000000;1.886187
3252.000000;1.724875
3251.000000;1.654887
3250.000000;1.786712
3249.000000;2.232998
3248.000000;1.914700
3247.000000;1.637082
3246.000000;1.612114
3245.000000;1.717293
3244.000000;2.239567
3243.000000;2.116640
3242.000000;1.649876
3241.000000;1.581008
3240.000000;1.611787
3239.000000;1.811542
3238.000000;2.251557
3237.000000;2.104883
3236.000000;1.921424
3235.000000;1.939658
3234.000000;1.972654
3233.000000;2.055678
3232.000000;1.926203
3231.000000;1.840849
3230.000000;1.967030
3229.000000;2.387775
3228.000000;2.684496
3227.000000;2.146829
3226.000000;1.913242
3225.000000;1.808798
3224.000000;1.794898
3223.000000;1.844670
3222.000000;1.974458
3221.000000;2.324400
3220.000000;2.970572
3219.000000;2.487604
3218.000000;2.138270
3217.000000;1.910443
3216.000000;1.831352
3215.000000;1.865988
3214.000000;2.088889
3213.000000;2.100310
3212.000000;1.891532
3211.000000;1.809095
3210.000000;1.779100
3209.000000;1.788454
3208.000000;1.831093
3207.000000;1.912191
3206.000000;2.007685
3205.000000;2.098413
3204.000000;2.073753
3203.000000;1.892697
3202.000000;1.811505
3201.000000;1.886928
3200.000000;2.050100
3199.000000;2.010359
3198.000000;1.837028
3197.000000;1.796814
3196.000000;1.950035
3195.000000;2.368867
3194.000000;2.657551
3193.000000;2.363085
3192.000000;2.244743
3191.000000;2.108796
3190.000000;2.027095
3189.000000;2.077958
3188.000000;2.254168
3187.000000;2.445916
3186.000000;2.559705
3185.000000;2.935292
3184.000000;3.076909
3183.000000;2.546547
3182.000000;2.277567
3181.000000;2.071536
3180.000000;1.910956
3179.000000;1.849970
3178.000000;1.914721
3177.000000;2.011572
3176.000000;1.836319
3175.000000;1.640299
3174.000000;1.559636
3173.000000;1.593652
3172.000000;1.721584
3171.000000;1.848018
3170.000000;1.805980
3169.000000;1.734791
3168.000000;1.741373
3167.000000;1.818270
3166.000000;1.951671
3165.000000;2.279334
3164.000000;2.771588
3163.000000;2.388421
3162.000000;2.351344
3161.000000;2.555000
3160.000000;2.277767
3159.000000;1.894787
3158.000000;1.685008
3157.000000;1.594967
3156.000000;1.614652
3155.000000;1.753193
3154.000000;2.115868
3153.000000;2.751895
3152.000000;2.288935
3151.000000;1.925643
3150.000000;1.734414
3149.000000;1.669195
3148.000000;1.678451
3147.000000;1.778521
3146.000000;1.899339
3145.000000;1.692318
3144.000000;1.538142
3143.000000;1.515492
3142.000000;1.610995
3141.000000;2.027248
3140.000000;2.360198
3139.000000;1.716403
3138.000000;1.665254
3137.000000;1.799654
3136.000000;2.148635
3135.000000;1.758889
3134.000000;1.509421
3133.000000;1.469751
3132.000000;1.534308
3131.000000;1.727116
3130.000000;1.943370
3129.000000;1.701618
3128.000000;1.488225
3127.000000;1.417961
3126.000000;1.444964
3125.000000;1.576516
3124.000000;1.812814
3123.000000;1.750133
3122.000000;1.597330
3121.000000;1.569865
3120.000000;1.628025
3119.000000;1.767494
3118.000000;2.118313
3117.000000;2.276769
3116.000000;1.772854
3115.000000;1.628345
3114.000000;1.584741
3113.000000;1.671416
3112.000000;1.948849
3111.000000;1.922402
3110.000000;1.652214
3109.000000;1.597155
3108.000000;1.629951
3107.000000;1.814276
3106.000000;2.174965
3105.000000;1.994123
3104.000000;1.767515
3103.000000;1.756386
3102.000000;1.856289
3101.000000;2.297908
3100.000000;2.352232
3099.000000;1.980195
3098.000000;1.898704
3097.000000;1.995751
3096.000000;2.441323
3095.000000;2.226461
3094.000000;1.876204
3093.000000;1.776925
3092.000000;1.899557
3091.000000;2.143949
3090.000000;1.855940
3089.000000;1.687535
3088.000000;1.663538
3087.000000;1.861204
3086.000000;2.295921
3085.000000;2.057175
3084.000000;1.903133
3083.000000;1.913535
3082.000000;2.117026
3081.000000;2.150940
3080.000000;1.866027
3079.000000;1.767379
3078.000000;1.756769
3077.000000;1.795226
3076.000000;1.997211
3075.000000;2.090516
3074.000000;1.861258
3073.000000;1.753513
3072.000000;1.688541
3071.000000;1.688642
3070.000000;1.834883
3069.000000;2.121487
3068.000000;2.184606
3067.000000;1.938179
3066.000000;1.810277
3065.000000;1.797507
3064.000000;1.815022
3063.000000;1.820758
3062.000000;1.906396
3061.000000;2.254708
3060.000000;2.211920
3059.000000;1.831442
3058.000000;1.739572
3057.000000;1.790188
3056.000000;2.143630
3055.000000;2.145855
3054.000000;1.828803
3053.000000;1.748472
3052.000000;1.740059
3051.000000;1.860270
3050.000000;1.983012
3049.000000;2.040324
3048.000000;2.107152
3047.000000;2.197320
3046.000000;2.260938
3045.000000;2.358880
3044.000000;2.444353
3043.000000;2.278771
3042.000000;2.136337
3041.000000;2.089462
3040.000000;2.053051
3039.000000;1.945834
3038.000000;1.854035
3037.000000;1.835656
3036.000000;1.891893
3035.000000;1.991701
3034.000000;2.082152
3033.000000;2.146737
3032.000000;2.261540
3031.000000;2.458790
3030.000000;2.473446
3029.000000;2.362877
3028.000000;2.131156
3027.000000;1.943101
3026.000000;1.938035
3025.000000;1.973117
3024.000000;1.834633
3023.000000;1.659605
3022.000000;1.620812
3021.000000;1.771062
3020.000000;2.535365
3019.000000;2.094063
3018.000000;1.720997
3017.000000;1.613936
3016.000000;1.661252
3015.000000;1.950287
3014.000000;2.377463
3013.000000;2.089093
3012.000000;1.920277
3011.000000;1.886834
3010.000000;1.982530
3009.000000;2.054293
3008.000000;1.980238
3007.000000;2.014220
3006.000000;2.151869
3005.000000;2.096856
3004.000000;1.866062
3003.000000;1.711038
3002.000000;1.690877
3001.000000;1.782248
3000.000000;2.147760
2999.000000;2.269299
2998.000000;1.809921
2997.000000;1.675571
2996.000000;1.697140
2995.000000;1.830660
2994.000000;1.918308
2993.000000;1.810891
2992.000000;1.781016
2991.000000;1.905487
2990.000000;2.137220
2989.000000;2.171829
2988.000000;1.961288
2987.000000;1.871607
2986.000000;1.895229
2985.000000;1.974671
2984.000000;2.107066
2983.000000;2.390393
2982.000000;2.349094
2981.000000;1.936604
2980.000000;1.748040
2979.000000;1.687916
2978.000000;1.724024
2977.000000;2.020262
2976.000000;2.432251
2975.000000;1.925431
2974.000000;1.773069
2973.000000;1.798639
2972.000000;1.923539
2971.000000;2.027772
2970.000000;2.034273
2969.000000;2.252842
2968.000000;2.725318
2967.000000;2.374290
2966.000000;2.119236
2965.000000;1.985154
2964.000000;2.059593
2963.000000;2.721374
2962.000000;2.538482
2961.000000;2.226568
2960.000000;1.939174
2959.000000;1.815065
2958.000000;1.861925
2957.000000;1.966300
2956.000000;2.199406
2955.000000;2.388714
2954.000000;2.094463
2953.000000;2.027632
2952.000000;2.213150
2951.000000;2.630321
2950.000000;2.113194
2949.000000;1.732319
2948.000000;1.610590
2947.000000;1.636658
2946.000000;1.769847
2945.000000;1.887289
2944.000000;1.811380
2943.000000;1.709903
2942.000000;1.678446
2941.000000;1.662710
2940.000000;1.659895
2939.000000;1.742575
2938.000000;1.865571
2937.000000;1.789242
2936.000000;1.791196
2935.000000;2.026591
2934.000000;2.303221
2933.000000;2.048421
2932.000000;1.724813
2931.000000;1.667025
2930.000000;1.675405
2929.000000;1.609048
2928.000000;1.693237
2927.000000;2.167116
2926.000000;2.526940
2925.000000;1.721336
2924.000000;1.495875
2923.000000;1.506933
2922.000000;1.694282
2921.000000;1.907417
2920.000000;1.757610
2919.000000;1.548779
2918.000000;1.516623
2917.000000;1.587583
2916.000000;1.766943
2915.000000;2.027410
2914.000000;1.842886
2913.000000;1.702736
2912.000000;1.649780
2911.000000;1.641811
2910.000000;1.847532
2909.000000;2.020439
2908.000000;1.931436
2907.000000;2.007635
2906.000000;2.333865
2905.000000;2.241660
2904.000000;1.787106
2903.000000;1.653687
2902.000000;1.653052
2901.000000;1.712369
2900.000000;1.715145
2899.000000;1.583157
2898.000000;1.488812
2897.000000;1.447690
2896.000000;1.458613
2895.000000;1.545613
2894.000000;1.661394
2893.000000;1.682990
2892.000000;1.638968
2891.000000;1.632070
2890.000000;1.858487
2889.000000;2.261882
2888.000000;1.876673
2887.000000;1.728619
2886.000000;1.819254
2885.000000;1.885646
2884.000000;1.756012
2883.000000;1.615523
2882.000000;1.551973
2881.000000;1.497920
2880.000000;1.462238
2879.000000;1.493296
2878.000000;1.661406
2877.000000;1.976604
2876.000000;2.029654
2875.000000;1.994359
2874.000000;2.071300
2873.000000;2.039591
2872.000000;1.961801
2871.000000;1.918520
2870.000000;1.861010
2869.000000;1.797990
2868.000000;1.803561
2867.000000;1.844387
2866.000000;1.852068
2865.000000;1.885350
2864.000000;1.939219
2863.000000;1.977784
2862.000000;1.929358
2861.000000;1.793966
2860.000000;1.669449
2859.000000;1.648019
2858.000000;1.678541
2857.000000;1.770452
2856.000000;2.124132
2855.000000;1.943541
2854.000000;1.690762
2853.000000;1.613972
2852.000000;1.575414
2851.000000;1.674524
2850.000000;1.983375
2849.000000;2.544520
2848.000000;2.112582
2847.000000;1.749135
2846.000000;1.703252
2845.000000;1.700375
2844.000000;1.896647
2843.000000;2.083980
2842.000000;1.617292
2841.000000;1.465223
2840.000000;1.486953
2839.000000;1.735900
2838.000000;2.006816
2837.000000;1.659796
2836.000000;1.538763
2835.000000;1.673156
2834.000000;1.934681
2833.000000;1.767821
2832.000000;1.570911
2831.000000;1.552709
2830.000000;1.550373
2829.000000;1.494514
2828.000000;1.458627
2827.000000;1.546113
2826.000000;1.790784
2825.000000;1.795018
2824.000000;1.599681
2823.000000;1.537910
2822.000000;1.579191
2821.000000;1.709343
2820.000000;2.073772
2819.000000;2.549478
2818.000000;1.979938
2817.000000;1.718987
2816.000000;1.607440
2815.000000;1.593134
2814.000000;1.634008
2813.000000;1.670395
2812.000000;1.707183
2811.000000;1.716405
2810.000000;1.663447
2809.000000;1.638976
2808.000000;1.714060
2807.000000;1.978390
2806.000000;2.570721
2805.000000;2.438996
2804.000000;2.371898
2803.000000;2.536702
2802.000000;2.161425
2801.000000;1.819716
2800.000000;1.747489
2799.000000;1.948340
2798.000000;2.443474
2797.000000;2.253345
2796.000000;1.791663
2795.000000;1.623324
2794.000000;1.600626
2793.000000;1.604855
2792.000000;1.631399
2791.000000;1.753396
2790.000000;1.802127
2789.000000;1.613056
2788.000000;1.439537
2787.000000;1.366316
2786.000000;1.406066
2785.000000;1.554021
2784.000000;1.691522
2783.000000;1.646377
2782.000000;1.574031
2781.000000;1.625772
2780.000000;1.868655
2779.000000;2.068108
2778.000000;1.886258
2777.000000;1.759232
2776.000000;1.802734
2775.000000;2.035839
2774.000000;2.019349
2773.000000;1.803859
2772.000000;1.719673
2771.000000;1.710093
2770.000000;1.783590
2769.000000;1.837628
2768.000000;1.760961
2767.000000;1.708057
2766.000000;1.744789
2765.000000;1.769532
2764.000000;1.639034
2763.000000;1.544571
2762.000000;1.574432
2761.000000;1.686534
2760.000000;1.989949
2759.000000;2.083931
2758.000000;1.855424
2757.000000;1.804716
2756.000000;1.656739
2755.000000;1.609598
2754.000000;1.718940
2753.000000;1.785584
2752.000000;1.806117
2751.000000;1.902521
2750.000000;1.855908
2749.000000;1.951654
2748.000000;2.624734
2747.000000;2.021830
2746.000000;1.788443
2745.000000;1.800753
2744.000000;1.812473
2743.000000;1.849139
2742.000000;2.002903
2741.000000;1.977205
2740.000000;1.675392
2739.000000;1.565854
2738.000000;1.545748
2737.000000;1.917777
2736.000000;2.236962
2735.000000;1.588354
2734.000000;1.533462
2733.000000;1.598332
2732.000000;1.765873
2731.000000;2.348609
2730.000000;2.537622
2729.000000;1.991862
2728.000000;1.748958
2727.000000;1.622406
2726.000000;1.642757
2725.000000;1.907031
2724.000000;1.779619
2723.000000;1.505576
2722.000000;1.441899
2721.000000;1.492324
2720.000000;1.660013
2719.000000;1.892229
2718.000000;1.955753
2717.000000;2.115913
2716.000000;2.132107
2715.000000;1.691190
2714.000000;1.446514
2713.000000;1.340429
2712.000000;1.331054
2711.000000;1.389681
2710.000000;1.470926
2709.000000;1.730046
2708.000000;2.017544
2707.000000;1.716952
2706.000000;1.589948
2705.000000;1.541737
2704.000000;1.645026
2703.000000;1.928972
2702.000000;2.115382
2701.000000;2.437444
2700.000000;2.550718
2699.000000;2.580175
2698.000000;2.674530
2697.000000;2.733564
2696.000000;2.528336
2695.000000;2.793508
2694.000000;1.990203
2693.000000;1.525277
2692.000000;1.380359
2691.000000;1.344738
2690.000000;1.361177
2689.000000;1.437926
2688.000000;1.456488
2687.000000;1.351616
2686.000000;1.292096
2685.000000;1.312914
2684.000000;1.467563
2683.000000;1.849232
2682.000000;2.177235
2681.000000;2.374358
2680.000000;2.709911
2679.000000;2.235200
2678.000000;1.916600
2677.000000;1.734640
2676.000000;1.756592
2675.000000;1.993136
2674.000000;2.198616
2673.000000;1.908579
2672.000000;1.674058
2671.000000;1.643829
2670.000000;1.590048
2669.000000;1.525241
2668.000000;1.611377
2667.000000;1.869600
2666.000000;2.282374
2665.000000;2.102364
2664.000000;1.800969
2663.000000;1.737689
2662.000000;1.622594
2661.000000;1.478829
2660.000000;1.462993
2659.000000;1.532324
2658.000000;1.724452
2657.000000;1.871321
2656.000000;1.588758
2655.000000;1.406587
2654.000000;1.346197
2653.000000;1.356773
2652.000000;1.438099
2651.000000;1.604571
2650.000000;1.600012
2649.000000;1.417268
2648.000000;1.341639
2647.000000;1.403561
2646.000000;1.735744
2645.000000;1.822710
2644.000000;1.443502
2643.000000;1.314596
2642.000000;1.330548
2641.000000;1.547904
2640.000000;1.797677
2639.000000;1.511562
2638.000000;1.374429
2637.000000;1.432011
2636.000000;1.679085
2635.000000;1.772045
2634.000000;1.522069
2633.000000;1.460522
2632.000000;1.589068
2631.000000;1.900375
2630.000000;1.833180
2629.000000;1.655136
2628.000000;1.713110
2627.000000;1.979714
2626.000000;2.509676
2625.000000;2.137452
2624.000000;1.835534
2623.000000;1.754728
2622.000000;1.756545
2621.000000;1.905887
2620.000000;2.115886
2619.000000;1.809032
2618.000000;1.597132
2617.000000;1.568862
2616.000000;1.709570
2615.000000;2.049491
2614.000000;1.809860
2613.000000;1.588673
2612.000000;1.606726
2611.000000;1.683852
2610.000000;1.616704
2609.000000;1.475650
2608.000000;1.404485
2607.000000;1.373583
2606.000000;1.359136
2605.000000;1.382298
2604.000000;1.471524
2603.000000;1.642489
2602.000000;1.941727
2601.000000;2.073656
2600.000000;2.096024
2599.000000;2.470715
2598.000000;2.127624
2597.000000;1.814308
2596.000000;1.736666
2595.000000;1.714883
2594.000000;1.746609
2593.000000;1.827301
2592.000000;1.943010
2591.000000;2.013270
2590.000000;1.985354
2589.000000;2.038914
2588.000000;2.097058
2587.000000;1.972998
2586.000000;1.958721
2585.000000;2.020232
2584.000000;1.899387
2583.000000;1.712313
2582.000000;1.619399
2581.000000;1.665807
2580.000000;1.732686
2579.000000;1.901858
2578.000000;2.019502
2577.000000;1.694016
2576.000000;1.544881
2575.000000;1.460125
2574.000000;1.409712
2573.000000;1.478500
2572.000000;1.609636
2571.000000;1.784271
2570.000000;1.956010
2569.000000;1.734749
2568.000000;1.572349
2567.000000;1.575368
2566.000000;1.664685
2565.000000;2.002525
2564.000000;2.250170
2563.000000;1.852951
2562.000000;1.897939
2561.000000;2.526203
2560.000000;2.001524
2559.000000;1.689932
2558.000000;1.633689
2557.000000;1.641274
2556.000000;1.626035
2555.000000;1.562890
2554.000000;1.511215
2553.000000;1.470342
2552.000000;1.509273
2551.000000;1.642945
2550.000000;1.778625
2549.000000;1.797487
2548.000000;1.690257
2547.000000;1.620201
2546.000000;1.732173
2545.000000;1.888368
2544.000000;1.874568
2543.000000;1.954746
2542.000000;2.314307
2541.000000;2.379613
2540.000000;1.907365
2539.000000;1.772879
2538.000000;1.824792
2537.000000;1.923209
2536.000000;1.884809
2535.000000;1.960520
2534.000000;2.300552
2533.000000;1.852223
2532.000000;1.662377
2531.000000;1.698217
2530.000000;1.825783
2529.000000;1.929101
2528.000000;1.694374
2527.000000;1.502827
2526.000000;1.381113
2525.000000;1.311099
2524.000000;1.309610
2523.000000;1.339058
2522.000000;1.372102
2521.000000;1.410781
2520.000000;1.508454
2519.000000;1.721294
2518.000000;1.773601
2517.000000;1.709657
2516.000000;1.751020
2515.000000;1.771763
2514.000000;1.943038
2513.000000;2.041003
2512.000000;1.910455
2511.000000;1.828694
2510.000000;1.677691
2509.000000;1.583549
2508.000000;1.773874
2507.000000;2.275202
2506.000000;1.794145
2505.000000;1.484104
2504.000000;1.340948
2503.000000;1.299472
2502.000000;1.402113
2501.000000;1.621852
2500.000000;1.641067
2499.000000;1.437500
2498.000000;1.346804
2497.000000;1.377854
2496.000000;1.529146
2495.000000;1.910266
2494.000000;2.253148
2493.000000;1.952529
2492.000000;1.937608
2491.000000;2.013749
2490.000000;1.912417
2489.000000;1.683001
2488.000000;1.515692
2487.000000;1.447694
2486.000000;1.438814
2485.000000;1.487959
2484.000000;1.582475
2483.000000;1.574752
2482.000000;1.444417
2481.000000;1.345620
2480.000000;1.315246
2479.000000;1.383713
2478.000000;1.576630
2477.000000;1.970505
2476.000000;2.221256
2475.000000;1.751243
2474.000000;1.558457
2473.000000;1.546660
2472.000000;1.644672
2471.000000;1.823240
2470.000000;2.098877
2469.000000;2.156880
2468.000000;2.076044
2467.000000;2.144465
2466.000000;1.994258
2465.000000;2.014929
2464.000000;2.155115
2463.000000;2.478346
2462.000000;2.111334
2461.000000;1.604375
2460.000000;1.438435
2459.000000;1.384536
2458.000000;1.387744
2457.000000;1.494017
2456.000000;1.630686
2455.000000;1.588261
2454.000000;1.482331
2453.000000;1.421932
2452.000000;1.431581
2451.000000;1.626611
2450.000000;2.148666
2449.000000;2.159138
2448.000000;1.946442
2447.000000;1.817490
2446.000000;1.739846
2445.000000;2.044975
2444.000000;2.231992
2443.000000;1.749413
2442.000000;1.718875
2441.000000;1.830389
2440.000000;2.224938
2439.000000;2.256608
2438.000000;1.871141
2437.000000;1.966338
2436.000000;2.496012
2435.000000;2.355103
2434.000000;1.823560
2433.000000;1.572933
2432.000000;1.491861
2431.000000;1.825787
2430.000000;1.923285
2429.000000;1.538603
2428.000000;1.426648
2427.000000;1.406569
2426.000000;1.548309
2425.000000;1.738405
2424.000000;1.581922
2423.000000;1.393420
2422.000000;1.325593
2421.000000;1.430875
2420.000000;1.832192
2419.000000;2.175149
2418.000000;1.650569
2417.000000;1.453272
2416.000000;1.451161
2415.000000;1.634219
2414.000000;1.892403
2413.000000;1.959411
2412.000000;2.062120
2411.000000;2.054400
2410.000000;1.785601
2409.000000;1.697083
2408.000000;1.998487
2407.000000;2.124327
2406.000000;1.652917
2405.000000;1.459105
2404.000000;1.430882
2403.000000;1.587551
2402.000000;2.052968
2401.000000;1.751006
2400.000000;1.425702
2399.000000;1.360621
2398.000000;1.446457
2397.000000;1.726598
2396.000000;1.937511
2395.000000;1.665067
2394.000000;1.550023
2393.000000;1.704671
2392.000000;2.188024
2391.000000;1.861627
2390.000000;1.643431
2389.000000;1.661329
2388.000000;1.828371
2387.000000;1.810785
2386.000000;1.537987
2385.000000;1.407604
2384.000000;1.393875
2383.000000;1.489772
2382.000000;1.721390
2381.000000;1.889224
2380.000000;1.767242
2379.000000;1.712861
2378.000000;1.768933
2377.000000;1.884084
2376.000000;2.139133
2375.000000;2.064527
2374.000000;1.723547
2373.000000;1.575369
2372.000000;1.583789
2371.000000;1.743583
2370.000000;1.855386
2369.000000;1.650199
2368.000000;1.551916
2367.000000;1.612637
2366.000000;1.762598
2365.000000;2.005561
2364.000000;2.536435
2363.000000;2.321217
2362.000000;2.225766
2361.000000;2.466381
2360.000000;1.907373
2359.000000;1.640435
2358.000000;1.574926
2357.000000;1.617515
2356.000000;1.876043
2355.000000;2.137756
2354.000000;1.731995
2353.000000;1.575114
2352.000000;1.656255
2351.000000;1.886282
2350.000000;1.745933
2349.000000;1.527576
2348.000000;1.458276
2347.000000;1.503951
2346.000000;1.652481
2345.000000;1.623270
2344.000000;1.549536
2343.000000;1.610450
2342.000000;1.818510
2341.000000;2.057605
2340.000000;2.025577
2339.000000;2.035969
2338.000000;1.840017
2337.000000;1.683282
2336.000000;1.664470
2335.000000;1.706334
2334.000000;1.885540
2333.000000;1.856831
2332.000000;1.546459
2331.000000;1.443783
2330.000000;1.474254
2329.000000;1.594380
2328.000000;1.869263
2327.000000;1.809729
2326.000000;1.510326
2325.000000;1.426562
2324.000000;1.485372
2323.000000;1.710202
2322.000000;2.428525
2321.000000;2.017352
2320.000000;1.754735
2319.000000;1.901175
2318.000000;2.481289
2317.000000;2.035742
2316.000000;1.837279
2315.000000;1.868678
2314.000000;2.078083
2313.000000;2.231742
2312.000000;1.983665
2311.000000;2.096352
2310.000000;2.334468
2309.000000;2.017115
2308.000000;1.873942
2307.000000;1.780178
2306.000000;1.712008
2305.000000;1.683359
2304.000000;1.714794
2303.000000;1.774916
2302.000000;1.770623
2301.000000;1.702856
2300.000000;1.689781
2299.000000;1.836027
2298.000000;2.195886
2297.000000;3.179177
2296.000000;2.403440
2295.000000;1.878323
2294.000000;1.717283
2293.000000;1.760978
2292.000000;1.924894
2291.000000;1.810910
2290.000000;1.551799
2289.000000;1.415554
2288.000000;1.448067
2287.000000;1.714562
2286.000000;2.078087
2285.000000;1.661213
2284.000000;1.551550
2283.000000;1.684205
2282.000000;2.013566
2281.000000;1.888559
2280.000000;1.751198
2279.000000;2.103333
2278.000000;2.468662
2277.000000;1.719190
2276.000000;1.659487
2275.000000;1.863636
2274.000000;2.107406
2273.000000;1.631098
2272.000000;1.388957
2271.000000;1.332527
2270.000000;1.389831
2269.000000;1.505130
2268.000000;1.576134
2267.000000;1.590843
2266.000000;1.586763
2265.000000;1.537899
2264.000000;1.538557
2263.000000;1.643391
2262.000000;1.547905
2261.000000;1.336790
2260.000000;1.260213
2259.000000;1.342999
2258.000000;1.617053
2257.000000;2.104305
2256.000000;1.856522
2255.000000;1.720777
2254.000000;2.037967
2253.000000;2.421047
2252.000000;1.793530
2251.000000;1.854622
2250.000000;2.005642
2249.000000;1.955210
2248.000000;1.667639
2247.000000;1.472584
2246.000000;1.413464
2245.000000;1.444570
2244.000000;1.471784
2243.000000;1.442593
2242.000000;1.430935
2241.000000;1.511467
2240.000000;1.683880
2239.000000;1.627698
2238.000000;1.405025
2237.000000;1.327397
2236.000000;1.424028
2235.000000;1.489174
2234.000000;1.300998
2233.000000;1.156016
2232.000000;1.118401
2231.000000;1.193478
2230.000000;1.270736
2229.000000;1.196464
2228.000000;1.143749
2227.000000;1.195740
2226.000000;1.374292
2225.000000;1.457855
2224.000000;1.315022
2223.000000;1.263564
2222.000000;1.289616
2221.000000;1.414926
2220.000000;1.565926
2219.000000;1.423144
2218.000000;1.262526
2217.000000;1.223774
2216.000000;1.269733
2215.000000;1.423288
2214.000000;1.853289
2213.000000;1.868073
2212.000000;1.572281
2211.000000;1.423942
2210.000000;1.342451
2209.000000;1.293090
2208.000000;1.258935
2207.000000;1.333499
2206.000000;1.631942
2205.000000;1.779591
2204.000000;1.488357
2203.000000;1.359835
2202.000000;1.350945
2201.000000;1.483301
2200.000000;1.728482
2199.000000;2.022160
2198.000000;2.044271
2197.000000;1.733315
2196.000000;1.555491
2195.000000;1.526821
2194.000000;1.527310
2193.000000;1.434925
2192.000000;1.314778
2191.000000;1.261923
2190.000000;1.273733
2189.000000;1.279334
2188.000000;1.242858
2187.000000;1.223712
2186.000000;1.236806
2185.000000;1.244865
2184.000000;1.252360
2183.000000;1.277775
2182.000000;1.345056
2181.000000;1.337953
2180.000000;1.249831
2179.000000;1.197825
2178.000000;1.183071
2177.000000;1.224534
2176.000000;1.353418
2175.000000;1.441980
2174.000000;1.354552
2173.000000;1.274164
2172.000000;1.317041
2171.000000;1.625085
2170.000000;1.619162
2169.000000;1.359584
2168.000000;1.357721
2167.000000;1.401382
2166.000000;1.480622
2165.000000;1.403923
2164.000000;1.380361
2163.000000;1.462615
2162.000000;1.832819
2161.000000;1.815702
2160.000000;1.540339
2159.000000;1.675151
2158.000000;1.805421
2157.000000;1.784653
2156.000000;1.833242
2155.000000;1.751871
2154.000000;1.875442
2153.000000;1.926956
2152.000000;1.764540
2151.000000;1.840125
2150.000000;2.141308
2149.000000;2.494761
2148.000000;2.206320
2147.000000;1.947019
2146.000000;1.777617
2145.000000;1.690533
2144.000000;1.658378
2143.000000;1.641401
2142.000000;1.762542
2141.000000;1.921302
2140.000000;1.721274
2139.000000;1.844810
2138.000000;1.893895
2137.000000;1.531102
2136.000000;1.348166
2135.000000;1.297894
2134.000000;1.401122
2133.000000;1.673175
2132.000000;2.084173
2131.000000;1.975526
2130.000000;1.778314
2129.000000;1.766558
2128.000000;2.515164
2127.000000;1.697983
2126.000000;1.495952
2125.000000;1.554251
2124.000000;1.811460
2123.000000;1.812399
2122.000000;1.587665
2121.000000;1.640896
2120.000000;1.873077
2119.000000;1.978801
2118.000000;1.971060
2117.000000;2.050801
2116.000000;1.742823
2115.000000;1.549982
2114.000000;1.823109
2113.000000;2.117970
2112.000000;1.626094
2111.000000;1.449758
2110.000000;1.398964
2109.000000;1.503528
2108.000000;1.711565
2107.000000;2.021571
2106.000000;1.942631
2105.000000;1.775574
2104.000000;2.454909
2103.000000;1.897812
2102.000000;1.569495
2101.000000;1.494426
2100.000000;1.510682
2099.000000;1.692293
2098.000000;1.669955
2097.000000;1.457281
2096.000000;1.439124
2095.000000;1.528387
2094.000000;1.504855
2093.000000;1.391013
2092.000000;1.362035
2091.000000;1.431008
2090.000000;1.694123
2089.000000;1.916044
2088.000000;1.696397
2087.000000;1.597302
2086.000000;1.553736
2085.000000;1.548981
2084.000000;1.433309
2083.000000;1.299536
2082.000000;1.246223
2081.000000;1.295647
2080.000000;1.654246
2079.000000;1.800256
2078.000000;1.428925
2077.000000;1.262230
2076.000000;1.242326
2075.000000;1.407317
2074.000000;1.614554
2073.000000;1.439332
2072.000000;1.256731
2071.000000;1.132385
2070.000000;1.116328
2069.000000;1.227184
2068.000000;1.390406
2067.000000;1.377017
2066.000000;1.236244
2065.000000;1.157774
2064.000000;1.171421
2063.000000;1.225336
2062.000000;1.241333
2061.000000;1.205571
2060.000000;1.166249
2059.000000;1.163278
2058.000000;1.210351
2057.000000;1.293588
2056.000000;1.368963
2055.000000;1.397263
2054.000000;1.446597
2053.000000;1.795356
2052.000000;1.884793
2051.000000;1.522439
2050.000000;1.423176
2049.000000;1.543737
2048.000000;1.969363
2047.000000;1.955553
2046.000000;1.996594
2045.000000;1.910906
2044.000000;1.614655
2043.000000;1.383341
2042.000000;1.308365
2041.000000;1.451875
2040.000000;1.935680
2039.000000;1.693631
2038.000000;1.441936
2037.000000;1.520663
2036.000000;1.694355
2035.000000;1.514367
2034.000000;1.340577
2033.000000;1.295908
2032.000000;1.339780
2031.000000;1.341562
2030.000000;1.224248
2029.000000;1.148068
2028.000000;1.170984
2027.000000;1.352442
2026.000000;1.569442
2025.000000;1.341070
2024.000000;1.191167
2023.000000;1.204552
2022.000000;1.348572
2021.000000;1.673292
2020.000000;1.934753
2019.000000;2.354078
2018.000000;1.860569
2017.000000;1.528847
2016.000000;1.407815
2015.000000;1.308021
2014.000000;1.264629
2013.000000;1.386712
2012.000000;1.826490
2011.000000;1.872984
2010.000000;1.410411
2009.000000;1.252770
2008.000000;1.209926
2007.000000;1.286816
2006.000000;1.605759
2005.000000;1.968187
2004.000000;1.409564
2003.000000;1.170858
2002.000000;1.159256
2001.000000;1.298271
2000.000000;1.697279
1999.000000;1.567115
1998.000000;1.192587
1997.000000;1.061405
1996.000000;1.071245
1995.000000;1.173959
1994.000000;1.321154
1993.000000;1.438572
1992.000000;1.382105
1991.000000;1.269644
1990.000000;1.220928
1989.000000;1.261291
1988.000000;1.410294
1987.000000;1.558902
1986.000000;1.489736
1985.000000;1.405589
1984.000000;1.383513
1983.000000;1.562896
1982.000000;1.867695
1981.000000;1.668588
1980.000000;1.796736
1979.000000;1.987149
1978.000000;1.779648
1977.000000;1.499625
1976.000000;1.296046
1975.000000;1.293968
1974.000000;1.426476
1973.000000;1.649991
1972.000000;1.963893
1971.000000;1.700885
1970.000000;1.522304
1969.000000;1.556794
1968.000000;1.669164
1967.000000;2.388453
1966.000000;1.634974
1965.000000;1.459673
1964.000000;1.575707
1963.000000;1.660403
1962.000000;1.694489
1961.000000;1.658841
1960.000000;1.520682
1959.000000;1.333539
1958.000000;1.252751
1957.000000;1.318876
1956.000000;1.453648
1955.000000;1.739413
1954.000000;1.924423
1953.000000;1.536389
1952.000000;1.414043
1951.000000;1.435258
1950.000000;1.484360
1949.000000;1.417605
1948.000000;1.351580
1947.000000;1.330969
1946.000000;1.287321
1945.000000;1.239736
1944.000000;1.266146
1943.000000;1.388371
1942.000000;1.320167
1941.000000;1.177627
1940.000000;1.164624
1939.000000;1.262331
1938.000000;1.311254
1937.000000;1.159072
1936.000000;1.040747
1935.000000;1.035405
1934.000000;1.153348
1933.000000;1.379413
1932.000000;1.450033
1931.000000;1.354189
1930.000000;1.374347
1929.000000;1.465414
1928.000000;1.645167
1927.000000;1.981224
1926.000000;1.886145
1925.000000;2.073696
1924.000000;2.008703
1923.000000;1.518823
1922.000000;1.409908
1921.000000;1.426494
1920.000000;1.516120
1919.000000;1.632417
1918.000000;1.833601
1917.000000;2.127812
1916.000000;2.098446
1915.000000;1.938907
1914.000000;2.009714
1913.000000;1.880010
1912.000000;1.637385
1911.000000;1.610639
1910.000000;1.678229
1909.000000;1.619961
1908.000000;1.448831
1907.000000;1.347044
1906.000000;1.371402
1905.000000;1.484763
1904.000000;1.515390
1903.000000;1.349619
1902.000000;1.181545
1901.000000;1.124666
1900.000000;1.209642
1899.000000;1.487675
1898.000000;1.539120
1897.000000;1.273144
1896.000000;1.199052
1895.000000;1.321794
1894.000000;1.735884
1893.000000;1.574220
1892.000000;1.335537
1891.000000;1.384318
1890.000000;1.552511
1889.000000;1.654100
1888.000000;1.574274
1887.000000;1.526835
1886.000000;1.504232
1885.000000;1.468791
1884.000000;1.586842
1883.000000;1.718738
1882.000000;1.429787
1881.000000;1.293852
1880.000000;1.297250
1879.000000;1.456082
1878.000000;1.705051
1877.000000;1.558276
1876.000000;1.482009
1875.000000;1.596796
1874.000000;1.972147
1873.000000;2.091490
1872.000000;1.638108
1871.000000;1.461058
1870.000000;1.363342
1869.000000;1.324157
1868.000000;1.349454
1867.000000;1.441918
1866.000000;1.557386
1865.000000;1.492106
1864.000000;1.373898
1863.000000;1.357276
1862.000000;1.463952
1861.000000;1.544691
1860.000000;1.379127
1859.000000;1.261728
1858.000000;1.436526
1857.000000;2.009849
1856.000000;1.374866
1855.000000;1.146467
1854.000000;1.076807
1853.000000;1.089325
1852.000000;1.183032
1851.000000;1.259714
1850.000000;1.205508
1849.000000;1.077017
1848.000000;1.015168
1847.000000;1.055154
1846.000000;1.319914
1845.000000;1.496509
1844.000000;1.189762
1843.000000;1.083303
1842.000000;1.138827
1841.000000;1.417142
1840.000000;1.596375
1839.000000;1.393697
1838.000000;1.418593
1837.000000;1.733800
1836.000000;1.600548
1835.000000;1.301152
1834.000000;1.237711
1833.000000;1.303401
1832.000000;1.492759
1831.000000;1.752255
1830.000000;2.022844
1829.000000;2.354021
1828.000000;1.640911
1827.000000;1.299964
1826.000000;1.140447
1825.000000;1.098451
1824.000000;1.196796
1823.000000;1.476116
1822.000000;1.419808
1821.000000;1.137912
1820.000000;1.076939
1819.000000;1.144160
1818.000000;1.286406
1817.000000;1.192255
1816.000000;1.007970
1815.000000;0.974643
1814.000000;1.099886
1813.000000;1.199847
1812.000000;1.041472
1811.000000;0.944463
1810.000000;1.011234
1809.000000;1.314228
1808.000000;1.317598
1807.000000;1.033533
1806.000000;0.965780
1805.000000;1.111910
1804.000000;1.544877
1803.000000;1.257566
1802.000000;0.966706
1801.000000;0.899855
1800.000000;0.989845
1799.000000;1.171297
1798.000000;1.121184
1797.000000;1.005801
1796.000000;0.988510
1795.000000;1.070496
1794.000000;1.198894
1793.000000;1.288346
1792.000000;1.333507
1791.000000;1.373577
1790.000000;1.727943
1789.000000;1.873517
1788.000000;1.396602
1787.000000;1.329182
1786.000000;1.601157
1785.000000;1.579426
1784.000000;1.142048
1783.000000;0.981774
1782.000000;1.007205
1781.000000;1.111613
1780.000000;1.252647
1779.000000;1.418607
1778.000000;1.762956
1777.000000;1.882650
1776.000000;1.276951
1775.000000;1.019097
1774.000000;0.915294
1773.000000;0.891196
1772.000000;0.981999
1771.000000;1.216669
1770.000000;1.256330
1769.000000;1.073161
1768.000000;1.048832
1767.000000;1.240735
1766.000000;1.633165
1765.000000;1.422729
1764.000000;1.232240
1763.000000;1.263732
1762.000000;1.245279
1761.000000;1.116984
1760.000000;1.000246
1759.000000;0.991011
1758.000000;1.078594
1757.000000;1.255120
1756.000000;1.474023
1755.000000;1.405787
1754.000000;1.347536
1753.000000;1.422289
1752.000000;1.504623
1751.000000;1.657095
1750.000000;1.523447
1749.000000;1.237117
1748.000000;1.124664
1747.000000;1.159510
1746.000000;1.262167
1745.000000;1.288010
1744.000000;1.120747
1743.000000;1.006192
1742.000000;1.054605
1741.000000;1.247356
1740.000000;1.736080
1739.000000;1.588701
1738.000000;1.134814
1737.000000;1.075532
1736.000000;1.250830
1735.000000;1.239035
1734.000000;0.948007
1733.000000;0.809149
1732.000000;0.799254
1731.000000;0.975101
1730.000000;1.210568
1729.000000;1.139230
1728.000000;1.090533
1727.000000;1.272949
1726.000000;1.881794
1725.000000;1.480945
1724.000000;1.316366
1723.000000;1.465134
1722.000000;1.527355
1721.000000;1.349964
1720.000000;1.209796
1719.000000;1.230081
1718.000000;1.339123
1717.000000;1.518643
1716.000000;1.485668
1715.000000;1.307896
1714.000000;1.287594
1713.000000;1.291577
1712.000000;1.256675
1711.000000;1.318498
1710.000000;1.557086
1709.000000;1.705309
1708.000000;1.394588
1707.000000;1.235066
1706.000000;1.225789
1705.000000;1.312177
1704.000000;1.604023
1703.000000;1.553975
1702.000000;1.220899
1701.000000;1.123391
1700.000000;1.256013
1699.000000;1.721227
1698.000000;1.970577
1697.000000;1.597990
1696.000000;1.444731
1695.000000;1.313883
1694.000000;1.337796
1693.000000;1.427779
1692.000000;1.168355
1691.000000;1.004381
1690.000000;1.046098
1689.000000;1.292830
1688.000000;1.333454
1687.000000;1.012589
1686.000000;0.888461
1685.000000;0.942480
1684.000000;1.126287
1683.000000;1.157575
1682.000000;1.000299
1681.000000;0.897940
1680.000000;0.888823
1679.000000;1.015246
1678.000000;1.283742
1677.000000;1.567681
1676.000000;1.499836
1675.000000;1.355661
1674.000000;1.350940
1673.000000;1.391865
1672.000000;1.410852
1671.000000;1.712890
1670.000000;1.848566
1669.000000;1.433396
1668.000000;1.348368
1667.000000;1.374691
1666.000000;1.403225
1665.000000;1.246606
1664.000000;1.126024
1663.000000;1.182143
1662.000000;1.375746
1661.000000;1.505163
1660.000000;1.230165
1659.000000;1.036176
1658.000000;1.023681
1657.000000;1.166944
1656.000000;1.336126
1655.000000;1.144578
1654.000000;0.986786
1653.000000;0.971546
1652.000000;1.094000
1651.000000;1.590252
1650.000000;1.317347
1649.000000;1.026715
1648.000000;1.073587
1647.000000;1.108529
1646.000000;1.108215
1645.000000;1.013520
1644.000000;0.875858
1643.000000;0.805409
1642.000000;0.841270
1641.000000;1.008563
1640.000000;1.209786
1639.000000;1.173470
1638.000000;1.124290
1637.000000;1.209494
1636.000000;1.492453
1635.000000;1.664699
1634.000000;1.473792
1633.000000;1.487872
1632.000000;1.615312
1631.000000;1.623927
1630.000000;1.684667
1629.000000;1.856600
1628.000000;1.680033
1627.000000;1.787036
1626.000000;1.650067
1625.000000;1.312703
1624.000000;1.249701
1623.000000;1.444446
1622.000000;1.766550
1621.000000;1.397822
1620.000000;1.279479
1619.000000;1.579713
1618.000000;1.666536
1617.000000;1.252052
1616.000000;1.053277
1615.000000;1.029358
1614.000000;1.120139
1613.000000;1.261825
1612.000000;1.405532
1611.000000;1.452307
1610.000000;1.761360
1609.000000;1.876372
1608.000000;1.283095
1607.000000;1.164457
1606.000000;1.329605
1605.000000;1.817334
1604.000000;1.577681
1603.000000;1.196651
1602.000000;1.027963
1601.000000;0.981809
1600.000000;1.093461
1599.000000;1.242551
1598.000000;1.528441
1597.000000;1.353566
1596.000000;1.063987
1595.000000;1.004808
1594.000000;1.124015
1593.000000;1.666417
1592.000000;1.471882
1591.000000;1.091465
1590.000000;1.028477
1589.000000;1.058699
1588.000000;1.063033
1587.000000;0.997059
1586.000000;0.995353
1585.000000;1.089157
1584.000000;1.272594
1583.000000;1.333029
1582.000000;1.296176
1581.000000;1.318463
1580.000000;1.480487
1579.000000;1.655655
1578.000000;1.408793
1577.000000;1.322618
1576.000000;1.413092
1575.000000;1.864120
1574.000000;1.555734
1573.000000;1.116309
1572.000000;1.144872
1571.000000;1.382408
1570.000000;1.376202
1569.000000;1.123188
1568.000000;0.975714
1567.000000;0.950250
1566.000000;1.001070
1565.000000;1.043397
1564.000000;1.046364
1563.000000;1.114624
1562.000000;1.424291
1561.000000;2.128293
1560.000000;1.509117
1559.000000;1.072232
1558.000000;0.917385
1557.000000;0.909826
1556.000000;1.075898
1555.000000;1.528037
1554.000000;1.322699
1553.000000;1.004955
1552.000000;0.983133
1551.000000;1.149096
1550.000000;1.382090
1549.000000;1.102900
1548.000000;0.853019
1547.000000;0.778835
1546.000000;0.834846
1545.000000;1.119346
1544.000000;1.347179
1543.000000;1.008208
1542.000000;0.856373
1541.000000;0.888688
1540.000000;1.071763
1539.000000;1.475337
1538.000000;1.794452
1537.000000;1.610332
1536.000000;1.648164
1535.000000;2.082548
1534.000000;1.550003
1533.000000;1.184653
1532.000000;1.123061
1531.000000;1.277995
1530.000000;1.558166
1529.000000;1.836424
1528.000000;1.777116
1527.000000;1.410886
1526.000000;1.278979
1525.000000;1.245916
1524.000000;1.349425
1523.000000;1.411677
1522.000000;1.258048
1521.000000;1.075774
1520.000000;0.979124
1519.000000;0.981277
1518.000000;1.115096
1517.000000;1.527705
1516.000000;1.601696
1515.000000;1.283867
1514.000000;1.356109
1513.000000;2.037413
1512.000000;1.725957
1511.000000;1.352014
1510.000000;1.253678
1509.000000;1.100288
1508.000000;0.965467
1507.000000;0.858638
1506.000000;0.783527
1505.000000;0.765318
1504.000000;0.809669
1503.000000;0.913029
1502.000000;1.021951
1501.000000;1.058363
1500.000000;1.160276
1499.000000;1.555646
1498.000000;1.573375
1497.000000;1.127794
1496.000000;1.003860
1495.000000;1.225058
1494.000000;1.621685
1493.000000;1.199692
1492.000000;0.993012
1491.000000;0.973835
1490.000000;1.047987
1489.000000;1.205652
1488.000000;1.368440
1487.000000;1.426736
1486.000000;1.358788
1485.000000;1.282337
1484.000000;1.247631
1483.000000;1.235242
1482.000000;1.466684
1481.000000;2.242613
1480.000000;1.525692
1479.000000;1.247632
1478.000000;1.091848
1477.000000;1.002332
1476.000000;1.035608
1475.000000;1.112109
1474.000000;1.181573
1473.000000;1.225108
1472.000000;1.232141
1471.000000;1.332608
1470.000000;1.643269
1469.000000;1.461852
1468.000000;1.147100
1467.000000;0.983214
1466.000000;0.949964
1465.000000;1.024115
1464.000000;1.124945
1463.000000;1.413812
1462.000000;1.668615
1461.000000;1.459363
1460.000000;1.286024
1459.000000;1.106727
1458.000000;1.092343
1457.000000;1.248962
1456.000000;1.420161
1455.000000;1.289746
1454.000000;1.094295
1453.000000;1.024035
1452.000000;1.030484
1451.000000;1.057914
1450.000000;1.078425
1449.000000;1.115437
1448.000000;1.289933
1447.000000;1.537491
1446.000000;1.348931
1445.000000;1.327535
1444.000000;1.407872
1443.000000;1.300481
1442.000000;1.270047
1441.000000;1.179018
1440.000000;1.029375
1439.000000;0.919773
1438.000000;0.850110
1437.000000;0.881653
1436.000000;0.993494
1435.000000;1.053519
1434.000000;1.047502
1433.000000;1.185934
1432.000000;1.491778
1431.000000;1.166482
1430.000000;0.875157
1429.000000;0.763895
1428.000000;0.755628
1427.000000;0.855344
1426.000000;1.088544
1425.000000;1.233738
1424.000000;1.107842
1423.000000;1.169982
1422.000000;1.352574
1421.000000;1.361829
1420.000000;1.237285
1419.000000;1.100195
1418.000000;1.111743
1417.000000;1.180890
1416.000000;1.171593
1415.000000;1.246313
1414.000000;1.447454
1413.000000;1.571428
1412.000000;1.373094
1411.000000;1.137972
1410.000000;1.049301
1409.000000;1.095727
1408.000000;1.099358
1407.000000;1.009053
1406.000000;0.979838
1405.000000;1.175535
1404.000000;1.806497
1403.000000;1.665306
1402.000000;1.294422
1401.000000;1.061731
1400.000000;0.960198
1399.000000;0.895110
1398.000000;0.761578
1397.000000;0.652170
1396.000000;0.650456
1395.000000;0.775284
1394.000000;1.018781
1393.000000;1.301622
1392.000000;1.443209
1391.000000;1.447693
1390.000000;1.269868
1389.000000;1.240490
1388.000000;1.286240
1387.000000;1.127714
1386.000000;0.992648
1385.000000;1.015583
1384.000000;1.279767
1383.000000;1.914297
1382.000000;1.470925
1381.000000;1.097796
1380.000000;1.013844
1379.000000;1.092179
1378.000000;1.166341
1377.000000;1.190474
1376.000000;1.293717
1375.000000;1.488560
1374.000000;2.132011
1373.000000;1.341409
1372.000000;0.953887
1371.000000;0.820290
1370.000000;0.791035
1369.000000;0.906615
1368.000000;1.300616
1367.000000;1.355866
1366.000000;0.989620
1365.000000;0.891474
1364.000000;0.901688
1363.000000;1.258939
1362.000000;1.621261
1361.000000;1.036955
1360.000000;0.905016
1359.000000;0.833910
1358.000000;0.770826
1357.000000;0.730520
1356.000000;0.729073
1355.000000;0.751062
1354.000000;0.752143
1353.000000;0.735303
1352.000000;0.722253
1351.000000;0.743665
1350.000000;0.859506
1349.000000;1.150592
1348.000000;1.144392
1347.000000;0.920054
1346.000000;0.827922
1345.000000;0.813238
1344.000000;0.885163
1343.000000;0.972496
1342.000000;1.251384
1341.000000;1.601248
1340.000000;0.977256
1339.000000;0.867188
1338.000000;0.912589
1337.000000;0.934444
1336.000000;0.885997
1335.000000;0.906207
1334.000000;1.032239
1333.000000;1.038216
1332.000000;0.954559
1331.000000;0.894231
1330.000000;0.868640
1329.000000;0.908242
1328.000000;1.018547
1327.000000;1.134968
1326.000000;1.162893
1325.000000;1.176197
1324.000000;1.334651
1323.000000;1.716482
1322.000000;1.367425
1321.000000;1.199428
1320.000000;1.368935
1319.000000;1.213708
1318.000000;0.927066
1317.000000;0.810857
1316.000000;0.779035
1315.000000;0.784473
1314.000000;0.837405
1313.000000;0.970405
1312.000000;1.300352
1311.000000;1.522947
1310.000000;1.197940
1309.000000;1.208927
1308.000000;1.308456
1307.000000;1.316443
1306.000000;1.321126
1305.000000;1.152474
1304.000000;1.046959
1303.000000;1.141073
1302.000000;1.435575
1301.000000;1.609786
1300.000000;1.530039
1299.000000;1.649886
1298.000000;1.292885
1297.000000;1.019865
1296.000000;0.987516
1295.000000;1.136449
1294.000000;1.329263
1293.000000;1.357793
1292.000000;1.274060
1291.000000;1.084325
1290.000000;0.997563
1289.000000;1.041714
1288.000000;1.098483
1287.000000;1.056032
1286.000000;1.019073
1285.000000;1.036496
1284.000000;1.105813
1283.000000;1.245743
1282.000000;1.393831
1281.000000;1.384151
1280.000000;1.288822
1279.000000;1.332490
1278.000000;1.500414
1277.000000;1.352613
1276.000000;1.198283
1275.000000;1.292959
1274.000000;1.363107
1273.000000;1.196274
1272.000000;1.206045
1271.000000;1.366955
1270.000000;1.204544
1269.000000;1.113551
1268.000000;1.192211
1267.000000;1.300257
1266.000000;1.312324
1265.000000;1.223514
1264.000000;1.148110
1263.000000;1.073972
1262.000000;0.968448
1261.000000;0.880176
1260.000000;0.863334
1259.000000;0.908475
1258.000000;0.962856
1257.000000;1.016689
1256.000000;1.159156
1255.000000;1.194247
1254.000000;0.986338
1253.000000;0.896949
1252.000000;0.966742
1251.000000;0.995087
1250.000000;0.814053
1249.000000;0.697874
1248.000000;0.694130
1247.000000;0.766807
1246.000000;0.917651
1245.000000;1.087290
1244.000000;1.153254
1243.000000;1.351455
1242.000000;1.587441
1241.000000;1.459902
1240.000000;1.389306
1239.000000;1.252854
1238.000000;1.339833
1237.000000;1.412555
1236.000000;1.047152
1235.000000;0.876150
1234.000000;0.941924
1233.000000;1.376020
1232.000000;1.120129
1231.000000;0.804814
1230.000000;0.747076
1229.000000;0.824729
1228.000000;1.247967
1227.000000;1.262883
1226.000000;0.919670
1225.000000;0.989175
1224.000000;1.310708
1223.000000;1.510696
1222.000000;1.087567
1221.000000;0.883725
1220.000000;0.759906
1219.000000;0.691955
1218.000000;0.663568
1217.000000;0.674831
1216.000000;0.737685
1215.000000;0.821410
1214.000000;0.839603
1213.000000;0.809432
1212.000000;0.758909
1211.000000;0.799402
1210.000000;1.096208
1209.000000;1.280179
1208.000000;1.067399
1207.000000;0.980216
1206.000000;1.067312
1205.000000;1.196542
1204.000000;0.845153
1203.000000;0.761105
1202.000000;0.795815
1201.000000;0.964281
1200.000000;1.397070
