Criado como novo conjunto de dados;"2706_e01_daniel.spp","96846.9 Secs"
cm-1;Abs
10000.000000;0.860130
9999.000000;0.860491
9998.000000;0.860857
9997.000000;0.861215
9996.000000;0.861587
9995.000000;0.861934
9994.000000;0.862343
9993.000000;0.862766
9992.000000;0.862819
9991.000000;0.862602
9990.000000;0.862205
9989.000000;0.861660
9988.000000;0.861105
9987.000000;0.860831
9986.000000;0.860929
9985.000000;0.861133
9984.000000;0.861159
9983.000000;0.861068
9982.000000;0.861128
9981.000000;0.861414
9980.000000;0.861703
9979.000000;0.861700
9978.000000;0.861293
9977.000000;0.860677
9976.000000;0.860287
9975.000000;0.860503
9974.000000;0.861281
9973.000000;0.862083
9972.000000;0.862314
9971.000000;0.861838
9970.000000;0.861019
9969.000000;0.860353
9968.000000;0.860132
9967.000000;0.860376
9966.000000;0.860879
9965.000000;0.861277
9964.000000;0.861205
9963.000000;0.860555
9962.000000;0.859636
9961.000000;0.859020
9960.000000;0.859083
9959.000000;0.859615
9958.000000;0.859936
9957.000000;0.859567
9956.000000;0.858785
9955.000000;0.858358
9954.000000;0.858706
9953.000000;0.859472
9952.000000;0.859978
9951.000000;0.859922
9950.000000;0.859513
9949.000000;0.859054
9948.000000;0.858613
9947.000000;0.858091
9946.000000;0.857423
9945.000000;0.856685
9944.000000;0.856109
9943.000000;0.855982
9942.000000;0.856415
9941.000000;0.857160
9940.000000;0.857756
9939.000000;0.857951
9938.000000;0.857962
9937.000000;0.858220
9936.000000;0.858839
9935.000000;0.859357
9934.000000;0.859128
9933.000000;0.858017
9932.000000;0.856655
9931.000000;0.855893
9930.000000;0.856032
9929.000000;0.856659
9928.000000;0.857198
9927.000000;0.857450
9926.000000;0.857541
9925.000000;0.857542
9924.000000;0.857343
9923.000000;0.856859
9922.000000;0.856204
9921.000000;0.855590
9920.000000;0.855149
9919.000000;0.854861
9918.000000;0.854664
9917.000000;0.854605
9916.000000;0.854822
9915.000000;0.855339
9914.000000;0.855921
9913.000000;0.856264
9912.000000;0.856301
9911.000000;0.856208
9910.000000;0.856106
9909.000000;0.855925
9908.000000;0.855587
9907.000000;0.855177
9906.000000;0.854841
9905.000000;0.854653
9904.000000;0.854643
9903.000000;0.854773
9902.000000;0.854823
9901.000000;0.854504
9900.000000;0.853816
9899.000000;0.853135
9898.000000;0.852821
9897.000000;0.852913
9896.000000;0.853313
9895.000000;0.853994
9894.000000;0.854768
9893.000000;0.855128
9892.000000;0.854714
9891.000000;0.853892
9890.000000;0.853466
9889.000000;0.853781
9888.000000;0.854383
9887.000000;0.854586
9886.000000;0.854116
9885.000000;0.853151
9884.000000;0.852051
9883.000000;0.851181
9882.000000;0.850797
9881.000000;0.850907
9880.000000;0.851327
9879.000000;0.851891
9878.000000;0.852485
9877.000000;0.852935
9876.000000;0.853079
9875.000000;0.852998
9874.000000;0.852910
9873.000000;0.852793
9872.000000;0.852391
9871.000000;0.851683
9870.000000;0.851066
9869.000000;0.850879
9868.000000;0.850996
9867.000000;0.851102
9866.000000;0.851180
9865.000000;0.851415
9864.000000;0.851778
9863.000000;0.852012
9862.000000;0.851983
9861.000000;0.851807
9860.000000;0.851605
9859.000000;0.851356
9858.000000;0.851017
9857.000000;0.850612
9856.000000;0.850140
9855.000000;0.849538
9854.000000;0.848806
9853.000000;0.848102
9852.000000;0.847688
9851.000000;0.847789
9850.000000;0.848412
9849.000000;0.849214
9848.000000;0.849655
9847.000000;0.849486
9846.000000;0.849061
9845.000000;0.848989
9844.000000;0.849480
9843.000000;0.850168
9842.000000;0.850580
9841.000000;0.850575
9840.000000;0.850269
9839.000000;0.849758
9838.000000;0.849085
9837.000000;0.848380
9836.000000;0.847840
9835.000000;0.847580
9834.000000;0.847594
9833.000000;0.847833
9832.000000;0.848208
9831.000000;0.848531
9830.000000;0.848572
9829.000000;0.848244
9828.000000;0.847682
9827.000000;0.847130
9826.000000;0.846798
9825.000000;0.846815
9824.000000;0.847199
9823.000000;0.847816
9822.000000;0.848404
9821.000000;0.848773
9820.000000;0.848984
9819.000000;0.849244
9818.000000;0.849582
9817.000000;0.849744
9816.000000;0.849479
9815.000000;0.848896
9814.000000;0.848419
9813.000000;0.848395
9812.000000;0.848784
9811.000000;0.849223
9810.000000;0.849297
9809.000000;0.848776
9808.000000;0.847753
9807.000000;0.846632
9806.000000;0.845906
9805.000000;0.845828
9804.000000;0.846236
9803.000000;0.846738
9802.000000;0.847042
9801.000000;0.847102
9800.000000;0.847013
9799.000000;0.846871
9798.000000;0.846742
9797.000000;0.846678
9796.000000;0.846702
9795.000000;0.846771
9794.000000;0.846757
9793.000000;0.846520
9792.000000;0.846049
9791.000000;0.845548
9790.000000;0.845307
9789.000000;0.845426
9788.000000;0.845665
9787.000000;0.845674
9786.000000;0.845386
9785.000000;0.845124
9784.000000;0.845284
9783.000000;0.845900
9782.000000;0.846542
9781.000000;0.846652
9780.000000;0.846053
9779.000000;0.845114
9778.000000;0.844420
9777.000000;0.844271
9776.000000;0.844506
9775.000000;0.844778
9774.000000;0.844922
9773.000000;0.845014
9772.000000;0.845168
9771.000000;0.845380
9770.000000;0.845576
9769.000000;0.845715
9768.000000;0.845780
9767.000000;0.845723
9766.000000;0.845492
9765.000000;0.845136
9764.000000;0.844820
9763.000000;0.844676
9762.000000;0.844628
9761.000000;0.844434
9760.000000;0.843940
9759.000000;0.843267
9758.000000;0.842705
9757.000000;0.842440
9756.000000;0.842461
9755.000000;0.842691
9754.000000;0.843110
9753.000000;0.843665
9752.000000;0.844127
9751.000000;0.844159
9750.000000;0.843606
9749.000000;0.842724
9748.000000;0.842067
9747.000000;0.842041
9746.000000;0.842543
9745.000000;0.843102
9744.000000;0.843423
9743.000000;0.843649
9742.000000;0.843972
9741.000000;0.844174
9740.000000;0.843865
9739.000000;0.843127
9738.000000;0.842548
9737.000000;0.842497
9736.000000;0.842687
9735.000000;0.842654
9734.000000;0.842391
9733.000000;0.842204
9732.000000;0.842152
9731.000000;0.842033
9730.000000;0.841839
9729.000000;0.841822
9728.000000;0.842049
9727.000000;0.842241
9726.000000;0.842165
9725.000000;0.841904
9724.000000;0.841601
9723.000000;0.841238
9722.000000;0.840826
9721.000000;0.840593
9720.000000;0.840715
9719.000000;0.841018
9718.000000;0.841166
9717.000000;0.841039
9716.000000;0.840757
9715.000000;0.840415
9714.000000;0.840014
9713.000000;0.839597
9712.000000;0.839267
9711.000000;0.839088
9710.000000;0.839100
9709.000000;0.839354
9708.000000;0.839777
9707.000000;0.840079
9706.000000;0.840001
9705.000000;0.839621
9704.000000;0.839202
9703.000000;0.838795
9702.000000;0.838273
9701.000000;0.837733
9700.000000;0.837546
9699.000000;0.837866
9698.000000;0.838340
9697.000000;0.838528
9696.000000;0.838418
9695.000000;0.838327
9694.000000;0.838414
9693.000000;0.838560
9692.000000;0.838680
9691.000000;0.838897
9690.000000;0.839319
9689.000000;0.839836
9688.000000;0.840257
9687.000000;0.840547
9686.000000;0.840794
9685.000000;0.840975
9684.000000;0.840876
9683.000000;0.840312
9682.000000;0.839382
9681.000000;0.838443
9680.000000;0.837820
9679.000000;0.837561
9678.000000;0.837484
9677.000000;0.837430
9676.000000;0.837420
9675.000000;0.837564
9674.000000;0.837861
9673.000000;0.838117
9672.000000;0.838057
9671.000000;0.837548
9670.000000;0.836774
9669.000000;0.836180
9668.000000;0.836151
9667.000000;0.836683
9666.000000;0.837378
9665.000000;0.837780
9664.000000;0.837717
9663.000000;0.837341
9662.000000;0.836929
9661.000000;0.836675
9660.000000;0.836598
9659.000000;0.836575
9658.000000;0.836465
9657.000000;0.836232
9656.000000;0.835937
9655.000000;0.835664
9654.000000;0.835494
9653.000000;0.835549
9652.000000;0.835897
9651.000000;0.836358
9650.000000;0.836537
9649.000000;0.836211
9648.000000;0.835610
9647.000000;0.835185
9646.000000;0.835123
9645.000000;0.835218
9644.000000;0.835227
9643.000000;0.835162
9642.000000;0.835168
9641.000000;0.835233
9640.000000;0.835166
9639.000000;0.834828
9638.000000;0.834311
9637.000000;0.833868
9636.000000;0.833719
9635.000000;0.833892
9634.000000;0.834223
9633.000000;0.834500
9632.000000;0.834636
9631.000000;0.834700
9630.000000;0.834761
9629.000000;0.834754
9628.000000;0.834541
9627.000000;0.834095
9626.000000;0.833583
9625.000000;0.833243
9624.000000;0.833213
9623.000000;0.833466
9622.000000;0.833851
9621.000000;0.834175
9620.000000;0.834266
9619.000000;0.834037
9618.000000;0.833553
9617.000000;0.833027
9616.000000;0.832717
9615.000000;0.832776
9614.000000;0.833159
9613.000000;0.833680
9612.000000;0.834144
9611.000000;0.834441
9610.000000;0.834536
9609.000000;0.834420
9608.000000;0.834091
9607.000000;0.833605
9606.000000;0.833097
9605.000000;0.832704
9604.000000;0.832434
9603.000000;0.832144
9602.000000;0.831728
9601.000000;0.831309
9600.000000;0.831204
9599.000000;0.831629
9598.000000;0.832450
9597.000000;0.833249
9596.000000;0.833636
9595.000000;0.833514
9594.000000;0.833080
9593.000000;0.832597
9592.000000;0.832180
9591.000000;0.831788
9590.000000;0.831395
9589.000000;0.831102
9588.000000;0.831042
9587.000000;0.831200
9586.000000;0.831394
9585.000000;0.831452
9584.000000;0.831355
9583.000000;0.831188
9582.000000;0.831045
9581.000000;0.830987
9580.000000;0.831021
9579.000000;0.831036
9578.000000;0.830850
9577.000000;0.830420
9576.000000;0.829976
9575.000000;0.829826
9574.000000;0.830006
9573.000000;0.830207
9572.000000;0.830115
9571.000000;0.829738
9570.000000;0.829357
9569.000000;0.829198
9568.000000;0.829226
9567.000000;0.829271
9566.000000;0.829263
9565.000000;0.829291
9564.000000;0.829430
9563.000000;0.829618
9562.000000;0.829741
9561.000000;0.829796
9560.000000;0.829867
9559.000000;0.829953
9558.000000;0.829932
9557.000000;0.829758
9556.000000;0.829603
9555.000000;0.829686
9554.000000;0.829994
9553.000000;0.830230
9552.000000;0.830092
9551.000000;0.829572
9550.000000;0.829009
9549.000000;0.828827
9548.000000;0.829190
9547.000000;0.829866
9546.000000;0.830451
9545.000000;0.830728
9544.000000;0.830766
9543.000000;0.830691
9542.000000;0.830522
9541.000000;0.830280
9540.000000;0.830081
9539.000000;0.829956
9538.000000;0.829719
9537.000000;0.829212
9536.000000;0.828632
9535.000000;0.828327
9534.000000;0.828298
9533.000000;0.828151
9532.000000;0.827637
9531.000000;0.827001
9530.000000;0.826662
9529.000000;0.826741
9528.000000;0.827062
9527.000000;0.827458
9526.000000;0.827849
9525.000000;0.828113
9524.000000;0.828128
9523.000000;0.827945
9522.000000;0.827730
9521.000000;0.827511
9520.000000;0.827145
9519.000000;0.826574
9518.000000;0.825963
9517.000000;0.825514
9516.000000;0.825277
9515.000000;0.825222
9514.000000;0.825396
9513.000000;0.825838
9512.000000;0.826399
9511.000000;0.826795
9510.000000;0.826874
9509.000000;0.826746
9508.000000;0.826626
9507.000000;0.826598
9506.000000;0.826589
9505.000000;0.826497
9504.000000;0.826279
9503.000000;0.825954
9502.000000;0.825602
9501.000000;0.825334
9500.000000;0.825213
9499.000000;0.825190
9498.000000;0.825171
9497.000000;0.825137
9496.000000;0.825162
9495.000000;0.825317
9494.000000;0.825617
9493.000000;0.826042
9492.000000;0.826514
9491.000000;0.826832
9490.000000;0.826784
9489.000000;0.826394
9488.000000;0.825938
9487.000000;0.825618
9486.000000;0.825337
9485.000000;0.824926
9484.000000;0.824477
9483.000000;0.824233
9482.000000;0.824207
9481.000000;0.824155
9480.000000;0.823970
9479.000000;0.823849
9478.000000;0.823962
9477.000000;0.824176
9476.000000;0.824261
9475.000000;0.824199
9474.000000;0.824081
9473.000000;0.823840
9472.000000;0.823361
9471.000000;0.822806
9470.000000;0.822563
9469.000000;0.822824
9468.000000;0.823380
9467.000000;0.823876
9466.000000;0.824114
9465.000000;0.824048
9464.000000;0.823687
9463.000000;0.823164
9462.000000;0.822762
9461.000000;0.822680
9460.000000;0.822794
9459.000000;0.822832
9458.000000;0.822753
9457.000000;0.822800
9456.000000;0.823097
9455.000000;0.823384
9454.000000;0.823277
9453.000000;0.822717
9452.000000;0.822025
9451.000000;0.821565
9450.000000;0.821464
9449.000000;0.821652
9448.000000;0.821994
9447.000000;0.822336
9446.000000;0.822552
9445.000000;0.822649
9444.000000;0.822762
9443.000000;0.822958
9442.000000;0.823117
9441.000000;0.823099
9440.000000;0.822961
9439.000000;0.822880
9438.000000;0.822881
9437.000000;0.822783
9436.000000;0.822436
9435.000000;0.821906
9434.000000;0.821385
9433.000000;0.821018
9432.000000;0.820851
9431.000000;0.820870
9430.000000;0.821009
9429.000000;0.821152
9428.000000;0.821178
9427.000000;0.821025
9426.000000;0.820706
9425.000000;0.820314
9424.000000;0.819974
9423.000000;0.819739
9422.000000;0.819579
9421.000000;0.819509
9420.000000;0.819648
9419.000000;0.820022
9418.000000;0.820380
9417.000000;0.820419
9416.000000;0.820169
9415.000000;0.819951
9414.000000;0.819925
9413.000000;0.819921
9412.000000;0.819806
9411.000000;0.819749
9410.000000;0.819926
9409.000000;0.820167
9408.000000;0.820165
9407.000000;0.819915
9406.000000;0.819685
9405.000000;0.819622
9404.000000;0.819630
9403.000000;0.819658
9402.000000;0.819822
9401.000000;0.820134
9400.000000;0.820328
9399.000000;0.820093
9398.000000;0.819434
9397.000000;0.818676
9396.000000;0.818166
9395.000000;0.818008
9394.000000;0.818059
9393.000000;0.818124
9392.000000;0.818153
9391.000000;0.818223
9390.000000;0.818361
9389.000000;0.818471
9388.000000;0.818461
9387.000000;0.818361
9386.000000;0.818240
9385.000000;0.818096
9384.000000;0.817934
9383.000000;0.817858
9382.000000;0.817930
9381.000000;0.818014
9380.000000;0.817927
9379.000000;0.817699
9378.000000;0.817523
9377.000000;0.817480
9376.000000;0.817486
9375.000000;0.817501
9374.000000;0.817573
9373.000000;0.817655
9372.000000;0.817605
9371.000000;0.817433
9370.000000;0.817367
9369.000000;0.817546
9368.000000;0.817801
9367.000000;0.817851
9366.000000;0.817628
9365.000000;0.817298
9364.000000;0.817052
9363.000000;0.816936
9362.000000;0.816832
9361.000000;0.816562
9360.000000;0.816095
9359.000000;0.815661
9358.000000;0.815521
9357.000000;0.815639
9356.000000;0.815762
9355.000000;0.815838
9354.000000;0.816091
9353.000000;0.816566
9352.000000;0.816886
9351.000000;0.816674
9350.000000;0.816050
9349.000000;0.815473
9348.000000;0.815218
9347.000000;0.815267
9346.000000;0.815549
9345.000000;0.815968
9344.000000;0.816252
9343.000000;0.816104
9342.000000;0.815564
9341.000000;0.814980
9340.000000;0.814599
9339.000000;0.814384
9338.000000;0.814274
9337.000000;0.814320
9336.000000;0.814478
9335.000000;0.814504
9334.000000;0.814271
9333.000000;0.814013
9332.000000;0.814051
9331.000000;0.814377
9330.000000;0.814683
9329.000000;0.814743
9328.000000;0.814607
9327.000000;0.814435
9326.000000;0.814320
9325.000000;0.814299
9324.000000;0.814400
9323.000000;0.814607
9322.000000;0.814817
9321.000000;0.814913
9320.000000;0.814874
9319.000000;0.814771
9318.000000;0.814640
9317.000000;0.814396
9316.000000;0.813927
9315.000000;0.813282
9314.000000;0.812729
9313.000000;0.812551
9312.000000;0.812797
9311.000000;0.813239
9310.000000;0.813574
9309.000000;0.813645
9308.000000;0.813524
9307.000000;0.813444
9306.000000;0.813573
9305.000000;0.813797
9304.000000;0.813781
9303.000000;0.813350
9302.000000;0.812742
9301.000000;0.812345
9300.000000;0.812224
9299.000000;0.812120
9298.000000;0.811908
9297.000000;0.811818
9296.000000;0.812092
9295.000000;0.812616
9294.000000;0.813052
9293.000000;0.813191
9292.000000;0.813037
9291.000000;0.812677
9290.000000;0.812263
9289.000000;0.812046
9288.000000;0.812186
9287.000000;0.812531
9286.000000;0.812722
9285.000000;0.812569
9284.000000;0.812203
9283.000000;0.811850
9282.000000;0.811591
9281.000000;0.811374
9280.000000;0.811131
9279.000000;0.810835
9278.000000;0.810521
9277.000000;0.810280
9276.000000;0.810212
9275.000000;0.810343
9274.000000;0.810620
9273.000000;0.810928
9272.000000;0.811076
9271.000000;0.810839
9270.000000;0.810183
9269.000000;0.809413
9268.000000;0.808949
9267.000000;0.808922
9266.000000;0.809137
9265.000000;0.809427
9264.000000;0.809824
9263.000000;0.810307
9262.000000;0.810602
9261.000000;0.810466
9260.000000;0.810043
9259.000000;0.809706
9258.000000;0.809614
9257.000000;0.809618
9256.000000;0.809593
9255.000000;0.809603
9254.000000;0.809667
9253.000000;0.809594
9252.000000;0.809227
9251.000000;0.808719
9250.000000;0.808414
9249.000000;0.808480
9248.000000;0.808777
9247.000000;0.809040
9246.000000;0.809097
9245.000000;0.808948
9244.000000;0.808733
9243.000000;0.808647
9242.000000;0.808776
9241.000000;0.809001
9240.000000;0.809124
9239.000000;0.809107
9238.000000;0.809088
9237.000000;0.809157
9236.000000;0.809223
9235.000000;0.809161
9234.000000;0.809011
9233.000000;0.808925
9232.000000;0.808965
9231.000000;0.809042
9230.000000;0.809042
9229.000000;0.808935
9228.000000;0.808735
9227.000000;0.808437
9226.000000;0.808049
9225.000000;0.807650
9224.000000;0.807381
9223.000000;0.807359
9222.000000;0.807575
9221.000000;0.807860
9220.000000;0.807969
9219.000000;0.807770
9218.000000;0.807361
9217.000000;0.806992
9216.000000;0.806870
9215.000000;0.807056
9214.000000;0.807484
9213.000000;0.807984
9212.000000;0.808291
9211.000000;0.808189
9210.000000;0.807726
9209.000000;0.807211
9208.000000;0.806924
9207.000000;0.806861
9206.000000;0.806833
9205.000000;0.806743
9204.000000;0.806664
9203.000000;0.806636
9202.000000;0.806541
9201.000000;0.806237
9200.000000;0.805784
9199.000000;0.805433
9198.000000;0.805374
9197.000000;0.805537
9196.000000;0.805663
9195.000000;0.805592
9194.000000;0.805420
9193.000000;0.805362
9192.000000;0.805485
9191.000000;0.805673
9190.000000;0.805830
9189.000000;0.805991
9188.000000;0.806180
9187.000000;0.806274
9186.000000;0.806149
9185.000000;0.805891
9184.000000;0.805700
9183.000000;0.805604
9182.000000;0.805434
9181.000000;0.805123
9180.000000;0.804877
9179.000000;0.804942
9178.000000;0.805282
9177.000000;0.805612
9176.000000;0.805703
9175.000000;0.805570
9174.000000;0.805349
9173.000000;0.805108
9172.000000;0.804832
9171.000000;0.804498
9170.000000;0.804136
9169.000000;0.803807
9168.000000;0.803592
9167.000000;0.803583
9166.000000;0.803840
9165.000000;0.804282
9164.000000;0.804644
9163.000000;0.804634
9162.000000;0.804206
9161.000000;0.803644
9160.000000;0.803299
9159.000000;0.803255
9158.000000;0.803305
9157.000000;0.803251
9156.000000;0.803127
9155.000000;0.803103
9154.000000;0.803254
9153.000000;0.803481
9152.000000;0.803625
9151.000000;0.803594
9150.000000;0.803425
9149.000000;0.803273
9148.000000;0.803308
9147.000000;0.803566
9146.000000;0.803914
9145.000000;0.804173
9144.000000;0.804240
9143.000000;0.804092
9142.000000;0.803752
9141.000000;0.803314
9140.000000;0.802932
9139.000000;0.802698
9138.000000;0.802542
9137.000000;0.802340
9136.000000;0.802090
9135.000000;0.801891
9134.000000;0.801789
9133.000000;0.801736
9132.000000;0.801699
9131.000000;0.801701
9130.000000;0.801725
9129.000000;0.801684
9128.000000;0.801537
9127.000000;0.801371
9126.000000;0.801315
9125.000000;0.801443
9124.000000;0.801763
9123.000000;0.802231
9122.000000;0.802704
9121.000000;0.802964
9120.000000;0.802898
9119.000000;0.802631
9118.000000;0.802380
9117.000000;0.802220
9116.000000;0.802049
9115.000000;0.801786
9114.000000;0.801490
9113.000000;0.801262
9112.000000;0.801121
9111.000000;0.801021
9110.000000;0.800941
9109.000000;0.800887
9108.000000;0.800844
9107.000000;0.800784
9106.000000;0.800714
9105.000000;0.800675
9104.000000;0.800688
9103.000000;0.800705
9102.000000;0.800641
9101.000000;0.800447
9100.000000;0.800173
9099.000000;0.799955
9098.000000;0.799888
9097.000000;0.799919
9096.000000;0.799888
9095.000000;0.799715
9094.000000;0.799488
9093.000000;0.799353
9092.000000;0.799348
9091.000000;0.799411
9090.000000;0.799487
9089.000000;0.799555
9088.000000;0.799566
9087.000000;0.799468
9086.000000;0.799327
9085.000000;0.799318
9084.000000;0.799539
9083.000000;0.799863
9082.000000;0.800061
9081.000000;0.800036
9080.000000;0.799889
9079.000000;0.799771
9078.000000;0.799735
9077.000000;0.799719
9076.000000;0.799631
9075.000000;0.799444
9074.000000;0.799230
9073.000000;0.799075
9072.000000;0.798964
9071.000000;0.798780
9070.000000;0.798466
9069.000000;0.798125
9068.000000;0.797898
9067.000000;0.797807
9066.000000;0.797785
9065.000000;0.797824
9064.000000;0.797974
9063.000000;0.798195
9062.000000;0.798334
9061.000000;0.798295
9060.000000;0.798132
9059.000000;0.797927
9058.000000;0.797682
9057.000000;0.797392
9056.000000;0.797155
9055.000000;0.797086
9054.000000;0.797182
9053.000000;0.797339
9052.000000;0.797486
9051.000000;0.797616
9050.000000;0.797710
9049.000000;0.797711
9048.000000;0.797582
9047.000000;0.797332
9046.000000;0.796978
9045.000000;0.796540
9044.000000;0.796096
9043.000000;0.795773
9042.000000;0.795662
9041.000000;0.795744
9040.000000;0.795927
9039.000000;0.796124
9038.000000;0.796302
9037.000000;0.796493
9036.000000;0.796745
9035.000000;0.797039
9034.000000;0.797251
9033.000000;0.797252
9032.000000;0.797074
9031.000000;0.796922
9030.000000;0.796993
9029.000000;0.797272
9028.000000;0.797558
9027.000000;0.797646
9026.000000;0.797485
9025.000000;0.797149
9024.000000;0.796755
9023.000000;0.796424
9022.000000;0.796247
9021.000000;0.796221
9020.000000;0.796201
9019.000000;0.796001
9018.000000;0.795581
9017.000000;0.795088
9016.000000;0.794682
9015.000000;0.794387
9014.000000;0.794175
9013.000000;0.794114
9012.000000;0.794316
9011.000000;0.794734
9010.000000;0.795115
9009.000000;0.795224
9008.000000;0.795065
9007.000000;0.794825
9006.000000;0.794687
9005.000000;0.794709
9004.000000;0.794824
9003.000000;0.794885
9002.000000;0.794764
9001.000000;0.794489
9000.000000;0.794274
8999.000000;0.794302
8998.000000;0.794531
8997.000000;0.794748
8996.000000;0.794811
8995.000000;0.794750
8994.000000;0.794649
8993.000000;0.794525
8992.000000;0.794353
8991.000000;0.794138
8990.000000;0.793908
8989.000000;0.793670
8988.000000;0.793426
8987.000000;0.793218
8986.000000;0.793134
8985.000000;0.793235
8984.000000;0.793479
8983.000000;0.793709
8982.000000;0.793760
8981.000000;0.793598
8980.000000;0.793327
8979.000000;0.793079
8978.000000;0.792908
8977.000000;0.792829
8976.000000;0.792865
8975.000000;0.793007
8974.000000;0.793163
8973.000000;0.793242
8972.000000;0.793232
8971.000000;0.793138
8970.000000;0.792865
8969.000000;0.792323
8968.000000;0.791654
8967.000000;0.791225
8966.000000;0.791295
8965.000000;0.791761
8964.000000;0.792273
8963.000000;0.792565
8962.000000;0.792616
8961.000000;0.792556
8960.000000;0.792511
8959.000000;0.792507
8958.000000;0.792472
8957.000000;0.792313
8956.000000;0.792033
8955.000000;0.791754
8954.000000;0.791603
8953.000000;0.791581
8952.000000;0.791585
8951.000000;0.791537
8950.000000;0.791455
8949.000000;0.791405
8948.000000;0.791413
8947.000000;0.791406
8946.000000;0.791261
8945.000000;0.790926
8944.000000;0.790528
8943.000000;0.790320
8942.000000;0.790454
8941.000000;0.790827
8940.000000;0.791162
8939.000000;0.791247
8938.000000;0.791073
8937.000000;0.790783
8936.000000;0.790546
8935.000000;0.790479
8934.000000;0.790607
8933.000000;0.790847
8932.000000;0.791055
8931.000000;0.791129
8930.000000;0.791067
8929.000000;0.790913
8928.000000;0.790681
8927.000000;0.790388
8926.000000;0.790116
8925.000000;0.789990
8924.000000;0.790057
8923.000000;0.790204
8922.000000;0.790258
8921.000000;0.790164
8920.000000;0.790030
8919.000000;0.789985
8918.000000;0.790040
8917.000000;0.790095
8916.000000;0.790050
8915.000000;0.789885
8914.000000;0.789642
8913.000000;0.789382
8912.000000;0.789162
8911.000000;0.789015
8910.000000;0.788936
8909.000000;0.788919
8908.000000;0.788984
8907.000000;0.789133
8906.000000;0.789297
8905.000000;0.789353
8904.000000;0.789246
8903.000000;0.789047
8902.000000;0.788880
8901.000000;0.788814
8900.000000;0.788837
8899.000000;0.788895
8898.000000;0.788916
8897.000000;0.788821
8896.000000;0.788567
8895.000000;0.788199
8894.000000;0.787841
8893.000000;0.787621
8892.000000;0.787603
8891.000000;0.787774
8890.000000;0.788073
8889.000000;0.788407
8888.000000;0.788661
8887.000000;0.788712
8886.000000;0.788479
8885.000000;0.787986
8884.000000;0.787388
8883.000000;0.786921
8882.000000;0.786779
8881.000000;0.786997
8880.000000;0.787410
8879.000000;0.787742
8878.000000;0.787800
8877.000000;0.787602
8876.000000;0.787317
8875.000000;0.787061
8874.000000;0.786819
8873.000000;0.786568
8872.000000;0.786412
8871.000000;0.786501
8870.000000;0.786834
8869.000000;0.787205
8868.000000;0.787377
8867.000000;0.787293
8866.000000;0.787098
8865.000000;0.787009
8864.000000;0.787135
8863.000000;0.787384
8862.000000;0.787527
8861.000000;0.787416
8860.000000;0.787124
8859.000000;0.786839
8858.000000;0.786646
8857.000000;0.786493
8856.000000;0.786342
8855.000000;0.786242
8854.000000;0.786220
8853.000000;0.786203
8852.000000;0.786136
8851.000000;0.786092
8850.000000;0.786152
8849.000000;0.786245
8848.000000;0.786197
8847.000000;0.785963
8846.000000;0.785692
8845.000000;0.785575
8844.000000;0.785652
8843.000000;0.785802
8842.000000;0.785856
8841.000000;0.785727
8840.000000;0.785470
8839.000000;0.785221
8838.000000;0.785073
8837.000000;0.785006
8836.000000;0.784949
8835.000000;0.784876
8834.000000;0.784820
8833.000000;0.784812
8832.000000;0.784859
8831.000000;0.784945
8830.000000;0.785016
8829.000000;0.784983
8828.000000;0.784802
8827.000000;0.784531
8826.000000;0.784304
8825.000000;0.784241
8824.000000;0.784408
8823.000000;0.784788
8822.000000;0.785235
8821.000000;0.785495
8820.000000;0.785399
8819.000000;0.785049
8818.000000;0.784731
8817.000000;0.784660
8816.000000;0.784826
8815.000000;0.785072
8814.000000;0.785224
8813.000000;0.785163
8812.000000;0.784861
8811.000000;0.784415
8810.000000;0.783979
8809.000000;0.783650
8808.000000;0.783441
8807.000000;0.783341
8806.000000;0.783336
8805.000000;0.783365
8804.000000;0.783347
8803.000000;0.783278
8802.000000;0.783232
8801.000000;0.783248
8800.000000;0.783291
8799.000000;0.783355
8798.000000;0.783479
8797.000000;0.783625
8796.000000;0.783633
8795.000000;0.783418
8794.000000;0.783114
8793.000000;0.782931
8792.000000;0.782907
8791.000000;0.782915
8790.000000;0.782877
8789.000000;0.782846
8788.000000;0.782886
8787.000000;0.782961
8786.000000;0.782995
8785.000000;0.782953
8784.000000;0.782857
8783.000000;0.782766
8782.000000;0.782749
8781.000000;0.782820
8780.000000;0.782886
8779.000000;0.782814
8778.000000;0.782584
8777.000000;0.782326
8776.000000;0.782193
8775.000000;0.782206
8774.000000;0.782259
8773.000000;0.782239
8772.000000;0.782125
8771.000000;0.781976
8770.000000;0.781856
8769.000000;0.781769
8768.000000;0.781678
8767.000000;0.781569
8766.000000;0.781481
8765.000000;0.781446
8764.000000;0.781452
8763.000000;0.781470
8762.000000;0.781502
8761.000000;0.781567
8760.000000;0.781655
8759.000000;0.781737
8758.000000;0.781794
8757.000000;0.781813
8756.000000;0.781779
8755.000000;0.781706
8754.000000;0.781634
8753.000000;0.781568
8752.000000;0.781462
8751.000000;0.781305
8750.000000;0.781163
8749.000000;0.781077
8748.000000;0.780984
8747.000000;0.780839
8746.000000;0.780767
8745.000000;0.780935
8744.000000;0.781276
8743.000000;0.781489
8742.000000;0.781377
8741.000000;0.781066
8740.000000;0.780818
8739.000000;0.780736
8738.000000;0.780726
8737.000000;0.780683
8736.000000;0.780589
8735.000000;0.780465
8734.000000;0.780342
8733.000000;0.780266
8732.000000;0.780273
8731.000000;0.780348
8730.000000;0.780430
8729.000000;0.780469
8728.000000;0.780450
8727.000000;0.780400
8726.000000;0.780383
8725.000000;0.780432
8724.000000;0.780479
8723.000000;0.780406
8722.000000;0.780226
8721.000000;0.780102
8720.000000;0.780112
8719.000000;0.780074
8718.000000;0.779754
8717.000000;0.779221
8716.000000;0.778837
8715.000000;0.778871
8714.000000;0.779209
8713.000000;0.779502
8712.000000;0.779527
8711.000000;0.779334
8710.000000;0.779127
8709.000000;0.779055
8708.000000;0.779140
8707.000000;0.779314
8706.000000;0.779488
8705.000000;0.779592
8704.000000;0.779557
8703.000000;0.779326
8702.000000;0.778937
8701.000000;0.778570
8700.000000;0.778425
8699.000000;0.778530
8698.000000;0.778709
8697.000000;0.778762
8696.000000;0.778648
8695.000000;0.778486
8694.000000;0.778414
8693.000000;0.778482
8692.000000;0.778648
8691.000000;0.778822
8690.000000;0.778922
8689.000000;0.778903
8688.000000;0.778763
8687.000000;0.778545
8686.000000;0.778341
8685.000000;0.778246
8684.000000;0.778278
8683.000000;0.778327
8682.000000;0.778261
8681.000000;0.778090
8680.000000;0.777978
8679.000000;0.778071
8678.000000;0.778325
8677.000000;0.778538
8676.000000;0.778530
8675.000000;0.778292
8674.000000;0.777979
8673.000000;0.777788
8672.000000;0.777799
8671.000000;0.777903
8670.000000;0.777905
8669.000000;0.777707
8668.000000;0.777392
8667.000000;0.777117
8666.000000;0.776955
8665.000000;0.776865
8664.000000;0.776799
8663.000000;0.776784
8662.000000;0.776873
8661.000000;0.777046
8660.000000;0.777179
8659.000000;0.777133
8658.000000;0.776863
8657.000000;0.776446
8656.000000;0.776003
8655.000000;0.775642
8654.000000;0.775441
8653.000000;0.775436
8652.000000;0.775569
8651.000000;0.775701
8650.000000;0.775735
8649.000000;0.775723
8648.000000;0.775792
8647.000000;0.775970
8646.000000;0.776151
8645.000000;0.776232
8644.000000;0.776213
8643.000000;0.776126
8642.000000;0.775951
8641.000000;0.775659
8640.000000;0.775315
8639.000000;0.775058
8638.000000;0.774985
8637.000000;0.775082
8636.000000;0.775247
8635.000000;0.775352
8634.000000;0.775295
8633.000000;0.775059
8632.000000;0.774718
8631.000000;0.774389
8630.000000;0.774177
8629.000000;0.774148
8628.000000;0.774308
8627.000000;0.774553
8626.000000;0.774674
8625.000000;0.774502
8624.000000;0.774074
8623.000000;0.773621
8622.000000;0.773375
8621.000000;0.773413
8620.000000;0.773649
8619.000000;0.773920
8618.000000;0.774046
8617.000000;0.773900
8616.000000;0.773506
8615.000000;0.773067
8614.000000;0.772814
8613.000000;0.772809
8612.000000;0.772917
8611.000000;0.772984
8610.000000;0.772985
8609.000000;0.772978
8608.000000;0.772971
8607.000000;0.772896
8606.000000;0.772713
8605.000000;0.772466
8604.000000;0.772239
8603.000000;0.772088
8602.000000;0.772017
8601.000000;0.771986
8600.000000;0.771914
8599.000000;0.771730
8598.000000;0.771466
8597.000000;0.771239
8596.000000;0.771107
8595.000000;0.770985
8594.000000;0.770765
8593.000000;0.770492
8592.000000;0.770353
8591.000000;0.770465
8590.000000;0.770735
8589.000000;0.770942
8588.000000;0.770921
8587.000000;0.770668
8586.000000;0.770314
8585.000000;0.770020
8584.000000;0.769890
8583.000000;0.769918
8582.000000;0.770031
8581.000000;0.770159
8580.000000;0.770238
8579.000000;0.770201
8578.000000;0.770027
8577.000000;0.769813
8576.000000;0.769727
8575.000000;0.769818
8574.000000;0.769928
8573.000000;0.769853
8572.000000;0.769584
8571.000000;0.769306
8570.000000;0.769183
8569.000000;0.769205
8568.000000;0.769263
8567.000000;0.769297
8566.000000;0.769304
8565.000000;0.769255
8564.000000;0.769088
8563.000000;0.768814
8562.000000;0.768539
8561.000000;0.768350
8560.000000;0.768217
8559.000000;0.768054
8558.000000;0.767861
8557.000000;0.767733
8556.000000;0.767735
8555.000000;0.767825
8554.000000;0.767912
8553.000000;0.767938
8552.000000;0.767875
8551.000000;0.767705
8550.000000;0.767467
8549.000000;0.767279
8548.000000;0.767249
8547.000000;0.767369
8546.000000;0.767515
8545.000000;0.767558
8544.000000;0.767439
8543.000000;0.767179
8542.000000;0.766853
8541.000000;0.766546
8540.000000;0.766293
8539.000000;0.766067
8538.000000;0.765863
8537.000000;0.765763
8536.000000;0.765850
8535.000000;0.766065
8534.000000;0.766233
8533.000000;0.766227
8532.000000;0.766069
8531.000000;0.765852
8530.000000;0.765622
8529.000000;0.765377
8528.000000;0.765118
8527.000000;0.764863
8526.000000;0.764633
8525.000000;0.764450
8524.000000;0.764336
8523.000000;0.764287
8522.000000;0.764268
8521.000000;0.764253
8520.000000;0.764254
8519.000000;0.764291
8518.000000;0.764357
8517.000000;0.764409
8516.000000;0.764398
8515.000000;0.764312
8514.000000;0.764193
8513.000000;0.764106
8512.000000;0.764066
8511.000000;0.764018
8510.000000;0.763925
8509.000000;0.763850
8508.000000;0.763899
8507.000000;0.764075
8506.000000;0.764244
8505.000000;0.764259
8504.000000;0.764091
8503.000000;0.763819
8502.000000;0.763547
8501.000000;0.763338
8500.000000;0.763190
8499.000000;0.763044
8498.000000;0.762853
8497.000000;0.762643
8496.000000;0.762492
8495.000000;0.762440
8494.000000;0.762463
8493.000000;0.762520
8492.000000;0.762573
8491.000000;0.762549
8490.000000;0.762361
8489.000000;0.762020
8488.000000;0.761667
8487.000000;0.761478
8486.000000;0.761508
8485.000000;0.761659
8484.000000;0.761768
8483.000000;0.761740
8482.000000;0.761615
8481.000000;0.761536
8480.000000;0.761590
8479.000000;0.761706
8478.000000;0.761733
8477.000000;0.761616
8476.000000;0.761444
8475.000000;0.761309
8474.000000;0.761198
8473.000000;0.761058
8472.000000;0.760891
8471.000000;0.760745
8470.000000;0.760637
8469.000000;0.760544
8468.000000;0.760437
8467.000000;0.760310
8466.000000;0.760180
8465.000000;0.760080
8464.000000;0.760032
8463.000000;0.760022
8462.000000;0.760026
8461.000000;0.760037
8460.000000;0.760046
8459.000000;0.760002
8458.000000;0.759873
8457.000000;0.759726
8456.000000;0.759671
8455.000000;0.759716
8454.000000;0.759750
8453.000000;0.759687
8452.000000;0.759532
8451.000000;0.759296
8450.000000;0.758965
8449.000000;0.758610
8448.000000;0.758399
8447.000000;0.758395
8446.000000;0.758444
8445.000000;0.758366
8444.000000;0.758201
8443.000000;0.758128
8442.000000;0.758186
8441.000000;0.758224
8440.000000;0.758120
8439.000000;0.757936
8438.000000;0.757795
8437.000000;0.757711
8436.000000;0.757586
8435.000000;0.757356
8434.000000;0.757069
8433.000000;0.756845
8432.000000;0.756754
8431.000000;0.756745
8430.000000;0.756714
8429.000000;0.756627
8428.000000;0.756542
8427.000000;0.756503
8426.000000;0.756491
8425.000000;0.756495
8424.000000;0.756552
8423.000000;0.756656
8422.000000;0.756671
8421.000000;0.756464
8420.000000;0.756088
8419.000000;0.755771
8418.000000;0.755699
8417.000000;0.755855
8416.000000;0.756048
8415.000000;0.756072
8414.000000;0.755845
8413.000000;0.755462
8412.000000;0.755103
8411.000000;0.754865
8410.000000;0.754696
8409.000000;0.754533
8408.000000;0.754436
8407.000000;0.754490
8406.000000;0.754629
8405.000000;0.754675
8404.000000;0.754564
8403.000000;0.754438
8402.000000;0.754463
8401.000000;0.754617
8400.000000;0.754725
8399.000000;0.754655
8398.000000;0.754446
8397.000000;0.754253
8396.000000;0.754188
8395.000000;0.754218
8394.000000;0.754229
8393.000000;0.754169
8392.000000;0.754094
8391.000000;0.754051
8390.000000;0.753977
8389.000000;0.753768
8388.000000;0.753422
8387.000000;0.753069
8386.000000;0.752852
8385.000000;0.752813
8384.000000;0.752855
8383.000000;0.752816
8382.000000;0.752616
8381.000000;0.752357
8380.000000;0.752237
8379.000000;0.752323
8378.000000;0.752464
8377.000000;0.752493
8376.000000;0.752419
8375.000000;0.752363
8374.000000;0.752351
8373.000000;0.752321
8372.000000;0.752276
8371.000000;0.752294
8370.000000;0.752385
8369.000000;0.752434
8368.000000;0.752346
8367.000000;0.752148
8366.000000;0.751935
8365.000000;0.751792
8364.000000;0.751773
8363.000000;0.751852
8362.000000;0.751893
8361.000000;0.751731
8360.000000;0.751365
8359.000000;0.750980
8358.000000;0.750754
8357.000000;0.750703
8356.000000;0.750726
8355.000000;0.750743
8354.000000;0.750734
8353.000000;0.750717
8352.000000;0.750717
8351.000000;0.750746
8350.000000;0.750755
8349.000000;0.750673
8348.000000;0.750497
8347.000000;0.750306
8346.000000;0.750158
8345.000000;0.750044
8344.000000;0.749950
8343.000000;0.749915
8342.000000;0.749962
8341.000000;0.750046
8340.000000;0.750086
8339.000000;0.750046
8338.000000;0.749929
8337.000000;0.749747
8336.000000;0.749532
8335.000000;0.749341
8334.000000;0.749229
8333.000000;0.749207
8332.000000;0.749238
8331.000000;0.749249
8330.000000;0.749160
8329.000000;0.748970
8328.000000;0.748805
8327.000000;0.748808
8326.000000;0.748947
8325.000000;0.749012
8324.000000;0.748848
8323.000000;0.748535
8322.000000;0.748281
8321.000000;0.748212
8320.000000;0.748302
8319.000000;0.748452
8318.000000;0.748553
8317.000000;0.748512
8316.000000;0.748317
8315.000000;0.748063
8314.000000;0.747860
8313.000000;0.747718
8312.000000;0.747556
8311.000000;0.747329
8310.000000;0.747084
8309.000000;0.746894
8308.000000;0.746787
8307.000000;0.746745
8306.000000;0.746743
8305.000000;0.746762
8304.000000;0.746788
8303.000000;0.746800
8302.000000;0.746768
8301.000000;0.746675
8300.000000;0.746565
8299.000000;0.746516
8298.000000;0.746557
8297.000000;0.746611
8296.000000;0.746564
8295.000000;0.746389
8294.000000;0.746167
8293.000000;0.745992
8292.000000;0.745890
8291.000000;0.745822
8290.000000;0.745750
8289.000000;0.745665
8288.000000;0.745569
8287.000000;0.745449
8286.000000;0.745305
8285.000000;0.745189
8284.000000;0.745187
8283.000000;0.745321
8282.000000;0.745481
8281.000000;0.745522
8280.000000;0.745414
8279.000000;0.745253
8278.000000;0.745101
8277.000000;0.744895
8276.000000;0.744571
8275.000000;0.744204
8274.000000;0.743954
8273.000000;0.743892
8272.000000;0.743951
8271.000000;0.744042
8270.000000;0.744141
8269.000000;0.744244
8268.000000;0.744303
8267.000000;0.744268
8266.000000;0.744167
8265.000000;0.744086
8264.000000;0.744071
8263.000000;0.744077
8262.000000;0.744013
8261.000000;0.743831
8260.000000;0.743553
8259.000000;0.743265
8258.000000;0.743072
8257.000000;0.743053
8256.000000;0.743170
8255.000000;0.743261
8254.000000;0.743160
8253.000000;0.742871
8252.000000;0.742566
8251.000000;0.742389
8250.000000;0.742315
8249.000000;0.742248
8248.000000;0.742200
8247.000000;0.742250
8246.000000;0.742378
8245.000000;0.742423
8244.000000;0.742277
8243.000000;0.742017
8242.000000;0.741812
8241.000000;0.741762
8240.000000;0.741865
8239.000000;0.742060
8238.000000;0.742250
8237.000000;0.742308
8236.000000;0.742159
8235.000000;0.741862
8234.000000;0.741562
8233.000000;0.741370
8232.000000;0.741291
8231.000000;0.741242
8230.000000;0.741133
8229.000000;0.740940
8228.000000;0.740734
8227.000000;0.740593
8226.000000;0.740487
8225.000000;0.740314
8224.000000;0.740068
8223.000000;0.739894
8222.000000;0.739906
8221.000000;0.740013
8220.000000;0.740037
8219.000000;0.739954
8218.000000;0.739915
8217.000000;0.740021
8216.000000;0.740200
8215.000000;0.740334
8214.000000;0.740412
8213.000000;0.740459
8212.000000;0.740420
8211.000000;0.740200
8210.000000;0.739820
8209.000000;0.739435
8208.000000;0.739173
8207.000000;0.739029
8206.000000;0.738934
8205.000000;0.738884
8204.000000;0.738935
8203.000000;0.739090
8202.000000;0.739254
8201.000000;0.739311
8200.000000;0.739243
8199.000000;0.739119
8198.000000;0.738991
8197.000000;0.738830
8196.000000;0.738591
8195.000000;0.738308
8194.000000;0.738095
8193.000000;0.738043
8192.000000;0.738144
8191.000000;0.738295
8190.000000;0.738377
8189.000000;0.738315
8188.000000;0.738124
8187.000000;0.737888
8186.000000;0.737711
8185.000000;0.737647
8184.000000;0.737680
8183.000000;0.737770
8182.000000;0.737881
8181.000000;0.737984
8180.000000;0.738040
8179.000000;0.738013
8178.000000;0.737900
8177.000000;0.737736
8176.000000;0.737568
8175.000000;0.737431
8174.000000;0.737338
8173.000000;0.737279
8172.000000;0.737222
8171.000000;0.737135
8170.000000;0.737019
8169.000000;0.736912
8168.000000;0.736852
8167.000000;0.736840
8166.000000;0.736842
8165.000000;0.736825
8164.000000;0.736786
8163.000000;0.736736
8162.000000;0.736669
8161.000000;0.736568
8160.000000;0.736428
8159.000000;0.736270
8158.000000;0.736125
8157.000000;0.736012
8156.000000;0.735930
8155.000000;0.735866
8154.000000;0.735790
8153.000000;0.735669
8152.000000;0.735493
8151.000000;0.735305
8150.000000;0.735196
8149.000000;0.735232
8148.000000;0.735387
8147.000000;0.735534
8146.000000;0.735536
8145.000000;0.735356
8144.000000;0.735095
8143.000000;0.734921
8142.000000;0.734925
8141.000000;0.735052
8140.000000;0.735150
8139.000000;0.735095
8138.000000;0.734867
8137.000000;0.734536
8136.000000;0.734196
8135.000000;0.733942
8134.000000;0.733832
8133.000000;0.733849
8132.000000;0.733900
8131.000000;0.733907
8130.000000;0.733904
8129.000000;0.733979
8128.000000;0.734136
8127.000000;0.734252
8126.000000;0.734215
8125.000000;0.734037
8124.000000;0.733793
8123.000000;0.733523
8122.000000;0.733243
8121.000000;0.733025
8120.000000;0.732943
8119.000000;0.732953
8118.000000;0.732914
8117.000000;0.732766
8116.000000;0.732594
8115.000000;0.732487
8114.000000;0.732405
8113.000000;0.732256
8112.000000;0.732049
8111.000000;0.731914
8110.000000;0.731964
8109.000000;0.732188
8108.000000;0.732459
8107.000000;0.732626
8106.000000;0.732614
8105.000000;0.732480
8104.000000;0.732354
8103.000000;0.732307
8102.000000;0.732306
8101.000000;0.732292
8100.000000;0.732261
8099.000000;0.732214
8098.000000;0.732105
8097.000000;0.731896
8096.000000;0.731648
8095.000000;0.731483
8094.000000;0.731445
8093.000000;0.731458
8092.000000;0.731420
8091.000000;0.731316
8090.000000;0.731218
8089.000000;0.731188
8088.000000;0.731219
8087.000000;0.731228
8086.000000;0.731144
8085.000000;0.730974
8084.000000;0.730798
8083.000000;0.730685
8082.000000;0.730642
8081.000000;0.730659
8080.000000;0.730738
8079.000000;0.730843
8078.000000;0.730888
8077.000000;0.730820
8076.000000;0.730703
8075.000000;0.730640
8074.000000;0.730641
8073.000000;0.730617
8072.000000;0.730514
8071.000000;0.730355
8070.000000;0.730177
8069.000000;0.729986
8068.000000;0.729790
8067.000000;0.729632
8066.000000;0.729550
8065.000000;0.729561
8064.000000;0.729666
8063.000000;0.729822
8062.000000;0.729905
8061.000000;0.729790
8060.000000;0.729493
8059.000000;0.729190
8058.000000;0.729041
8057.000000;0.729049
8056.000000;0.729106
8055.000000;0.729126
8054.000000;0.729093
8053.000000;0.729028
8052.000000;0.728964
8051.000000;0.728939
8050.000000;0.728965
8049.000000;0.728991
8048.000000;0.728943
8047.000000;0.728793
8046.000000;0.728593
8045.000000;0.728421
8044.000000;0.728313
8043.000000;0.728238
8042.000000;0.728147
8041.000000;0.728039
8040.000000;0.727969
8039.000000;0.727968
8038.000000;0.727994
8037.000000;0.727985
8036.000000;0.727932
8035.000000;0.727869
8034.000000;0.727813
8033.000000;0.727770
8032.000000;0.727765
8031.000000;0.727805
8030.000000;0.727820
8029.000000;0.727721
8028.000000;0.727528
8027.000000;0.727368
8026.000000;0.727314
8025.000000;0.727307
8024.000000;0.727273
8023.000000;0.727219
8022.000000;0.727181
8021.000000;0.727125
8020.000000;0.726997
8019.000000;0.726824
8018.000000;0.726709
8017.000000;0.726717
8016.000000;0.726816
8015.000000;0.726917
8014.000000;0.726932
8013.000000;0.726831
8012.000000;0.726671
8011.000000;0.726558
8010.000000;0.726534
8009.000000;0.726527
8008.000000;0.726444
8007.000000;0.726289
8006.000000;0.726152
8005.000000;0.726077
8004.000000;0.726013
8003.000000;0.725883
8002.000000;0.725692
8001.000000;0.725528
8000.000000;0.725479
7999.000000;0.725550
7998.000000;0.725658
7997.000000;0.725698
7996.000000;0.725638
7995.000000;0.725523
7994.000000;0.725418
7993.000000;0.725354
7992.000000;0.725333
7991.000000;0.725348
7990.000000;0.725368
7989.000000;0.725336
7988.000000;0.725217
7987.000000;0.725038
7986.000000;0.724867
7985.000000;0.724759
7984.000000;0.724731
7983.000000;0.724766
7982.000000;0.724822
7981.000000;0.724859
7980.000000;0.724859
7979.000000;0.724817
7978.000000;0.724710
7977.000000;0.724516
7976.000000;0.724266
7975.000000;0.724043
7974.000000;0.723900
7973.000000;0.723827
7972.000000;0.723807
7971.000000;0.723851
7970.000000;0.723940
7969.000000;0.723974
7968.000000;0.723863
7967.000000;0.723643
7966.000000;0.723454
7965.000000;0.723375
7964.000000;0.723359
7963.000000;0.723317
7962.000000;0.723231
7961.000000;0.723129
7960.000000;0.723014
7959.000000;0.722869
7958.000000;0.722723
7957.000000;0.722658
7956.000000;0.722715
7955.000000;0.722821
7954.000000;0.722852
7953.000000;0.722759
7952.000000;0.722604
7951.000000;0.722459
7950.000000;0.722324
7949.000000;0.722162
7948.000000;0.721987
7947.000000;0.721856
7946.000000;0.721790
7945.000000;0.721762
7944.000000;0.721755
7943.000000;0.721790
7942.000000;0.721876
7941.000000;0.721986
7940.000000;0.722079
7939.000000;0.722118
7938.000000;0.722052
7937.000000;0.721863
7936.000000;0.721636
7935.000000;0.721520
7934.000000;0.721572
7933.000000;0.721680
7932.000000;0.721687
7931.000000;0.721552
7930.000000;0.721364
7929.000000;0.721238
7928.000000;0.721229
7927.000000;0.721317
7926.000000;0.721400
7925.000000;0.721361
7924.000000;0.721175
7923.000000;0.720946
7922.000000;0.720799
7921.000000;0.720752
7920.000000;0.720741
7919.000000;0.720712
7918.000000;0.720654
7917.000000;0.720565
7916.000000;0.720465
7915.000000;0.720415
7914.000000;0.720452
7913.000000;0.720519
7912.000000;0.720494
7911.000000;0.720318
7910.000000;0.720044
7909.000000;0.719776
7908.000000;0.719592
7907.000000;0.719528
7906.000000;0.719572
7905.000000;0.719671
7904.000000;0.719764
7903.000000;0.719825
7902.000000;0.719848
7901.000000;0.719816
7900.000000;0.719724
7899.000000;0.719602
7898.000000;0.719492
7897.000000;0.719397
7896.000000;0.719308
7895.000000;0.719245
7894.000000;0.719216
7893.000000;0.719157
7892.000000;0.718990
7891.000000;0.718735
7890.000000;0.718514
7889.000000;0.718410
7888.000000;0.718414
7887.000000;0.718491
7886.000000;0.718618
7885.000000;0.718728
7884.000000;0.718712
7883.000000;0.718537
7882.000000;0.718313
7881.000000;0.718183
7880.000000;0.718179
7879.000000;0.718242
7878.000000;0.718321
7877.000000;0.718398
7876.000000;0.718432
7875.000000;0.718362
7874.000000;0.718174
7873.000000;0.717939
7872.000000;0.717769
7871.000000;0.717737
7870.000000;0.717815
7869.000000;0.717888
7868.000000;0.717847
7867.000000;0.717703
7866.000000;0.717568
7865.000000;0.717513
7864.000000;0.717481
7863.000000;0.717379
7862.000000;0.717199
7861.000000;0.717013
7860.000000;0.716875
7859.000000;0.716806
7858.000000;0.716847
7857.000000;0.717021
7856.000000;0.717243
7855.000000;0.717345
7854.000000;0.717246
7853.000000;0.717043
7852.000000;0.716897
7851.000000;0.716858
7850.000000;0.716841
7849.000000;0.716744
7848.000000;0.716552
7847.000000;0.716332
7846.000000;0.716167
7845.000000;0.716086
7844.000000;0.716035
7843.000000;0.715940
7842.000000;0.715785
7841.000000;0.715644
7840.000000;0.715597
7839.000000;0.715643
7838.000000;0.715714
7837.000000;0.715750
7836.000000;0.715743
7835.000000;0.715715
7834.000000;0.715686
7833.000000;0.715660
7832.000000;0.715615
7831.000000;0.715511
7830.000000;0.715326
7829.000000;0.715091
7828.000000;0.714868
7827.000000;0.714708
7826.000000;0.714644
7825.000000;0.714704
7824.000000;0.714882
7823.000000;0.715088
7822.000000;0.715189
7821.000000;0.715110
7820.000000;0.714898
7819.000000;0.714665
7818.000000;0.714491
7817.000000;0.714401
7816.000000;0.714390
7815.000000;0.714423
7814.000000;0.714426
7813.000000;0.714321
7812.000000;0.714092
7811.000000;0.713812
7810.000000;0.713597
7809.000000;0.713536
7808.000000;0.713624
7807.000000;0.713765
7806.000000;0.713832
7805.000000;0.713774
7804.000000;0.713656
7803.000000;0.713586
7802.000000;0.713598
7801.000000;0.713632
7800.000000;0.713611
7799.000000;0.713514
7798.000000;0.713360
7797.000000;0.713167
7796.000000;0.712937
7795.000000;0.712697
7794.000000;0.712506
7793.000000;0.712427
7792.000000;0.712468
7791.000000;0.712561
7790.000000;0.712618
7789.000000;0.712608
7788.000000;0.712568
7787.000000;0.712541
7786.000000;0.712514
7785.000000;0.712446
7784.000000;0.712330
7783.000000;0.712189
7782.000000;0.712050
7781.000000;0.711941
7780.000000;0.711898
7779.000000;0.711935
7778.000000;0.711989
7777.000000;0.711958
7776.000000;0.711802
7775.000000;0.711586
7774.000000;0.711406
7773.000000;0.711307
7772.000000;0.711282
7771.000000;0.711316
7770.000000;0.711402
7769.000000;0.711513
7768.000000;0.711596
7767.000000;0.711591
7766.000000;0.711470
7765.000000;0.711270
7764.000000;0.711087
7763.000000;0.711005
7762.000000;0.711012
7761.000000;0.711008
7760.000000;0.710919
7759.000000;0.710773
7758.000000;0.710648
7757.000000;0.710585
7756.000000;0.710563
7755.000000;0.710544
7754.000000;0.710510
7753.000000;0.710463
7752.000000;0.710406
7751.000000;0.710330
7750.000000;0.710225
7749.000000;0.710102
7748.000000;0.710012
7747.000000;0.710006
7746.000000;0.710066
7745.000000;0.710101
7744.000000;0.710040
7743.000000;0.709900
7742.000000;0.709752
7741.000000;0.709635
7740.000000;0.709551
7739.000000;0.709501
7738.000000;0.709499
7737.000000;0.709532
7736.000000;0.709536
7735.000000;0.709439
7734.000000;0.709214
7733.000000;0.708906
7732.000000;0.708618
7731.000000;0.708452
7730.000000;0.708441
7729.000000;0.708532
7728.000000;0.708639
7727.000000;0.708715
7726.000000;0.708758
7725.000000;0.708777
7724.000000;0.708782
7723.000000;0.708782
7722.000000;0.708765
7721.000000;0.708690
7720.000000;0.708532
7719.000000;0.708330
7718.000000;0.708166
7717.000000;0.708078
7716.000000;0.708031
7715.000000;0.707968
7714.000000;0.707871
7713.000000;0.707759
7712.000000;0.707651
7711.000000;0.707556
7710.000000;0.707478
7709.000000;0.707407
7708.000000;0.707318
7707.000000;0.707185
7706.000000;0.707011
7705.000000;0.706843
7704.000000;0.706743
7703.000000;0.706739
7702.000000;0.706807
7701.000000;0.706898
7700.000000;0.706985
7699.000000;0.707077
7698.000000;0.707182
7697.000000;0.707265
7696.000000;0.707264
7695.000000;0.707144
7694.000000;0.706938
7693.000000;0.706739
7692.000000;0.706629
7691.000000;0.706616
7690.000000;0.706619
7689.000000;0.706545
7688.000000;0.706371
7687.000000;0.706155
7686.000000;0.705962
7685.000000;0.705805
7684.000000;0.705678
7683.000000;0.705588
7682.000000;0.705552
7681.000000;0.705564
7680.000000;0.705595
7679.000000;0.705612
7678.000000;0.705597
7677.000000;0.705547
7676.000000;0.705483
7675.000000;0.705427
7674.000000;0.705371
7673.000000;0.705288
7672.000000;0.705180
7671.000000;0.705090
7670.000000;0.705041
7669.000000;0.705009
7668.000000;0.704962
7667.000000;0.704912
7666.000000;0.704889
7665.000000;0.704889
7664.000000;0.704872
7663.000000;0.704804
7662.000000;0.704679
7661.000000;0.704521
7660.000000;0.704377
7659.000000;0.704291
7658.000000;0.704255
7657.000000;0.704213
7656.000000;0.704133
7655.000000;0.704050
7654.000000;0.704001
7653.000000;0.703960
7652.000000;0.703881
7651.000000;0.703782
7650.000000;0.703712
7649.000000;0.703666
7648.000000;0.703583
7647.000000;0.703459
7646.000000;0.703375
7645.000000;0.703400
7644.000000;0.703506
7643.000000;0.703602
7642.000000;0.703613
7641.000000;0.703523
7640.000000;0.703363
7639.000000;0.703199
7638.000000;0.703092
7637.000000;0.703056
7636.000000;0.703050
7635.000000;0.703030
7634.000000;0.702981
7633.000000;0.702911
7632.000000;0.702836
7631.000000;0.702775
7630.000000;0.702727
7629.000000;0.702655
7628.000000;0.702525
7627.000000;0.702357
7626.000000;0.702218
7625.000000;0.702148
7624.000000;0.702123
7623.000000;0.702110
7622.000000;0.702103
7621.000000;0.702101
7620.000000;0.702084
7619.000000;0.702039
7618.000000;0.701966
7617.000000;0.701863
7616.000000;0.701724
7615.000000;0.701593
7614.000000;0.701552
7613.000000;0.701619
7612.000000;0.701703
7611.000000;0.701688
7610.000000;0.701558
7609.000000;0.701388
7608.000000;0.701245
7607.000000;0.701145
7606.000000;0.701085
7605.000000;0.701056
7604.000000;0.701028
7603.000000;0.700964
7602.000000;0.700869
7601.000000;0.700786
7600.000000;0.700749
7599.000000;0.700743
7598.000000;0.700733
7597.000000;0.700690
7596.000000;0.700600
7595.000000;0.700477
7594.000000;0.700360
7593.000000;0.700274
7592.000000;0.700194
7591.000000;0.700067
7590.000000;0.699893
7589.000000;0.699744
7588.000000;0.699694
7587.000000;0.699747
7586.000000;0.699840
7585.000000;0.699905
7584.000000;0.699901
7583.000000;0.699821
7582.000000;0.699693
7581.000000;0.699563
7580.000000;0.699476
7579.000000;0.699447
7578.000000;0.699460
7577.000000;0.699479
7576.000000;0.699464
7575.000000;0.699398
7574.000000;0.699308
7573.000000;0.699238
7572.000000;0.699200
7571.000000;0.699164
7570.000000;0.699104
7569.000000;0.699046
7568.000000;0.699034
7567.000000;0.699065
7566.000000;0.699079
7565.000000;0.699019
7564.000000;0.698889
7563.000000;0.698743
7562.000000;0.698628
7561.000000;0.698543
7560.000000;0.698453
7559.000000;0.698337
7558.000000;0.698212
7557.000000;0.698121
7556.000000;0.698088
7555.000000;0.698101
7554.000000;0.698137
7553.000000;0.698178
7552.000000;0.698199
7551.000000;0.698163
7550.000000;0.698044
7549.000000;0.697865
7548.000000;0.697697
7547.000000;0.697606
7546.000000;0.697611
7545.000000;0.697683
7544.000000;0.697758
7543.000000;0.697766
7542.000000;0.697685
7541.000000;0.697563
7540.000000;0.697490
7539.000000;0.697502
7538.000000;0.697537
7537.000000;0.697499
7536.000000;0.697374
7535.000000;0.697242
7534.000000;0.697182
7533.000000;0.697184
7532.000000;0.697176
7531.000000;0.697122
7530.000000;0.697055
7529.000000;0.697022
7528.000000;0.697020
7527.000000;0.696999
7526.000000;0.696935
7525.000000;0.696857
7524.000000;0.696806
7523.000000;0.696779
7522.000000;0.696744
7521.000000;0.696704
7520.000000;0.696702
7519.000000;0.696751
7518.000000;0.696779
7517.000000;0.696700
7516.000000;0.696526
7515.000000;0.696370
7514.000000;0.696319
7513.000000;0.696326
7512.000000;0.696276
7511.000000;0.696112
7510.000000;0.695892
7509.000000;0.695723
7508.000000;0.695666
7507.000000;0.695697
7506.000000;0.695733
7505.000000;0.695707
7504.000000;0.695625
7503.000000;0.695561
7502.000000;0.695573
7501.000000;0.695641
7500.000000;0.695710
7499.000000;0.695756
7498.000000;0.695797
7497.000000;0.695822
7496.000000;0.695791
7495.000000;0.695684
7494.000000;0.695567
7493.000000;0.695480
7492.000000;0.695403
7491.000000;0.695318
7490.000000;0.695209
7489.000000;0.695109
7488.000000;0.695047
7487.000000;0.695043
7486.000000;0.695099
7485.000000;0.695191
7484.000000;0.695270
7483.000000;0.695299
7482.000000;0.695285
7481.000000;0.695244
7480.000000;0.695160
7479.000000;0.694996
7478.000000;0.694783
7477.000000;0.694620
7476.000000;0.694580
7475.000000;0.694630
7474.000000;0.694663
7473.000000;0.694608
7472.000000;0.694499
7471.000000;0.694417
7470.000000;0.694404
7469.000000;0.694417
7468.000000;0.694387
7467.000000;0.694303
7466.000000;0.694225
7465.000000;0.694217
7464.000000;0.694268
7463.000000;0.694308
7462.000000;0.694284
7461.000000;0.694208
7460.000000;0.694116
7459.000000;0.694028
7458.000000;0.693950
7457.000000;0.693898
7456.000000;0.693887
7455.000000;0.693909
7454.000000;0.693934
7453.000000;0.693943
7452.000000;0.693947
7451.000000;0.693958
7450.000000;0.693957
7449.000000;0.693902
7448.000000;0.693788
7447.000000;0.693669
7446.000000;0.693615
7445.000000;0.693629
7444.000000;0.693640
7443.000000;0.693588
7442.000000;0.693503
7441.000000;0.693461
7440.000000;0.693491
7439.000000;0.693548
7438.000000;0.693583
7437.000000;0.693586
7436.000000;0.693561
7435.000000;0.693497
7434.000000;0.693388
7433.000000;0.693268
7432.000000;0.693174
7431.000000;0.693112
7430.000000;0.693066
7429.000000;0.693039
7428.000000;0.693043
7427.000000;0.693064
7426.000000;0.693070
7425.000000;0.693050
7424.000000;0.693032
7423.000000;0.693041
7422.000000;0.693070
7421.000000;0.693092
7420.000000;0.693094
7419.000000;0.693089
7418.000000;0.693099
7417.000000;0.693135
7416.000000;0.693178
7415.000000;0.693201
7414.000000;0.693182
7413.000000;0.693116
7412.000000;0.693007
7411.000000;0.692863
7410.000000;0.692711
7409.000000;0.692589
7408.000000;0.692517
7407.000000;0.692470
7406.000000;0.692416
7405.000000;0.692358
7404.000000;0.692328
7403.000000;0.692350
7402.000000;0.692426
7401.000000;0.692530
7400.000000;0.692613
7399.000000;0.692624
7398.000000;0.692558
7397.000000;0.692476
7396.000000;0.692451
7395.000000;0.692482
7394.000000;0.692513
7393.000000;0.692522
7392.000000;0.692537
7391.000000;0.692574
7390.000000;0.692599
7389.000000;0.692572
7388.000000;0.692494
7387.000000;0.692386
7386.000000;0.692273
7385.000000;0.692184
7384.000000;0.692149
7383.000000;0.692166
7382.000000;0.692207
7381.000000;0.692240
7380.000000;0.692241
7379.000000;0.692176
7378.000000;0.692028
7377.000000;0.691857
7376.000000;0.691760
7375.000000;0.691773
7374.000000;0.691836
7373.000000;0.691885
7372.000000;0.691921
7371.000000;0.691966
7370.000000;0.691991
7369.000000;0.691964
7368.000000;0.691915
7367.000000;0.691899
7366.000000;0.691912
7365.000000;0.691909
7364.000000;0.691874
7363.000000;0.691832
7362.000000;0.691834
7361.000000;0.691913
7360.000000;0.692053
7359.000000;0.692175
7358.000000;0.692180
7357.000000;0.692025
7356.000000;0.691778
7355.000000;0.691573
7354.000000;0.691497
7353.000000;0.691527
7352.000000;0.691590
7351.000000;0.691651
7350.000000;0.691733
7349.000000;0.691852
7348.000000;0.691960
7347.000000;0.691981
7346.000000;0.691903
7345.000000;0.691786
7344.000000;0.691683
7343.000000;0.691569
7342.000000;0.691398
7341.000000;0.691217
7340.000000;0.691142
7339.000000;0.691226
7338.000000;0.691371
7337.000000;0.691447
7336.000000;0.691422
7335.000000;0.691359
7334.000000;0.691340
7333.000000;0.691409
7332.000000;0.691548
7331.000000;0.691697
7330.000000;0.691802
7329.000000;0.691850
7328.000000;0.691852
7327.000000;0.691826
7326.000000;0.691785
7325.000000;0.691753
7324.000000;0.691760
7323.000000;0.691817
7322.000000;0.691889
7321.000000;0.691946
7320.000000;0.691992
7319.000000;0.692022
7318.000000;0.691997
7317.000000;0.691909
7316.000000;0.691838
7315.000000;0.691872
7314.000000;0.692009
7313.000000;0.692168
7312.000000;0.692309
7311.000000;0.692465
7310.000000;0.692653
7309.000000;0.692805
7308.000000;0.692842
7307.000000;0.692756
7306.000000;0.692590
7305.000000;0.692376
7304.000000;0.692136
7303.000000;0.691930
7302.000000;0.691820
7301.000000;0.691827
7300.000000;0.691934
7299.000000;0.692110
7298.000000;0.692312
7297.000000;0.692490
7296.000000;0.692596
7295.000000;0.692614
7294.000000;0.692573
7293.000000;0.692527
7292.000000;0.692512
7291.000000;0.692515
7290.000000;0.692504
7289.000000;0.692472
7288.000000;0.692468
7287.000000;0.692567
7286.000000;0.692787
7285.000000;0.693067
7284.000000;0.693314
7283.000000;0.693470
7282.000000;0.693528
7281.000000;0.693529
7280.000000;0.693536
7279.000000;0.693584
7278.000000;0.693646
7277.000000;0.693680
7276.000000;0.693704
7275.000000;0.693792
7274.000000;0.693966
7273.000000;0.694130
7272.000000;0.694179
7271.000000;0.694141
7270.000000;0.694147
7269.000000;0.694263
7268.000000;0.694415
7267.000000;0.694498
7266.000000;0.694493
7265.000000;0.694472
7264.000000;0.694500
7263.000000;0.694595
7262.000000;0.694742
7261.000000;0.694922
7260.000000;0.695123
7259.000000;0.695340
7258.000000;0.695549
7257.000000;0.695685
7256.000000;0.695685
7255.000000;0.695579
7254.000000;0.695504
7253.000000;0.695611
7252.000000;0.695925
7251.000000;0.696298
7250.000000;0.696526
7249.000000;0.696527
7248.000000;0.696399
7247.000000;0.696332
7246.000000;0.696454
7245.000000;0.696719
7244.000000;0.696954
7243.000000;0.697022
7242.000000;0.696955
7241.000000;0.696902
7240.000000;0.696965
7239.000000;0.697122
7238.000000;0.697289
7237.000000;0.697385
7236.000000;0.697400
7235.000000;0.697421
7234.000000;0.697561
7233.000000;0.697857
7232.000000;0.698231
7231.000000;0.698551
7230.000000;0.698750
7229.000000;0.698881
7228.000000;0.699012
7227.000000;0.699136
7226.000000;0.699210
7225.000000;0.699260
7224.000000;0.699358
7223.000000;0.699519
7222.000000;0.699698
7221.000000;0.699869
7220.000000;0.700051
7219.000000;0.700248
7218.000000;0.700409
7217.000000;0.700490
7216.000000;0.700517
7215.000000;0.700556
7214.000000;0.700622
7213.000000;0.700673
7212.000000;0.700688
7211.000000;0.700713
7210.000000;0.700811
7209.000000;0.700978
7208.000000;0.701132
7207.000000;0.701194
7206.000000;0.701179
7205.000000;0.701209
7204.000000;0.701406
7203.000000;0.701776
7202.000000;0.702196
7201.000000;0.702534
7200.000000;0.702771
7199.000000;0.702952
7198.000000;0.703069
7197.000000;0.703055
7196.000000;0.702931
7195.000000;0.702865
7194.000000;0.703030
7193.000000;0.703410
7192.000000;0.703826
7191.000000;0.704130
7190.000000;0.704318
7189.000000;0.704460
7188.000000;0.704602
7187.000000;0.704754
7186.000000;0.704899
7185.000000;0.705015
7184.000000;0.705113
7183.000000;0.705241
7182.000000;0.705420
7181.000000;0.705576
7180.000000;0.705602
7179.000000;0.705496
7178.000000;0.705385
7177.000000;0.705394
7176.000000;0.705561
7175.000000;0.705887
7174.000000;0.706361
7173.000000;0.706891
7172.000000;0.707328
7171.000000;0.707586
7170.000000;0.707676
7169.000000;0.707655
7168.000000;0.707604
7167.000000;0.707667
7166.000000;0.707952
7165.000000;0.708353
7164.000000;0.708600
7163.000000;0.708553
7162.000000;0.708355
7161.000000;0.708231
7160.000000;0.708222
7159.000000;0.708233
7158.000000;0.708253
7157.000000;0.708374
7156.000000;0.708592
7155.000000;0.708796
7154.000000;0.708964
7153.000000;0.709217
7152.000000;0.709635
7151.000000;0.710108
7150.000000;0.710466
7149.000000;0.710665
7148.000000;0.710773
7147.000000;0.710831
7146.000000;0.710821
7145.000000;0.710764
7144.000000;0.710734
7143.000000;0.710782
7142.000000;0.710876
7141.000000;0.710950
7140.000000;0.710954
7139.000000;0.710894
7138.000000;0.710854
7137.000000;0.710949
7136.000000;0.711212
7135.000000;0.711504
7134.000000;0.711639
7133.000000;0.711562
7132.000000;0.711351
7131.000000;0.711053
7130.000000;0.710639
7129.000000;0.710153
7128.000000;0.709777
7127.000000;0.709650
7126.000000;0.709729
7125.000000;0.709867
7124.000000;0.709948
7123.000000;0.709877
7122.000000;0.709573
7121.000000;0.709111
7120.000000;0.708787
7119.000000;0.708877
7118.000000;0.709331
7117.000000;0.709759
7116.000000;0.709744
7115.000000;0.709147
7114.000000;0.708165
7113.000000;0.707190
7112.000000;0.706594
7111.000000;0.706491
7110.000000;0.706640
7109.000000;0.706660
7108.000000;0.706382
7107.000000;0.705960
7106.000000;0.705622
7105.000000;0.705428
7104.000000;0.705285
7103.000000;0.705056
7102.000000;0.704594
7101.000000;0.703789
7100.000000;0.702640
7099.000000;0.701275
7098.000000;0.699897
7097.000000;0.698779
7096.000000;0.698218
7095.000000;0.698313
7094.000000;0.698728
7093.000000;0.698879
7092.000000;0.698511
7091.000000;0.697918
7090.000000;0.697450
7089.000000;0.697000
7088.000000;0.696176
7087.000000;0.694909
7086.000000;0.693599
7085.000000;0.692609
7084.000000;0.691828
7083.000000;0.690868
7082.000000;0.689559
7081.000000;0.688103
7080.000000;0.686787
7079.000000;0.685695
7078.000000;0.684749
7077.000000;0.683889
7076.000000;0.683086
7075.000000;0.682231
7074.000000;0.681137
7073.000000;0.679672
7072.000000;0.677884
7071.000000;0.675995
7070.000000;0.674291
7069.000000;0.672991
7068.000000;0.672108
7067.000000;0.671406
7066.000000;0.670560
7065.000000;0.669432
7064.000000;0.668163
7063.000000;0.666991
7062.000000;0.666048
7061.000000;0.665352
7060.000000;0.664832
7059.000000;0.664267
7058.000000;0.663345
7057.000000;0.661939
7056.000000;0.660234
7055.000000;0.658471
7054.000000;0.656653
7053.000000;0.654647
7052.000000;0.652475
7051.000000;0.650319
7050.000000;0.648301
7049.000000;0.646465
7048.000000;0.644887
7047.000000;0.643540
7046.000000;0.642123
7045.000000;0.640335
7044.000000;0.638289
7043.000000;0.636346
7042.000000;0.634576
7041.000000;0.632722
7040.000000;0.630726
7039.000000;0.628879
7038.000000;0.627312
7037.000000;0.625794
7036.000000;0.624245
7035.000000;0.623000
7034.000000;0.622186
7033.000000;0.621177
7032.000000;0.619210
7031.000000;0.616357
7030.000000;0.613414
7029.000000;0.610950
7028.000000;0.608927
7027.000000;0.607229
7026.000000;0.606002
7025.000000;0.605247
7024.000000;0.604423
7023.000000;0.602805
7022.000000;0.600230
7021.000000;0.597346
7020.000000;0.595058
7019.000000;0.593674
7018.000000;0.592604
7017.000000;0.590963
7016.000000;0.588511
7015.000000;0.585814
7014.000000;0.583459
7013.000000;0.581440
7012.000000;0.579504
7011.000000;0.577702
7010.000000;0.576173
7009.000000;0.574640
7008.000000;0.572619
7007.000000;0.570004
7006.000000;0.567056
7005.000000;0.563951
7004.000000;0.560820
7003.000000;0.558128
7002.000000;0.556394
7001.000000;0.555419
7000.000000;0.554288
6999.000000;0.552286
6998.000000;0.549496
6997.000000;0.546411
6996.000000;0.543392
6995.000000;0.540660
6994.000000;0.538412
6993.000000;0.536645
6992.000000;0.535096
6991.000000;0.533503
6990.000000;0.531795
6989.000000;0.529992
6988.000000;0.528161
6987.000000;0.526406
6986.000000;0.524588
6985.000000;0.522160
6984.000000;0.518746
6983.000000;0.514841
6982.000000;0.511464
6981.000000;0.509080
6980.000000;0.507359
6979.000000;0.505961
6978.000000;0.504901
6977.000000;0.503937
6976.000000;0.502396
6975.000000;0.500070
6974.000000;0.497684
6973.000000;0.495949
6972.000000;0.494556
6971.000000;0.492678
6970.000000;0.490137
6969.000000;0.487501
6968.000000;0.485191
6967.000000;0.483085
6966.000000;0.480978
6965.000000;0.478987
6964.000000;0.477353
6963.000000;0.476009
6962.000000;0.474472
6961.000000;0.472175
6960.000000;0.469062
6959.000000;0.465860
6958.000000;0.463549
6957.000000;0.462456
6956.000000;0.462026
6955.000000;0.461450
6954.000000;0.460201
6953.000000;0.458032
6952.000000;0.455001
6951.000000;0.451723
6950.000000;0.449142
6949.000000;0.447701
6948.000000;0.446917
6947.000000;0.445906
6946.000000;0.444078
6945.000000;0.441344
6944.000000;0.438107
6943.000000;0.435197
6942.000000;0.433310
6941.000000;0.432254
6940.000000;0.431120
6939.000000;0.429407
6938.000000;0.427532
6937.000000;0.426031
6936.000000;0.424804
6935.000000;0.423456
6934.000000;0.421859
6933.000000;0.420018
6932.000000;0.417878
6931.000000;0.415672
6930.000000;0.414016
6929.000000;0.413141
6928.000000;0.412415
6927.000000;0.411048
6926.000000;0.408894
6925.000000;0.406200
6924.000000;0.403148
6923.000000;0.400166
6922.000000;0.398157
6921.000000;0.397635
6920.000000;0.397867
6919.000000;0.397518
6918.000000;0.396082
6917.000000;0.394207
6916.000000;0.392748
6915.000000;0.391976
6914.000000;0.391588
6913.000000;0.391010
6912.000000;0.389750
6911.000000;0.387915
6910.000000;0.386269
6909.000000;0.385433
6908.000000;0.385080
6907.000000;0.384251
6906.000000;0.382332
6905.000000;0.379539
6904.000000;0.376640
6903.000000;0.374499
6902.000000;0.373582
6901.000000;0.373475
6900.000000;0.373040
6899.000000;0.371460
6898.000000;0.369013
6897.000000;0.366558
6896.000000;0.364519
6895.000000;0.362792
6894.000000;0.361419
6893.000000;0.360770
6892.000000;0.361000
6891.000000;0.361672
6890.000000;0.362036
6889.000000;0.361557
6888.000000;0.360285
6887.000000;0.358819
6886.000000;0.357795
6885.000000;0.357283
6884.000000;0.356861
6883.000000;0.356281
6882.000000;0.355678
6881.000000;0.355016
6880.000000;0.353872
6879.000000;0.352117
6878.000000;0.350409
6877.000000;0.349577
6876.000000;0.349727
6875.000000;0.350296
6874.000000;0.350749
6873.000000;0.350923
6872.000000;0.350896
6871.000000;0.350783
6870.000000;0.350501
6869.000000;0.349653
6868.000000;0.347974
6867.000000;0.345990
6866.000000;0.344777
6865.000000;0.344745
6864.000000;0.345105
6863.000000;0.344894
6862.000000;0.344062
6861.000000;0.343184
6860.000000;0.342546
6859.000000;0.342010
6858.000000;0.341437
6857.000000;0.340772
6856.000000;0.340016
6855.000000;0.339480
6854.000000;0.339693
6853.000000;0.340605
6852.000000;0.341287
6851.000000;0.340927
6850.000000;0.339845
6849.000000;0.339054
6848.000000;0.339105
6847.000000;0.339889
6846.000000;0.341148
6845.000000;0.342463
6844.000000;0.343014
6843.000000;0.342195
6842.000000;0.340545
6841.000000;0.339465
6840.000000;0.339821
6839.000000;0.341192
6838.000000;0.342505
6837.000000;0.343021
6836.000000;0.342751
6835.000000;0.342304
6834.000000;0.342403
6833.000000;0.343259
6832.000000;0.344419
6831.000000;0.345348
6830.000000;0.345985
6829.000000;0.346473
6828.000000;0.346690
6827.000000;0.346465
6826.000000;0.346037
6825.000000;0.345776
6824.000000;0.345586
6823.000000;0.345106
6822.000000;0.344483
6821.000000;0.344443
6820.000000;0.345483
6819.000000;0.347347
6818.000000;0.349339
6817.000000;0.350891
6816.000000;0.351823
6815.000000;0.352351
6814.000000;0.352972
6813.000000;0.354069
6812.000000;0.355498
6811.000000;0.356697
6810.000000;0.357258
6809.000000;0.357316
6808.000000;0.357392
6807.000000;0.357880
6806.000000;0.358651
6805.000000;0.359157
6804.000000;0.359076
6803.000000;0.358815
6802.000000;0.359077
6801.000000;0.359925
6800.000000;0.360754
6799.000000;0.361321
6798.000000;0.362203
6797.000000;0.363778
6796.000000;0.365294
6795.000000;0.365712
6794.000000;0.365218
6793.000000;0.365111
6792.000000;0.366190
6791.000000;0.367955
6790.000000;0.369552
6789.000000;0.370832
6788.000000;0.372075
6787.000000;0.373220
6786.000000;0.373949
6785.000000;0.374322
6784.000000;0.374820
6783.000000;0.375726
6782.000000;0.376794
6781.000000;0.377613
6780.000000;0.378102
6779.000000;0.378491
6778.000000;0.378967
6777.000000;0.379489
6776.000000;0.379979
6775.000000;0.380524
6774.000000;0.381277
6773.000000;0.382214
6772.000000;0.383157
6771.000000;0.384014
6770.000000;0.384861
6769.000000;0.385748
6768.000000;0.386582
6767.000000;0.387273
6766.000000;0.387827
6765.000000;0.388269
6764.000000;0.388647
6763.000000;0.389210
6762.000000;0.390334
6761.000000;0.392088
6760.000000;0.394016
6759.000000;0.395578
6758.000000;0.396650
6757.000000;0.397413
6756.000000;0.397940
6755.000000;0.398236
6754.000000;0.398596
6753.000000;0.399501
6752.000000;0.401027
6751.000000;0.402596
6750.000000;0.403534
6749.000000;0.403749
6748.000000;0.403726
6747.000000;0.403938
6746.000000;0.404414
6745.000000;0.404900
6744.000000;0.405313
6743.000000;0.405914
6742.000000;0.406942
6741.000000;0.408193
6740.000000;0.409152
6739.000000;0.409591
6738.000000;0.409858
6737.000000;0.410443
6736.000000;0.411425
6735.000000;0.412494
6734.000000;0.413390
6733.000000;0.414129
6732.000000;0.414835
6731.000000;0.415596
6730.000000;0.416484
6729.000000;0.417517
6728.000000;0.418565
6727.000000;0.419442
6726.000000;0.420138
6725.000000;0.420850
6724.000000;0.421725
6723.000000;0.422680
6722.000000;0.423531
6721.000000;0.424180
6720.000000;0.424649
6719.000000;0.425017
6718.000000;0.425413
6717.000000;0.425989
6716.000000;0.426824
6715.000000;0.427866
6714.000000;0.429006
6713.000000;0.430164
6712.000000;0.431275
6711.000000;0.432233
6710.000000;0.432941
6709.000000;0.433381
6708.000000;0.433634
6707.000000;0.433819
6706.000000;0.434022
6705.000000;0.434283
6704.000000;0.434619
6703.000000;0.435064
6702.000000;0.435688
6701.000000;0.436574
6700.000000;0.437692
6699.000000;0.438937
6698.000000;0.440041
6697.000000;0.440780
6696.000000;0.441121
6695.000000;0.441203
6694.000000;0.441218
6693.000000;0.441311
6692.000000;0.441612
6691.000000;0.442238
6690.000000;0.443158
6689.000000;0.444115
6688.000000;0.444839
6687.000000;0.445368
6686.000000;0.446003
6685.000000;0.446910
6684.000000;0.447898
6683.000000;0.448695
6682.000000;0.449292
6681.000000;0.449889
6680.000000;0.450586
6679.000000;0.451309
6678.000000;0.452006
6677.000000;0.452724
6676.000000;0.453479
6675.000000;0.454190
6674.000000;0.454805
6673.000000;0.455382
6672.000000;0.455972
6671.000000;0.456537
6670.000000;0.457056
6669.000000;0.457621
6668.000000;0.458313
6667.000000;0.459027
6666.000000;0.459545
6665.000000;0.459809
6664.000000;0.460012
6663.000000;0.460386
6662.000000;0.460955
6661.000000;0.461576
6660.000000;0.462170
6659.000000;0.462807
6658.000000;0.463559
6657.000000;0.464344
6656.000000;0.464994
6655.000000;0.465450
6654.000000;0.465830
6653.000000;0.466317
6652.000000;0.467005
6651.000000;0.467845
6650.000000;0.468678
6649.000000;0.469322
6648.000000;0.469686
6647.000000;0.469860
6646.000000;0.470069
6645.000000;0.470526
6644.000000;0.471291
6643.000000;0.472236
6642.000000;0.473117
6641.000000;0.473717
6640.000000;0.474009
6639.000000;0.474179
6638.000000;0.474453
6637.000000;0.474888
6636.000000;0.475374
6635.000000;0.475830
6634.000000;0.476303
6633.000000;0.476858
6632.000000;0.477450
6631.000000;0.477991
6630.000000;0.478485
6629.000000;0.479030
6628.000000;0.479679
6627.000000;0.480368
6626.000000;0.480975
6625.000000;0.481428
6624.000000;0.481742
6623.000000;0.482012
6622.000000;0.482349
6621.000000;0.482814
6620.000000;0.483396
6619.000000;0.484036
6618.000000;0.484662
6617.000000;0.485208
6616.000000;0.485653
6615.000000;0.486054
6614.000000;0.486504
6613.000000;0.487025
6612.000000;0.487542
6611.000000;0.487994
6610.000000;0.488421
6609.000000;0.488905
6608.000000;0.489453
6607.000000;0.489988
6606.000000;0.490449
6605.000000;0.490826
6604.000000;0.491139
6603.000000;0.491406
6602.000000;0.491667
6601.000000;0.491962
6600.000000;0.492300
6599.000000;0.492651
6598.000000;0.493001
6597.000000;0.493368
6596.000000;0.493774
6595.000000;0.494215
6594.000000;0.494680
6593.000000;0.495161
6592.000000;0.495639
6591.000000;0.496088
6590.000000;0.496508
6589.000000;0.496951
6588.000000;0.497467
6587.000000;0.498042
6586.000000;0.498604
6585.000000;0.499096
6584.000000;0.499534
6583.000000;0.499959
6582.000000;0.500362
6581.000000;0.500682
6580.000000;0.500898
6579.000000;0.501088
6578.000000;0.501373
6577.000000;0.501796
6576.000000;0.502287
6575.000000;0.502748
6574.000000;0.503150
6573.000000;0.503531
6572.000000;0.503925
6571.000000;0.504317
6570.000000;0.504658
6569.000000;0.504917
6568.000000;0.505123
6567.000000;0.505366
6566.000000;0.505716
6565.000000;0.506157
6564.000000;0.506582
6563.000000;0.506894
6562.000000;0.507106
6561.000000;0.507342
6560.000000;0.507745
6559.000000;0.508355
6558.000000;0.509046
6557.000000;0.509610
6556.000000;0.509943
6555.000000;0.510141
6554.000000;0.510378
6553.000000;0.510702
6552.000000;0.511016
6551.000000;0.511255
6550.000000;0.511506
6549.000000;0.511873
6548.000000;0.512315
6547.000000;0.512700
6546.000000;0.512995
6545.000000;0.513288
6544.000000;0.513650
6543.000000;0.514046
6542.000000;0.514432
6541.000000;0.514849
6540.000000;0.515355
6539.000000;0.515914
6538.000000;0.516411
6537.000000;0.516760
6536.000000;0.516965
6535.000000;0.517082
6534.000000;0.517183
6533.000000;0.517341
6532.000000;0.517602
6531.000000;0.517952
6530.000000;0.518323
6529.000000;0.518656
6528.000000;0.518954
6527.000000;0.519256
6526.000000;0.519593
6525.000000;0.519961
6524.000000;0.520341
6523.000000;0.520710
6522.000000;0.521050
6521.000000;0.521358
6520.000000;0.521649
6519.000000;0.521946
6518.000000;0.522242
6517.000000;0.522508
6516.000000;0.522724
6515.000000;0.522916
6514.000000;0.523140
6513.000000;0.523436
6512.000000;0.523776
6511.000000;0.524085
6510.000000;0.524303
6509.000000;0.524459
6508.000000;0.524656
6507.000000;0.524961
6506.000000;0.525344
6505.000000;0.525730
6504.000000;0.526106
6503.000000;0.526515
6502.000000;0.526945
6501.000000;0.527290
6500.000000;0.527471
6499.000000;0.527551
6498.000000;0.527679
6497.000000;0.527924
6496.000000;0.528219
6495.000000;0.528472
6494.000000;0.528682
6493.000000;0.528909
6492.000000;0.529193
6491.000000;0.529507
6490.000000;0.529793
6489.000000;0.530017
6488.000000;0.530204
6487.000000;0.530419
6486.000000;0.530713
6485.000000;0.531069
6484.000000;0.531423
6483.000000;0.531722
6482.000000;0.531944
6481.000000;0.532088
6480.000000;0.532184
6479.000000;0.532309
6478.000000;0.532548
6477.000000;0.532915
6476.000000;0.533331
6475.000000;0.533709
6474.000000;0.534021
6473.000000;0.534291
6472.000000;0.534546
6471.000000;0.534811
6470.000000;0.535106
6469.000000;0.535409
6468.000000;0.535658
6467.000000;0.535817
6466.000000;0.535941
6465.000000;0.536113
6464.000000;0.536346
6463.000000;0.536578
6462.000000;0.536771
6461.000000;0.536957
6460.000000;0.537179
6459.000000;0.537418
6458.000000;0.537626
6457.000000;0.537789
6456.000000;0.537943
6455.000000;0.538120
6454.000000;0.538315
6453.000000;0.538508
6452.000000;0.538702
6451.000000;0.538909
6450.000000;0.539118
6449.000000;0.539292
6448.000000;0.539427
6447.000000;0.539585
6446.000000;0.539844
6445.000000;0.540203
6444.000000;0.540570
6443.000000;0.540857
6442.000000;0.541062
6441.000000;0.541247
6440.000000;0.541451
6439.000000;0.541655
6438.000000;0.541823
6437.000000;0.541948
6436.000000;0.542054
6435.000000;0.542182
6434.000000;0.542361
6433.000000;0.542585
6432.000000;0.542813
6431.000000;0.543002
6430.000000;0.543154
6429.000000;0.543306
6428.000000;0.543495
6427.000000;0.543719
6426.000000;0.543945
6425.000000;0.544141
6424.000000;0.544296
6423.000000;0.544430
6422.000000;0.544565
6421.000000;0.544693
6420.000000;0.544799
6419.000000;0.544897
6418.000000;0.545047
6417.000000;0.545281
6416.000000;0.545539
6415.000000;0.545728
6414.000000;0.545826
6413.000000;0.545909
6412.000000;0.546056
6411.000000;0.546278
6410.000000;0.546549
6409.000000;0.546848
6408.000000;0.547140
6407.000000;0.547340
6406.000000;0.547375
6405.000000;0.547281
6404.000000;0.547202
6403.000000;0.547270
6402.000000;0.547505
6401.000000;0.547826
6400.000000;0.548132
6399.000000;0.548359
6398.000000;0.548496
6397.000000;0.548588
6396.000000;0.548707
6395.000000;0.548891
6394.000000;0.549110
6393.000000;0.549300
6392.000000;0.549430
6391.000000;0.549515
6390.000000;0.549574
6389.000000;0.549614
6388.000000;0.549653
6387.000000;0.549730
6386.000000;0.549879
6385.000000;0.550090
6384.000000;0.550330
6383.000000;0.550570
6382.000000;0.550792
6381.000000;0.550972
6380.000000;0.551098
6379.000000;0.551197
6378.000000;0.551318
6377.000000;0.551465
6376.000000;0.551593
6375.000000;0.551672
6374.000000;0.551731
6373.000000;0.551818
6372.000000;0.551936
6371.000000;0.552059
6370.000000;0.552184
6369.000000;0.552326
6368.000000;0.552466
6367.000000;0.552553
6366.000000;0.552567
6365.000000;0.552562
6364.000000;0.552607
6363.000000;0.552727
6362.000000;0.552889
6361.000000;0.553049
6360.000000;0.553171
6359.000000;0.553246
6358.000000;0.553295
6357.000000;0.553360
6356.000000;0.553461
6355.000000;0.553571
6354.000000;0.553660
6353.000000;0.553744
6352.000000;0.553861
6351.000000;0.554007
6350.000000;0.554127
6349.000000;0.554188
6348.000000;0.554222
6347.000000;0.554281
6346.000000;0.554375
6345.000000;0.554484
6344.000000;0.554597
6343.000000;0.554707
6342.000000;0.554787
6341.000000;0.554820
6340.000000;0.554843
6339.000000;0.554923
6338.000000;0.555065
6337.000000;0.555185
6336.000000;0.555209
6335.000000;0.555177
6334.000000;0.555202
6333.000000;0.555342
6332.000000;0.555545
6331.000000;0.555712
6330.000000;0.555796
6329.000000;0.555812
6328.000000;0.555794
6327.000000;0.555775
6326.000000;0.555786
6325.000000;0.555847
6324.000000;0.555940
6323.000000;0.556024
6322.000000;0.556069
6321.000000;0.556075
6320.000000;0.556062
6319.000000;0.556064
6318.000000;0.556119
6317.000000;0.556260
6316.000000;0.556465
6315.000000;0.556665
6314.000000;0.556801
6313.000000;0.556879
6312.000000;0.556940
6311.000000;0.556999
6310.000000;0.557029
6309.000000;0.557015
6308.000000;0.556992
6307.000000;0.557010
6306.000000;0.557080
6305.000000;0.557176
6304.000000;0.557264
6303.000000;0.557326
6302.000000;0.557365
6301.000000;0.557396
6300.000000;0.557437
6299.000000;0.557481
6298.000000;0.557501
6297.000000;0.557482
6296.000000;0.557458
6295.000000;0.557487
6294.000000;0.557589
6293.000000;0.557728
6292.000000;0.557842
6291.000000;0.557893
6290.000000;0.557883
6289.000000;0.557849
6288.000000;0.557840
6287.000000;0.557886
6286.000000;0.557971
6285.000000;0.558048
6284.000000;0.558076
6283.000000;0.558044
6282.000000;0.557982
6281.000000;0.557945
6280.000000;0.557981
6279.000000;0.558089
6278.000000;0.558202
6277.000000;0.558252
6276.000000;0.558246
6275.000000;0.558251
6274.000000;0.558301
6273.000000;0.558365
6272.000000;0.558415
6271.000000;0.558476
6270.000000;0.558575
6269.000000;0.558677
6268.000000;0.558718
6267.000000;0.558691
6266.000000;0.558653
6265.000000;0.558660
6264.000000;0.558711
6263.000000;0.558770
6262.000000;0.558811
6261.000000;0.558825
6260.000000;0.558825
6259.000000;0.558843
6258.000000;0.558894
6257.000000;0.558948
6256.000000;0.558953
6255.000000;0.558900
6254.000000;0.558845
6253.000000;0.558844
6252.000000;0.558893
6251.000000;0.558949
6250.000000;0.558988
6249.000000;0.559010
6248.000000;0.559008
6247.000000;0.558968
6246.000000;0.558895
6245.000000;0.558833
6244.000000;0.558826
6243.000000;0.558876
6242.000000;0.558943
6241.000000;0.558986
6240.000000;0.558995
6239.000000;0.558987
6238.000000;0.558976
6237.000000;0.558965
6236.000000;0.558952
6235.000000;0.558943
6234.000000;0.558945
6233.000000;0.558961
6232.000000;0.558996
6231.000000;0.559048
6230.000000;0.559092
6229.000000;0.559097
6228.000000;0.559067
6227.000000;0.559054
6226.000000;0.559099
6225.000000;0.559177
6224.000000;0.559210
6223.000000;0.559160
6222.000000;0.559070
6221.000000;0.559021
6220.000000;0.559058
6219.000000;0.559164
6218.000000;0.559271
6217.000000;0.559304
6216.000000;0.559235
6215.000000;0.559105
6214.000000;0.558993
6213.000000;0.558940
6212.000000;0.558931
6211.000000;0.558940
6210.000000;0.558971
6209.000000;0.559041
6208.000000;0.559122
6207.000000;0.559161
6206.000000;0.559127
6205.000000;0.559043
6204.000000;0.558954
6203.000000;0.558889
6202.000000;0.558850
6201.000000;0.558828
6200.000000;0.558816
6199.000000;0.558808
6198.000000;0.558793
6197.000000;0.558761
6196.000000;0.558720
6195.000000;0.558696
6194.000000;0.558715
6193.000000;0.558772
6192.000000;0.558832
6191.000000;0.558857
6190.000000;0.558837
6189.000000;0.558788
6188.000000;0.558727
6187.000000;0.558665
6186.000000;0.558605
6185.000000;0.558550
6184.000000;0.558514
6183.000000;0.558512
6182.000000;0.558547
6181.000000;0.558591
6180.000000;0.558605
6179.000000;0.558580
6178.000000;0.558537
6177.000000;0.558492
6176.000000;0.558433
6175.000000;0.558348
6174.000000;0.558255
6173.000000;0.558193
6172.000000;0.558182
6171.000000;0.558214
6170.000000;0.558268
6169.000000;0.558327
6168.000000;0.558370
6167.000000;0.558374
6166.000000;0.558329
6165.000000;0.558253
6164.000000;0.558180
6163.000000;0.558136
6162.000000;0.558120
6161.000000;0.558106
6160.000000;0.558080
6159.000000;0.558054
6158.000000;0.558057
6157.000000;0.558091
6156.000000;0.558127
6155.000000;0.558137
6154.000000;0.558117
6153.000000;0.558084
6152.000000;0.558048
6151.000000;0.558008
6150.000000;0.557954
6149.000000;0.557889
6148.000000;0.557835
6147.000000;0.557828
6146.000000;0.557884
6145.000000;0.557967
6144.000000;0.558010
6143.000000;0.557984
6142.000000;0.557926
6141.000000;0.557887
6140.000000;0.557873
6139.000000;0.557851
6138.000000;0.557794
6137.000000;0.557699
6136.000000;0.557586
6135.000000;0.557483
6134.000000;0.557414
6133.000000;0.557379
6132.000000;0.557356
6131.000000;0.557325
6130.000000;0.557294
6129.000000;0.557276
6128.000000;0.557261
6127.000000;0.557233
6126.000000;0.557199
6125.000000;0.557185
6124.000000;0.557189
6123.000000;0.557188
6122.000000;0.557171
6121.000000;0.557165
6120.000000;0.557196
6119.000000;0.557257
6118.000000;0.557313
6117.000000;0.557328
6116.000000;0.557282
6115.000000;0.557190
6114.000000;0.557092
6113.000000;0.557024
6112.000000;0.556979
6111.000000;0.556927
6110.000000;0.556861
6109.000000;0.556814
6108.000000;0.556810
6107.000000;0.556833
6106.000000;0.556836
6105.000000;0.556796
6104.000000;0.556724
6103.000000;0.556652
6102.000000;0.556603
6101.000000;0.556575
6100.000000;0.556543
6099.000000;0.556490
6098.000000;0.556436
6097.000000;0.556421
6096.000000;0.556453
6095.000000;0.556487
6094.000000;0.556468
6093.000000;0.556388
6092.000000;0.556286
6091.000000;0.556195
6090.000000;0.556129
6089.000000;0.556089
6088.000000;0.556082
6087.000000;0.556103
6086.000000;0.556136
6085.000000;0.556162
6084.000000;0.556169
6083.000000;0.556153
6082.000000;0.556113
6081.000000;0.556050
6080.000000;0.555972
6079.000000;0.555887
6078.000000;0.555810
6077.000000;0.555757
6076.000000;0.555738
6075.000000;0.555745
6074.000000;0.555756
6073.000000;0.555760
6072.000000;0.555755
6071.000000;0.555742
6070.000000;0.555714
6069.000000;0.555662
6068.000000;0.555587
6067.000000;0.555503
6066.000000;0.555430
6065.000000;0.555381
6064.000000;0.555350
6063.000000;0.555321
6062.000000;0.555295
6061.000000;0.555291
6060.000000;0.555319
6059.000000;0.555367
6058.000000;0.555405
6057.000000;0.555414
6056.000000;0.555393
6055.000000;0.555342
6054.000000;0.555257
6053.000000;0.555148
6052.000000;0.555040
6051.000000;0.554952
6050.000000;0.554895
6049.000000;0.554879
6048.000000;0.554922
6047.000000;0.555020
6046.000000;0.555129
6045.000000;0.555187
6044.000000;0.555169
6043.000000;0.555108
6042.000000;0.555051
6041.000000;0.555014
6040.000000;0.554967
6039.000000;0.554891
6038.000000;0.554803
6037.000000;0.554739
6036.000000;0.554712
6035.000000;0.554704
6034.000000;0.554697
6033.000000;0.554695
6032.000000;0.554698
6031.000000;0.554679
6030.000000;0.554610
6029.000000;0.554505
6028.000000;0.554419
6027.000000;0.554393
6026.000000;0.554413
6025.000000;0.554431
6024.000000;0.554421
6023.000000;0.554395
6022.000000;0.554366
6021.000000;0.554331
6020.000000;0.554278
6019.000000;0.554217
6018.000000;0.554176
6017.000000;0.554172
6016.000000;0.554198
6015.000000;0.554228
6014.000000;0.554251
6013.000000;0.554268
6012.000000;0.554281
6011.000000;0.554279
6010.000000;0.554258
6009.000000;0.554236
6008.000000;0.554245
6007.000000;0.554289
6006.000000;0.554328
6005.000000;0.554309
6004.000000;0.554223
6003.000000;0.554114
6002.000000;0.554038
6001.000000;0.554014
6000.000000;0.554017
5999.000000;0.554016
5998.000000;0.554000
5997.000000;0.553981
5996.000000;0.553962
5995.000000;0.553932
5994.000000;0.553876
5993.000000;0.553801
5992.000000;0.553745
5991.000000;0.553740
5990.000000;0.553782
5989.000000;0.553824
5988.000000;0.553813
5987.000000;0.553735
5986.000000;0.553617
5985.000000;0.553510
5984.000000;0.553452
5983.000000;0.553450
5982.000000;0.553487
5981.000000;0.553536
5980.000000;0.553577
5979.000000;0.553605
5978.000000;0.553618
5977.000000;0.553612
5976.000000;0.553581
5975.000000;0.553529
5974.000000;0.553482
5973.000000;0.553473
5972.000000;0.553517
5971.000000;0.553597
5970.000000;0.553674
5969.000000;0.553713
5968.000000;0.553709
5967.000000;0.553683
5966.000000;0.553658
5965.000000;0.553639
5964.000000;0.553614
5963.000000;0.553577
5962.000000;0.553537
5961.000000;0.553504
5960.000000;0.553470
5959.000000;0.553423
5958.000000;0.553365
5957.000000;0.553312
5956.000000;0.553273
5955.000000;0.553237
5954.000000;0.553198
5953.000000;0.553172
5952.000000;0.553175
5951.000000;0.553193
5950.000000;0.553192
5949.000000;0.553159
5948.000000;0.553120
5947.000000;0.553107
5946.000000;0.553131
5945.000000;0.553184
5944.000000;0.553257
5943.000000;0.553331
5942.000000;0.553383
5941.000000;0.553404
5940.000000;0.553398
5939.000000;0.553372
5938.000000;0.553326
5937.000000;0.553267
5936.000000;0.553232
5935.000000;0.553249
5934.000000;0.553296
5933.000000;0.553325
5932.000000;0.553314
5931.000000;0.553284
5930.000000;0.553266
5929.000000;0.553262
5928.000000;0.553265
5927.000000;0.553276
5926.000000;0.553301
5925.000000;0.553334
5924.000000;0.553358
5923.000000;0.553357
5922.000000;0.553322
5921.000000;0.553259
5920.000000;0.553193
5919.000000;0.553153
5918.000000;0.553139
5917.000000;0.553126
5916.000000;0.553091
5915.000000;0.553036
5914.000000;0.552981
5913.000000;0.552940
5912.000000;0.552918
5911.000000;0.552914
5910.000000;0.552914
5909.000000;0.552900
5908.000000;0.552871
5907.000000;0.552844
5906.000000;0.552830
5905.000000;0.552825
5904.000000;0.552829
5903.000000;0.552854
5902.000000;0.552890
5901.000000;0.552895
5900.000000;0.552835
5899.000000;0.552726
5898.000000;0.552619
5897.000000;0.552542
5896.000000;0.552478
5895.000000;0.552413
5894.000000;0.552351
5893.000000;0.552304
5892.000000;0.552268
5891.000000;0.552234
5890.000000;0.552199
5889.000000;0.552168
5888.000000;0.552146
5887.000000;0.552133
5886.000000;0.552116
5885.000000;0.552065
5884.000000;0.551966
5883.000000;0.551847
5882.000000;0.551756
5881.000000;0.551727
5880.000000;0.551755
5879.000000;0.551821
5878.000000;0.551898
5877.000000;0.551949
5876.000000;0.551952
5875.000000;0.551926
5874.000000;0.551925
5873.000000;0.551968
5872.000000;0.552018
5871.000000;0.552025
5870.000000;0.551976
5869.000000;0.551896
5868.000000;0.551815
5867.000000;0.551767
5866.000000;0.551765
5865.000000;0.551782
5864.000000;0.551764
5863.000000;0.551691
5862.000000;0.551608
5861.000000;0.551576
5860.000000;0.551592
5859.000000;0.551601
5858.000000;0.551564
5857.000000;0.551502
5856.000000;0.551454
5855.000000;0.551432
5854.000000;0.551421
5853.000000;0.551407
5852.000000;0.551387
5851.000000;0.551367
5850.000000;0.551352
5849.000000;0.551345
5848.000000;0.551346
5847.000000;0.551362
5846.000000;0.551389
5845.000000;0.551409
5844.000000;0.551394
5843.000000;0.551337
5842.000000;0.551272
5841.000000;0.551234
5840.000000;0.551233
5839.000000;0.551247
5838.000000;0.551254
5837.000000;0.551245
5836.000000;0.551219
5835.000000;0.551182
5834.000000;0.551141
5833.000000;0.551102
5832.000000;0.551067
5831.000000;0.551041
5830.000000;0.551031
5829.000000;0.551032
5828.000000;0.551027
5827.000000;0.551015
5826.000000;0.551026
5825.000000;0.551076
5824.000000;0.551128
5823.000000;0.551123
5822.000000;0.551052
5821.000000;0.550973
5820.000000;0.550935
5819.000000;0.550933
5818.000000;0.550932
5817.000000;0.550923
5816.000000;0.550918
5815.000000;0.550923
5814.000000;0.550929
5813.000000;0.550937
5812.000000;0.550949
5811.000000;0.550943
5810.000000;0.550891
5809.000000;0.550800
5808.000000;0.550728
5807.000000;0.550727
5806.000000;0.550785
5805.000000;0.550837
5804.000000;0.550827
5803.000000;0.550753
5802.000000;0.550658
5801.000000;0.550587
5800.000000;0.550553
5799.000000;0.550544
5798.000000;0.550542
5797.000000;0.550539
5796.000000;0.550542
5795.000000;0.550562
5794.000000;0.550604
5793.000000;0.550659
5792.000000;0.550711
5791.000000;0.550756
5790.000000;0.550798
5789.000000;0.550833
5788.000000;0.550842
5787.000000;0.550811
5786.000000;0.550752
5785.000000;0.550695
5784.000000;0.550656
5783.000000;0.550630
5782.000000;0.550602
5781.000000;0.550555
5780.000000;0.550486
5779.000000;0.550412
5778.000000;0.550360
5777.000000;0.550343
5776.000000;0.550338
5775.000000;0.550318
5774.000000;0.550284
5773.000000;0.550254
5772.000000;0.550221
5771.000000;0.550149
5770.000000;0.550024
5769.000000;0.549881
5768.000000;0.549777
5767.000000;0.549740
5766.000000;0.549756
5765.000000;0.549789
5764.000000;0.549790
5763.000000;0.549725
5762.000000;0.549604
5761.000000;0.549496
5760.000000;0.549465
5759.000000;0.549503
5758.000000;0.549538
5757.000000;0.549516
5756.000000;0.549450
5755.000000;0.549391
5754.000000;0.549367
5753.000000;0.549367
5752.000000;0.549359
5751.000000;0.549321
5750.000000;0.549243
5749.000000;0.549136
5748.000000;0.549029
5747.000000;0.548951
5746.000000;0.548905
5745.000000;0.548861
5744.000000;0.548783
5743.000000;0.548664
5742.000000;0.548534
5741.000000;0.548437
5740.000000;0.548394
5739.000000;0.548395
5738.000000;0.548407
5737.000000;0.548411
5736.000000;0.548405
5735.000000;0.548388
5734.000000;0.548354
5733.000000;0.548301
5732.000000;0.548254
5731.000000;0.548242
5730.000000;0.548252
5729.000000;0.548224
5728.000000;0.548110
5727.000000;0.547932
5726.000000;0.547763
5725.000000;0.547646
5724.000000;0.547577
5723.000000;0.547533
5722.000000;0.547514
5721.000000;0.547520
5720.000000;0.547519
5719.000000;0.547479
5718.000000;0.547405
5717.000000;0.547332
5716.000000;0.547275
5715.000000;0.547218
5714.000000;0.547142
5713.000000;0.547056
5712.000000;0.546981
5711.000000;0.546921
5710.000000;0.546865
5709.000000;0.546803
5708.000000;0.546736
5707.000000;0.546665
5706.000000;0.546596
5705.000000;0.546540
5704.000000;0.546509
5703.000000;0.546502
5702.000000;0.546514
5701.000000;0.546531
5700.000000;0.546537
5699.000000;0.546513
5698.000000;0.546462
5697.000000;0.546403
5696.000000;0.546358
5695.000000;0.546309
5694.000000;0.546215
5693.000000;0.546091
5692.000000;0.545981
5691.000000;0.545932
5690.000000;0.545939
5689.000000;0.545945
5688.000000;0.545902
5687.000000;0.545812
5686.000000;0.545712
5685.000000;0.545624
5684.000000;0.545540
5683.000000;0.545457
5682.000000;0.545403
5681.000000;0.545394
5680.000000;0.545400
5679.000000;0.545375
5678.000000;0.545319
5677.000000;0.545275
5676.000000;0.545270
5675.000000;0.545282
5674.000000;0.545278
5673.000000;0.545252
5672.000000;0.545204
5671.000000;0.545125
5670.000000;0.545010
5669.000000;0.544899
5668.000000;0.544845
5667.000000;0.544857
5666.000000;0.544882
5665.000000;0.544865
5664.000000;0.544786
5663.000000;0.544669
5662.000000;0.544563
5661.000000;0.544513
5660.000000;0.544532
5659.000000;0.544585
5658.000000;0.544618
5657.000000;0.544619
5656.000000;0.544620
5655.000000;0.544645
5654.000000;0.544666
5653.000000;0.544635
5652.000000;0.544532
5651.000000;0.544395
5650.000000;0.544286
5649.000000;0.544254
5648.000000;0.544307
5647.000000;0.544402
5646.000000;0.544462
5645.000000;0.544435
5644.000000;0.544340
5643.000000;0.544261
5642.000000;0.544270
5641.000000;0.544377
5640.000000;0.544526
5639.000000;0.544649
5638.000000;0.544707
5637.000000;0.544698
5636.000000;0.544638
5635.000000;0.544550
5634.000000;0.544470
5633.000000;0.544437
5632.000000;0.544470
5631.000000;0.544551
5630.000000;0.544636
5629.000000;0.544695
5628.000000;0.544726
5627.000000;0.544747
5626.000000;0.544764
5625.000000;0.544768
5624.000000;0.544759
5623.000000;0.544748
5622.000000;0.544740
5621.000000;0.544728
5620.000000;0.544712
5619.000000;0.544711
5618.000000;0.544752
5617.000000;0.544827
5616.000000;0.544890
5615.000000;0.544907
5614.000000;0.544892
5613.000000;0.544886
5612.000000;0.544903
5611.000000;0.544929
5610.000000;0.544968
5609.000000;0.545056
5608.000000;0.545211
5607.000000;0.545388
5606.000000;0.545513
5605.000000;0.545559
5604.000000;0.545566
5603.000000;0.545573
5602.000000;0.545573
5601.000000;0.545546
5600.000000;0.545509
5599.000000;0.545522
5598.000000;0.545626
5597.000000;0.545805
5596.000000;0.545989
5595.000000;0.546112
5594.000000;0.546147
5593.000000;0.546131
5592.000000;0.546126
5591.000000;0.546168
5590.000000;0.546244
5589.000000;0.546314
5588.000000;0.546365
5587.000000;0.546412
5586.000000;0.546477
5585.000000;0.546560
5584.000000;0.546651
5583.000000;0.546740
5582.000000;0.546827
5581.000000;0.546906
5580.000000;0.546973
5579.000000;0.547035
5578.000000;0.547101
5577.000000;0.547171
5576.000000;0.547232
5575.000000;0.547270
5574.000000;0.547281
5573.000000;0.547263
5572.000000;0.547218
5571.000000;0.547154
5570.000000;0.547096
5569.000000;0.547080
5568.000000;0.547126
5567.000000;0.547225
5566.000000;0.547356
5565.000000;0.547500
5564.000000;0.547641
5563.000000;0.547756
5562.000000;0.547823
5561.000000;0.547839
5560.000000;0.547832
5559.000000;0.547842
5558.000000;0.547890
5557.000000;0.547965
5556.000000;0.548036
5555.000000;0.548077
5554.000000;0.548085
5553.000000;0.548075
5552.000000;0.548068
5551.000000;0.548089
5550.000000;0.548152
5549.000000;0.548245
5548.000000;0.548327
5547.000000;0.548358
5546.000000;0.548335
5545.000000;0.548289
5544.000000;0.548253
5543.000000;0.548245
5542.000000;0.548272
5541.000000;0.548339
5540.000000;0.548432
5539.000000;0.548524
5538.000000;0.548593
5537.000000;0.548647
5536.000000;0.548708
5535.000000;0.548782
5534.000000;0.548848
5533.000000;0.548880
5532.000000;0.548878
5531.000000;0.548867
5530.000000;0.548879
5529.000000;0.548930
5528.000000;0.549002
5527.000000;0.549062
5526.000000;0.549086
5525.000000;0.549082
5524.000000;0.549068
5523.000000;0.549048
5522.000000;0.549015
5521.000000;0.548983
5520.000000;0.548995
5519.000000;0.549079
5518.000000;0.549205
5517.000000;0.549317
5516.000000;0.549385
5515.000000;0.549426
5514.000000;0.549452
5513.000000;0.549436
5512.000000;0.549356
5511.000000;0.549254
5510.000000;0.549215
5509.000000;0.549271
5508.000000;0.549371
5507.000000;0.549450
5506.000000;0.549486
5505.000000;0.549491
5504.000000;0.549461
5503.000000;0.549387
5502.000000;0.549304
5501.000000;0.549272
5500.000000;0.549323
5499.000000;0.549423
5498.000000;0.549514
5497.000000;0.549567
5496.000000;0.549605
5495.000000;0.549663
5494.000000;0.549737
5493.000000;0.549793
5492.000000;0.549802
5491.000000;0.549773
5490.000000;0.549737
5489.000000;0.549701
5488.000000;0.549654
5487.000000;0.549594
5486.000000;0.549554
5485.000000;0.549570
5484.000000;0.549641
5483.000000;0.549731
5482.000000;0.549809
5481.000000;0.549861
5480.000000;0.549878
5479.000000;0.549867
5478.000000;0.549840
5477.000000;0.549789
5476.000000;0.549690
5475.000000;0.549527
5474.000000;0.549313
5473.000000;0.549077
5472.000000;0.548875
5471.000000;0.548809
5470.000000;0.548970
5469.000000;0.549338
5468.000000;0.549777
5467.000000;0.550144
5466.000000;0.550365
5465.000000;0.550439
5464.000000;0.550403
5463.000000;0.550315
5462.000000;0.550222
5461.000000;0.550133
5460.000000;0.550030
5459.000000;0.549934
5458.000000;0.549907
5457.000000;0.549984
5456.000000;0.550141
5455.000000;0.550323
5454.000000;0.550475
5453.000000;0.550554
5452.000000;0.550563
5451.000000;0.550550
5450.000000;0.550555
5449.000000;0.550555
5448.000000;0.550505
5447.000000;0.550407
5446.000000;0.550291
5445.000000;0.550187
5444.000000;0.550130
5443.000000;0.550148
5442.000000;0.550222
5441.000000;0.550295
5440.000000;0.550320
5439.000000;0.550314
5438.000000;0.550329
5437.000000;0.550397
5436.000000;0.550520
5435.000000;0.550700
5434.000000;0.550906
5433.000000;0.551078
5432.000000;0.551202
5431.000000;0.551322
5430.000000;0.551460
5429.000000;0.551594
5428.000000;0.551715
5427.000000;0.551824
5426.000000;0.551901
5425.000000;0.551935
5424.000000;0.551966
5423.000000;0.552050
5422.000000;0.552182
5421.000000;0.552315
5420.000000;0.552403
5419.000000;0.552418
5418.000000;0.552370
5417.000000;0.552315
5416.000000;0.552339
5415.000000;0.552490
5414.000000;0.552718
5413.000000;0.552922
5412.000000;0.553068
5411.000000;0.553231
5410.000000;0.553475
5409.000000;0.553743
5408.000000;0.553919
5407.000000;0.553976
5406.000000;0.553996
5405.000000;0.554063
5404.000000;0.554199
5403.000000;0.554386
5402.000000;0.554567
5401.000000;0.554685
5400.000000;0.554735
5399.000000;0.554757
5398.000000;0.554792
5397.000000;0.554873
5396.000000;0.555027
5395.000000;0.555255
5394.000000;0.555503
5393.000000;0.555698
5392.000000;0.555798
5391.000000;0.555818
5390.000000;0.555841
5389.000000;0.555955
5388.000000;0.556176
5387.000000;0.556443
5386.000000;0.556688
5385.000000;0.556861
5384.000000;0.556962
5383.000000;0.557053
5382.000000;0.557196
5381.000000;0.557432
5380.000000;0.557800
5379.000000;0.558282
5378.000000;0.558766
5377.000000;0.559135
5376.000000;0.559384
5375.000000;0.559607
5374.000000;0.559872
5373.000000;0.560149
5372.000000;0.560387
5371.000000;0.560596
5370.000000;0.560830
5369.000000;0.561142
5368.000000;0.561557
5367.000000;0.562041
5366.000000;0.562510
5365.000000;0.562871
5364.000000;0.563119
5363.000000;0.563357
5362.000000;0.563688
5361.000000;0.564119
5360.000000;0.564569
5359.000000;0.564968
5358.000000;0.565317
5357.000000;0.565672
5356.000000;0.566054
5355.000000;0.566416
5354.000000;0.566730
5353.000000;0.567052
5352.000000;0.567451
5351.000000;0.567900
5350.000000;0.568310
5349.000000;0.568657
5348.000000;0.568992
5347.000000;0.569301
5346.000000;0.569467
5345.000000;0.569466
5344.000000;0.569505
5343.000000;0.569813
5342.000000;0.570343
5341.000000;0.570835
5340.000000;0.571105
5339.000000;0.571186
5338.000000;0.571273
5337.000000;0.571530
5336.000000;0.571958
5335.000000;0.572437
5334.000000;0.572823
5333.000000;0.573008
5332.000000;0.572957
5331.000000;0.572708
5330.000000;0.572295
5329.000000;0.571692
5328.000000;0.570880
5327.000000;0.569889
5326.000000;0.568749
5325.000000;0.567455
5324.000000;0.565999
5323.000000;0.564367
5322.000000;0.562488
5321.000000;0.560251
5320.000000;0.557657
5319.000000;0.554843
5318.000000;0.551798
5317.000000;0.548152
5316.000000;0.543442
5315.000000;0.537560
5314.000000;0.530754
5313.000000;0.523215
5312.000000;0.514876
5311.000000;0.505495
5310.000000;0.494651
5309.000000;0.481882
5308.000000;0.467276
5307.000000;0.451738
5306.000000;0.436051
5305.000000;0.419867
5304.000000;0.402248
5303.000000;0.382944
5302.000000;0.362877
5301.000000;0.343979
5300.000000;0.329026
5299.000000;0.320972
5298.000000;0.322309
5297.000000;0.334882
5296.000000;0.358185
5295.000000;0.389096
5294.000000;0.426071
5293.000000;0.469380
5292.000000;0.515466
5291.000000;0.557747
5290.000000;0.593667
5289.000000;0.624684
5288.000000;0.651176
5287.000000;0.673648
5286.000000;0.695966
5285.000000;0.721396
5284.000000;0.747667
5283.000000;0.770763
5282.000000;0.791073
5281.000000;0.810512
5280.000000;0.826980
5279.000000;0.837958
5278.000000;0.845924
5277.000000;0.854424
5276.000000;0.862865
5275.000000;0.870087
5274.000000;0.878896
5273.000000;0.891634
5272.000000;0.905102
5271.000000;0.915066
5270.000000;0.922082
5269.000000;0.927913
5268.000000;0.931634
5267.000000;0.934150
5266.000000;0.940311
5265.000000;0.951585
5264.000000;0.961473
5263.000000;0.962966
5262.000000;0.957093
5261.000000;0.949011
5260.000000;0.940705
5259.000000;0.932852
5258.000000;0.928615
5257.000000;0.929741
5256.000000;0.932784
5255.000000;0.934100
5254.000000;0.934910
5253.000000;0.937305
5252.000000;0.939942
5251.000000;0.941761
5250.000000;0.944739
5249.000000;0.949060
5248.000000;0.951043
5247.000000;0.949424
5246.000000;0.949040
5245.000000;0.954168
5244.000000;0.962545
5243.000000;0.970225
5242.000000;0.977137
5241.000000;0.982546
5240.000000;0.981163
5239.000000;0.970478
5238.000000;0.957042
5237.000000;0.949106
5236.000000;0.947716
5235.000000;0.948976
5234.000000;0.950136
5233.000000;0.949214
5232.000000;0.943802
5231.000000;0.935397
5230.000000;0.930684
5229.000000;0.934532
5228.000000;0.944518
5227.000000;0.954330
5226.000000;0.959563
5225.000000;0.958324
5224.000000;0.951031
5223.000000;0.942505
5222.000000;0.939298
5221.000000;0.942352
5220.000000;0.946171
5219.000000;0.947003
5218.000000;0.946697
5217.000000;0.946306
5216.000000;0.943308
5215.000000;0.938528
5214.000000;0.937919
5213.000000;0.943005
5212.000000;0.946776
5211.000000;0.944177
5210.000000;0.940299
5209.000000;0.941569
5208.000000;0.945541
5207.000000;0.946019
5206.000000;0.943346
5205.000000;0.941915
5204.000000;0.941850
5203.000000;0.940809
5202.000000;0.940639
5201.000000;0.945080
5200.000000;0.952913
5199.000000;0.958888
5198.000000;0.960208
5197.000000;0.957876
5196.000000;0.953505
5195.000000;0.949526
5194.000000;0.950036
5193.000000;0.956766
5192.000000;0.965906
5191.000000;0.971896
5190.000000;0.973109
5189.000000;0.970980
5188.000000;0.965914
5187.000000;0.958547
5186.000000;0.951676
5185.000000;0.946783
5184.000000;0.942290
5183.000000;0.937787
5182.000000;0.936082
5181.000000;0.938438
5180.000000;0.941784
5179.000000;0.943815
5178.000000;0.946691
5177.000000;0.952123
5176.000000;0.956907
5175.000000;0.957391
5174.000000;0.955376
5173.000000;0.954456
5172.000000;0.953514
5171.000000;0.949173
5170.000000;0.942122
5169.000000;0.936302
5168.000000;0.934077
5167.000000;0.935853
5166.000000;0.942187
5165.000000;0.952501
5164.000000;0.962628
5163.000000;0.966988
5162.000000;0.963235
5161.000000;0.953113
5160.000000;0.940683
5159.000000;0.931468
5158.000000;0.929865
5157.000000;0.934721
5156.000000;0.939954
5155.000000;0.941449
5154.000000;0.940765
5153.000000;0.940682
5152.000000;0.941366
5151.000000;0.943082
5150.000000;0.948177
5149.000000;0.956913
5148.000000;0.964928
5147.000000;0.968006
5146.000000;0.966319
5145.000000;0.961287
5144.000000;0.952178
5143.000000;0.939983
5142.000000;0.930797
5141.000000;0.929837
5140.000000;0.934825
5139.000000;0.939471
5138.000000;0.941728
5137.000000;0.944272
5136.000000;0.948363
5135.000000;0.951997
5134.000000;0.953003
5133.000000;0.950878
5132.000000;0.946681
5131.000000;0.943164
5130.000000;0.943803
5129.000000;0.949524
5128.000000;0.957268
5127.000000;0.963334
5126.000000;0.966537
5125.000000;0.966811
5124.000000;0.963677
5123.000000;0.958391
5122.000000;0.954790
5121.000000;0.955258
5120.000000;0.957525
5119.000000;0.957322
5118.000000;0.953235
5117.000000;0.947476
5116.000000;0.943333
5115.000000;0.943152
5114.000000;0.946737
5113.000000;0.950517
5112.000000;0.950685
5111.000000;0.948273
5110.000000;0.947943
5109.000000;0.950853
5108.000000;0.952742
5107.000000;0.950694
5106.000000;0.947560
5105.000000;0.946973
5104.000000;0.948066
5103.000000;0.948113
5102.000000;0.947533
5101.000000;0.949264
5100.000000;0.954848
5099.000000;0.962643
5098.000000;0.968213
5097.000000;0.966638
5096.000000;0.957601
5095.000000;0.947960
5094.000000;0.945820
5093.000000;0.952015
5092.000000;0.959518
5091.000000;0.961558
5090.000000;0.957969
5089.000000;0.952412
5088.000000;0.947642
5087.000000;0.945584
5086.000000;0.947341
5085.000000;0.950580
5084.000000;0.950762
5083.000000;0.947321
5082.000000;0.944541
5081.000000;0.944537
5080.000000;0.944574
5079.000000;0.943030
5078.000000;0.942994
5077.000000;0.946957
5076.000000;0.951950
5075.000000;0.953248
5074.000000;0.949975
5073.000000;0.944345
5072.000000;0.938830
5071.000000;0.936583
5070.000000;0.940659
5069.000000;0.949566
5068.000000;0.956680
5067.000000;0.957374
5066.000000;0.953653
5065.000000;0.949173
5064.000000;0.944479
5063.000000;0.939970
5062.000000;0.938725
5061.000000;0.942404
5060.000000;0.947509
5059.000000;0.949288
5058.000000;0.946877
5057.000000;0.941400
5056.000000;0.933012
5055.000000;0.923620
5054.000000;0.918281
5053.000000;0.919804
5052.000000;0.924688
5051.000000;0.927620
5050.000000;0.927893
5049.000000;0.928013
5048.000000;0.928623
5047.000000;0.929007
5046.000000;0.930219
5045.000000;0.933463
5044.000000;0.937000
5043.000000;0.938106
5042.000000;0.936632
5041.000000;0.933529
5040.000000;0.928004
5039.000000;0.919788
5038.000000;0.911926
5037.000000;0.907648
5036.000000;0.906181
5035.000000;0.904616
5034.000000;0.902768
5033.000000;0.903021
5032.000000;0.906117
5031.000000;0.910156
5030.000000;0.913034
5029.000000;0.913573
5028.000000;0.911259
5027.000000;0.906982
5026.000000;0.903150
5025.000000;0.901069
5024.000000;0.899135
5023.000000;0.895641
5022.000000;0.891835
5021.000000;0.889769
5020.000000;0.888957
5019.000000;0.887725
5018.000000;0.886218
5017.000000;0.885348
5016.000000;0.884236
5015.000000;0.881625
5014.000000;0.878504
5013.000000;0.876335
5012.000000;0.873872
5011.000000;0.868873
5010.000000;0.862267
5009.000000;0.857465
5008.000000;0.855817
5007.000000;0.855292
5006.000000;0.853493
5005.000000;0.850010
5004.000000;0.845627
5003.000000;0.840879
5002.000000;0.835745
5001.000000;0.829872
5000.000000;0.823209
4999.000000;0.816868
4998.000000;0.812460
4997.000000;0.809961
4996.000000;0.807456
4995.000000;0.803714
4994.000000;0.799700
4993.000000;0.796705
4992.000000;0.794228
4991.000000;0.790715
4990.000000;0.785663
4989.000000;0.780122
4988.000000;0.775594
4987.000000;0.772680
4986.000000;0.770251
4985.000000;0.766133
4984.000000;0.759534
4983.000000;0.752542
4982.000000;0.747783
4981.000000;0.744762
4980.000000;0.740339
4979.000000;0.733172
4978.000000;0.725443
4977.000000;0.719580
4976.000000;0.715789
4975.000000;0.713214
4974.000000;0.711257
4973.000000;0.709002
4972.000000;0.705292
4971.000000;0.700520
4970.000000;0.696250
4969.000000;0.692095
4968.000000;0.685347
4967.000000;0.675090
4966.000000;0.664476
4965.000000;0.657002
4964.000000;0.652497
4963.000000;0.648446
4962.000000;0.643606
4961.000000;0.638576
4960.000000;0.633811
4959.000000;0.628929
4958.000000;0.623545
4957.000000;0.617500
4956.000000;0.610812
4955.000000;0.604257
4954.000000;0.599136
4953.000000;0.595570
4952.000000;0.591828
4951.000000;0.586066
4950.000000;0.577955
4949.000000;0.568331
4948.000000;0.558512
4947.000000;0.550238
4946.000000;0.544577
4945.000000;0.540194
4944.000000;0.534192
4943.000000;0.525529
4942.000000;0.516218
4941.000000;0.508431
4940.000000;0.502110
4939.000000;0.496281
4938.000000;0.490886
4937.000000;0.485824
4936.000000;0.479766
4935.000000;0.471669
4934.000000;0.462464
4933.000000;0.453846
4932.000000;0.446329
4931.000000;0.439646
4930.000000;0.434084
4929.000000;0.430008
4928.000000;0.426528
4927.000000;0.421762
4926.000000;0.414260
4925.000000;0.403832
4924.000000;0.391775
4923.000000;0.380788
4922.000000;0.373516
4921.000000;0.370095
4920.000000;0.367791
4919.000000;0.363759
4918.000000;0.357432
4917.000000;0.349821
4916.000000;0.341613
4915.000000;0.332837
4914.000000;0.323475
4913.000000;0.313522
4912.000000;0.303093
4911.000000;0.293048
4910.000000;0.284718
4909.000000;0.278314
4908.000000;0.272308
4907.000000;0.265215
4906.000000;0.257290
4905.000000;0.249685
4904.000000;0.242803
4903.000000;0.236249
4902.000000;0.229518
4901.000000;0.221955
4900.000000;0.212786
4899.000000;0.202140
4898.000000;0.191659
4897.000000;0.183223
4896.000000;0.177208
4895.000000;0.172460
4894.000000;0.167612
4893.000000;0.161876
4892.000000;0.155086
4891.000000;0.147835
4890.000000;0.141441
4889.000000;0.137114
4888.000000;0.134953
4887.000000;0.133864
4886.000000;0.132358
4885.000000;0.129377
4884.000000;0.124728
4883.000000;0.119109
4882.000000;0.113668
4881.000000;0.109278
4880.000000;0.106048
4879.000000;0.103373
4878.000000;0.100388
4877.000000;0.096533
4876.000000;0.091932
4875.000000;0.087270
4874.000000;0.083233
4873.000000;0.080072
4872.000000;0.077659
4871.000000;0.075791
4870.000000;0.074422
4869.000000;0.073726
4868.000000;0.073915
4867.000000;0.074762
4866.000000;0.075468
4865.000000;0.075315
4864.000000;0.074357
4863.000000;0.073238
4862.000000;0.072388
4861.000000;0.071813
4860.000000;0.071682
4859.000000;0.072436
4858.000000;0.074085
4857.000000;0.075959
4856.000000;0.077537
4855.000000;0.079186
4854.000000;0.081569
4853.000000;0.084577
4852.000000;0.087406
4851.000000;0.089684
4850.000000;0.091916
4849.000000;0.094584
4848.000000;0.097290
4847.000000;0.099302
4846.000000;0.100703
4845.000000;0.102376
4844.000000;0.104807
4843.000000;0.107514
4842.000000;0.109919
4841.000000;0.112277
4840.000000;0.115340
4839.000000;0.119401
4838.000000;0.124076
4837.000000;0.128689
4836.000000;0.132490
4835.000000;0.134838
4834.000000;0.135840
4833.000000;0.136651
4832.000000;0.138540
4831.000000;0.141623
4830.000000;0.144982
4829.000000;0.147980
4828.000000;0.150835
4827.000000;0.153875
4826.000000;0.156921
4825.000000;0.159695
4824.000000;0.162302
4823.000000;0.164905
4822.000000;0.167414
4821.000000;0.169879
4820.000000;0.172807
4819.000000;0.176576
4818.000000;0.180791
4817.000000;0.184699
4816.000000;0.188050
4815.000000;0.191149
4814.000000;0.194178
4813.000000;0.196954
4812.000000;0.199381
4811.000000;0.201723
4810.000000;0.204295
4809.000000;0.207134
4808.000000;0.210124
4807.000000;0.213215
4806.000000;0.216348
4805.000000;0.219334
4804.000000;0.221993
4803.000000;0.224392
4802.000000;0.226764
4801.000000;0.229199
4800.000000;0.231566
4799.000000;0.233794
4798.000000;0.236067
4797.000000;0.238601
4796.000000;0.241297
4795.000000;0.243831
4794.000000;0.246118
4793.000000;0.248483
4792.000000;0.251225
4791.000000;0.254172
4790.000000;0.256878
4789.000000;0.259143
4788.000000;0.261130
4787.000000;0.263006
4786.000000;0.264760
4785.000000;0.266437
4784.000000;0.268287
4783.000000;0.270501
4782.000000;0.272907
4781.000000;0.275128
4780.000000;0.276990
4779.000000;0.278684
4778.000000;0.280513
4777.000000;0.282569
4776.000000;0.284693
4775.000000;0.286699
4774.000000;0.288601
4773.000000;0.290612
4772.000000;0.292901
4771.000000;0.295387
4770.000000;0.297793
4769.000000;0.299889
4768.000000;0.301644
4767.000000;0.303156
4766.000000;0.304515
4765.000000;0.305770
4764.000000;0.306988
4763.000000;0.308288
4762.000000;0.309775
4761.000000;0.311437
4760.000000;0.313149
4759.000000;0.314827
4758.000000;0.316562
4757.000000;0.318469
4756.000000;0.320442
4755.000000;0.322211
4754.000000;0.323729
4753.000000;0.325345
4752.000000;0.327411
4751.000000;0.329782
4750.000000;0.331891
4749.000000;0.333335
4748.000000;0.334248
4747.000000;0.335101
4746.000000;0.336253
4745.000000;0.337711
4744.000000;0.339228
4743.000000;0.340591
4742.000000;0.341870
4741.000000;0.343358
4740.000000;0.345178
4739.000000;0.347016
4738.000000;0.348413
4737.000000;0.349320
4736.000000;0.350179
4735.000000;0.351417
4734.000000;0.353021
4733.000000;0.354690
4732.000000;0.356200
4731.000000;0.357498
4730.000000;0.358617
4729.000000;0.359673
4728.000000;0.360844
4727.000000;0.362165
4726.000000;0.363394
4725.000000;0.364257
4724.000000;0.364818
4723.000000;0.365428
4722.000000;0.366315
4721.000000;0.367384
4720.000000;0.368437
4719.000000;0.369412
4718.000000;0.370318
4717.000000;0.371121
4716.000000;0.371852
4715.000000;0.372765
4714.000000;0.374161
4713.000000;0.376029
4712.000000;0.377957
4711.000000;0.379471
4710.000000;0.380417
4709.000000;0.380985
4708.000000;0.381440
4707.000000;0.381918
4706.000000;0.382466
4705.000000;0.383159
4704.000000;0.384095
4703.000000;0.385294
4702.000000;0.386642
4701.000000;0.387954
4700.000000;0.389061
4699.000000;0.389858
4698.000000;0.390341
4697.000000;0.390632
4696.000000;0.390938
4695.000000;0.391425
4694.000000;0.392113
4693.000000;0.392917
4692.000000;0.393792
4691.000000;0.394768
4690.000000;0.395848
4689.000000;0.396910
4688.000000;0.397815
4687.000000;0.398580
4686.000000;0.399384
4685.000000;0.400335
4684.000000;0.401306
4683.000000;0.402066
4682.000000;0.402550
4681.000000;0.402915
4680.000000;0.403332
4679.000000;0.403826
4678.000000;0.404345
4677.000000;0.404900
4676.000000;0.405564
4675.000000;0.406375
4674.000000;0.407293
4673.000000;0.408231
4672.000000;0.409072
4671.000000;0.409711
4670.000000;0.410175
4669.000000;0.410648
4668.000000;0.411304
4667.000000;0.412108
4666.000000;0.412867
4665.000000;0.413476
4664.000000;0.414024
4663.000000;0.414639
4662.000000;0.415311
4661.000000;0.415926
4660.000000;0.416387
4659.000000;0.416681
4658.000000;0.416875
4657.000000;0.417112
4656.000000;0.417532
4655.000000;0.418154
4654.000000;0.418841
4653.000000;0.419458
4652.000000;0.420027
4651.000000;0.420680
4650.000000;0.421478
4649.000000;0.422316
4648.000000;0.423000
4647.000000;0.423407
4646.000000;0.423586
4645.000000;0.423722
4644.000000;0.423968
4643.000000;0.424287
4642.000000;0.424531
4641.000000;0.424695
4640.000000;0.425002
4639.000000;0.425655
4638.000000;0.426570
4637.000000;0.427449
4636.000000;0.428103
4635.000000;0.428581
4634.000000;0.429019
4633.000000;0.429481
4632.000000;0.429962
4631.000000;0.430435
4630.000000;0.430831
4629.000000;0.431059
4628.000000;0.431126
4627.000000;0.431179
4626.000000;0.431360
4625.000000;0.431649
4624.000000;0.431938
4623.000000;0.432216
4622.000000;0.432594
4621.000000;0.433149
4620.000000;0.433809
4619.000000;0.434429
4618.000000;0.434925
4617.000000;0.435310
4616.000000;0.435618
4615.000000;0.435850
4614.000000;0.436029
4613.000000;0.436250
4612.000000;0.436615
4611.000000;0.437081
4610.000000;0.437437
4609.000000;0.437514
4608.000000;0.437396
4607.000000;0.437355
4606.000000;0.437571
4605.000000;0.437996
4604.000000;0.438491
4603.000000;0.438998
4602.000000;0.439508
4601.000000;0.439946
4600.000000;0.440219
4599.000000;0.440357
4598.000000;0.440495
4597.000000;0.440707
4596.000000;0.440932
4595.000000;0.441105
4594.000000;0.441270
4593.000000;0.441536
4592.000000;0.441938
4591.000000;0.442381
4590.000000;0.442716
4589.000000;0.442852
4588.000000;0.442809
4587.000000;0.442688
4586.000000;0.442582
4585.000000;0.442506
4584.000000;0.442439
4583.000000;0.442427
4582.000000;0.442592
4581.000000;0.443007
4580.000000;0.443582
4579.000000;0.444114
4578.000000;0.444452
4577.000000;0.444583
4576.000000;0.444587
4575.000000;0.444544
4574.000000;0.444506
4573.000000;0.444530
4572.000000;0.444661
4571.000000;0.444900
4570.000000;0.445190
4569.000000;0.445464
4568.000000;0.445676
4567.000000;0.445807
4566.000000;0.445850
4565.000000;0.445833
4564.000000;0.445829
4563.000000;0.445917
4562.000000;0.446122
4561.000000;0.446415
4560.000000;0.446742
4559.000000;0.447036
4558.000000;0.447202
4557.000000;0.447168
4556.000000;0.446982
4555.000000;0.446819
4554.000000;0.446846
4553.000000;0.447076
4552.000000;0.447373
4551.000000;0.447585
4550.000000;0.447645
4549.000000;0.447576
4548.000000;0.447438
4547.000000;0.447296
4546.000000;0.447206
4545.000000;0.447206
4544.000000;0.447317
4543.000000;0.447510
4542.000000;0.447677
4541.000000;0.447679
4540.000000;0.447457
4539.000000;0.447099
4538.000000;0.446776
4537.000000;0.446629
4536.000000;0.446724
4535.000000;0.447045
4534.000000;0.447472
4533.000000;0.447820
4532.000000;0.447963
4531.000000;0.447933
4530.000000;0.447852
4529.000000;0.447787
4528.000000;0.447711
4527.000000;0.447601
4526.000000;0.447497
4525.000000;0.447459
4524.000000;0.447512
4523.000000;0.447648
4522.000000;0.447804
4521.000000;0.447852
4520.000000;0.447668
4519.000000;0.447271
4518.000000;0.446857
4517.000000;0.446660
4516.000000;0.446778
4515.000000;0.447126
4514.000000;0.447507
4513.000000;0.447731
4512.000000;0.447735
4511.000000;0.447616
4510.000000;0.447530
4509.000000;0.447534
4508.000000;0.447556
4507.000000;0.447491
4506.000000;0.447297
4505.000000;0.447015
4504.000000;0.446764
4503.000000;0.446705
4502.000000;0.446898
4501.000000;0.447170
4500.000000;0.447232
4499.000000;0.447003
4498.000000;0.446729
4497.000000;0.446728
4496.000000;0.447042
4495.000000;0.447410
4494.000000;0.447528
4493.000000;0.447298
4492.000000;0.446874
4491.000000;0.446548
4490.000000;0.446514
4489.000000;0.446669
4488.000000;0.446706
4487.000000;0.446462
4486.000000;0.446120
4485.000000;0.445974
4484.000000;0.446068
4483.000000;0.446188
4482.000000;0.446180
4481.000000;0.446095
4480.000000;0.446034
4479.000000;0.445998
4478.000000;0.445944
4477.000000;0.445890
4476.000000;0.445868
4475.000000;0.445862
4474.000000;0.445848
4473.000000;0.445850
4472.000000;0.445895
4471.000000;0.445953
4470.000000;0.445962
4469.000000;0.445902
4468.000000;0.445803
4467.000000;0.445702
4466.000000;0.445602
4465.000000;0.445462
4464.000000;0.445228
4463.000000;0.444912
4462.000000;0.444629
4461.000000;0.444501
4460.000000;0.444525
4459.000000;0.444569
4458.000000;0.444517
4457.000000;0.444373
4456.000000;0.444204
4455.000000;0.444044
4454.000000;0.443884
4453.000000;0.443730
4452.000000;0.443627
4451.000000;0.443635
4450.000000;0.443754
4449.000000;0.443889
4448.000000;0.443904
4447.000000;0.443761
4446.000000;0.443579
4445.000000;0.443490
4444.000000;0.443499
4443.000000;0.443540
4442.000000;0.443618
4441.000000;0.443757
4440.000000;0.443843
4439.000000;0.443699
4438.000000;0.443348
4437.000000;0.443049
4436.000000;0.442992
4435.000000;0.443092
4434.000000;0.443195
4433.000000;0.443339
4432.000000;0.443639
4431.000000;0.444001
4430.000000;0.444130
4429.000000;0.443853
4428.000000;0.443284
4427.000000;0.442653
4426.000000;0.442077
4425.000000;0.441563
4424.000000;0.441120
4423.000000;0.440820
4422.000000;0.440737
4421.000000;0.440864
4420.000000;0.441075
4419.000000;0.441179
4418.000000;0.441053
4417.000000;0.440737
4416.000000;0.440397
4415.000000;0.440192
4414.000000;0.440154
4413.000000;0.440138
4412.000000;0.439912
4411.000000;0.439371
4410.000000;0.438665
4409.000000;0.438049
4408.000000;0.437579
4407.000000;0.437101
4406.000000;0.436576
4405.000000;0.436272
4404.000000;0.436442
4403.000000;0.436910
4402.000000;0.437141
4401.000000;0.436749
4400.000000;0.435806
4399.000000;0.434674
4398.000000;0.433695
4397.000000;0.433050
4396.000000;0.432749
4395.000000;0.432617
4394.000000;0.432370
4393.000000;0.431840
4392.000000;0.431152
4391.000000;0.430633
4390.000000;0.430475
4389.000000;0.430457
4388.000000;0.430063
4387.000000;0.428956
4386.000000;0.427379
4385.000000;0.425970
4384.000000;0.425157
4383.000000;0.424810
4382.000000;0.424544
4381.000000;0.424154
4380.000000;0.423620
4379.000000;0.422843
4378.000000;0.421692
4377.000000;0.420282
4376.000000;0.418931
4375.000000;0.417776
4374.000000;0.416662
4373.000000;0.415503
4372.000000;0.414517
4371.000000;0.413896
4370.000000;0.413440
4369.000000;0.412704
4368.000000;0.411503
4367.000000;0.410085
4366.000000;0.408831
4365.000000;0.407876
4364.000000;0.407030
4363.000000;0.405996
4362.000000;0.404677
4361.000000;0.403314
4360.000000;0.402277
4359.000000;0.401652
4358.000000;0.401111
4357.000000;0.400226
4356.000000;0.398877
4355.000000;0.397277
4354.000000;0.395689
4353.000000;0.394181
4352.000000;0.392642
4351.000000;0.390993
4350.000000;0.389386
4349.000000;0.388154
4348.000000;0.387467
4347.000000;0.387049
4346.000000;0.386372
4345.000000;0.385202
4344.000000;0.383807
4343.000000;0.382600
4342.000000;0.381728
4341.000000;0.381088
4340.000000;0.380504
4339.000000;0.379707
4338.000000;0.378371
4337.000000;0.376447
4336.000000;0.374369
4335.000000;0.372646
4334.000000;0.371261
4333.000000;0.369701
4332.000000;0.367587
4331.000000;0.365061
4330.000000;0.362618
4329.000000;0.360761
4328.000000;0.359781
4327.000000;0.359549
4326.000000;0.359486
4325.000000;0.358986
4324.000000;0.357980
4323.000000;0.356847
4322.000000;0.355785
4321.000000;0.354566
4320.000000;0.353042
4319.000000;0.351508
4318.000000;0.350285
4317.000000;0.349188
4316.000000;0.347776
4315.000000;0.346000
4314.000000;0.344260
4313.000000;0.342791
4312.000000;0.341345
4311.000000;0.339603
4310.000000;0.337672
4309.000000;0.335973
4308.000000;0.334771
4307.000000;0.333977
4306.000000;0.333373
4305.000000;0.332898
4304.000000;0.332623
4303.000000;0.332486
4302.000000;0.332125
4301.000000;0.331084
4300.000000;0.329267
4299.000000;0.327202
4298.000000;0.325669
4297.000000;0.324896
4296.000000;0.324164
4295.000000;0.322520
4294.000000;0.320069
4293.000000;0.318286
4292.000000;0.318658
4291.000000;0.320982
4290.000000;0.323393
4289.000000;0.324293
4288.000000;0.323938
4287.000000;0.323944
4286.000000;0.325487
4285.000000;0.328295
4284.000000;0.331152
4283.000000;0.332956
4282.000000;0.333437
4281.000000;0.333429
4280.000000;0.334467
4279.000000;0.337490
4278.000000;0.341721
4277.000000;0.345334
4276.000000;0.347457
4275.000000;0.349037
4274.000000;0.351465
4273.000000;0.355002
4272.000000;0.359159
4271.000000;0.363897
4270.000000;0.369430
4269.000000;0.375252
4268.000000;0.380446
4267.000000;0.384900
4266.000000;0.389258
4265.000000;0.393624
4264.000000;0.397454
4263.000000;0.400975
4262.000000;0.405446
4261.000000;0.411458
4260.000000;0.418092
4259.000000;0.424586
4258.000000;0.431807
4257.000000;0.441082
4256.000000;0.452223
4255.000000;0.463684
4254.000000;0.474257
4253.000000;0.483648
4252.000000;0.491799
4251.000000;0.498845
4250.000000;0.505629
4249.000000;0.513257
4248.000000;0.522011
4247.000000;0.531241
4246.000000;0.540275
4245.000000;0.548855
4244.000000;0.557174
4243.000000;0.566040
4242.000000;0.576519
4241.000000;0.588437
4240.000000;0.599724
4239.000000;0.608380
4238.000000;0.615016
4237.000000;0.622304
4236.000000;0.631841
4235.000000;0.642509
4234.000000;0.652106
4233.000000;0.660026
4232.000000;0.667949
4231.000000;0.678016
4230.000000;0.690439
4229.000000;0.703058
4228.000000;0.713716
4227.000000;0.722873
4226.000000;0.732840
4225.000000;0.744649
4224.000000;0.757160
4223.000000;0.769437
4222.000000;0.782388
4221.000000;0.797031
4220.000000;0.812252
4219.000000;0.825404
4218.000000;0.834729
4217.000000;0.840859
4216.000000;0.846510
4215.000000;0.854657
4214.000000;0.865586
4213.000000;0.875462
4212.000000;0.879953
4211.000000;0.880242
4210.000000;0.882697
4209.000000;0.891560
4208.000000;0.904871
4207.000000;0.918555
4206.000000;0.931964
4205.000000;0.946812
4204.000000;0.962521
4203.000000;0.976335
4202.000000;0.987364
4201.000000;0.997075
4200.000000;1.006453
4199.000000;1.015716
4198.000000;1.026069
4197.000000;1.038658
4196.000000;1.051739
4195.000000;1.061764
4194.000000;1.067663
4193.000000;1.071757
4192.000000;1.076889
4191.000000;1.085121
4190.000000;1.097814
4189.000000;1.113616
4188.000000;1.127318
4187.000000;1.134853
4186.000000;1.139172
4185.000000;1.146545
4184.000000;1.158357
4183.000000;1.170711
4182.000000;1.181014
4181.000000;1.191264
4180.000000;1.204155
4179.000000;1.219757
4178.000000;1.237066
4177.000000;1.254815
4176.000000;1.268704
4175.000000;1.273026
4174.000000;1.269239
4173.000000;1.266465
4172.000000;1.270876
4171.000000;1.281074
4170.000000;1.294473
4169.000000;1.312662
4168.000000;1.336318
4167.000000;1.358648
4166.000000;1.370845
4165.000000;1.373336
4164.000000;1.375965
4163.000000;1.387129
4162.000000;1.405403
4161.000000;1.421331
4160.000000;1.425752
4159.000000;1.417597
4158.000000;1.406017
4157.000000;1.404065
4156.000000;1.418227
4155.000000;1.442880
4154.000000;1.464690
4153.000000;1.475364
4152.000000;1.480440
4151.000000;1.491468
4150.000000;1.511933
4149.000000;1.532743
4148.000000;1.542000
4147.000000;1.540213
4146.000000;1.537173
4145.000000;1.537762
4144.000000;1.538601
4143.000000;1.536229
4142.000000;1.536512
4141.000000;1.550699
4140.000000;1.580198
4139.000000;1.608716
4138.000000;1.618403
4137.000000;1.613367
4136.000000;1.610503
4135.000000;1.618869
4134.000000;1.635109
4133.000000;1.649620
4132.000000;1.657188
4131.000000;1.662568
4130.000000;1.670808
4129.000000;1.678406
4128.000000;1.680131
4127.000000;1.676078
4126.000000;1.670591
4125.000000;1.667188
4124.000000;1.666933
4123.000000;1.674278
4122.000000;1.692751
4121.000000;1.715726
4120.000000;1.736635
4119.000000;1.756139
4118.000000;1.772483
4117.000000;1.780217
4116.000000;1.775359
4115.000000;1.760546
4114.000000;1.746721
4113.000000;1.745281
4112.000000;1.757788
4111.000000;1.777106
4110.000000;1.801424
4109.000000;1.832448
4108.000000;1.866958
4107.000000;1.910995
4106.000000;1.962316
4105.000000;1.986092
4104.000000;1.963794
4103.000000;1.914071
4102.000000;1.857440
4101.000000;1.808178
4100.000000;1.774653
4099.000000;1.759883
4098.000000;1.762083
4097.000000;1.778759
4096.000000;1.812278
4095.000000;1.866120
4094.000000;1.929630
4093.000000;1.970069
4092.000000;1.965758
4091.000000;1.934626
4090.000000;1.909058
4089.000000;1.905640
4088.000000;1.914872
4087.000000;1.922010
4086.000000;1.931964
4085.000000;1.962360
4084.000000;2.014749
4083.000000;2.053396
4082.000000;2.042120
4081.000000;2.005932
4080.000000;1.994720
4079.000000;2.024988
4078.000000;2.067026
4077.000000;2.070831
4076.000000;2.037768
4075.000000;2.017681
4074.000000;2.040187
4073.000000;2.098796
4072.000000;2.167688
4071.000000;2.236283
4070.000000;2.291873
4069.000000;2.295400
4068.000000;2.271211
4067.000000;2.263684
4066.000000;2.270157
4065.000000;2.253982
4064.000000;2.187013
4063.000000;2.088619
4062.000000;1.998927
4061.000000;1.954338
4060.000000;1.965240
4059.000000;2.011095
4058.000000;2.056394
4057.000000;2.084864
4056.000000;2.105067
4055.000000;2.126549
4054.000000;2.155663
4053.000000;2.189065
4052.000000;2.202579
4051.000000;2.171629
4050.000000;2.104609
4049.000000;2.049433
4048.000000;2.051543
4047.000000;2.117943
4046.000000;2.219819
4045.000000;2.302563
4044.000000;2.258583
4043.000000;2.149160
4042.000000;2.092880
4041.000000;2.097087
4040.000000;2.132671
4039.000000;2.169872
4038.000000;2.192506
4037.000000;2.197765
4036.000000;2.187747
4035.000000;2.168754
4034.000000;2.157006
4033.000000;2.172431
4032.000000;2.225914
4031.000000;2.311373
4030.000000;2.378533
4029.000000;2.351642
4028.000000;2.295375
4027.000000;2.319877
4026.000000;2.405007
4025.000000;2.332391
4024.000000;2.164415
4023.000000;2.070296
4022.000000;2.052095
4021.000000;2.106833
4020.000000;2.218556
4019.000000;2.324632
4018.000000;2.318989
4017.000000;2.251317
4016.000000;2.227417
4015.000000;2.250956
4014.000000;2.263123
4013.000000;2.236402
4012.000000;2.200051
4011.000000;2.183398
4010.000000;2.202086
4009.000000;2.258447
4008.000000;2.339364
4007.000000;2.414023
4006.000000;2.499812
4005.000000;2.635604
4004.000000;2.551584
4003.000000;2.339556
4002.000000;2.254288
4001.000000;2.289690
4000.000000;2.455229
3999.000000;2.731562
3998.000000;2.928661
3997.000000;2.812424
3996.000000;2.575382
3995.000000;2.426696
3994.000000;2.376951
3993.000000;2.383936
3992.000000;2.423884
3991.000000;2.463037
3990.000000;2.400102
3989.000000;2.266887
3988.000000;2.185652
3987.000000;2.202255
3986.000000;2.312984
3985.000000;2.469187
3984.000000;2.582399
3983.000000;2.551249
3982.000000;2.446152
3981.000000;2.366457
3980.000000;2.307843
3979.000000;2.247801
3978.000000;2.185514
3977.000000;2.144225
3976.000000;2.159226
3975.000000;2.267277
3974.000000;2.522644
3973.000000;2.923459
3972.000000;2.990575
3971.000000;2.808878
3970.000000;2.656175
3969.000000;2.557161
3968.000000;2.505361
3967.000000;2.445783
3966.000000;2.353537
3965.000000;2.258147
3964.000000;2.204570
3963.000000;2.208240
3962.000000;2.244142
3961.000000;2.281621
3960.000000;2.353990
3959.000000;2.523866
3958.000000;2.709754
3957.000000;2.622676
3956.000000;2.504858
3955.000000;2.471942
3954.000000;2.546887
3953.000000;2.734709
3952.000000;2.702024
3951.000000;2.413298
3950.000000;2.228707
3949.000000;2.142567
3948.000000;2.134776
3947.000000;2.199905
3946.000000;2.328251
3945.000000;2.490691
3944.000000;2.648211
3943.000000;2.638162
3942.000000;2.397952
3941.000000;2.178520
3940.000000;2.081376
3939.000000;2.097589
3938.000000;2.197641
3937.000000;2.336195
3936.000000;2.434038
3935.000000;2.476886
3934.000000;2.554988
3933.000000;2.715370
3932.000000;2.877745
3931.000000;2.879900
3930.000000;2.740471
3929.000000;2.595384
3928.000000;2.472129
3927.000000;2.360528
3926.000000;2.267015
3925.000000;2.202128
3924.000000;2.171316
3923.000000;2.185281
3922.000000;2.269686
3921.000000;2.432904
3920.000000;2.510007
3919.000000;2.392591
3918.000000;2.295093
3917.000000;2.241729
3916.000000;2.224238
3915.000000;2.249019
3914.000000;2.307193
3913.000000;2.421326
3912.000000;2.584132
3911.000000;3.259281
3910.000000;3.081068
3909.000000;2.661302
3908.000000;2.668991
3907.000000;2.657919
3906.000000;2.547426
3905.000000;2.454603
3904.000000;2.410876
3903.000000;2.388318
3902.000000;2.394294
3901.000000;2.427263
3900.000000;2.437989
3899.000000;2.419843
3898.000000;2.425452
3897.000000;2.549241
3896.000000;2.672768
3895.000000;2.556144
3894.000000;2.528688
3893.000000;2.601194
3892.000000;2.694712
3891.000000;2.615520
3890.000000;2.451026
3889.000000;2.470770
3888.000000;2.632558
3887.000000;2.707869
3886.000000;2.637513
3885.000000;2.450182
3884.000000;2.365931
3883.000000;2.536834
3882.000000;2.721909
3881.000000;2.653238
3880.000000;2.568809
3879.000000;2.571285
3878.000000;2.808049
3877.000000;2.853560
3876.000000;2.766010
3875.000000;2.733651
3874.000000;2.566631
3873.000000;2.464398
3872.000000;2.480069
3871.000000;2.528370
3870.000000;2.561361
3869.000000;2.596732
3868.000000;2.630619
3867.000000;2.699519
3866.000000;2.976314
3865.000000;2.990871
3864.000000;2.706131
3863.000000;2.693630
3862.000000;2.815546
3861.000000;2.768542
3860.000000;2.550124
3859.000000;2.391866
3858.000000;2.363033
3857.000000;2.488511
3856.000000;2.824371
3855.000000;3.305838
3854.000000;2.977641
3853.000000;2.713207
3852.000000;2.659377
3851.000000;2.872299
3850.000000;3.143542
3849.000000;2.900901
3848.000000;2.767128
3847.000000;2.786208
3846.000000;2.888073
3845.000000;2.780366
3844.000000;2.704433
3843.000000;2.779091
3842.000000;3.143580
3841.000000;3.317715
3840.000000;2.705906
3839.000000;2.622146
3838.000000;2.680313
3837.000000;2.826913
3836.000000;3.058771
3835.000000;2.986993
3834.000000;2.672077
3833.000000;2.517026
3832.000000;2.490830
3831.000000;2.590640
3830.000000;2.753358
3829.000000;2.806806
3828.000000;2.752535
3827.000000;2.630146
3826.000000;2.593504
3825.000000;2.789473
3824.000000;2.877913
3823.000000;2.704485
3822.000000;2.635776
3821.000000;2.555664
3820.000000;2.527829
3819.000000;2.649349
3818.000000;2.811984
3817.000000;2.907034
3816.000000;2.881100
3815.000000;2.752071
3814.000000;2.656151
3813.000000;2.707013
3812.000000;2.903330
3811.000000;2.848274
3810.000000;2.673892
3809.000000;2.715087
3808.000000;2.863455
3807.000000;2.864794
3806.000000;2.812132
3805.000000;3.076800
3804.000000;3.383838
3803.000000;2.989245
3802.000000;2.834202
3801.000000;2.804344
3800.000000;2.925218
3799.000000;3.672800
3798.000000;3.245755
3797.000000;3.112596
3796.000000;3.488898
3795.000000;2.752357
3794.000000;2.506327
3793.000000;2.611955
3792.000000;2.814205
3791.000000;2.551828
3790.000000;2.366784
3789.000000;2.340636
3788.000000;2.406193
3787.000000;2.486582
3786.000000;2.538481
3785.000000;2.507034
3784.000000;2.441246
3783.000000;2.492011
3782.000000;2.674792
3781.000000;2.793298
3780.000000;2.730127
3779.000000;2.610693
3778.000000;2.423095
3777.000000;2.255839
3776.000000;2.181149
3775.000000;2.202439
3774.000000;2.311975
3773.000000;2.525822
3772.000000;2.651638
3771.000000;2.547510
3770.000000;2.517093
3769.000000;2.747447
3768.000000;3.176626
3767.000000;2.789171
3766.000000;2.842702
3765.000000;3.319952
3764.000000;2.919304
3763.000000;2.549501
3762.000000;2.426168
3761.000000;2.396899
3760.000000;2.394349
3759.000000;2.452017
3758.000000;2.650229
3757.000000;3.058399
3756.000000;3.573791
3755.000000;3.595936
3754.000000;3.240383
3753.000000;2.973540
3752.000000;2.896748
3751.000000;3.070345
3750.000000;3.464931
3749.000000;3.003283
3748.000000;2.721942
3747.000000;2.700096
3746.000000;2.792643
3745.000000;2.900969
3744.000000;2.934874
3743.000000;2.799597
3742.000000;2.638492
3741.000000;2.651164
3740.000000;2.772938
3739.000000;2.847071
3738.000000;2.800001
3737.000000;2.714931
3736.000000;2.670994
3735.000000;2.683332
3734.000000;2.726332
3733.000000;2.729768
3732.000000;2.654376
3731.000000;2.549109
3730.000000;2.480381
3729.000000;2.472091
3728.000000;2.521260
3727.000000;2.702222
3726.000000;3.160701
3725.000000;2.867387
3724.000000;2.690142
3723.000000;2.790314
3722.000000;2.546044
3721.000000;2.369307
3720.000000;2.342147
3719.000000;2.459520
3718.000000;2.789777
3717.000000;3.046609
3716.000000;2.858656
3715.000000;2.650212
3714.000000;2.539180
3713.000000;2.578242
3712.000000;2.795148
3711.000000;2.821364
3710.000000;2.567260
3709.000000;2.483900
3708.000000;2.508867
3707.000000;2.629169
3706.000000;2.725203
3705.000000;2.576343
3704.000000;2.470950
3703.000000;2.464495
3702.000000;2.607364
3701.000000;2.844773
3700.000000;2.541216
3699.000000;2.334652
3698.000000;2.378627
3697.000000;2.465912
3696.000000;2.443328
3695.000000;2.378904
3694.000000;2.376403
3693.000000;2.429342
3692.000000;2.506748
3691.000000;2.596023
3690.000000;2.735408
3689.000000;2.864815
3688.000000;2.835767
3687.000000;2.795691
3686.000000;2.954199
3685.000000;3.474939
3684.000000;3.338403
3683.000000;3.198332
3682.000000;3.172160
3681.000000;3.311463
3680.000000;3.399771
3679.000000;3.048926
3678.000000;3.024303
3677.000000;3.157735
3676.000000;3.288758
3675.000000;3.113140
3674.000000;2.733827
3673.000000;2.592187
3672.000000;2.670571
3671.000000;2.636458
3670.000000;2.488899
3669.000000;2.379104
3668.000000;2.356480
3667.000000;2.378456
3666.000000;2.418232
3665.000000;2.494814
3664.000000;2.730500
3663.000000;3.452165
3662.000000;2.811764
3661.000000;2.585986
3660.000000;2.686801
3659.000000;3.054904
3658.000000;3.265393
3657.000000;2.995275
3656.000000;2.806547
3655.000000;2.631858
3654.000000;2.575658
3653.000000;2.573583
3652.000000;2.586097
3651.000000;2.696966
3650.000000;2.762698
3649.000000;2.567963
3648.000000;2.459606
3647.000000;2.626511
3646.000000;2.958578
3645.000000;2.559276
3644.000000;2.301804
3643.000000;2.294888
3642.000000;2.401734
3641.000000;2.624314
3640.000000;2.772760
3639.000000;2.570366
3638.000000;2.456855
3637.000000;2.510662
3636.000000;2.723769
3635.000000;3.255445
3634.000000;3.212374
3633.000000;2.888208
3632.000000;2.868515
3631.000000;3.122353
3630.000000;3.008545
3629.000000;2.564583
3628.000000;2.452158
3627.000000;2.658595
3626.000000;2.723180
3625.000000;2.584082
3624.000000;2.643149
3623.000000;2.740345
3622.000000;2.781661
3621.000000;2.741999
3620.000000;2.735820
3619.000000;3.095791
3618.000000;2.887552
3617.000000;2.432333
3616.000000;2.339912
3615.000000;2.332936
3614.000000;2.336193
3613.000000;2.306969
3612.000000;2.307340
3611.000000;2.403162
3610.000000;2.687229
3609.000000;3.275260
3608.000000;2.640638
3607.000000;2.410506
3606.000000;2.461408
3605.000000;2.474123
3604.000000;2.394856
3603.000000;2.374678
3602.000000;2.439712
3601.000000;2.563257
3600.000000;2.715624
3599.000000;2.807002
3598.000000;2.818886
3597.000000;2.908537
3596.000000;2.870446
3595.000000;2.570769
3594.000000;2.379658
3593.000000;2.299813
3592.000000;2.309211
3591.000000;2.439222
3590.000000;2.560547
3589.000000;2.419489
3588.000000;2.272722
3587.000000;2.257357
3586.000000;2.381755
3585.000000;2.592209
3584.000000;2.704730
3583.000000;2.830026
3582.000000;2.944038
3581.000000;2.831886
3580.000000;2.754096
3579.000000;2.761158
3578.000000;2.835380
3577.000000;2.896917
3576.000000;2.869010
3575.000000;2.820341
3574.000000;2.926412
3573.000000;3.190073
3572.000000;2.774401
3571.000000;2.480788
3570.000000;2.391081
3569.000000;2.398533
3568.000000;2.473342
3567.000000;2.616848
3566.000000;2.973965
3565.000000;2.758814
3564.000000;2.426482
3563.000000;2.407186
3562.000000;2.575969
3561.000000;3.157992
3560.000000;3.069998
3559.000000;2.928462
3558.000000;3.449973
3557.000000;2.945241
3556.000000;2.819616
3555.000000;2.730713
3554.000000;2.469905
3553.000000;2.355515
3552.000000;2.317315
3551.000000;2.403855
3550.000000;2.695327
3549.000000;2.637326
3548.000000;2.433010
3547.000000;2.502412
3546.000000;2.922670
3545.000000;2.917423
3544.000000;2.582162
3543.000000;2.659328
3542.000000;2.937966
3541.000000;3.323006
3540.000000;3.201474
3539.000000;2.910454
3538.000000;2.795520
3537.000000;2.729471
3536.000000;2.668405
3535.000000;2.635656
3534.000000;2.613401
3533.000000;2.515092
3532.000000;2.522027
3531.000000;2.601578
3530.000000;2.539542
3529.000000;2.512468
3528.000000;2.653817
3527.000000;3.084254
3526.000000;2.998445
3525.000000;2.646614
3524.000000;2.561746
3523.000000;2.756832
3522.000000;3.037446
3521.000000;2.681215
3520.000000;2.614199
3519.000000;2.650960
3518.000000;2.543929
3517.000000;2.462108
3516.000000;2.551618
3515.000000;2.776316
3514.000000;2.576623
3513.000000;2.325098
3512.000000;2.245256
3511.000000;2.272328
3510.000000;2.414683
3509.000000;2.710752
3508.000000;2.873277
3507.000000;2.756282
3506.000000;2.676186
3505.000000;2.552570
3504.000000;2.418927
3503.000000;2.311295
3502.000000;2.242373
3501.000000;2.237470
3500.000000;2.278273
3499.000000;2.319916
3498.000000;2.378233
3497.000000;2.545074
3496.000000;2.920544
3495.000000;3.069794
3494.000000;2.907895
3493.000000;2.896527
3492.000000;2.756177
3491.000000;2.580810
3490.000000;2.654150
3489.000000;2.824051
3488.000000;2.388759
3487.000000;2.124724
3486.000000;2.086899
3485.000000;2.218141
3484.000000;2.635902
3483.000000;3.066429
3482.000000;2.781097
3481.000000;2.760795
3480.000000;2.888915
3479.000000;2.886150
3478.000000;2.665800
3477.000000;2.470698
3476.000000;2.351017
3475.000000;2.303339
3474.000000;2.331206
3473.000000;2.414211
3472.000000;2.563974
3471.000000;2.761256
3470.000000;2.983477
3469.000000;3.079064
3468.000000;2.895668
3467.000000;2.838226
3466.000000;2.639386
3465.000000;2.710823
3464.000000;2.924998
3463.000000;2.391578
3462.000000;2.178333
3461.000000;2.196453
3460.000000;2.457652
3459.000000;2.787805
3458.000000;2.613628
3457.000000;2.630369
3456.000000;2.799497
3455.000000;2.902316
3454.000000;2.757902
3453.000000;2.564841
3452.000000;2.524111
3451.000000;2.723486
3450.000000;2.871687
3449.000000;2.548239
3448.000000;2.454746
3447.000000;2.505260
3446.000000;2.347163
3445.000000;2.169431
3444.000000;2.107084
3443.000000;2.130980
3442.000000;2.219609
3441.000000;2.364073
3440.000000;2.572403
3439.000000;2.679678
3438.000000;2.517935
3437.000000;2.444368
3436.000000;2.482630
3435.000000;2.423697
3434.000000;2.322018
3433.000000;2.332619
3432.000000;2.635713
3431.000000;3.072066
3430.000000;2.666266
3429.000000;2.539238
3428.000000;2.507409
3427.000000;2.418707
3426.000000;2.345951
3425.000000;2.304732
3424.000000;2.322022
3423.000000;2.392481
3422.000000;2.502000
3421.000000;2.616115
3420.000000;2.546788
3419.000000;2.410623
3418.000000;2.380638
3417.000000;2.558425
3416.000000;3.070414
3415.000000;3.025928
3414.000000;2.982724
3413.000000;2.911259
3412.000000;2.633802
3411.000000;2.599928
3410.000000;2.675267
3409.000000;2.775192
3408.000000;2.729483
3407.000000;2.599980
3406.000000;2.609883
3405.000000;2.727304
3404.000000;2.823650
3403.000000;2.809793
3402.000000;2.755538
3401.000000;2.718899
3400.000000;2.811070
3399.000000;2.882417
3398.000000;2.581741
3397.000000;2.336406
3396.000000;2.222970
3395.000000;2.219523
3394.000000;2.347499
3393.000000;2.667754
3392.000000;2.896376
3391.000000;2.642149
3390.000000;2.525337
3389.000000;2.507980
3388.000000;2.501880
3387.000000;2.471154
3386.000000;2.432475
3385.000000;2.426392
3384.000000;2.425469
3383.000000;2.417726
3382.000000;2.428848
3381.000000;2.471966
3380.000000;2.546175
3379.000000;2.631979
3378.000000;2.760901
3377.000000;2.848643
3376.000000;2.676723
3375.000000;2.497609
3374.000000;2.503402
3373.000000;2.730945
3372.000000;2.734469
3371.000000;2.544336
3370.000000;2.530777
3369.000000;2.561548
3368.000000;2.598857
3367.000000;2.712091
3366.000000;2.736152
3365.000000;2.613320
3364.000000;2.568880
3363.000000;2.554085
3362.000000;2.488461
3361.000000;2.451422
3360.000000;2.524691
3359.000000;2.707771
3358.000000;3.175975
3357.000000;3.361545
3356.000000;2.754831
3355.000000;2.603294
3354.000000;2.644172
3353.000000;3.030275
3352.000000;3.225837
3351.000000;2.688204
3350.000000;2.484338
3349.000000;2.396575
3348.000000;2.415400
3347.000000;2.505995
3346.000000;2.613166
3345.000000;2.620837
3344.000000;2.542440
3343.000000;2.484202
3342.000000;2.446380
3341.000000;2.474721
3340.000000;2.591149
3339.000000;2.739972
3338.000000;2.780503
3337.000000;2.678389
3336.000000;2.585229
3335.000000;2.580629
3334.000000;2.717825
3333.000000;2.896428
3332.000000;2.750699
3331.000000;2.549733
3330.000000;2.418987
3329.000000;2.363396
3328.000000;2.403786
3327.000000;2.537477
3326.000000;2.716513
3325.000000;2.688097
3324.000000;2.546725
3323.000000;2.518166
3322.000000;2.584529
3321.000000;2.653656
3320.000000;2.630942
3319.000000;2.534423
3318.000000;2.457070
3317.000000;2.462346
3316.000000;2.584089
3315.000000;2.834239
3314.000000;2.894763
3313.000000;2.814972
3312.000000;2.813483
3311.000000;2.989755
3310.000000;3.591992
3309.000000;3.081916
3308.000000;2.801288
3307.000000;2.743731
3306.000000;2.710223
3305.000000;2.759049
3304.000000;2.894033
3303.000000;2.999270
3302.000000;3.269146
3301.000000;3.244697
3300.000000;2.683532
3299.000000;2.448888
3298.000000;2.353177
3297.000000;2.306090
3296.000000;2.274014
3295.000000;2.249820
3294.000000;2.249064
3293.000000;2.296700
3292.000000;2.445656
3291.000000;2.797088
3290.000000;3.221249
3289.000000;3.172944
3288.000000;3.182219
3287.000000;3.157256
3286.000000;3.106340
3285.000000;2.886149
3284.000000;2.695084
3283.000000;2.647943
3282.000000;2.623605
3281.000000;2.621891
3280.000000;2.696420
3279.000000;2.690334
3278.000000;2.554779
3277.000000;2.455867
3276.000000;2.437061
3275.000000;2.486430
3274.000000;2.499869
3273.000000;2.455472
3272.000000;2.484306
3271.000000;2.695307
3270.000000;3.094958
3269.000000;3.157942
3268.000000;3.097292
3267.000000;3.113420
3266.000000;3.222056
3265.000000;3.804793
3264.000000;3.602952
3263.000000;3.173108
3262.000000;2.960152
3261.000000;2.799184
3260.000000;2.713240
3259.000000;2.669768
3258.000000;2.618072
3257.000000;2.514829
3256.000000;2.423606
3255.000000;2.404980
3254.000000;2.475781
3253.000000;2.587007
3252.000000;2.771924
3251.000000;3.070686
3250.000000;2.869426
3249.000000;2.615184
3248.000000;2.516748
3247.000000;2.444424
3246.000000;2.422460
3245.000000;2.457732
3244.000000;2.640794
3243.000000;3.039298
3242.000000;2.746620
3241.000000;2.457556
3240.000000;2.462244
3239.000000;2.572436
3238.000000;2.712035
3237.000000;3.106791
3236.000000;3.033532
3235.000000;2.592131
3234.000000;2.453214
3233.000000;2.452341
3232.000000;2.530902
3231.000000;2.666811
3230.000000;2.861626
3229.000000;2.981911
3228.000000;2.780895
3227.000000;2.591459
3226.000000;2.580622
3225.000000;2.829177
3224.000000;3.003196
3223.000000;2.745967
3222.000000;2.597738
3221.000000;2.552179
3220.000000;2.660128
3219.000000;2.720491
3218.000000;2.609846
3217.000000;2.631495
3216.000000;2.894653
3215.000000;3.267235
3214.000000;3.270636
3213.000000;3.006402
3212.000000;2.734443
3211.000000;2.643586
3210.000000;2.769924
3209.000000;3.263430
3208.000000;3.231179
3207.000000;2.866671
3206.000000;2.826059
3205.000000;2.847970
3204.000000;2.847309
3203.000000;2.806922
3202.000000;2.728314
3201.000000;2.590614
3200.000000;2.452177
3199.000000;2.380761
3198.000000;2.363440
3197.000000;2.395937
3196.000000;2.507943
3195.000000;2.711252
3194.000000;2.958476
3193.000000;2.792828
3192.000000;2.493779
3191.000000;2.379694
3190.000000;2.364697
3189.000000;2.425404
3188.000000;2.487529
3187.000000;2.527863
3186.000000;2.539112
3185.000000;2.601063
3184.000000;3.005987
3183.000000;3.028259
3182.000000;2.537567
3181.000000;2.514606
3180.000000;2.874993
3179.000000;2.807380
3178.000000;2.512015
3177.000000;2.667478
3176.000000;3.120962
3175.000000;2.571469
3174.000000;2.388397
3173.000000;2.432428
3172.000000;2.440239
3171.000000;2.426772
3170.000000;2.493978
3169.000000;2.675525
3168.000000;2.692229
3167.000000;2.582043
3166.000000;2.538598
3165.000000;2.503245
3164.000000;2.444237
3163.000000;2.419065
3162.000000;2.490219
3161.000000;2.658740
3160.000000;2.589664
3159.000000;2.413572
3158.000000;2.371311
3157.000000;2.395845
3156.000000;2.412875
3155.000000;2.406788
3154.000000;2.429369
3153.000000;2.539219
3152.000000;2.802227
3151.000000;3.050162
3150.000000;2.897325
3149.000000;2.899485
3148.000000;3.088450
3147.000000;2.954915
3146.000000;2.764858
3145.000000;2.749741
3144.000000;2.807355
3143.000000;2.701771
3142.000000;2.558365
3141.000000;2.515741
3140.000000;2.559752
3139.000000;2.620906
3138.000000;2.675015
3137.000000;3.066235
3136.000000;3.088163
3135.000000;2.644005
3134.000000;2.599430
3133.000000;2.712722
3132.000000;2.991267
3131.000000;3.163623
3130.000000;2.909965
3129.000000;3.007071
3128.000000;3.247264
3127.000000;2.895938
3126.000000;2.696661
3125.000000;2.857409
3124.000000;3.320493
3123.000000;2.766473
3122.000000;2.475633
3121.000000;2.396659
3120.000000;2.431477
3119.000000;2.532291
3118.000000;2.461128
3117.000000;2.382205
3116.000000;2.411092
3115.000000;2.502090
3114.000000;2.505768
3113.000000;2.441310
3112.000000;2.452183
3111.000000;2.538304
3110.000000;2.965194
3109.000000;3.266528
3108.000000;2.652337
3107.000000;2.548431
3106.000000;2.544358
3105.000000;2.453704
3104.000000;2.349958
3103.000000;2.297962
3102.000000;2.259561
3101.000000;2.234916
3100.000000;2.287351
3099.000000;2.473942
3098.000000;2.812233
3097.000000;3.158665
3096.000000;3.244016
3095.000000;2.801734
3094.000000;2.576199
3093.000000;2.523251
3092.000000;2.588733
3091.000000;2.775660
3090.000000;3.141509
3089.000000;3.280481
3088.000000;2.831698
3087.000000;2.671517
3086.000000;2.640322
3085.000000;2.611133
3084.000000;2.474024
3083.000000;2.310695
3082.000000;2.209473
3081.000000;2.183039
3080.000000;2.245848
3079.000000;2.373946
3078.000000;2.524564
3077.000000;2.637316
3076.000000;2.682195
3075.000000;2.674049
3074.000000;2.736493
3073.000000;2.830757
3072.000000;2.666940
3071.000000;2.522651
3070.000000;2.497846
3069.000000;2.492010
3068.000000;2.441820
3067.000000;2.388165
3066.000000;2.414631
3065.000000;2.558185
3064.000000;2.747968
3063.000000;2.757746
3062.000000;2.643589
3061.000000;2.551324
3060.000000;2.609359
3059.000000;2.813762
3058.000000;2.654384
3057.000000;2.415181
3056.000000;2.355477
3055.000000;2.418382
3054.000000;2.555890
3053.000000;2.644290
3052.000000;2.655464
3051.000000;2.628730
3050.000000;2.581527
3049.000000;2.571809
3048.000000;2.592627
3047.000000;2.633593
3046.000000;2.681201
3045.000000;2.712462
3044.000000;2.656223
3043.000000;2.551239
3042.000000;2.525445
3041.000000;2.565489
3040.000000;2.566609
3039.000000;2.723014
3038.000000;2.926756
3037.000000;2.721716
3036.000000;2.639624
3035.000000;2.527941
3034.000000;2.441580
3033.000000;2.497264
3032.000000;2.608842
3031.000000;2.708861
3030.000000;2.752650
3029.000000;2.813129
3028.000000;2.925423
3027.000000;3.026537
3026.000000;3.282261
3025.000000;3.223327
3024.000000;2.852814
3023.000000;2.727248
3022.000000;2.771385
3021.000000;2.919665
3020.000000;2.848750
3019.000000;2.628986
3018.000000;2.486398
3017.000000;2.393513
3016.000000;2.351365
3015.000000;2.322731
3014.000000;2.310953
3013.000000;2.330578
3012.000000;2.506982
3011.000000;2.822258
3010.000000;2.567718
3009.000000;2.400840
3008.000000;2.421592
3007.000000;2.524711
3006.000000;2.669869
3005.000000;2.858096
3004.000000;3.365861
3003.000000;3.200854
3002.000000;2.794081
3001.000000;2.660478
3000.000000;2.819506
2999.000000;3.055156
2998.000000;2.601323
2997.000000;2.377280
2996.000000;2.395286
2995.000000;2.487370
2994.000000;2.626248
2993.000000;3.024269
2992.000000;3.047685
2991.000000;2.690539
2990.000000;2.517643
2989.000000;2.403673
2988.000000;2.389381
2987.000000;2.509949
2986.000000;2.671460
2985.000000;2.586686
2984.000000;2.528977
2983.000000;2.633672
2982.000000;2.955577
2981.000000;3.682148
2980.000000;3.412268
2979.000000;3.478332
2978.000000;3.422733
2977.000000;3.131522
2976.000000;3.069412
2975.000000;3.014729
2974.000000;2.823505
2973.000000;2.687692
2972.000000;3.041020
2971.000000;3.036570
2970.000000;2.489590
2969.000000;2.318202
2968.000000;2.279220
2967.000000;2.325011
2966.000000;2.416507
2965.000000;2.525407
2964.000000;2.709079
2963.000000;2.886768
2962.000000;2.802104
2961.000000;2.664366
2960.000000;2.601394
2959.000000;2.708845
2958.000000;2.973349
2957.000000;2.788924
2956.000000;2.598364
2955.000000;2.595250
2954.000000;2.691001
2953.000000;2.709610
2952.000000;2.662664
2951.000000;2.817940
2950.000000;3.172856
2949.000000;3.017795
2948.000000;2.599809
2947.000000;2.364839
2946.000000;2.285451
2945.000000;2.327339
2944.000000;2.465451
2943.000000;2.567553
2942.000000;2.541805
2941.000000;2.658753
2940.000000;2.845103
2939.000000;2.626990
2938.000000;2.517902
2937.000000;2.520568
2936.000000;2.478860
2935.000000;2.487723
2934.000000;2.531639
2933.000000;2.473989
2932.000000;2.363231
2931.000000;2.302882
2930.000000;2.315876
2929.000000;2.398465
2928.000000;2.608782
2927.000000;2.970221
2926.000000;2.970703
2925.000000;2.961566
2924.000000;2.855850
2923.000000;2.559800
2922.000000;2.471250
2921.000000;2.486561
2920.000000;2.521664
2919.000000;2.538671
2918.000000;2.700621
2917.000000;3.188839
2916.000000;2.876698
2915.000000;2.622734
2914.000000;2.457601
2913.000000;2.255036
2912.000000;2.179016
2911.000000;2.227063
2910.000000;2.361250
2909.000000;2.489045
2908.000000;2.569232
2907.000000;2.588491
2906.000000;2.484979
2905.000000;2.394629
2904.000000;2.358081
2903.000000;2.332296
2902.000000;2.329993
2901.000000;2.375354
2900.000000;2.460126
2899.000000;2.606447
2898.000000;2.869979
2897.000000;3.079690
2896.000000;2.799453
2895.000000;2.539154
2894.000000;2.467414
2893.000000;2.548224
2892.000000;2.652978
2891.000000;2.575066
2890.000000;2.467779
2889.000000;2.448851
2888.000000;2.520176
2887.000000;2.703136
2886.000000;2.844113
2885.000000;2.812917
2884.000000;2.880473
2883.000000;2.976235
2882.000000;2.994415
2881.000000;3.094423
2880.000000;3.002507
2879.000000;2.838264
2878.000000;2.835915
2877.000000;2.925380
2876.000000;2.998195
2875.000000;3.075268
2874.000000;2.932340
2873.000000;2.695092
2872.000000;2.584181
2871.000000;2.562570
2870.000000;2.591822
2869.000000;2.627454
2868.000000;2.638899
2867.000000;2.606773
2866.000000;2.628125
2865.000000;2.717224
2864.000000;2.662995
2863.000000;2.562607
2862.000000;2.517604
2861.000000;2.499349
2860.000000;2.527455
2859.000000;2.619157
2858.000000;2.753369
2857.000000;2.941193
2856.000000;3.017243
2855.000000;2.722531
2854.000000;2.516567
2853.000000;2.480359
2852.000000;2.602680
2851.000000;2.895841
2850.000000;3.392215
2849.000000;3.090388
2848.000000;2.585323
2847.000000;2.353758
2846.000000;2.240398
2845.000000;2.209615
2844.000000;2.268472
2843.000000;2.418575
2842.000000;2.654459
2841.000000;2.881209
2840.000000;2.941250
2839.000000;2.818393
2838.000000;2.769840
2837.000000;2.923401
2836.000000;2.987537
2835.000000;2.777491
2834.000000;2.729599
2833.000000;3.174520
2832.000000;2.933620
2831.000000;2.459057
2830.000000;2.315792
2829.000000;2.323959
2828.000000;2.442996
2827.000000;2.481769
2826.000000;2.396811
2825.000000;2.371009
2824.000000;2.369916
2823.000000;2.356336
2822.000000;2.366661
2821.000000;2.390630
2820.000000;2.365756
2819.000000;2.285777
2818.000000;2.236137
2817.000000;2.282157
2816.000000;2.487515
2815.000000;2.781353
2814.000000;2.742028
2813.000000;2.613323
2812.000000;2.501712
2811.000000;2.368882
2810.000000;2.276214
2809.000000;2.259471
2808.000000;2.324784
2807.000000;2.417891
2806.000000;2.495117
2805.000000;2.627868
2804.000000;2.769735
2803.000000;2.855004
2802.000000;2.883263
2801.000000;2.602669
2800.000000;2.368712
2799.000000;2.270130
2798.000000;2.272632
2797.000000;2.399437
2796.000000;2.605241
2795.000000;2.578675
2794.000000;2.590806
2793.000000;2.988717
2792.000000;2.933311
2791.000000;2.625120
2790.000000;2.610962
2789.000000;2.537053
2788.000000;2.413156
2787.000000;2.338815
2786.000000;2.361098
2785.000000;2.562790
2784.000000;2.961604
2783.000000;2.784928
2782.000000;2.492508
2781.000000;2.394185
2780.000000;2.353151
2779.000000;2.340553
2778.000000;2.394203
2777.000000;2.541660
2776.000000;2.593374
2775.000000;2.504712
2774.000000;2.457785
2773.000000;2.439071
2772.000000;2.429507
2771.000000;2.452736
2770.000000;2.583933
2769.000000;2.994261
2768.000000;2.960886
2767.000000;2.560493
2766.000000;2.462854
2765.000000;2.491336
2764.000000;2.592770
2763.000000;2.694777
2762.000000;2.689619
2761.000000;2.614864
2760.000000;2.552034
2759.000000;2.503056
2758.000000;2.428930
2757.000000;2.386530
2756.000000;2.426184
2755.000000;2.607085
2754.000000;2.755553
2753.000000;2.569525
2752.000000;2.442952
2751.000000;2.495596
2750.000000;2.895515
2749.000000;3.049713
2748.000000;2.742361
2747.000000;2.721684
2746.000000;2.514633
2745.000000;2.360418
2744.000000;2.370403
2743.000000;2.478805
2742.000000;2.625430
2741.000000;2.738744
2740.000000;2.697684
2739.000000;2.584448
2738.000000;2.574467
2737.000000;2.702034
2736.000000;3.068049
2735.000000;3.499937
2734.000000;3.052203
2733.000000;2.738941
2732.000000;2.536003
2731.000000;2.413657
2730.000000;2.350190
2729.000000;2.316407
2728.000000;2.292629
2727.000000;2.258938
2726.000000;2.229312
2725.000000;2.240287
2724.000000;2.338966
2723.000000;2.650530
2722.000000;2.811365
2721.000000;2.495261
2720.000000;2.357016
2719.000000;2.315795
2718.000000;2.342910
2717.000000;2.439754
2716.000000;2.560087
2715.000000;2.686152
2714.000000;2.698330
2713.000000;2.604596
2712.000000;2.530127
2711.000000;2.446184
2710.000000;2.373824
2709.000000;2.370218
2708.000000;2.484164
2707.000000;2.759464
2706.000000;2.863691
2705.000000;2.653884
2704.000000;2.603721
2703.000000;2.905150
2702.000000;3.204705
2701.000000;2.734681
2700.000000;2.541803
2699.000000;2.476832
2698.000000;2.426777
2697.000000;2.331593
2696.000000;2.244260
2695.000000;2.237934
2694.000000;2.274831
2693.000000;2.276894
2692.000000;2.283336
2691.000000;2.371504
2690.000000;2.565260
2689.000000;2.814331
2688.000000;3.042024
2687.000000;2.939815
2686.000000;2.677682
2685.000000;2.613378
2684.000000;2.674561
2683.000000;2.871456
2682.000000;2.839004
2681.000000;2.622473
2680.000000;2.662304
2679.000000;2.850872
2678.000000;2.893641
2677.000000;2.732350
2676.000000;2.717999
2675.000000;2.819769
2674.000000;2.705260
2673.000000;2.487755
2672.000000;2.351495
2671.000000;2.315503
2670.000000;2.446364
2669.000000;2.999101
2668.000000;2.915179
2667.000000;2.884119
2666.000000;2.920575
2665.000000;2.409728
2664.000000;2.255655
2663.000000;2.310451
2662.000000;2.478164
2661.000000;2.578921
2660.000000;2.543580
2659.000000;2.460950
2658.000000;2.376307
2657.000000;2.331470
2656.000000;2.313515
2655.000000;2.304116
2654.000000;2.333979
2653.000000;2.459444
2652.000000;2.710456
2651.000000;3.256967
2650.000000;3.023990
2649.000000;2.598517
2648.000000;2.500685
2647.000000;2.508171
2646.000000;2.571009
2645.000000;2.630536
2644.000000;2.544682
2643.000000;2.418988
2642.000000;2.393224
2641.000000;2.424251
2640.000000;2.396360
2639.000000;2.325334
2638.000000;2.324780
2637.000000;2.400111
2636.000000;2.423081
2635.000000;2.447822
2634.000000;2.639710
2633.000000;3.151098
2632.000000;3.473489
2631.000000;2.971476
2630.000000;2.933585
2629.000000;3.057151
2628.000000;2.950850
2627.000000;2.850234
2626.000000;2.789091
2625.000000;2.710831
2624.000000;2.827868
2623.000000;3.177282
2622.000000;3.139171
2621.000000;2.787127
2620.000000;2.573156
2619.000000;2.494732
2618.000000;2.523464
2617.000000;2.614305
2616.000000;2.694553
2615.000000;2.667378
2614.000000;2.578503
2613.000000;2.507463
2612.000000;2.503363
2611.000000;2.602602
2610.000000;2.875540
2609.000000;3.118298
2608.000000;2.760485
2607.000000;2.599856
2606.000000;2.620508
2605.000000;2.965836
2604.000000;3.287502
2603.000000;2.764756
2602.000000;2.778736
2601.000000;2.806266
2600.000000;2.702815
2599.000000;2.664143
2598.000000;2.711487
2597.000000;2.621021
2596.000000;2.414063
2595.000000;2.317249
2594.000000;2.381405
2593.000000;2.707336
2592.000000;2.867293
2591.000000;2.690759
2590.000000;2.761301
2589.000000;2.924114
2588.000000;2.863456
2587.000000;2.794199
2586.000000;2.851412
2585.000000;2.797533
2584.000000;2.650107
2583.000000;2.796321
2582.000000;3.032354
2581.000000;2.447314
2580.000000;2.296299
2579.000000;2.360434
2578.000000;2.647598
2577.000000;3.207265
2576.000000;3.099061
2575.000000;3.174507
2574.000000;3.499110
2573.000000;3.049987
2572.000000;2.692639
2571.000000;2.612980
2570.000000;2.655592
2569.000000;2.657513
2568.000000;2.525065
2567.000000;2.362632
2566.000000;2.281536
2565.000000;2.321562
2564.000000;2.532381
2563.000000;3.055022
2562.000000;2.764574
2561.000000;2.539306
2560.000000;2.573774
2559.000000;2.746359
2558.000000;2.961742
2557.000000;2.747976
2556.000000;2.558518
2555.000000;2.488989
2554.000000;2.512194
2553.000000;2.640040
2552.000000;2.977239
2551.000000;3.218163
2550.000000;2.774147
2549.000000;2.571359
2548.000000;2.501645
2547.000000;2.580925
2546.000000;2.700583
2545.000000;2.635873
2544.000000;2.525715
2543.000000;2.497091
2542.000000;2.663453
2541.000000;2.810499
2540.000000;2.502985
2539.000000;2.311333
2538.000000;2.272770
2537.000000;2.342709
2536.000000;2.495775
2535.000000;2.472628
2534.000000;2.372002
2533.000000;2.398655
2532.000000;2.576494
2531.000000;3.023888
2530.000000;3.039544
2529.000000;2.747450
2528.000000;2.661894
2527.000000;2.633583
2526.000000;2.570911
2525.000000;2.549955
2524.000000;2.623804
2523.000000;2.931054
2522.000000;3.525063
2521.000000;2.923353
2520.000000;2.776617
2519.000000;2.699955
2518.000000;2.629981
2517.000000;2.670124
2516.000000;2.889525
2515.000000;2.812015
2514.000000;2.555960
2513.000000;2.499743
2512.000000;2.662040
2511.000000;2.904160
2510.000000;2.591725
2509.000000;2.426951
2508.000000;2.491150
2507.000000;2.713888
2506.000000;2.772285
2505.000000;2.613378
2504.000000;2.535541
2503.000000;2.529947
2502.000000;2.584434
2501.000000;2.689382
2500.000000;2.816677
2499.000000;2.746209
2498.000000;2.513057
2497.000000;2.422561
2496.000000;2.482293
2495.000000;2.635290
2494.000000;2.941922
2493.000000;3.156824
2492.000000;2.812651
2491.000000;2.686289
2490.000000;2.626332
2489.000000;2.621055
2488.000000;2.758906
2487.000000;3.215906
2486.000000;2.831094
2485.000000;2.492547
2484.000000;2.384307
2483.000000;2.328467
2482.000000;2.338696
2481.000000;2.405966
2480.000000;2.503610
2479.000000;2.551664
2478.000000;2.464077
2477.000000;2.367033
2476.000000;2.382335
2475.000000;2.580949
2474.000000;2.736377
2473.000000;2.505374
2472.000000;2.437549
2471.000000;2.537856
2470.000000;2.817703
2469.000000;2.844336
2468.000000;2.649916
2467.000000;2.876865
2466.000000;3.312725
2465.000000;3.086191
2464.000000;3.224865
2463.000000;3.176930
2462.000000;2.972948
2461.000000;2.639382
2460.000000;2.462330
2459.000000;2.441486
2458.000000;2.429482
2457.000000;2.375071
2456.000000;2.312892
2455.000000;2.260278
2454.000000;2.262539
2453.000000;2.358970
2452.000000;2.517575
2451.000000;2.635633
2450.000000;2.706888
2449.000000;2.677546
2448.000000;2.536656
2447.000000;2.415012
2446.000000;2.379487
2445.000000;2.443442
2444.000000;2.757591
2443.000000;3.520193
2442.000000;2.648431
2441.000000;2.478535
2440.000000;2.426768
2439.000000;2.440692
2438.000000;2.460757
2437.000000;2.479679
2436.000000;2.538896
2435.000000;2.663056
2434.000000;3.125670
2433.000000;3.051012
2432.000000;2.702902
2431.000000;2.768905
2430.000000;2.735395
2429.000000;2.589597
2428.000000;2.584140
2427.000000;2.743412
2426.000000;2.826996
2425.000000;2.702465
2424.000000;2.694172
2423.000000;2.878625
2422.000000;3.255851
2421.000000;3.342559
2420.000000;3.019999
2419.000000;2.696681
2418.000000;2.479820
2417.000000;2.376071
2416.000000;2.394849
2415.000000;2.523408
2414.000000;2.663883
2413.000000;2.746545
2412.000000;2.818226
2411.000000;2.782077
2410.000000;2.717359
2409.000000;2.767732
2408.000000;2.759387
2407.000000;2.622592
2406.000000;2.595418
2405.000000;2.705986
2404.000000;3.061430
2403.000000;3.438432
2402.000000;3.091015
2401.000000;2.765231
2400.000000;2.480407
2399.000000;2.326352
2398.000000;2.288283
2397.000000;2.308769
2396.000000;2.334530
2395.000000;2.356439
2394.000000;2.421217
2393.000000;2.613524
2392.000000;2.821658
2391.000000;2.571068
2390.000000;2.437237
2389.000000;2.444194
2388.000000;2.538578
2387.000000;2.632655
2386.000000;2.670822
2385.000000;2.696892
2384.000000;2.731320
2383.000000;2.791971
2382.000000;3.068713
2381.000000;3.203608
2380.000000;2.945328
2379.000000;2.869038
2378.000000;2.839424
2377.000000;2.790543
2376.000000;2.747553
2375.000000;2.727042
2374.000000;2.725948
2373.000000;2.804190
2372.000000;3.086472
2371.000000;3.255524
2370.000000;3.145599
2369.000000;3.156391
2368.000000;2.956535
2367.000000;2.796213
2366.000000;2.774797
2365.000000;2.883148
2364.000000;3.192255
2363.000000;3.797842
2362.000000;3.398148
2361.000000;3.181135
2360.000000;3.017584
2359.000000;2.902247
2358.000000;2.866368
2357.000000;2.927294
2356.000000;3.054854
2355.000000;3.171126
2354.000000;3.338394
2353.000000;3.069913
2352.000000;2.769486
2351.000000;2.733887
2350.000000;3.001019
2349.000000;3.459788
2348.000000;3.075895
2347.000000;2.930640
2346.000000;2.978856
2345.000000;3.159496
2344.000000;3.367253
2343.000000;3.133595
2342.000000;3.004703
2341.000000;3.021398
2340.000000;3.035557
2339.000000;2.970744
2338.000000;2.911564
2337.000000;2.871562
2336.000000;2.894752
2335.000000;2.993430
2334.000000;3.116657
2333.000000;3.188822
2332.000000;3.191727
2331.000000;3.171618
2330.000000;3.011347
2329.000000;2.853450
2328.000000;2.828915
2327.000000;2.891722
2326.000000;2.972843
2325.000000;3.028390
2324.000000;3.118369
2323.000000;3.268104
2322.000000;3.318574
2321.000000;3.254305
2320.000000;2.940117
2319.000000;2.748505
2318.000000;2.734822
2317.000000;2.806859
2316.000000;2.884154
2315.000000;3.009852
2314.000000;3.148640
2313.000000;2.858405
2312.000000;2.645702
2311.000000;2.545779
2310.000000;2.534407
2309.000000;2.643606
2308.000000;3.060310
2307.000000;3.171843
2306.000000;2.674951
2305.000000;2.555559
2304.000000;2.469536
2303.000000;2.481172
2302.000000;2.722929
2301.000000;3.096889
2300.000000;2.835157
2299.000000;2.833908
2298.000000;3.241329
2297.000000;3.213697
2296.000000;2.986764
2295.000000;2.891292
2294.000000;2.882964
2293.000000;2.934937
2292.000000;2.786201
2291.000000;2.620936
2290.000000;2.493927
2289.000000;2.381937
2288.000000;2.323531
2287.000000;2.354585
2286.000000;2.462718
2285.000000;2.533910
2284.000000;2.458116
2283.000000;2.380089
2282.000000;2.378190
2281.000000;2.450834
2280.000000;2.566948
2279.000000;2.654968
2278.000000;2.638021
2277.000000;2.571492
2276.000000;2.558917
2275.000000;2.696348
2274.000000;2.739164
2273.000000;2.516299
2272.000000;2.410377
2271.000000;2.439215
2270.000000;2.532832
2269.000000;2.576841
2268.000000;2.627235
2267.000000;2.715070
2266.000000;2.685425
2265.000000;2.644284
2264.000000;2.646585
2263.000000;2.636173
2262.000000;2.597611
2261.000000;2.526637
2260.000000;2.498478
2259.000000;2.606250
2258.000000;2.922101
2257.000000;2.864224
2256.000000;2.616744
2255.000000;2.529865
2254.000000;2.534634
2253.000000;2.671265
2252.000000;2.823508
2251.000000;2.723406
2250.000000;2.739748
2249.000000;2.786647
2248.000000;2.904080
2247.000000;2.969458
2246.000000;2.766935
2245.000000;3.199835
2244.000000;3.283063
2243.000000;2.839424
2242.000000;3.647175
2241.000000;2.975519
2240.000000;2.540581
2239.000000;2.439431
2238.000000;2.480957
2237.000000;2.707793
2236.000000;2.749182
2235.000000;2.538650
2234.000000;2.489625
2233.000000;2.598210
2232.000000;2.859562
2231.000000;3.422167
2230.000000;3.329296
2229.000000;3.016687
2228.000000;2.927800
2227.000000;2.879930
2226.000000;2.823608
2225.000000;2.667344
2224.000000;2.509681
2223.000000;2.465138
2222.000000;2.592286
2221.000000;2.876840
2220.000000;2.878391
2219.000000;2.914803
2218.000000;2.793856
2217.000000;2.514980
2216.000000;2.406762
2215.000000;2.375672
2214.000000;2.381867
2213.000000;2.427991
2212.000000;2.583028
2211.000000;2.740030
2210.000000;2.564361
2209.000000;2.441444
2208.000000;2.425016
2207.000000;2.472898
2206.000000;2.533816
2205.000000;2.465897
2204.000000;2.351508
2203.000000;2.336240
2202.000000;2.419678
2201.000000;2.505266
2200.000000;2.508383
2199.000000;2.442124
2198.000000;2.386384
2197.000000;2.468642
2196.000000;2.800260
2195.000000;2.809218
2194.000000;2.556162
2193.000000;2.572606
2192.000000;2.778031
2191.000000;3.336664
2190.000000;2.959094
2189.000000;2.712718
2188.000000;2.770640
2187.000000;3.187435
2186.000000;3.215636
2185.000000;2.836554
2184.000000;2.488212
2183.000000;2.307632
2182.000000;2.276038
2181.000000;2.343975
2180.000000;2.504681
2179.000000;2.828761
2178.000000;2.789290
2177.000000;2.457756
2176.000000;2.298698
2175.000000;2.242015
2174.000000;2.279866
2173.000000;2.398181
2172.000000;2.654300
2171.000000;3.042871
2170.000000;2.671411
2169.000000;2.427803
2168.000000;2.413156
2167.000000;2.518439
2166.000000;2.501023
2165.000000;2.429965
2164.000000;2.558152
2163.000000;2.919932
2162.000000;2.706181
2161.000000;2.569197
2160.000000;2.702613
2159.000000;3.394178
2158.000000;2.975366
2157.000000;2.628791
2156.000000;2.567714
2155.000000;2.657179
2154.000000;2.970062
2153.000000;2.912634
2152.000000;2.784305
2151.000000;2.906632
2150.000000;3.388964
2149.000000;3.294959
2148.000000;2.858819
2147.000000;2.686171
2146.000000;2.660891
2145.000000;2.691113
2144.000000;2.623021
2143.000000;2.539636
2142.000000;2.514691
2141.000000;2.553749
2140.000000;2.719872
2139.000000;2.959459
2138.000000;2.858196
2137.000000;2.737480
2136.000000;2.644162
2135.000000;2.567315
2134.000000;2.626123
2133.000000;2.855119
2132.000000;3.211264
2131.000000;3.210456
2130.000000;3.019526
2129.000000;2.824939
2128.000000;2.683607
2127.000000;2.567113
2126.000000;2.486608
2125.000000;2.546707
2124.000000;2.899832
2123.000000;3.538395
2122.000000;3.086184
2121.000000;3.334332
2120.000000;2.742355
2119.000000;2.557089
2118.000000;2.511806
2117.000000;2.587653
2116.000000;2.643675
2115.000000;2.595016
2114.000000;2.608839
2113.000000;2.754848
2112.000000;3.043795
2111.000000;3.117796
2110.000000;3.441379
2109.000000;3.207598
2108.000000;2.666636
2107.000000;2.478799
2106.000000;2.454309
2105.000000;2.501822
2104.000000;2.515401
2103.000000;2.569002
2102.000000;2.728611
2101.000000;2.955937
2100.000000;2.958019
2099.000000;2.782480
2098.000000;2.603279
2097.000000;2.475518
2096.000000;2.418011
2095.000000;2.425029
2094.000000;2.465982
2093.000000;2.487937
2092.000000;2.489898
2091.000000;2.545155
2090.000000;2.737320
2089.000000;3.134325
2088.000000;3.280472
2087.000000;2.976025
2086.000000;2.911984
2085.000000;3.125193
2084.000000;3.014087
2083.000000;2.755465
2082.000000;2.655037
2081.000000;2.612799
2080.000000;2.675739
2079.000000;2.922280
2078.000000;3.412935
2077.000000;2.928056
2076.000000;2.810368
2075.000000;2.972601
2074.000000;2.589978
2073.000000;2.360332
2072.000000;2.297897
2071.000000;2.327319
2070.000000;2.413787
2069.000000;2.546592
2068.000000;2.679398
2067.000000;2.757332
2066.000000;2.837716
2065.000000;2.901350
2064.000000;2.775380
2063.000000;2.664240
2062.000000;2.683617
2061.000000;2.816503
2060.000000;3.035430
2059.000000;2.874898
2058.000000;2.601799
2057.000000;2.509245
2056.000000;2.597191
2055.000000;2.769188
2054.000000;2.547923
2053.000000;2.335898
2052.000000;2.244703
2051.000000;2.226294
2050.000000;2.278340
2049.000000;2.374615
2048.000000;2.478240
2047.000000;2.612549
2046.000000;2.827840
2045.000000;2.974850
2044.000000;2.866736
2043.000000;2.633765
2042.000000;2.483153
2041.000000;2.437225
2040.000000;2.446568
2039.000000;2.425989
2038.000000;2.477267
2037.000000;2.642972
2036.000000;2.612027
2035.000000;2.516723
2034.000000;2.489199
2033.000000;2.387940
2032.000000;2.301540
2031.000000;2.322344
2030.000000;2.458296
2029.000000;2.657422
2028.000000;2.792222
2027.000000;2.806776
2026.000000;2.826110
2025.000000;3.190254
2024.000000;3.144403
2023.000000;2.918724
2022.000000;2.851668
2021.000000;2.646447
2020.000000;2.587128
2019.000000;2.773416
2018.000000;2.954210
2017.000000;2.751328
2016.000000;2.774250
2015.000000;3.069444
2014.000000;3.409997
2013.000000;3.005431
2012.000000;2.935452
2011.000000;2.889509
2010.000000;2.979803
2009.000000;3.106822
2008.000000;2.874027
2007.000000;2.692491
2006.000000;2.596554
2005.000000;2.546713
2004.000000;2.550774
2003.000000;2.661545
2002.000000;2.743881
2001.000000;2.487223
2000.000000;2.335090
1999.000000;2.376618
1998.000000;2.724419
1997.000000;2.965063
1996.000000;2.888565
1995.000000;3.169516
1994.000000;2.622095
1993.000000;2.530005
1992.000000;2.816834
1991.000000;2.843042
1990.000000;2.824647
1989.000000;3.104203
1988.000000;2.574282
1987.000000;2.443326
1986.000000;2.470351
1985.000000;2.597387
1984.000000;2.738160
1983.000000;2.813456
1982.000000;2.740802
1981.000000;2.595229
1980.000000;2.663809
1979.000000;3.016656
1978.000000;2.795944
1977.000000;2.590860
1976.000000;3.009530
1975.000000;3.095086
1974.000000;2.609390
1973.000000;2.459274
1972.000000;2.368825
1971.000000;2.303289
1970.000000;2.271729
1969.000000;2.327357
1968.000000;2.557715
1967.000000;2.858888
1966.000000;2.492583
1965.000000;2.326862
1964.000000;2.300394
1963.000000;2.353565
1962.000000;2.442059
1961.000000;2.505508
1960.000000;2.508103
1959.000000;2.481894
1958.000000;2.457558
1957.000000;2.456292
1956.000000;2.520457
1955.000000;2.798920
1954.000000;3.081892
1953.000000;2.708526
1952.000000;2.620809
1951.000000;2.652760
1950.000000;3.065450
1949.000000;3.158869
1948.000000;2.600310
1947.000000;2.432106
1946.000000;2.423766
1945.000000;2.522373
1944.000000;2.516634
1943.000000;2.434787
1942.000000;2.454513
1941.000000;2.603440
1940.000000;2.771566
1939.000000;2.845125
1938.000000;2.978838
1937.000000;3.208649
1936.000000;3.161776
1935.000000;2.766309
1934.000000;2.771019
1933.000000;3.248588
1932.000000;2.560366
1931.000000;2.288608
1930.000000;2.205323
1929.000000;2.235571
1928.000000;2.355932
1927.000000;2.560044
1926.000000;2.767397
1925.000000;2.823238
1924.000000;2.721771
1923.000000;2.584289
1922.000000;2.512562
1921.000000;2.545937
1920.000000;2.637223
1919.000000;2.600345
1918.000000;2.542937
1917.000000;2.601809
1916.000000;2.841858
1915.000000;2.665134
1914.000000;2.505832
1913.000000;2.599735
1912.000000;2.925552
1911.000000;2.701246
1910.000000;2.454512
1909.000000;2.341285
1908.000000;2.318217
1907.000000;2.385425
1906.000000;2.492161
1905.000000;2.550965
1904.000000;2.658354
1903.000000;3.039106
1902.000000;4.042764
1901.000000;3.517244
1900.000000;2.964483
1899.000000;2.595980
1898.000000;2.479894
1897.000000;2.491213
1896.000000;2.650229
1895.000000;2.891146
1894.000000;2.698079
1893.000000;2.511662
1892.000000;2.532127
1891.000000;2.614338
1890.000000;2.591070
1889.000000;2.447937
1888.000000;2.244160
1887.000000;2.135227
1886.000000;2.179923
1885.000000;2.395721
1884.000000;2.844126
1883.000000;2.895851
1882.000000;2.832870
1881.000000;3.035830
1880.000000;3.553295
1879.000000;3.235538
1878.000000;2.830471
1877.000000;2.575801
1876.000000;2.452926
1875.000000;2.392605
1874.000000;2.321882
1873.000000;2.290289
1872.000000;2.335606
1871.000000;2.776280
1870.000000;2.856396
1869.000000;2.362508
1868.000000;2.325765
1867.000000;2.472081
1866.000000;3.050642
1865.000000;2.692887
1864.000000;2.464889
1863.000000;2.540573
1862.000000;2.797597
1861.000000;3.305570
1860.000000;2.857929
1859.000000;2.734205
1858.000000;2.952771
1857.000000;2.975332
1856.000000;2.694903
1855.000000;2.657387
1854.000000;2.761636
1853.000000;2.908505
1852.000000;3.183077
1851.000000;3.718968
1850.000000;2.834169
1849.000000;2.577108
1848.000000;2.475153
1847.000000;2.411827
1846.000000;2.366185
1845.000000;2.383910
1844.000000;2.474916
1843.000000;2.621351
1842.000000;2.739772
1841.000000;2.761233
1840.000000;2.751984
1839.000000;2.743169
1838.000000;2.732679
1837.000000;2.635233
1836.000000;2.515625
1835.000000;2.489411
1834.000000;2.578886
1833.000000;2.726927
1832.000000;2.768007
1831.000000;2.688242
1830.000000;2.606048
1829.000000;2.593205
1828.000000;2.790662
1827.000000;3.089117
1826.000000;2.582375
1825.000000;2.440339
1824.000000;2.440160
1823.000000;2.498102
1822.000000;2.545255
1821.000000;2.616955
1820.000000;2.705097
1819.000000;3.129619
1818.000000;3.350317
1817.000000;2.737660
1816.000000;2.681727
1815.000000;2.784722
1814.000000;2.933993
1813.000000;2.797827
1812.000000;2.525877
1811.000000;2.336256
1810.000000;2.255849
1809.000000;2.266655
1808.000000;2.348426
1807.000000;2.502658
1806.000000;2.815833
1805.000000;3.391688
1804.000000;2.784853
1803.000000;2.645503
1802.000000;2.780954
1801.000000;2.896929
1800.000000;2.570631
1799.000000;2.379130
1798.000000;2.299547
1797.000000;2.304459
1796.000000;2.380403
1795.000000;2.446975
1794.000000;2.444547
1793.000000;2.485937
1792.000000;2.648703
1791.000000;3.035800
1790.000000;3.215432
1789.000000;2.860523
1788.000000;2.649070
1787.000000;2.507866
1786.000000;2.436039
1785.000000;2.409084
1784.000000;2.440498
1783.000000;2.471790
1782.000000;2.419553
1781.000000;2.351608
1780.000000;2.298472
1779.000000;2.254697
1778.000000;2.260205
1777.000000;2.336152
1776.000000;2.397361
1775.000000;2.378818
1774.000000;2.427535
1773.000000;2.586546
1772.000000;2.562943
1771.000000;2.611186
1770.000000;3.032677
1769.000000;2.636253
1768.000000;2.404978
1767.000000;2.378200
1766.000000;2.605620
1765.000000;2.973163
1764.000000;2.453332
1763.000000;2.226192
1762.000000;2.177430
1761.000000;2.198554
1760.000000;2.277699
1759.000000;2.434415
1758.000000;2.751627
1757.000000;2.781986
1756.000000;2.573265
1755.000000;2.538114
1754.000000;2.682708
1753.000000;3.116962
1752.000000;2.816779
1751.000000;2.516619
1750.000000;2.404105
1749.000000;2.423937
1748.000000;2.669666
1747.000000;3.434897
1746.000000;2.790344
1745.000000;2.564193
1744.000000;2.504932
1743.000000;2.566645
1742.000000;2.808950
1741.000000;2.812411
1740.000000;2.508511
1739.000000;2.355721
1738.000000;2.335414
1737.000000;2.518137
1736.000000;3.044053
1735.000000;3.706211
1734.000000;3.001759
1733.000000;2.554909
1732.000000;2.334087
1731.000000;2.253766
1730.000000;2.224896
1729.000000;2.255781
1728.000000;2.388880
1727.000000;2.683664
1726.000000;3.312310
1725.000000;2.927581
1724.000000;2.731844
1723.000000;2.768389
1722.000000;3.015416
1721.000000;3.157759
1720.000000;2.800857
1719.000000;2.646050
1718.000000;2.566650
1717.000000;2.501818
1716.000000;2.478389
1715.000000;2.498712
1714.000000;2.456165
1713.000000;2.367893
1712.000000;2.295885
1711.000000;2.240490
1710.000000;2.205578
1709.000000;2.176937
1708.000000;2.175564
1707.000000;2.237497
1706.000000;2.218346
1705.000000;2.107087
1704.000000;2.093407
1703.000000;2.248621
1702.000000;2.578346
1701.000000;2.646316
1700.000000;2.635379
1699.000000;2.849762
1698.000000;3.470417
1697.000000;3.292209
1696.000000;2.976148
1695.000000;3.521305
1694.000000;2.599352
1693.000000;2.324755
1692.000000;2.320444
1691.000000;2.444904
1690.000000;2.586282
1689.000000;2.628060
1688.000000;2.488203
1687.000000;2.320511
1686.000000;2.229892
1685.000000;2.199738
1684.000000;2.217753
1683.000000;2.273248
1682.000000;2.293284
1681.000000;2.222207
1680.000000;2.230333
1679.000000;2.480158
1678.000000;2.744282
1677.000000;2.650540
1676.000000;2.613240
1675.000000;2.521547
1674.000000;2.412909
1673.000000;2.376049
1672.000000;2.411008
1671.000000;2.426807
1670.000000;2.368043
1669.000000;2.360060
1668.000000;2.497016
1667.000000;2.910998
1666.000000;3.120926
1665.000000;2.741687
1664.000000;2.778806
1663.000000;2.956389
1662.000000;3.257533
1661.000000;3.744688
1660.000000;3.189093
1659.000000;3.210955
1658.000000;3.077582
1657.000000;2.676900
1656.000000;2.489560
1655.000000;2.421509
1654.000000;2.524661
1653.000000;2.674317
1652.000000;2.305982
1651.000000;2.059752
1650.000000;2.063647
1649.000000;2.158766
1648.000000;2.239236
1647.000000;2.290699
1646.000000;2.455390
1645.000000;3.112685
1644.000000;2.866944
1643.000000;2.656880
1642.000000;2.731078
1641.000000;2.771240
1640.000000;2.648834
1639.000000;2.500162
1638.000000;2.368680
1637.000000;2.259960
1636.000000;2.191082
1635.000000;2.180107
1634.000000;2.261870
1633.000000;2.482296
1632.000000;2.867190
1631.000000;3.151762
1630.000000;3.176501
1629.000000;3.100370
1628.000000;3.093123
1627.000000;3.000412
1626.000000;2.818592
1625.000000;2.762566
1624.000000;2.794640
1623.000000;3.073725
1622.000000;3.059435
1621.000000;2.840883
1620.000000;3.205831
1619.000000;3.057784
1618.000000;2.728663
1617.000000;2.611157
1616.000000;2.518602
1615.000000;2.491915
1614.000000;2.465269
1613.000000;2.400006
1612.000000;2.387924
1611.000000;2.484714
1610.000000;2.762761
1609.000000;2.830856
1608.000000;2.726714
1607.000000;3.069625
1606.000000;2.847423
1605.000000;2.557546
1604.000000;2.652956
1603.000000;2.819151
1602.000000;2.666136
1601.000000;2.478215
1600.000000;2.399905
1599.000000;2.371652
1598.000000;2.333322
1597.000000;2.279445
1596.000000;2.275411
1595.000000;2.367316
1594.000000;2.533067
1593.000000;2.637943
1592.000000;2.843035
1591.000000;3.004357
1590.000000;2.643493
1589.000000;2.526673
1588.000000;2.569894
1587.000000;2.605488
1586.000000;2.542543
1585.000000;2.477958
1584.000000;2.520090
1583.000000;2.648323
1582.000000;2.658610
1581.000000;2.532351
1580.000000;2.452361
1579.000000;2.449929
1578.000000;2.551053
1577.000000;2.675256
1576.000000;2.637243
1575.000000;2.550177
1574.000000;2.562778
1573.000000;2.628637
1572.000000;2.577555
1571.000000;2.539862
1570.000000;2.616149
1569.000000;2.743558
1568.000000;2.586044
1567.000000;2.413550
1566.000000;2.422221
1565.000000;2.603290
1564.000000;3.087723
1563.000000;2.754145
1562.000000;2.508812
1561.000000;2.518939
1560.000000;2.658585
1559.000000;2.772260
1558.000000;2.418396
1557.000000;2.235089
1556.000000;2.306090
1555.000000;2.470369
1554.000000;2.581597
1553.000000;2.576022
1552.000000;2.570938
1551.000000;2.753413
1550.000000;3.048761
1549.000000;2.837338
1548.000000;2.604266
1547.000000;2.393771
1546.000000;2.272615
1545.000000;2.252539
1544.000000;2.264940
1543.000000;2.268341
1542.000000;2.268710
1541.000000;2.299693
1540.000000;2.350655
1539.000000;2.420691
1538.000000;2.520150
1537.000000;2.574128
1536.000000;2.670817
1535.000000;2.904071
1534.000000;2.893078
1533.000000;2.675833
1532.000000;2.552858
1531.000000;2.544908
1530.000000;2.540994
1529.000000;2.447607
1528.000000;2.363551
1527.000000;2.495337
1526.000000;2.918287
1525.000000;2.541886
1524.000000;2.256524
1523.000000;2.247930
1522.000000;2.392263
1521.000000;2.641994
1520.000000;2.722441
1519.000000;2.808666
1518.000000;2.839130
1517.000000;2.733681
1516.000000;3.183331
1515.000000;2.979592
1514.000000;2.549937
1513.000000;2.420047
1512.000000;2.314806
1511.000000;2.247702
1510.000000;2.244610
1509.000000;2.320506
1508.000000;2.441393
1507.000000;2.441054
1506.000000;2.259621
1505.000000;2.098468
1504.000000;2.022384
1503.000000;2.040494
1502.000000;2.171453
1501.000000;2.311012
1500.000000;2.297258
1499.000000;2.247532
1498.000000;2.276711
1497.000000;2.399712
1496.000000;2.542135
1495.000000;2.621575
1494.000000;2.693553
1493.000000;2.715992
1492.000000;2.640663
1491.000000;2.567493
1490.000000;2.496307
1489.000000;2.523797
1488.000000;2.988957
1487.000000;2.955936
1486.000000;2.608790
1485.000000;2.619328
1484.000000;2.737699
1483.000000;2.937809
1482.000000;2.880475
1481.000000;2.704311
1480.000000;2.540269
1479.000000;2.377292
1478.000000;2.301918
1477.000000;2.339765
1476.000000;2.422123
1475.000000;2.449978
1474.000000;2.471419
1473.000000;2.743081
1472.000000;3.240474
1471.000000;2.798134
1470.000000;2.699447
1469.000000;2.726457
1468.000000;2.641900
1467.000000;2.567740
1466.000000;2.531936
1465.000000;2.528890
1464.000000;2.555569
1463.000000;2.777763
1462.000000;3.180673
1461.000000;2.720350
1460.000000;2.470427
1459.000000;2.380509
1458.000000;2.290623
1457.000000;2.229407
1456.000000;2.244336
1455.000000;2.378994
1454.000000;2.678689
1453.000000;2.789112
1452.000000;2.514816
1451.000000;2.433996
1450.000000;2.508754
1449.000000;2.712647
1448.000000;2.769286
1447.000000;2.559647
1446.000000;2.489016
1445.000000;2.605117
1444.000000;3.087043
1443.000000;3.021311
1442.000000;2.584406
1441.000000;2.527711
1440.000000;2.660032
1439.000000;2.941098
1438.000000;2.739260
1437.000000;2.500894
1436.000000;2.454429
1435.000000;2.543390
1434.000000;2.807438
1433.000000;2.939554
1432.000000;2.719642
1431.000000;2.480376
1430.000000;2.342148
1429.000000;2.350802
1428.000000;2.481745
1427.000000;2.590998
1426.000000;2.597646
1425.000000;2.556082
1424.000000;2.471256
1423.000000;2.416325
1422.000000;2.466561
1421.000000;2.587928
1420.000000;2.662485
1419.000000;2.666986
1418.000000;2.618356
1417.000000;2.599473
1416.000000;2.703971
1415.000000;2.877303
1414.000000;3.033887
1413.000000;3.287153
1412.000000;3.021167
1411.000000;2.685019
1410.000000;2.632865
1409.000000;2.712609
1408.000000;2.720438
1407.000000;2.685233
1406.000000;2.767087
1405.000000;2.948052
1404.000000;3.131911
1403.000000;3.010724
1402.000000;2.906863
1401.000000;3.189932
1400.000000;2.945608
1399.000000;2.568273
1398.000000;2.556354
1397.000000;2.767783
1396.000000;2.635450
1395.000000;2.428019
1394.000000;2.596826
1393.000000;2.977326
1392.000000;2.554307
1391.000000;2.454559
1390.000000;2.613599
1389.000000;2.839530
1388.000000;3.257344
1387.000000;2.873061
1386.000000;2.522249
1385.000000;2.584023
1384.000000;2.698524
1383.000000;2.487682
1382.000000;2.354768
1381.000000;2.356152
1380.000000;2.492700
1379.000000;2.802116
1378.000000;3.147766
1377.000000;3.056265
1376.000000;2.561998
1375.000000;2.283641
1374.000000;2.223552
1373.000000;2.350650
1372.000000;2.788726
1371.000000;3.269363
1370.000000;2.631219
1369.000000;2.381345
1368.000000;2.279503
1367.000000;2.267801
1366.000000;2.339641
1365.000000;2.430678
1364.000000;2.505764
1363.000000;2.559251
1362.000000;2.683654
1361.000000;3.131952
1360.000000;3.115300
1359.000000;2.700708
1358.000000;2.564346
1357.000000;2.434103
1356.000000;2.311864
1355.000000;2.260072
1354.000000;2.302642
1353.000000;2.490288
1352.000000;2.835624
1351.000000;2.690850
1350.000000;2.494973
1349.000000;2.538790
1348.000000;2.875126
1347.000000;3.107324
1346.000000;2.651826
1345.000000;2.594841
1344.000000;2.684071
1343.000000;2.578240
1342.000000;2.496431
1341.000000;2.547383
1340.000000;2.572033
1339.000000;2.553374
1338.000000;2.634030
1337.000000;2.560808
1336.000000;2.413303
1335.000000;2.408728
1334.000000;2.448133
1333.000000;2.462472
1332.000000;2.513141
1331.000000;2.484655
1330.000000;2.361171
1329.000000;2.302012
1328.000000;2.353753
1327.000000;2.487345
1326.000000;2.752892
1325.000000;3.428283
1324.000000;3.141989
1323.000000;2.841013
1322.000000;3.005630
1321.000000;3.070215
1320.000000;2.722085
1319.000000;2.575666
1318.000000;2.785687
1317.000000;3.130613
1316.000000;2.711172
1315.000000;2.627258
1314.000000;2.851677
1313.000000;3.012267
1312.000000;2.774662
1311.000000;2.598043
1310.000000;2.492653
1309.000000;2.426392
1308.000000;2.461864
1307.000000;2.607787
1306.000000;2.773475
1305.000000;2.806963
1304.000000;2.702873
1303.000000;2.535207
1302.000000;2.440966
1301.000000;2.440768
1300.000000;2.541174
1299.000000;2.646709
1298.000000;2.626385
1297.000000;2.615877
1296.000000;2.692382
1295.000000;2.790136
1294.000000;2.684868
1293.000000;2.508526
1292.000000;2.436093
1291.000000;2.442250
1290.000000;2.463686
1289.000000;2.476658
1288.000000;2.559361
1287.000000;2.728585
1286.000000;2.925339
1285.000000;2.915561
1284.000000;2.687348
1283.000000;2.614125
1282.000000;2.766617
1281.000000;3.283337
1280.000000;3.234371
1279.000000;2.809175
1278.000000;2.657908
1277.000000;2.682795
1276.000000;2.847054
1275.000000;2.628458
1274.000000;2.449871
1273.000000;2.509300
1272.000000;2.670652
1271.000000;2.693085
1270.000000;2.673957
1269.000000;2.985110
1268.000000;3.068132
1267.000000;2.618150
1266.000000;2.467178
1265.000000;2.421854
1264.000000;2.395660
1263.000000;2.433263
1262.000000;2.489925
1261.000000;2.524497
1260.000000;2.523241
1259.000000;2.783961
1258.000000;3.037010
1257.000000;2.473512
1256.000000;2.311334
1255.000000;2.326973
1254.000000;2.432100
1253.000000;2.645549
1252.000000;3.003412
1251.000000;3.914428
1250.000000;3.302406
1249.000000;2.811813
1248.000000;2.620913
1247.000000;2.551070
1246.000000;2.543193
1245.000000;2.579663
1244.000000;2.628849
1243.000000;2.651015
1242.000000;2.629683
1241.000000;2.643676
1240.000000;2.719661
1239.000000;2.894803
1238.000000;3.367351
1237.000000;3.142715
1236.000000;2.683987
1235.000000;2.491265
1234.000000;2.482111
1233.000000;2.615691
1232.000000;2.567897
1231.000000;2.445991
1230.000000;2.493314
1229.000000;2.631766
1228.000000;2.706049
1227.000000;2.678480
1226.000000;2.657438
1225.000000;2.572870
1224.000000;2.446785
1223.000000;2.400974
1222.000000;2.491098
1221.000000;2.710187
1220.000000;2.707106
1219.000000;2.547859
1218.000000;2.462274
1217.000000;2.370700
1216.000000;2.277766
1215.000000;2.215596
1214.000000;2.206799
1213.000000;2.269168
1212.000000;2.430319
1211.000000;2.735491
1210.000000;2.949279
1209.000000;2.942258
1208.000000;3.067948
1207.000000;2.914536
1206.000000;2.727524
1205.000000;2.651283
1204.000000;2.664888
1203.000000;2.712848
1202.000000;2.813334
1201.000000;3.143383
1200.000000;3.271069
