Criado como novo conjunto de dados;"2706_e01_daniel.spp","95947.0 Secs"
cm-1;Abs
10000.000000;0.862086
9999.000000;0.861790
9998.000000;0.861494
9997.000000;0.861312
9996.000000;0.861488
9995.000000;0.862035
9994.000000;0.862604
9993.000000;0.862863
9992.000000;0.862802
9991.000000;0.862545
9990.000000;0.862062
9989.000000;0.861306
9988.000000;0.860528
9987.000000;0.860168
9986.000000;0.860395
9985.000000;0.860883
9984.000000;0.861102
9983.000000;0.860761
9982.000000;0.859968
9981.000000;0.859098
9980.000000;0.858566
9979.000000;0.858631
9978.000000;0.859263
9977.000000;0.860145
9976.000000;0.860885
9975.000000;0.861299
9974.000000;0.861471
9973.000000;0.861537
9972.000000;0.861447
9971.000000;0.861048
9970.000000;0.860372
9969.000000;0.859721
9968.000000;0.859386
9967.000000;0.859363
9966.000000;0.859412
9965.000000;0.859310
9964.000000;0.858970
9963.000000;0.858376
9962.000000;0.857603
9961.000000;0.856886
9960.000000;0.856546
9959.000000;0.856745
9958.000000;0.857348
9957.000000;0.858023
9956.000000;0.858439
9955.000000;0.858406
9954.000000;0.857951
9953.000000;0.857294
9952.000000;0.856688
9951.000000;0.856269
9950.000000;0.856095
9949.000000;0.856245
9948.000000;0.856714
9947.000000;0.857218
9946.000000;0.857347
9945.000000;0.857027
9944.000000;0.856675
9943.000000;0.856721
9942.000000;0.857070
9941.000000;0.857226
9940.000000;0.856920
9939.000000;0.856451
9938.000000;0.856340
9937.000000;0.856761
9936.000000;0.857405
9935.000000;0.857815
9934.000000;0.857782
9933.000000;0.857420
9932.000000;0.856961
9931.000000;0.856576
9930.000000;0.856365
9929.000000;0.856364
9928.000000;0.856470
9927.000000;0.856411
9926.000000;0.855953
9925.000000;0.855176
9924.000000;0.854451
9923.000000;0.854112
9922.000000;0.854217
9921.000000;0.854609
9920.000000;0.855064
9919.000000;0.855355
9918.000000;0.855318
9917.000000;0.854996
9916.000000;0.854645
9915.000000;0.854460
9914.000000;0.854381
9913.000000;0.854266
9912.000000;0.854194
9911.000000;0.854387
9910.000000;0.854803
9909.000000;0.855010
9908.000000;0.854602
9907.000000;0.853662
9906.000000;0.852708
9905.000000;0.852196
9904.000000;0.852165
9903.000000;0.852326
9902.000000;0.852400
9901.000000;0.852334
9900.000000;0.852260
9899.000000;0.852315
9898.000000;0.852495
9897.000000;0.852684
9896.000000;0.852800
9895.000000;0.852902
9894.000000;0.853096
9893.000000;0.853364
9892.000000;0.853536
9891.000000;0.853478
9890.000000;0.853237
9889.000000;0.852968
9888.000000;0.852778
9887.000000;0.852727
9886.000000;0.852886
9885.000000;0.853247
9884.000000;0.853569
9883.000000;0.853500
9882.000000;0.852931
9881.000000;0.852114
9880.000000;0.851385
9879.000000;0.850891
9878.000000;0.850661
9877.000000;0.850734
9876.000000;0.851038
9875.000000;0.851235
9874.000000;0.850961
9873.000000;0.850250
9872.000000;0.849578
9871.000000;0.849404
9870.000000;0.849748
9869.000000;0.850228
9868.000000;0.850440
9867.000000;0.850305
9866.000000;0.850105
9865.000000;0.850168
9864.000000;0.850470
9863.000000;0.850618
9862.000000;0.850303
9861.000000;0.849685
9860.000000;0.849163
9859.000000;0.848876
9858.000000;0.848629
9857.000000;0.848282
9856.000000;0.847938
9855.000000;0.847725
9854.000000;0.847646
9853.000000;0.847719
9852.000000;0.848026
9851.000000;0.848489
9850.000000;0.848830
9849.000000;0.848921
9848.000000;0.848981
9847.000000;0.849234
9846.000000;0.849541
9845.000000;0.849622
9844.000000;0.849507
9843.000000;0.849485
9842.000000;0.849638
9841.000000;0.849691
9840.000000;0.849362
9839.000000;0.848656
9838.000000;0.847795
9837.000000;0.847039
9836.000000;0.846632
9835.000000;0.846735
9834.000000;0.847276
9833.000000;0.847938
9832.000000;0.848400
9831.000000;0.848562
9830.000000;0.848488
9829.000000;0.848219
9828.000000;0.847734
9827.000000;0.847067
9826.000000;0.846376
9825.000000;0.845851
9824.000000;0.845558
9823.000000;0.845427
9822.000000;0.845437
9821.000000;0.845741
9820.000000;0.846459
9819.000000;0.847327
9818.000000;0.847752
9817.000000;0.847372
9816.000000;0.846468
9815.000000;0.845664
9814.000000;0.845293
9813.000000;0.845257
9812.000000;0.845415
9811.000000;0.845840
9810.000000;0.846596
9809.000000;0.847474
9808.000000;0.848079
9807.000000;0.848134
9806.000000;0.847614
9805.000000;0.846702
9804.000000;0.845696
9803.000000;0.844910
9802.000000;0.844548
9801.000000;0.844640
9800.000000;0.845075
9799.000000;0.845613
9798.000000;0.845917
9797.000000;0.845734
9796.000000;0.845144
9795.000000;0.844535
9794.000000;0.844232
9793.000000;0.844183
9792.000000;0.844068
9791.000000;0.843689
9790.000000;0.843201
9789.000000;0.842970
9788.000000;0.843236
9787.000000;0.843885
9786.000000;0.844529
9785.000000;0.844881
9784.000000;0.845017
9783.000000;0.845205
9782.000000;0.845481
9781.000000;0.845545
9780.000000;0.845152
9779.000000;0.844473
9778.000000;0.843944
9777.000000;0.843798
9776.000000;0.843869
9775.000000;0.843824
9774.000000;0.843523
9773.000000;0.843132
9772.000000;0.842934
9771.000000;0.843062
9770.000000;0.843429
9769.000000;0.843906
9768.000000;0.844463
9767.000000;0.845038
9766.000000;0.845356
9765.000000;0.845137
9764.000000;0.844523
9763.000000;0.844027
9762.000000;0.843892
9761.000000;0.843725
9760.000000;0.843056
9759.000000;0.842105
9758.000000;0.841631
9757.000000;0.842019
9756.000000;0.842857
9755.000000;0.843505
9754.000000;0.843782
9753.000000;0.843876
9752.000000;0.843880
9751.000000;0.843707
9750.000000;0.843380
9749.000000;0.843083
9748.000000;0.842860
9747.000000;0.842495
9746.000000;0.841814
9745.000000;0.841008
9744.000000;0.840515
9743.000000;0.840599
9742.000000;0.841089
9741.000000;0.841555
9740.000000;0.841712
9739.000000;0.841592
9738.000000;0.841355
9737.000000;0.841042
9736.000000;0.840614
9735.000000;0.840145
9734.000000;0.839792
9733.000000;0.839566
9732.000000;0.839317
9731.000000;0.839017
9730.000000;0.838903
9729.000000;0.839185
9728.000000;0.839744
9727.000000;0.840255
9726.000000;0.840541
9725.000000;0.840651
9724.000000;0.840662
9723.000000;0.840590
9722.000000;0.840481
9721.000000;0.840402
9720.000000;0.840321
9719.000000;0.840138
9718.000000;0.839874
9717.000000;0.839663
9716.000000;0.839522
9715.000000;0.839295
9714.000000;0.838884
9713.000000;0.838414
9712.000000;0.838061
9711.000000;0.837826
9710.000000;0.837562
9709.000000;0.837179
9708.000000;0.836742
9707.000000;0.836453
9706.000000;0.836567
9705.000000;0.837195
9704.000000;0.838075
9703.000000;0.838658
9702.000000;0.838603
9701.000000;0.838129
9700.000000;0.837724
9699.000000;0.837570
9698.000000;0.837452
9697.000000;0.837216
9696.000000;0.837081
9695.000000;0.837343
9694.000000;0.837907
9693.000000;0.838305
9692.000000;0.838168
9691.000000;0.837601
9690.000000;0.837061
9689.000000;0.836956
9688.000000;0.837334
9687.000000;0.837894
9686.000000;0.838227
9685.000000;0.838124
9684.000000;0.837715
9683.000000;0.837337
9682.000000;0.837232
9681.000000;0.837370
9680.000000;0.837529
9679.000000;0.837524
9678.000000;0.837353
9677.000000;0.837144
9676.000000;0.837011
9675.000000;0.836949
9674.000000;0.836820
9673.000000;0.836467
9672.000000;0.835902
9671.000000;0.835381
9670.000000;0.835224
9669.000000;0.835510
9668.000000;0.835981
9667.000000;0.836287
9666.000000;0.836274
9665.000000;0.836021
9664.000000;0.835668
9663.000000;0.835301
9662.000000;0.834938
9661.000000;0.834545
9660.000000;0.834102
9659.000000;0.833744
9658.000000;0.833738
9657.000000;0.834212
9656.000000;0.834920
9655.000000;0.835447
9654.000000;0.835631
9653.000000;0.835709
9652.000000;0.835994
9651.000000;0.836500
9650.000000;0.836899
9649.000000;0.836763
9648.000000;0.835887
9647.000000;0.834480
9646.000000;0.833086
9645.000000;0.832203
9644.000000;0.831969
9643.000000;0.832227
9642.000000;0.832803
9641.000000;0.833519
9640.000000;0.834045
9639.000000;0.834074
9638.000000;0.833737
9637.000000;0.833570
9636.000000;0.833865
9635.000000;0.834268
9634.000000;0.834233
9633.000000;0.833713
9632.000000;0.833146
9631.000000;0.832858
9630.000000;0.832781
9629.000000;0.832709
9628.000000;0.832582
9627.000000;0.832445
9626.000000;0.832344
9625.000000;0.832336
9624.000000;0.832484
9623.000000;0.832739
9622.000000;0.832932
9621.000000;0.832954
9620.000000;0.832876
9619.000000;0.832830
9618.000000;0.832827
9617.000000;0.832741
9616.000000;0.832484
9615.000000;0.832147
9614.000000;0.831947
9613.000000;0.831999
9612.000000;0.832139
9611.000000;0.832071
9610.000000;0.831706
9609.000000;0.831255
9608.000000;0.830941
9607.000000;0.830751
9606.000000;0.830577
9605.000000;0.830483
9604.000000;0.830613
9603.000000;0.830894
9602.000000;0.831054
9601.000000;0.830972
9600.000000;0.830812
9599.000000;0.830760
9598.000000;0.830796
9597.000000;0.830825
9596.000000;0.830884
9595.000000;0.831049
9594.000000;0.831232
9593.000000;0.831222
9592.000000;0.830953
9591.000000;0.830624
9590.000000;0.830487
9589.000000;0.830560
9588.000000;0.830611
9587.000000;0.830467
9586.000000;0.830279
9585.000000;0.830355
9584.000000;0.830718
9583.000000;0.830964
9582.000000;0.830667
9581.000000;0.829883
9580.000000;0.829109
9579.000000;0.828766
9578.000000;0.828866
9577.000000;0.829164
9576.000000;0.829456
9575.000000;0.829663
9574.000000;0.829759
9573.000000;0.829745
9572.000000;0.829662
9571.000000;0.829555
9570.000000;0.829432
9569.000000;0.829298
9568.000000;0.829196
9567.000000;0.829192
9566.000000;0.829305
9565.000000;0.829477
9564.000000;0.829617
9563.000000;0.829685
9562.000000;0.829724
9561.000000;0.829773
9560.000000;0.829741
9559.000000;0.829447
9558.000000;0.828844
9557.000000;0.828132
9556.000000;0.827594
9555.000000;0.827377
9554.000000;0.827478
9553.000000;0.827827
9552.000000;0.828266
9551.000000;0.828512
9550.000000;0.828338
9549.000000;0.827822
9548.000000;0.827298
9547.000000;0.827069
9546.000000;0.827221
9545.000000;0.827666
9544.000000;0.828192
9543.000000;0.828505
9542.000000;0.828405
9541.000000;0.828022
9540.000000;0.827700
9539.000000;0.827590
9538.000000;0.827462
9537.000000;0.827002
9536.000000;0.826214
9535.000000;0.825417
9534.000000;0.824928
9533.000000;0.824816
9532.000000;0.824941
9531.000000;0.825132
9530.000000;0.825342
9529.000000;0.825644
9528.000000;0.826049
9527.000000;0.826376
9526.000000;0.826408
9525.000000;0.826171
9524.000000;0.825958
9523.000000;0.826001
9522.000000;0.826237
9521.000000;0.826427
9520.000000;0.826408
9519.000000;0.826149
9518.000000;0.825689
9517.000000;0.825173
9516.000000;0.824891
9515.000000;0.825074
9514.000000;0.825595
9513.000000;0.825996
9512.000000;0.825917
9511.000000;0.825461
9510.000000;0.825043
9509.000000;0.824900
9508.000000;0.824864
9507.000000;0.824674
9506.000000;0.824386
9505.000000;0.824314
9504.000000;0.824582
9503.000000;0.824936
9502.000000;0.825090
9501.000000;0.825085
9500.000000;0.825134
9499.000000;0.825236
9498.000000;0.825144
9497.000000;0.824729
9496.000000;0.824181
9495.000000;0.823810
9494.000000;0.823766
9493.000000;0.823966
9492.000000;0.824166
9491.000000;0.824132
9490.000000;0.823869
9489.000000;0.823681
9488.000000;0.823841
9487.000000;0.824205
9486.000000;0.824330
9485.000000;0.824025
9484.000000;0.823572
9483.000000;0.823317
9482.000000;0.823245
9481.000000;0.823125
9480.000000;0.822895
9479.000000;0.822682
9478.000000;0.822528
9477.000000;0.822339
9476.000000;0.822110
9475.000000;0.822008
9474.000000;0.822138
9473.000000;0.822350
9472.000000;0.822352
9471.000000;0.821994
9470.000000;0.821406
9469.000000;0.820889
9468.000000;0.820694
9467.000000;0.820850
9466.000000;0.821165
9465.000000;0.821383
9464.000000;0.821345
9463.000000;0.821079
9462.000000;0.820784
9461.000000;0.820716
9460.000000;0.821003
9459.000000;0.821516
9458.000000;0.821966
9457.000000;0.822137
9456.000000;0.821986
9455.000000;0.821565
9454.000000;0.820953
9453.000000;0.820301
9452.000000;0.819828
9451.000000;0.819665
9450.000000;0.819744
9449.000000;0.819905
9448.000000;0.820075
9447.000000;0.820282
9446.000000;0.820534
9445.000000;0.820776
9444.000000;0.820970
9443.000000;0.821150
9442.000000;0.821386
9441.000000;0.821667
9440.000000;0.821860
9439.000000;0.821795
9438.000000;0.821429
9437.000000;0.820897
9436.000000;0.820385
9435.000000;0.819983
9434.000000;0.819701
9433.000000;0.819553
9432.000000;0.819540
9431.000000;0.819585
9430.000000;0.819599
9429.000000;0.819595
9428.000000;0.819626
9427.000000;0.819624
9426.000000;0.819458
9425.000000;0.819163
9424.000000;0.818949
9423.000000;0.818910
9422.000000;0.818878
9421.000000;0.818667
9420.000000;0.818361
9419.000000;0.818220
9418.000000;0.818380
9417.000000;0.818721
9416.000000;0.818980
9415.000000;0.818923
9414.000000;0.818486
9413.000000;0.817877
9412.000000;0.817487
9411.000000;0.817580
9410.000000;0.818057
9409.000000;0.818575
9408.000000;0.818848
9407.000000;0.818782
9406.000000;0.818398
9405.000000;0.817804
9404.000000;0.817232
9403.000000;0.816951
9402.000000;0.817061
9401.000000;0.817425
9400.000000;0.817824
9399.000000;0.818130
9398.000000;0.818306
9397.000000;0.818322
9396.000000;0.818183
9395.000000;0.817981
9394.000000;0.817854
9393.000000;0.817849
9392.000000;0.817894
9391.000000;0.817904
9390.000000;0.817860
9389.000000;0.817742
9388.000000;0.817502
9387.000000;0.817173
9386.000000;0.816948
9385.000000;0.816981
9384.000000;0.817136
9383.000000;0.817072
9382.000000;0.816652
9381.000000;0.816097
9380.000000;0.815663
9379.000000;0.815331
9378.000000;0.814971
9377.000000;0.814656
9376.000000;0.814616
9375.000000;0.814911
9374.000000;0.815351
9373.000000;0.815704
9372.000000;0.815850
9371.000000;0.815753
9370.000000;0.815486
9369.000000;0.815276
9368.000000;0.815339
9367.000000;0.815615
9366.000000;0.815813
9365.000000;0.815753
9364.000000;0.815486
9363.000000;0.815094
9362.000000;0.814587
9361.000000;0.814071
9360.000000;0.813798
9359.000000;0.813913
9358.000000;0.814264
9357.000000;0.814585
9356.000000;0.814735
9355.000000;0.814690
9354.000000;0.814469
9353.000000;0.814202
9352.000000;0.814126
9351.000000;0.814327
9350.000000;0.814580
9349.000000;0.814591
9348.000000;0.814364
9347.000000;0.814179
9346.000000;0.814255
9345.000000;0.814544
9344.000000;0.814839
9343.000000;0.814994
9342.000000;0.815017
9341.000000;0.815015
9340.000000;0.815043
9339.000000;0.815016
9338.000000;0.814825
9337.000000;0.814526
9336.000000;0.814295
9335.000000;0.814182
9334.000000;0.814052
9333.000000;0.813807
9332.000000;0.813526
9331.000000;0.813298
9330.000000;0.813069
9329.000000;0.812785
9328.000000;0.812545
9327.000000;0.812502
9326.000000;0.812687
9325.000000;0.813051
9324.000000;0.813542
9323.000000;0.814019
9322.000000;0.814209
9321.000000;0.813949
9320.000000;0.813415
9319.000000;0.812953
9318.000000;0.812714
9317.000000;0.812588
9316.000000;0.812430
9315.000000;0.812222
9314.000000;0.812025
9313.000000;0.811908
9312.000000;0.811903
9311.000000;0.811952
9310.000000;0.811918
9309.000000;0.811740
9308.000000;0.811542
9307.000000;0.811478
9306.000000;0.811550
9305.000000;0.811668
9304.000000;0.811829
9303.000000;0.812086
9302.000000;0.812359
9301.000000;0.812425
9300.000000;0.812137
9299.000000;0.811568
9298.000000;0.810952
9297.000000;0.810518
9296.000000;0.810351
9295.000000;0.810351
9294.000000;0.810352
9293.000000;0.810318
9292.000000;0.810370
9291.000000;0.810577
9290.000000;0.810820
9289.000000;0.810946
9288.000000;0.810941
9287.000000;0.810860
9286.000000;0.810695
9285.000000;0.810440
9284.000000;0.810179
9283.000000;0.809996
9282.000000;0.809870
9281.000000;0.809801
9280.000000;0.809912
9279.000000;0.810258
9278.000000;0.810618
9277.000000;0.810703
9276.000000;0.810519
9275.000000;0.810329
9274.000000;0.810290
9273.000000;0.810305
9272.000000;0.810231
9271.000000;0.810022
9270.000000;0.809682
9269.000000;0.809274
9268.000000;0.808965
9267.000000;0.808893
9266.000000;0.808960
9265.000000;0.808943
9264.000000;0.808820
9263.000000;0.808779
9262.000000;0.808871
9261.000000;0.808898
9260.000000;0.808754
9259.000000;0.808648
9258.000000;0.808853
9257.000000;0.809339
9256.000000;0.809814
9255.000000;0.810020
9254.000000;0.809883
9253.000000;0.809470
9252.000000;0.808951
9251.000000;0.808550
9250.000000;0.808419
9249.000000;0.808520
9248.000000;0.808673
9247.000000;0.808686
9246.000000;0.808462
9245.000000;0.808062
9244.000000;0.807687
9243.000000;0.807521
9242.000000;0.807554
9241.000000;0.807638
9240.000000;0.807715
9239.000000;0.807888
9238.000000;0.808197
9237.000000;0.808486
9236.000000;0.808571
9235.000000;0.808456
9234.000000;0.808278
9233.000000;0.808093
9232.000000;0.807832
9231.000000;0.807441
9230.000000;0.806973
9229.000000;0.806558
9228.000000;0.806327
9227.000000;0.806329
9226.000000;0.806490
9225.000000;0.806674
9224.000000;0.806818
9223.000000;0.806970
9222.000000;0.807141
9221.000000;0.807207
9220.000000;0.807042
9219.000000;0.806706
9218.000000;0.806413
9217.000000;0.806297
9216.000000;0.806273
9215.000000;0.806170
9214.000000;0.805951
9213.000000;0.805760
9212.000000;0.805750
9211.000000;0.805897
9210.000000;0.806007
9209.000000;0.805928
9208.000000;0.805692
9207.000000;0.805440
9206.000000;0.805250
9205.000000;0.805125
9204.000000;0.805100
9203.000000;0.805234
9202.000000;0.805458
9201.000000;0.805553
9200.000000;0.805364
9199.000000;0.804989
9198.000000;0.804706
9197.000000;0.804706
9196.000000;0.804953
9195.000000;0.805252
9194.000000;0.805415
9193.000000;0.805381
9192.000000;0.805217
9191.000000;0.805047
9190.000000;0.804967
9189.000000;0.805006
9188.000000;0.805137
9187.000000;0.805267
9186.000000;0.805270
9185.000000;0.805069
9184.000000;0.804726
9183.000000;0.804379
9182.000000;0.804112
9181.000000;0.803918
9180.000000;0.803807
9179.000000;0.803860
9178.000000;0.804118
9177.000000;0.804473
9176.000000;0.804732
9175.000000;0.804780
9174.000000;0.804646
9173.000000;0.804411
9172.000000;0.804091
9171.000000;0.803636
9170.000000;0.803038
9169.000000;0.802396
9168.000000;0.801875
9167.000000;0.801609
9166.000000;0.801654
9165.000000;0.801992
9164.000000;0.802497
9163.000000;0.802922
9162.000000;0.803041
9161.000000;0.802872
9160.000000;0.802701
9159.000000;0.802777
9158.000000;0.803020
9157.000000;0.803113
9156.000000;0.802860
9155.000000;0.802362
9154.000000;0.801879
9153.000000;0.801618
9152.000000;0.801650
9151.000000;0.801894
9150.000000;0.802119
9149.000000;0.802095
9148.000000;0.801815
9147.000000;0.801525
9146.000000;0.801469
9145.000000;0.801638
9144.000000;0.801821
9143.000000;0.801843
9142.000000;0.801691
9141.000000;0.801442
9140.000000;0.801157
9139.000000;0.800879
9138.000000;0.800647
9137.000000;0.800476
9136.000000;0.800339
9135.000000;0.800233
9134.000000;0.800253
9133.000000;0.800536
9132.000000;0.801080
9131.000000;0.801647
9130.000000;0.801936
9129.000000;0.801870
9128.000000;0.801666
9127.000000;0.801562
9126.000000;0.801559
9125.000000;0.801449
9124.000000;0.801093
9123.000000;0.800592
9122.000000;0.800218
9121.000000;0.800202
9120.000000;0.800534
9119.000000;0.800922
9118.000000;0.800985
9117.000000;0.800593
9116.000000;0.799997
9115.000000;0.799574
9114.000000;0.799472
9113.000000;0.799563
9112.000000;0.799715
9111.000000;0.799943
9110.000000;0.800272
9109.000000;0.800567
9108.000000;0.800616
9107.000000;0.800359
9106.000000;0.799961
9105.000000;0.799640
9104.000000;0.799466
9103.000000;0.799325
9102.000000;0.799095
9101.000000;0.798820
9100.000000;0.798670
9099.000000;0.798724
9098.000000;0.798853
9097.000000;0.798867
9096.000000;0.798735
9095.000000;0.798580
9094.000000;0.798492
9093.000000;0.798429
9092.000000;0.798326
9091.000000;0.798207
9090.000000;0.798153
9089.000000;0.798198
9088.000000;0.798289
9087.000000;0.798336
9086.000000;0.798287
9085.000000;0.798170
9084.000000;0.798053
9083.000000;0.797945
9082.000000;0.797782
9081.000000;0.797546
9080.000000;0.797343
9079.000000;0.797299
9078.000000;0.797370
9077.000000;0.797388
9076.000000;0.797290
9075.000000;0.797241
9074.000000;0.797440
9073.000000;0.797860
9072.000000;0.798245
9071.000000;0.798355
9070.000000;0.798174
9069.000000;0.797885
9068.000000;0.797678
9067.000000;0.797609
9066.000000;0.797633
9065.000000;0.797707
9064.000000;0.797802
9063.000000;0.797836
9062.000000;0.797699
9061.000000;0.797386
9060.000000;0.797036
9059.000000;0.796771
9058.000000;0.796570
9057.000000;0.796359
9056.000000;0.796175
9055.000000;0.796134
9054.000000;0.796252
9053.000000;0.796395
9052.000000;0.796408
9051.000000;0.796238
9050.000000;0.795945
9049.000000;0.795641
9048.000000;0.795431
9047.000000;0.795338
9046.000000;0.795299
9045.000000;0.795255
9044.000000;0.795237
9043.000000;0.795310
9042.000000;0.795442
9041.000000;0.795515
9040.000000;0.795427
9039.000000;0.795160
9038.000000;0.794752
9037.000000;0.794301
9036.000000;0.793961
9035.000000;0.793849
9034.000000;0.793942
9033.000000;0.794115
9032.000000;0.794269
9031.000000;0.794363
9030.000000;0.794373
9029.000000;0.794324
9028.000000;0.794340
9027.000000;0.794528
9026.000000;0.794784
9025.000000;0.794860
9024.000000;0.794654
9023.000000;0.794347
9022.000000;0.794176
9021.000000;0.794161
9020.000000;0.794138
9019.000000;0.793991
9018.000000;0.793780
9017.000000;0.793643
9016.000000;0.793647
9015.000000;0.793740
9014.000000;0.793840
9013.000000;0.793918
9012.000000;0.793988
9011.000000;0.793992
9010.000000;0.793804
9009.000000;0.793421
9008.000000;0.793096
9007.000000;0.793137
9006.000000;0.793554
9005.000000;0.794002
9004.000000;0.794135
9003.000000;0.793928
9002.000000;0.793611
9001.000000;0.793370
9000.000000;0.793216
8999.000000;0.793081
8998.000000;0.792932
8997.000000;0.792773
8996.000000;0.792604
8995.000000;0.792428
8994.000000;0.792295
8993.000000;0.792305
8992.000000;0.792511
8991.000000;0.792808
8990.000000;0.792952
8989.000000;0.792756
8988.000000;0.792277
8987.000000;0.791788
8986.000000;0.791561
8985.000000;0.791671
8984.000000;0.791976
8983.000000;0.792254
8982.000000;0.792381
8981.000000;0.792410
8980.000000;0.792437
8979.000000;0.792424
8978.000000;0.792246
8977.000000;0.791942
8976.000000;0.791780
8975.000000;0.791930
8974.000000;0.792211
8973.000000;0.792304
8972.000000;0.792137
8971.000000;0.791872
8970.000000;0.791582
8969.000000;0.791193
8968.000000;0.790754
8967.000000;0.790508
8966.000000;0.790580
8965.000000;0.790806
8964.000000;0.790961
8963.000000;0.791008
8962.000000;0.791017
8961.000000;0.790991
8960.000000;0.790927
8959.000000;0.790915
8958.000000;0.791026
8957.000000;0.791176
8956.000000;0.791212
8955.000000;0.791076
8954.000000;0.790762
8953.000000;0.790241
8952.000000;0.789575
8951.000000;0.789049
8950.000000;0.788990
8949.000000;0.789432
8948.000000;0.790063
8947.000000;0.790512
8946.000000;0.790599
8945.000000;0.790370
8944.000000;0.790013
8943.000000;0.789749
8942.000000;0.789682
8941.000000;0.789704
8940.000000;0.789622
8939.000000;0.789392
8938.000000;0.789168
8937.000000;0.789107
8936.000000;0.789202
8935.000000;0.789340
8934.000000;0.789441
8933.000000;0.789503
8932.000000;0.789545
8931.000000;0.789557
8930.000000;0.789516
8929.000000;0.789443
8928.000000;0.789414
8927.000000;0.789492
8926.000000;0.789631
8925.000000;0.789691
8924.000000;0.789583
8923.000000;0.789370
8922.000000;0.789175
8921.000000;0.789043
8920.000000;0.788932
8919.000000;0.788811
8918.000000;0.788687
8917.000000;0.788571
8916.000000;0.788458
8915.000000;0.788352
8914.000000;0.788236
8913.000000;0.788061
8912.000000;0.787795
8911.000000;0.787480
8910.000000;0.787193
8909.000000;0.786973
8908.000000;0.786838
8907.000000;0.786846
8906.000000;0.787064
8905.000000;0.787465
8904.000000;0.787912
8903.000000;0.788270
8902.000000;0.788483
8901.000000;0.788558
8900.000000;0.788521
8899.000000;0.788396
8898.000000;0.788192
8897.000000;0.787897
8896.000000;0.787529
8895.000000;0.787175
8894.000000;0.786953
8893.000000;0.786908
8892.000000;0.786972
8891.000000;0.787025
8890.000000;0.786969
8889.000000;0.786791
8888.000000;0.786554
8887.000000;0.786333
8886.000000;0.786142
8885.000000;0.785975
8884.000000;0.785907
8883.000000;0.786061
8882.000000;0.786403
8881.000000;0.786661
8880.000000;0.786564
8879.000000;0.786152
8878.000000;0.785733
8877.000000;0.785556
8876.000000;0.785609
8875.000000;0.785731
8874.000000;0.785787
8873.000000;0.785728
8872.000000;0.785602
8871.000000;0.785562
8870.000000;0.785753
8869.000000;0.786124
8868.000000;0.786439
8867.000000;0.786539
8866.000000;0.786512
8865.000000;0.786500
8864.000000;0.786447
8863.000000;0.786172
8862.000000;0.785656
8861.000000;0.785129
8860.000000;0.784830
8859.000000;0.784771
8858.000000;0.784782
8857.000000;0.784712
8856.000000;0.784543
8855.000000;0.784357
8854.000000;0.784240
8853.000000;0.784211
8852.000000;0.784220
8851.000000;0.784214
8850.000000;0.784209
8849.000000;0.784281
8848.000000;0.784481
8847.000000;0.784755
8846.000000;0.784969
8845.000000;0.785004
8844.000000;0.784847
8843.000000;0.784601
8842.000000;0.784405
8841.000000;0.784314
8840.000000;0.784275
8839.000000;0.784207
8838.000000;0.784093
8837.000000;0.783973
8836.000000;0.783884
8835.000000;0.783844
8834.000000;0.783861
8833.000000;0.783932
8832.000000;0.784030
8831.000000;0.784142
8830.000000;0.784289
8829.000000;0.784452
8828.000000;0.784502
8827.000000;0.784294
8826.000000;0.783872
8825.000000;0.783483
8824.000000;0.783344
8823.000000;0.783425
8822.000000;0.783515
8821.000000;0.783440
8820.000000;0.783178
8819.000000;0.782811
8818.000000;0.782466
8817.000000;0.782275
8816.000000;0.782302
8815.000000;0.782479
8814.000000;0.782665
8813.000000;0.782773
8812.000000;0.782791
8811.000000;0.782706
8810.000000;0.782499
8809.000000;0.782222
8808.000000;0.782008
8807.000000;0.781964
8806.000000;0.782071
8805.000000;0.782222
8804.000000;0.782332
8803.000000;0.782382
8802.000000;0.782401
8801.000000;0.782421
8800.000000;0.782425
8799.000000;0.782323
8798.000000;0.782035
8797.000000;0.781610
8796.000000;0.781256
8795.000000;0.781171
8794.000000;0.781378
8793.000000;0.781705
8792.000000;0.781937
8791.000000;0.781980
8790.000000;0.781902
8789.000000;0.781839
8788.000000;0.781859
8787.000000;0.781921
8786.000000;0.781960
8785.000000;0.781967
8784.000000;0.781959
8783.000000;0.781909
8782.000000;0.781787
8781.000000;0.781634
8780.000000;0.781511
8779.000000;0.781390
8778.000000;0.781207
8777.000000;0.781041
8776.000000;0.781094
8775.000000;0.781429
8774.000000;0.781825
8773.000000;0.781975
8772.000000;0.781779
8771.000000;0.781383
8770.000000;0.781003
8769.000000;0.780792
8768.000000;0.780806
8767.000000;0.780968
8766.000000;0.781100
8765.000000;0.781084
8764.000000;0.780987
8763.000000;0.780943
8762.000000;0.780970
8761.000000;0.780991
8760.000000;0.781004
8759.000000;0.781092
8758.000000;0.781257
8757.000000;0.781354
8756.000000;0.781252
8755.000000;0.780977
8754.000000;0.780662
8753.000000;0.780423
8752.000000;0.780312
8751.000000;0.780318
8750.000000;0.780357
8749.000000;0.780298
8748.000000;0.780070
8747.000000;0.779737
8746.000000;0.779460
8745.000000;0.779362
8744.000000;0.779429
8743.000000;0.779536
8742.000000;0.779589
8741.000000;0.779623
8740.000000;0.779713
8739.000000;0.779809
8738.000000;0.779760
8737.000000;0.779536
8736.000000;0.779317
8735.000000;0.779269
8734.000000;0.779318
8733.000000;0.779284
8732.000000;0.779179
8731.000000;0.779202
8730.000000;0.779434
8729.000000;0.779686
8728.000000;0.779714
8727.000000;0.779470
8726.000000;0.779095
8725.000000;0.778766
8724.000000;0.778607
8723.000000;0.778671
8722.000000;0.778906
8721.000000;0.779181
8720.000000;0.779366
8719.000000;0.779403
8718.000000;0.779290
8717.000000;0.779072
8716.000000;0.778855
8715.000000;0.778751
8714.000000;0.778750
8713.000000;0.778728
8712.000000;0.778606
8711.000000;0.778448
8710.000000;0.778363
8709.000000;0.778380
8708.000000;0.778441
8707.000000;0.778481
8706.000000;0.778450
8705.000000;0.778326
8704.000000;0.778147
8703.000000;0.778004
8702.000000;0.777959
8701.000000;0.778004
8700.000000;0.778104
8699.000000;0.778225
8698.000000;0.778315
8697.000000;0.778319
8696.000000;0.778260
8695.000000;0.778243
8694.000000;0.778324
8693.000000;0.778437
8692.000000;0.778477
8691.000000;0.778413
8690.000000;0.778278
8689.000000;0.778103
8688.000000;0.777920
8687.000000;0.777750
8686.000000;0.777573
8685.000000;0.777332
8684.000000;0.777043
8683.000000;0.776831
8682.000000;0.776814
8681.000000;0.776981
8680.000000;0.777244
8679.000000;0.777529
8678.000000;0.777774
8677.000000;0.777887
8676.000000;0.777812
8675.000000;0.777610
8674.000000;0.777401
8673.000000;0.777236
8672.000000;0.777100
8671.000000;0.776986
8670.000000;0.776898
8669.000000;0.776793
8668.000000;0.776603
8667.000000;0.776332
8666.000000;0.776071
8665.000000;0.775914
8664.000000;0.775889
8663.000000;0.775969
8662.000000;0.776094
8661.000000;0.776201
8660.000000;0.776255
8659.000000;0.776254
8658.000000;0.776179
8657.000000;0.775978
8656.000000;0.775655
8655.000000;0.775346
8654.000000;0.775211
8653.000000;0.775254
8652.000000;0.775335
8651.000000;0.775342
8650.000000;0.775295
8649.000000;0.775249
8648.000000;0.775195
8647.000000;0.775092
8646.000000;0.774966
8645.000000;0.774895
8644.000000;0.774901
8643.000000;0.774917
8642.000000;0.774862
8641.000000;0.774749
8640.000000;0.774663
8639.000000;0.774634
8638.000000;0.774567
8637.000000;0.774353
8636.000000;0.774055
8635.000000;0.773892
8634.000000;0.773967
8633.000000;0.774088
8632.000000;0.773961
8631.000000;0.773556
8630.000000;0.773191
8629.000000;0.773185
8628.000000;0.773523
8627.000000;0.773891
8626.000000;0.774006
8625.000000;0.773838
8624.000000;0.773540
8623.000000;0.773240
8622.000000;0.772962
8621.000000;0.772706
8620.000000;0.772510
8619.000000;0.772397
8618.000000;0.772298
8617.000000;0.772123
8616.000000;0.771912
8615.000000;0.771814
8614.000000;0.771891
8613.000000;0.772009
8612.000000;0.772003
8611.000000;0.771903
8610.000000;0.771890
8609.000000;0.772033
8608.000000;0.772177
8607.000000;0.772138
8606.000000;0.771919
8605.000000;0.771670
8604.000000;0.771496
8603.000000;0.771381
8602.000000;0.771274
8601.000000;0.771169
8600.000000;0.771084
8599.000000;0.771011
8598.000000;0.770913
8597.000000;0.770771
8596.000000;0.770618
8595.000000;0.770516
8594.000000;0.770502
8593.000000;0.770539
8592.000000;0.770546
8591.000000;0.770478
8590.000000;0.770366
8589.000000;0.770248
8588.000000;0.770101
8587.000000;0.769858
8586.000000;0.769513
8585.000000;0.769159
8584.000000;0.768927
8583.000000;0.768901
8582.000000;0.769070
8581.000000;0.769318
8580.000000;0.769459
8579.000000;0.769369
8578.000000;0.769118
8577.000000;0.768932
8576.000000;0.768958
8575.000000;0.769080
8574.000000;0.769040
8573.000000;0.768738
8572.000000;0.768322
8571.000000;0.767991
8570.000000;0.767787
8569.000000;0.767643
8568.000000;0.767542
8567.000000;0.767532
8566.000000;0.767597
8565.000000;0.767631
8564.000000;0.767558
8563.000000;0.767416
8562.000000;0.767285
8561.000000;0.767197
8560.000000;0.767138
8559.000000;0.767094
8558.000000;0.767044
8557.000000;0.766946
8556.000000;0.766774
8555.000000;0.766569
8554.000000;0.766412
8553.000000;0.766344
8552.000000;0.766336
8551.000000;0.766347
8550.000000;0.766384
8549.000000;0.766484
8548.000000;0.766630
8547.000000;0.766711
8546.000000;0.766593
8545.000000;0.766245
8544.000000;0.765787
8543.000000;0.765403
8542.000000;0.765211
8541.000000;0.765202
8540.000000;0.765281
8539.000000;0.765345
8538.000000;0.765351
8537.000000;0.765343
8536.000000;0.765390
8535.000000;0.765479
8534.000000;0.765491
8533.000000;0.765316
8532.000000;0.764986
8531.000000;0.764645
8530.000000;0.764396
8529.000000;0.764230
8528.000000;0.764094
8527.000000;0.763985
8526.000000;0.763933
8525.000000;0.763949
8524.000000;0.764010
8523.000000;0.764072
8522.000000;0.764073
8521.000000;0.763954
8520.000000;0.763730
8519.000000;0.763515
8518.000000;0.763441
8517.000000;0.763531
8516.000000;0.763670
8515.000000;0.763705
8514.000000;0.763569
8513.000000;0.763332
8512.000000;0.763125
8511.000000;0.763029
8510.000000;0.763021
8509.000000;0.763035
8508.000000;0.763034
8507.000000;0.762993
8506.000000;0.762850
8505.000000;0.762548
8504.000000;0.762152
8503.000000;0.761847
8502.000000;0.761781
8501.000000;0.761916
8500.000000;0.762059
8499.000000;0.762030
8498.000000;0.761788
8497.000000;0.761446
8496.000000;0.761163
8495.000000;0.761018
8494.000000;0.760950
8493.000000;0.760870
8492.000000;0.760811
8491.000000;0.760904
8490.000000;0.761168
8489.000000;0.761394
8488.000000;0.761327
8487.000000;0.760951
8486.000000;0.760511
8485.000000;0.760254
8484.000000;0.760209
8483.000000;0.760227
8482.000000;0.760178
8481.000000;0.760064
8480.000000;0.759984
8479.000000;0.760029
8478.000000;0.760178
8477.000000;0.760286
8476.000000;0.760185
8475.000000;0.759839
8474.000000;0.759403
8473.000000;0.759090
8472.000000;0.758980
8471.000000;0.758978
8470.000000;0.758951
8469.000000;0.758877
8468.000000;0.758830
8467.000000;0.758864
8466.000000;0.758946
8465.000000;0.759012
8464.000000;0.759038
8463.000000;0.759024
8462.000000;0.758955
8461.000000;0.758806
8460.000000;0.758587
8459.000000;0.758345
8458.000000;0.758128
8457.000000;0.757988
8456.000000;0.757974
8455.000000;0.758085
8454.000000;0.758225
8453.000000;0.758278
8452.000000;0.758218
8451.000000;0.758097
8450.000000;0.757921
8449.000000;0.757636
8448.000000;0.757273
8447.000000;0.757013
8446.000000;0.757023
8445.000000;0.757263
8444.000000;0.757507
8443.000000;0.757545
8442.000000;0.757308
8441.000000;0.756858
8440.000000;0.756349
8439.000000;0.755972
8438.000000;0.755849
8437.000000;0.755922
8436.000000;0.756009
8435.000000;0.755985
8434.000000;0.755853
8433.000000;0.755665
8432.000000;0.755435
8431.000000;0.755188
8430.000000;0.755010
8429.000000;0.754985
8428.000000;0.755112
8427.000000;0.755320
8426.000000;0.755535
8425.000000;0.755677
8424.000000;0.755643
8423.000000;0.755378
8422.000000;0.754982
8421.000000;0.754673
8420.000000;0.754599
8419.000000;0.754711
8418.000000;0.754824
8417.000000;0.754787
8416.000000;0.754600
8415.000000;0.754390
8414.000000;0.754296
8413.000000;0.754349
8412.000000;0.754434
8411.000000;0.754405
8410.000000;0.754232
8409.000000;0.754032
8408.000000;0.753924
8407.000000;0.753886
8406.000000;0.753805
8405.000000;0.753632
8404.000000;0.753439
8403.000000;0.753328
8402.000000;0.753329
8401.000000;0.753406
8400.000000;0.753506
8399.000000;0.753570
8398.000000;0.753539
8397.000000;0.753393
8396.000000;0.753204
8395.000000;0.753099
8394.000000;0.753155
8393.000000;0.753316
8392.000000;0.753419
8391.000000;0.753314
8390.000000;0.752964
8389.000000;0.752458
8388.000000;0.751936
8387.000000;0.751509
8386.000000;0.751246
8385.000000;0.751178
8384.000000;0.751271
8383.000000;0.751405
8382.000000;0.751436
8381.000000;0.751314
8380.000000;0.751111
8379.000000;0.750947
8378.000000;0.750895
8377.000000;0.750964
8376.000000;0.751108
8375.000000;0.751239
8374.000000;0.751273
8373.000000;0.751206
8372.000000;0.751118
8371.000000;0.751062
8370.000000;0.750991
8369.000000;0.750837
8368.000000;0.750624
8367.000000;0.750440
8366.000000;0.750316
8365.000000;0.750213
8364.000000;0.750106
8363.000000;0.750012
8362.000000;0.749937
8361.000000;0.749851
8360.000000;0.749747
8359.000000;0.749666
8358.000000;0.749633
8357.000000;0.749601
8356.000000;0.749518
8355.000000;0.749406
8354.000000;0.749339
8353.000000;0.749345
8352.000000;0.749358
8351.000000;0.749293
8350.000000;0.749132
8349.000000;0.748952
8348.000000;0.748854
8347.000000;0.748876
8346.000000;0.748961
8345.000000;0.749024
8344.000000;0.749020
8343.000000;0.748948
8342.000000;0.748806
8341.000000;0.748582
8340.000000;0.748299
8339.000000;0.748021
8338.000000;0.747814
8337.000000;0.747710
8336.000000;0.747703
8335.000000;0.747768
8334.000000;0.747870
8333.000000;0.747976
8332.000000;0.748049
8331.000000;0.748020
8330.000000;0.747824
8329.000000;0.747492
8328.000000;0.747190
8327.000000;0.747068
8326.000000;0.747083
8325.000000;0.747035
8324.000000;0.746809
8323.000000;0.746507
8322.000000;0.746319
8321.000000;0.746315
8320.000000;0.746420
8319.000000;0.746536
8318.000000;0.746599
8317.000000;0.746578
8316.000000;0.746471
8315.000000;0.746320
8314.000000;0.746162
8313.000000;0.745975
8312.000000;0.745725
8311.000000;0.745474
8310.000000;0.745368
8309.000000;0.745480
8308.000000;0.745708
8307.000000;0.745867
8306.000000;0.745863
8305.000000;0.745742
8304.000000;0.745589
8303.000000;0.745441
8302.000000;0.745314
8301.000000;0.745247
8300.000000;0.745277
8299.000000;0.745366
8298.000000;0.745401
8297.000000;0.745297
8296.000000;0.745065
8295.000000;0.744797
8294.000000;0.744573
8293.000000;0.744405
8292.000000;0.744256
8291.000000;0.744092
8290.000000;0.743924
8289.000000;0.743804
8288.000000;0.743762
8287.000000;0.743757
8286.000000;0.743709
8285.000000;0.743596
8284.000000;0.743486
8283.000000;0.743453
8282.000000;0.743487
8281.000000;0.743518
8280.000000;0.743512
8279.000000;0.743482
8278.000000;0.743431
8277.000000;0.743337
8276.000000;0.743192
8275.000000;0.743030
8274.000000;0.742885
8273.000000;0.742774
8272.000000;0.742719
8271.000000;0.742742
8270.000000;0.742815
8269.000000;0.742851
8268.000000;0.742780
8267.000000;0.742630
8266.000000;0.742496
8265.000000;0.742448
8264.000000;0.742462
8263.000000;0.742452
8262.000000;0.742337
8261.000000;0.742114
8260.000000;0.741857
8259.000000;0.741661
8258.000000;0.741567
8257.000000;0.741549
8256.000000;0.741547
8255.000000;0.741503
8254.000000;0.741390
8253.000000;0.741225
8252.000000;0.741066
8251.000000;0.740983
8250.000000;0.741012
8249.000000;0.741148
8248.000000;0.741346
8247.000000;0.741521
8246.000000;0.741559
8245.000000;0.741403
8244.000000;0.741116
8243.000000;0.740842
8242.000000;0.740683
8241.000000;0.740633
8240.000000;0.740630
8239.000000;0.740624
8238.000000;0.740587
8237.000000;0.740502
8236.000000;0.740363
8235.000000;0.740181
8234.000000;0.739982
8233.000000;0.739821
8232.000000;0.739763
8231.000000;0.739823
8230.000000;0.739923
8229.000000;0.739947
8228.000000;0.739845
8227.000000;0.739651
8226.000000;0.739408
8225.000000;0.739118
8224.000000;0.738812
8223.000000;0.738592
8222.000000;0.738563
8221.000000;0.738731
8220.000000;0.738979
8219.000000;0.739158
8218.000000;0.739190
8217.000000;0.739101
8216.000000;0.738982
8215.000000;0.738905
8214.000000;0.738862
8213.000000;0.738784
8212.000000;0.738608
8211.000000;0.738325
8210.000000;0.737986
8209.000000;0.737698
8208.000000;0.737582
8207.000000;0.737681
8206.000000;0.737890
8205.000000;0.738027
8204.000000;0.738007
8203.000000;0.737893
8202.000000;0.737779
8201.000000;0.737664
8200.000000;0.737495
8199.000000;0.737281
8198.000000;0.737103
8197.000000;0.737023
8196.000000;0.737011
8195.000000;0.736994
8194.000000;0.736949
8193.000000;0.736921
8192.000000;0.736950
8191.000000;0.736988
8190.000000;0.736934
8189.000000;0.736758
8188.000000;0.736551
8187.000000;0.736418
8186.000000;0.736351
8185.000000;0.736271
8184.000000;0.736167
8183.000000;0.736108
8182.000000;0.736115
8181.000000;0.736119
8180.000000;0.736079
8179.000000;0.736034
8178.000000;0.736022
8177.000000;0.736009
8176.000000;0.735954
8175.000000;0.735893
8174.000000;0.735863
8173.000000;0.735819
8172.000000;0.735685
8171.000000;0.735464
8170.000000;0.735242
8169.000000;0.735091
8168.000000;0.735029
8167.000000;0.735044
8166.000000;0.735087
8165.000000;0.735074
8164.000000;0.734953
8163.000000;0.734771
8162.000000;0.734628
8161.000000;0.734576
8160.000000;0.734603
8159.000000;0.734678
8158.000000;0.734762
8157.000000;0.734793
8156.000000;0.734740
8155.000000;0.734654
8154.000000;0.734600
8153.000000;0.734552
8152.000000;0.734413
8151.000000;0.734164
8150.000000;0.733902
8149.000000;0.733729
8148.000000;0.733643
8147.000000;0.733576
8146.000000;0.733497
8145.000000;0.733439
8144.000000;0.733450
8143.000000;0.733540
8142.000000;0.733644
8141.000000;0.733643
8140.000000;0.733459
8139.000000;0.733138
8138.000000;0.732817
8137.000000;0.732602
8136.000000;0.732510
8135.000000;0.732533
8134.000000;0.732676
8133.000000;0.732902
8132.000000;0.733082
8131.000000;0.733075
8130.000000;0.732854
8129.000000;0.732542
8128.000000;0.732315
8127.000000;0.732266
8126.000000;0.732339
8125.000000;0.732364
8124.000000;0.732209
8123.000000;0.731912
8122.000000;0.731651
8121.000000;0.731566
8120.000000;0.731622
8119.000000;0.731674
8118.000000;0.731618
8117.000000;0.731460
8116.000000;0.731266
8115.000000;0.731109
8114.000000;0.731038
8113.000000;0.731052
8112.000000;0.731071
8111.000000;0.731001
8110.000000;0.730846
8109.000000;0.730719
8108.000000;0.730714
8107.000000;0.730807
8106.000000;0.730906
8105.000000;0.730963
8104.000000;0.730986
8103.000000;0.730966
8102.000000;0.730883
8101.000000;0.730769
8100.000000;0.730707
8099.000000;0.730720
8098.000000;0.730725
8097.000000;0.730653
8096.000000;0.730548
8095.000000;0.730498
8094.000000;0.730495
8093.000000;0.730434
8092.000000;0.730263
8091.000000;0.730040
8090.000000;0.729854
8089.000000;0.729749
8088.000000;0.729743
8087.000000;0.729832
8086.000000;0.729926
8085.000000;0.729866
8084.000000;0.729572
8083.000000;0.729172
8082.000000;0.728909
8081.000000;0.728918
8080.000000;0.729118
8079.000000;0.729305
8078.000000;0.729303
8077.000000;0.729062
8076.000000;0.728673
8075.000000;0.728314
8074.000000;0.728136
8073.000000;0.728160
8072.000000;0.728299
8071.000000;0.728449
8070.000000;0.728548
8069.000000;0.728566
8068.000000;0.728479
8067.000000;0.728292
8066.000000;0.728054
8065.000000;0.727842
8064.000000;0.727724
8063.000000;0.727723
8062.000000;0.727803
8061.000000;0.727896
8060.000000;0.727959
8059.000000;0.727981
8058.000000;0.727930
8057.000000;0.727744
8056.000000;0.727424
8055.000000;0.727096
8054.000000;0.726924
8053.000000;0.726944
8052.000000;0.727052
8051.000000;0.727147
8050.000000;0.727212
8049.000000;0.727241
8048.000000;0.727180
8047.000000;0.727007
8046.000000;0.726799
8045.000000;0.726654
8044.000000;0.726585
8043.000000;0.726546
8042.000000;0.726547
8041.000000;0.726635
8040.000000;0.726776
8039.000000;0.726845
8038.000000;0.726775
8037.000000;0.726651
8036.000000;0.726593
8035.000000;0.726595
8034.000000;0.726547
8033.000000;0.726385
8032.000000;0.726162
8031.000000;0.725951
8030.000000;0.725758
8029.000000;0.725564
8028.000000;0.725406
8027.000000;0.725362
8026.000000;0.725450
8025.000000;0.725582
8024.000000;0.725630
8023.000000;0.725526
8022.000000;0.725311
8021.000000;0.725102
8020.000000;0.724999
8019.000000;0.725010
8018.000000;0.725062
8017.000000;0.725090
8016.000000;0.725101
8015.000000;0.725125
8014.000000;0.725138
8013.000000;0.725087
8012.000000;0.724983
8011.000000;0.724920
8010.000000;0.724973
8009.000000;0.725107
8008.000000;0.725213
8007.000000;0.725199
8006.000000;0.725033
8005.000000;0.724741
8004.000000;0.724405
8003.000000;0.724126
8002.000000;0.723950
8001.000000;0.723842
8000.000000;0.723745
7999.000000;0.723664
7998.000000;0.723637
7997.000000;0.723664
7996.000000;0.723692
7995.000000;0.723665
7994.000000;0.723573
7993.000000;0.723441
7992.000000;0.723326
7991.000000;0.723303
7990.000000;0.723395
7989.000000;0.723531
7988.000000;0.723599
7987.000000;0.723567
7986.000000;0.723511
7985.000000;0.723514
7984.000000;0.723573
7983.000000;0.723613
7982.000000;0.723570
7981.000000;0.723439
7980.000000;0.723260
7979.000000;0.723083
7978.000000;0.722930
7977.000000;0.722799
7976.000000;0.722697
7975.000000;0.722658
7974.000000;0.722694
7973.000000;0.722743
7972.000000;0.722706
7971.000000;0.722549
7970.000000;0.722332
7969.000000;0.722148
7968.000000;0.722053
7967.000000;0.722071
7966.000000;0.722180
7965.000000;0.722294
7964.000000;0.722300
7963.000000;0.722168
7962.000000;0.721988
7961.000000;0.721852
7960.000000;0.721758
7959.000000;0.721650
7958.000000;0.721519
7957.000000;0.721394
7956.000000;0.721293
7955.000000;0.721235
7954.000000;0.721277
7953.000000;0.721450
7952.000000;0.721654
7951.000000;0.721705
7950.000000;0.721526
7949.000000;0.721243
7948.000000;0.721045
7947.000000;0.720996
7946.000000;0.721010
7945.000000;0.720985
7944.000000;0.720889
7943.000000;0.720737
7942.000000;0.720561
7941.000000;0.720410
7940.000000;0.720327
7939.000000;0.720310
7938.000000;0.720291
7937.000000;0.720204
7936.000000;0.720060
7935.000000;0.719933
7934.000000;0.719889
7933.000000;0.719923
7932.000000;0.719970
7931.000000;0.719971
7930.000000;0.719914
7929.000000;0.719832
7928.000000;0.719785
7927.000000;0.719814
7926.000000;0.719917
7925.000000;0.720032
7924.000000;0.720072
7923.000000;0.719988
7922.000000;0.719807
7921.000000;0.719608
7920.000000;0.719443
7919.000000;0.719295
7918.000000;0.719115
7917.000000;0.718902
7916.000000;0.718724
7915.000000;0.718658
7914.000000;0.718703
7913.000000;0.718774
7912.000000;0.718796
7911.000000;0.718769
7910.000000;0.718740
7909.000000;0.718721
7908.000000;0.718690
7907.000000;0.718647
7906.000000;0.718616
7905.000000;0.718593
7904.000000;0.718526
7903.000000;0.718402
7902.000000;0.718292
7901.000000;0.718279
7900.000000;0.718340
7899.000000;0.718347
7898.000000;0.718185
7897.000000;0.717858
7896.000000;0.717479
7895.000000;0.717201
7894.000000;0.717122
7893.000000;0.717229
7892.000000;0.717402
7891.000000;0.717501
7890.000000;0.717465
7889.000000;0.717314
7888.000000;0.717099
7887.000000;0.716866
7886.000000;0.716666
7885.000000;0.716549
7884.000000;0.716531
7883.000000;0.716590
7882.000000;0.716680
7881.000000;0.716750
7880.000000;0.716753
7879.000000;0.716693
7878.000000;0.716636
7877.000000;0.716645
7876.000000;0.716682
7875.000000;0.716657
7874.000000;0.716544
7873.000000;0.716418
7872.000000;0.716350
7871.000000;0.716323
7870.000000;0.716288
7869.000000;0.716238
7868.000000;0.716196
7867.000000;0.716150
7866.000000;0.716074
7865.000000;0.715973
7864.000000;0.715858
7863.000000;0.715722
7862.000000;0.715562
7861.000000;0.715425
7860.000000;0.715360
7859.000000;0.715363
7858.000000;0.715389
7857.000000;0.715413
7856.000000;0.715414
7855.000000;0.715348
7854.000000;0.715195
7853.000000;0.715028
7852.000000;0.714969
7851.000000;0.715051
7850.000000;0.715181
7849.000000;0.715241
7848.000000;0.715191
7847.000000;0.715070
7846.000000;0.714941
7845.000000;0.714859
7844.000000;0.714843
7843.000000;0.714848
7842.000000;0.714807
7841.000000;0.714706
7840.000000;0.714603
7839.000000;0.714556
7838.000000;0.714565
7837.000000;0.714597
7836.000000;0.714613
7835.000000;0.714567
7834.000000;0.714433
7833.000000;0.714248
7832.000000;0.714099
7831.000000;0.714021
7830.000000;0.713967
7829.000000;0.713896
7828.000000;0.713823
7827.000000;0.713774
7826.000000;0.713720
7825.000000;0.713636
7824.000000;0.713560
7823.000000;0.713542
7822.000000;0.713551
7821.000000;0.713509
7820.000000;0.713387
7819.000000;0.713228
7818.000000;0.713076
7817.000000;0.712946
7816.000000;0.712859
7815.000000;0.712831
7814.000000;0.712832
7813.000000;0.712794
7812.000000;0.712689
7811.000000;0.712553
7810.000000;0.712429
7809.000000;0.712321
7808.000000;0.712215
7807.000000;0.712122
7806.000000;0.712077
7805.000000;0.712098
7804.000000;0.712173
7803.000000;0.712262
7802.000000;0.712320
7801.000000;0.712317
7800.000000;0.712249
7799.000000;0.712120
7798.000000;0.711936
7797.000000;0.711734
7796.000000;0.711578
7795.000000;0.711511
7794.000000;0.711510
7793.000000;0.711516
7792.000000;0.711499
7791.000000;0.711454
7790.000000;0.711383
7789.000000;0.711299
7788.000000;0.711247
7787.000000;0.711256
7786.000000;0.711280
7785.000000;0.711226
7784.000000;0.711051
7783.000000;0.710810
7782.000000;0.710583
7781.000000;0.710408
7780.000000;0.710293
7779.000000;0.710243
7778.000000;0.710250
7777.000000;0.710277
7776.000000;0.710282
7775.000000;0.710247
7774.000000;0.710175
7773.000000;0.710078
7772.000000;0.709976
7771.000000;0.709899
7770.000000;0.709873
7769.000000;0.709916
7768.000000;0.710021
7767.000000;0.710139
7766.000000;0.710195
7765.000000;0.710146
7764.000000;0.710043
7763.000000;0.709974
7762.000000;0.709962
7761.000000;0.709946
7760.000000;0.709861
7759.000000;0.709711
7758.000000;0.709539
7757.000000;0.709382
7756.000000;0.709264
7755.000000;0.709187
7754.000000;0.709127
7753.000000;0.709052
7752.000000;0.708967
7751.000000;0.708911
7750.000000;0.708882
7749.000000;0.708827
7748.000000;0.708707
7747.000000;0.708546
7746.000000;0.708385
7745.000000;0.708230
7744.000000;0.708085
7743.000000;0.707995
7742.000000;0.707993
7741.000000;0.708033
7740.000000;0.708026
7739.000000;0.707949
7738.000000;0.707886
7737.000000;0.707931
7736.000000;0.708100
7735.000000;0.708305
7734.000000;0.708423
7733.000000;0.708382
7732.000000;0.708222
7731.000000;0.708060
7730.000000;0.707971
7729.000000;0.707916
7728.000000;0.707804
7727.000000;0.707613
7726.000000;0.707416
7725.000000;0.707289
7724.000000;0.707245
7723.000000;0.707236
7722.000000;0.707202
7721.000000;0.707097
7720.000000;0.706910
7719.000000;0.706695
7718.000000;0.706546
7717.000000;0.706515
7716.000000;0.706572
7715.000000;0.706646
7714.000000;0.706695
7713.000000;0.706715
7712.000000;0.706699
7711.000000;0.706619
7710.000000;0.706463
7709.000000;0.706275
7708.000000;0.706124
7707.000000;0.706057
7706.000000;0.706072
7705.000000;0.706132
7704.000000;0.706175
7703.000000;0.706141
7702.000000;0.706009
7701.000000;0.705836
7700.000000;0.705714
7699.000000;0.705678
7698.000000;0.705675
7697.000000;0.705645
7696.000000;0.705593
7695.000000;0.705565
7694.000000;0.705555
7693.000000;0.705510
7692.000000;0.705413
7691.000000;0.705309
7690.000000;0.705234
7689.000000;0.705165
7688.000000;0.705070
7687.000000;0.704960
7686.000000;0.704860
7685.000000;0.704764
7684.000000;0.704647
7683.000000;0.704527
7682.000000;0.704445
7681.000000;0.704411
7680.000000;0.704410
7679.000000;0.704422
7678.000000;0.704427
7677.000000;0.704374
7676.000000;0.704229
7675.000000;0.704031
7674.000000;0.703877
7673.000000;0.703828
7672.000000;0.703866
7671.000000;0.703931
7670.000000;0.703977
7669.000000;0.703967
7668.000000;0.703861
7667.000000;0.703662
7666.000000;0.703444
7665.000000;0.703293
7664.000000;0.703228
7663.000000;0.703194
7662.000000;0.703129
7661.000000;0.703027
7660.000000;0.702925
7659.000000;0.702859
7658.000000;0.702839
7657.000000;0.702856
7656.000000;0.702899
7655.000000;0.702940
7654.000000;0.702932
7653.000000;0.702832
7652.000000;0.702651
7651.000000;0.702462
7650.000000;0.702347
7649.000000;0.702323
7648.000000;0.702341
7647.000000;0.702338
7646.000000;0.702295
7645.000000;0.702234
7644.000000;0.702169
7643.000000;0.702079
7642.000000;0.701943
7641.000000;0.701785
7640.000000;0.701666
7639.000000;0.701629
7638.000000;0.701658
7637.000000;0.701712
7636.000000;0.701763
7635.000000;0.701796
7634.000000;0.701774
7633.000000;0.701663
7632.000000;0.701491
7631.000000;0.701347
7630.000000;0.701287
7629.000000;0.701268
7628.000000;0.701212
7627.000000;0.701102
7626.000000;0.700993
7625.000000;0.700936
7624.000000;0.700927
7623.000000;0.700930
7622.000000;0.700915
7621.000000;0.700884
7620.000000;0.700860
7619.000000;0.700870
7618.000000;0.700898
7617.000000;0.700879
7616.000000;0.700764
7615.000000;0.700595
7614.000000;0.700465
7613.000000;0.700412
7612.000000;0.700378
7611.000000;0.700296
7610.000000;0.700167
7609.000000;0.700039
7608.000000;0.699949
7607.000000;0.699914
7606.000000;0.699943
7605.000000;0.700016
7604.000000;0.700075
7603.000000;0.700067
7602.000000;0.699997
7601.000000;0.699887
7600.000000;0.699727
7599.000000;0.699490
7598.000000;0.699211
7597.000000;0.699002
7596.000000;0.698952
7595.000000;0.699048
7594.000000;0.699197
7593.000000;0.699309
7592.000000;0.699335
7591.000000;0.699267
7590.000000;0.699137
7589.000000;0.699013
7588.000000;0.698953
7587.000000;0.698955
7586.000000;0.698965
7585.000000;0.698933
7584.000000;0.698854
7583.000000;0.698755
7582.000000;0.698658
7581.000000;0.698575
7580.000000;0.698522
7579.000000;0.698511
7578.000000;0.698527
7577.000000;0.698526
7576.000000;0.698470
7575.000000;0.698377
7574.000000;0.698307
7573.000000;0.698312
7572.000000;0.698374
7571.000000;0.698413
7570.000000;0.698353
7569.000000;0.698188
7568.000000;0.697988
7567.000000;0.697838
7566.000000;0.697787
7565.000000;0.697820
7564.000000;0.697878
7563.000000;0.697910
7562.000000;0.697890
7561.000000;0.697817
7560.000000;0.697702
7559.000000;0.697575
7558.000000;0.697487
7557.000000;0.697467
7556.000000;0.697481
7555.000000;0.697463
7554.000000;0.697395
7553.000000;0.697326
7552.000000;0.697306
7551.000000;0.697308
7550.000000;0.697275
7549.000000;0.697201
7548.000000;0.697132
7547.000000;0.697088
7546.000000;0.697045
7545.000000;0.696983
7544.000000;0.696918
7543.000000;0.696853
7542.000000;0.696763
7541.000000;0.696642
7540.000000;0.696540
7539.000000;0.696496
7538.000000;0.696484
7537.000000;0.696455
7536.000000;0.696399
7535.000000;0.696352
7534.000000;0.696327
7533.000000;0.696300
7532.000000;0.696251
7531.000000;0.696183
7530.000000;0.696111
7529.000000;0.696053
7528.000000;0.696032
7527.000000;0.696051
7526.000000;0.696080
7525.000000;0.696084
7524.000000;0.696063
7523.000000;0.696040
7522.000000;0.696019
7521.000000;0.695983
7520.000000;0.695921
7519.000000;0.695831
7518.000000;0.695705
7517.000000;0.695559
7516.000000;0.695457
7515.000000;0.695449
7514.000000;0.695497
7513.000000;0.695499
7512.000000;0.695402
7511.000000;0.695255
7510.000000;0.695130
7509.000000;0.695056
7508.000000;0.695031
7507.000000;0.695048
7506.000000;0.695072
7505.000000;0.695048
7504.000000;0.694970
7503.000000;0.694900
7502.000000;0.694893
7501.000000;0.694917
7500.000000;0.694904
7499.000000;0.694838
7498.000000;0.694769
7497.000000;0.694738
7496.000000;0.694733
7495.000000;0.694715
7494.000000;0.694655
7493.000000;0.694550
7492.000000;0.694444
7491.000000;0.694403
7490.000000;0.694452
7489.000000;0.694532
7488.000000;0.694556
7487.000000;0.694495
7486.000000;0.694392
7485.000000;0.694301
7484.000000;0.694260
7483.000000;0.694286
7482.000000;0.694369
7481.000000;0.694456
7480.000000;0.694483
7479.000000;0.694428
7478.000000;0.694324
7477.000000;0.694203
7476.000000;0.694067
7475.000000;0.693921
7474.000000;0.693800
7473.000000;0.693740
7472.000000;0.693734
7471.000000;0.693742
7470.000000;0.693730
7469.000000;0.693706
7468.000000;0.693706
7467.000000;0.693744
7466.000000;0.693776
7465.000000;0.693737
7464.000000;0.693619
7463.000000;0.693497
7462.000000;0.693454
7461.000000;0.693488
7460.000000;0.693519
7459.000000;0.693489
7458.000000;0.693415
7457.000000;0.693353
7456.000000;0.693323
7455.000000;0.693299
7454.000000;0.693244
7453.000000;0.693155
7452.000000;0.693075
7451.000000;0.693055
7450.000000;0.693091
7449.000000;0.693117
7448.000000;0.693078
7447.000000;0.693013
7446.000000;0.693004
7445.000000;0.693065
7444.000000;0.693123
7443.000000;0.693110
7442.000000;0.693045
7441.000000;0.692988
7440.000000;0.692947
7439.000000;0.692877
7438.000000;0.692749
7437.000000;0.692590
7436.000000;0.692460
7435.000000;0.692411
7434.000000;0.692474
7433.000000;0.692641
7432.000000;0.692846
7431.000000;0.692985
7430.000000;0.692975
7429.000000;0.692806
7428.000000;0.692553
7427.000000;0.692335
7426.000000;0.692246
7425.000000;0.692317
7424.000000;0.692499
7423.000000;0.692708
7422.000000;0.692872
7421.000000;0.692948
7420.000000;0.692936
7419.000000;0.692864
7418.000000;0.692778
7417.000000;0.692707
7416.000000;0.692636
7415.000000;0.692532
7414.000000;0.692403
7413.000000;0.692307
7412.000000;0.692307
7411.000000;0.692396
7410.000000;0.692491
7409.000000;0.692506
7408.000000;0.692423
7407.000000;0.692309
7406.000000;0.692246
7405.000000;0.692267
7404.000000;0.692338
7403.000000;0.692388
7402.000000;0.692358
7401.000000;0.692245
7400.000000;0.692108
7399.000000;0.692026
7398.000000;0.692024
7397.000000;0.692057
7396.000000;0.692067
7395.000000;0.692057
7394.000000;0.692065
7393.000000;0.692097
7392.000000;0.692114
7391.000000;0.692097
7390.000000;0.692078
7389.000000;0.692098
7388.000000;0.692153
7387.000000;0.692217
7386.000000;0.692266
7385.000000;0.692270
7384.000000;0.692195
7383.000000;0.692049
7382.000000;0.691929
7381.000000;0.691949
7380.000000;0.692101
7379.000000;0.692240
7378.000000;0.692221
7377.000000;0.692052
7376.000000;0.691873
7375.000000;0.691816
7374.000000;0.691886
7373.000000;0.691995
7372.000000;0.692062
7371.000000;0.692076
7370.000000;0.692074
7369.000000;0.692086
7368.000000;0.692108
7367.000000;0.692129
7366.000000;0.692153
7365.000000;0.692179
7364.000000;0.692165
7363.000000;0.692080
7362.000000;0.691977
7361.000000;0.691965
7360.000000;0.692076
7359.000000;0.692202
7358.000000;0.692198
7357.000000;0.692033
7356.000000;0.691798
7355.000000;0.691612
7354.000000;0.691550
7353.000000;0.691626
7352.000000;0.691792
7351.000000;0.691968
7350.000000;0.692105
7349.000000;0.692231
7348.000000;0.692376
7347.000000;0.692481
7346.000000;0.692468
7345.000000;0.692362
7344.000000;0.692260
7343.000000;0.692174
7342.000000;0.692016
7341.000000;0.691775
7340.000000;0.691593
7339.000000;0.691612
7338.000000;0.691792
7337.000000;0.691974
7336.000000;0.692061
7335.000000;0.692073
7334.000000;0.692072
7333.000000;0.692111
7332.000000;0.692181
7331.000000;0.692191
7330.000000;0.692036
7329.000000;0.691764
7328.000000;0.691597
7327.000000;0.691707
7326.000000;0.691991
7325.000000;0.692192
7324.000000;0.692212
7323.000000;0.692173
7322.000000;0.692202
7321.000000;0.692274
7320.000000;0.692292
7319.000000;0.692213
7318.000000;0.692067
7317.000000;0.691908
7316.000000;0.691794
7315.000000;0.691754
7314.000000;0.691752
7313.000000;0.691749
7312.000000;0.691819
7311.000000;0.692088
7310.000000;0.692523
7309.000000;0.692878
7308.000000;0.692945
7307.000000;0.692784
7306.000000;0.692625
7305.000000;0.692592
7304.000000;0.692646
7303.000000;0.692716
7302.000000;0.692784
7301.000000;0.692849
7300.000000;0.692917
7299.000000;0.693035
7298.000000;0.693240
7297.000000;0.693453
7296.000000;0.693526
7295.000000;0.693420
7294.000000;0.693273
7293.000000;0.693242
7292.000000;0.693326
7291.000000;0.693407
7290.000000;0.693413
7289.000000;0.693385
7288.000000;0.693411
7287.000000;0.693542
7286.000000;0.693761
7285.000000;0.694007
7284.000000;0.694209
7283.000000;0.694323
7282.000000;0.694348
7281.000000;0.694315
7280.000000;0.694274
7279.000000;0.694277
7278.000000;0.694346
7277.000000;0.694449
7276.000000;0.694525
7275.000000;0.694555
7274.000000;0.694585
7273.000000;0.694663
7272.000000;0.694777
7271.000000;0.694885
7270.000000;0.694971
7269.000000;0.695058
7268.000000;0.695176
7267.000000;0.695326
7266.000000;0.695475
7265.000000;0.695574
7264.000000;0.695587
7263.000000;0.695549
7262.000000;0.695560
7261.000000;0.695707
7260.000000;0.695982
7259.000000;0.696297
7258.000000;0.696573
7257.000000;0.696767
7256.000000;0.696849
7255.000000;0.696795
7254.000000;0.696647
7253.000000;0.696549
7252.000000;0.696642
7251.000000;0.696921
7250.000000;0.697224
7249.000000;0.697407
7248.000000;0.697494
7247.000000;0.697633
7246.000000;0.697904
7245.000000;0.698222
7244.000000;0.698443
7243.000000;0.698551
7242.000000;0.698662
7241.000000;0.698860
7240.000000;0.699072
7239.000000;0.699186
7238.000000;0.699226
7237.000000;0.699319
7236.000000;0.699515
7235.000000;0.699714
7234.000000;0.699817
7233.000000;0.699895
7232.000000;0.700110
7231.000000;0.700490
7230.000000;0.700861
7229.000000;0.701050
7228.000000;0.701073
7227.000000;0.701101
7226.000000;0.701266
7225.000000;0.701565
7224.000000;0.701900
7223.000000;0.702173
7222.000000;0.702347
7221.000000;0.702458
7220.000000;0.702581
7219.000000;0.702760
7218.000000;0.702963
7217.000000;0.703121
7216.000000;0.703221
7215.000000;0.703314
7214.000000;0.703452
7213.000000;0.703631
7212.000000;0.703810
7211.000000;0.703970
7210.000000;0.704122
7209.000000;0.704267
7208.000000;0.704377
7207.000000;0.704433
7206.000000;0.704457
7205.000000;0.704503
7204.000000;0.704629
7203.000000;0.704879
7202.000000;0.705272
7201.000000;0.705777
7200.000000;0.706296
7199.000000;0.706703
7198.000000;0.706941
7197.000000;0.707077
7196.000000;0.707246
7195.000000;0.707510
7194.000000;0.707791
7193.000000;0.707947
7192.000000;0.707930
7191.000000;0.707832
7190.000000;0.707794
7189.000000;0.707879
7188.000000;0.708061
7187.000000;0.708306
7186.000000;0.708612
7185.000000;0.708952
7184.000000;0.709248
7183.000000;0.709438
7182.000000;0.709570
7181.000000;0.709746
7180.000000;0.709988
7179.000000;0.710219
7178.000000;0.710378
7177.000000;0.710501
7176.000000;0.710659
7175.000000;0.710882
7174.000000;0.711183
7173.000000;0.711586
7172.000000;0.712069
7171.000000;0.712503
7170.000000;0.712750
7169.000000;0.712829
7168.000000;0.712933
7167.000000;0.713233
7166.000000;0.713725
7165.000000;0.714269
7164.000000;0.714713
7163.000000;0.714940
7162.000000;0.714894
7161.000000;0.714671
7160.000000;0.714510
7159.000000;0.714604
7158.000000;0.714912
7157.000000;0.715248
7156.000000;0.715517
7155.000000;0.715763
7154.000000;0.716012
7153.000000;0.716209
7152.000000;0.716344
7151.000000;0.716519
7150.000000;0.716801
7149.000000;0.717064
7148.000000;0.717089
7147.000000;0.716812
7146.000000;0.716427
7145.000000;0.716242
7144.000000;0.716449
7143.000000;0.716971
7142.000000;0.717503
7141.000000;0.717761
7140.000000;0.717745
7139.000000;0.717715
7138.000000;0.717876
7137.000000;0.718151
7136.000000;0.718368
7135.000000;0.718540
7134.000000;0.718809
7133.000000;0.719149
7132.000000;0.719298
7131.000000;0.719046
7130.000000;0.718509
7129.000000;0.718054
7128.000000;0.718000
7127.000000;0.718375
7126.000000;0.718894
7125.000000;0.719153
7124.000000;0.718967
7123.000000;0.718559
7122.000000;0.718348
7121.000000;0.718493
7120.000000;0.718740
7119.000000;0.718747
7118.000000;0.718463
7117.000000;0.718092
7116.000000;0.717765
7115.000000;0.717408
7114.000000;0.716933
7113.000000;0.716388
7112.000000;0.715894
7111.000000;0.715531
7110.000000;0.715305
7109.000000;0.715105
7108.000000;0.714705
7107.000000;0.713931
7106.000000;0.712896
7105.000000;0.711970
7104.000000;0.711431
7103.000000;0.711234
7102.000000;0.711185
7101.000000;0.711215
7100.000000;0.711316
7099.000000;0.711308
7098.000000;0.710884
7097.000000;0.709955
7096.000000;0.708829
7095.000000;0.707938
7094.000000;0.707470
7093.000000;0.707343
7092.000000;0.707437
7091.000000;0.707664
7090.000000;0.707798
7089.000000;0.707428
7088.000000;0.706290
7087.000000;0.704634
7086.000000;0.703084
7085.000000;0.702024
7084.000000;0.701227
7083.000000;0.700219
7082.000000;0.698922
7081.000000;0.697711
7080.000000;0.696840
7079.000000;0.696118
7078.000000;0.695280
7077.000000;0.694427
7076.000000;0.693769
7075.000000;0.693119
7074.000000;0.692038
7073.000000;0.690493
7072.000000;0.688948
7071.000000;0.687704
7070.000000;0.686498
7069.000000;0.684981
7068.000000;0.683286
7067.000000;0.681809
7066.000000;0.680624
7065.000000;0.679452
7064.000000;0.678080
7063.000000;0.676529
7062.000000;0.674868
7061.000000;0.673204
7060.000000;0.671769
7059.000000;0.670711
7058.000000;0.669786
7057.000000;0.668582
7056.000000;0.667104
7055.000000;0.665794
7054.000000;0.664861
7053.000000;0.663878
7052.000000;0.662290
7051.000000;0.660104
7050.000000;0.657861
7049.000000;0.656032
7048.000000;0.654665
7047.000000;0.653484
7046.000000;0.652134
7045.000000;0.650402
7044.000000;0.648388
7043.000000;0.646410
7042.000000;0.644653
7041.000000;0.643003
7040.000000;0.641309
7039.000000;0.639642
7038.000000;0.638128
7037.000000;0.636690
7036.000000;0.635186
7035.000000;0.633654
7034.000000;0.632158
7033.000000;0.630497
7032.000000;0.628421
7031.000000;0.626048
7030.000000;0.623692
7029.000000;0.621288
7028.000000;0.618414
7027.000000;0.615028
7026.000000;0.611789
7025.000000;0.609355
7024.000000;0.607635
7023.000000;0.606012
7022.000000;0.604156
7021.000000;0.602298
7020.000000;0.600733
7019.000000;0.599326
7018.000000;0.597642
7017.000000;0.595461
7016.000000;0.593030
7015.000000;0.590767
7014.000000;0.588760
7013.000000;0.586702
7012.000000;0.584396
7011.000000;0.582141
7010.000000;0.580338
7009.000000;0.578810
7008.000000;0.576910
7007.000000;0.574356
7006.000000;0.571603
7005.000000;0.569195
7004.000000;0.567135
7003.000000;0.565136
7002.000000;0.563171
7001.000000;0.561375
7000.000000;0.559636
6999.000000;0.557706
6998.000000;0.555646
6997.000000;0.553711
6996.000000;0.551780
6995.000000;0.549350
6994.000000;0.546228
6993.000000;0.542933
6992.000000;0.540179
6991.000000;0.538141
6990.000000;0.536410
6989.000000;0.534540
6988.000000;0.532519
6987.000000;0.530647
6986.000000;0.529039
6985.000000;0.527371
6984.000000;0.525205
6983.000000;0.522502
6982.000000;0.519654
6981.000000;0.516963
6980.000000;0.514313
6979.000000;0.511499
6978.000000;0.508692
6977.000000;0.506323
6976.000000;0.504526
6975.000000;0.502923
6974.000000;0.500971
6973.000000;0.498427
6972.000000;0.495464
6971.000000;0.492459
6970.000000;0.489729
6969.000000;0.487409
6968.000000;0.485487
6967.000000;0.483883
6966.000000;0.482464
6965.000000;0.481064
6964.000000;0.479627
6963.000000;0.478283
6962.000000;0.477083
6961.000000;0.475675
6960.000000;0.473527
6959.000000;0.470576
6958.000000;0.467394
6957.000000;0.464565
6956.000000;0.462133
6955.000000;0.459899
6954.000000;0.457985
6953.000000;0.456715
6952.000000;0.456008
6951.000000;0.455269
6950.000000;0.453950
6949.000000;0.451991
6948.000000;0.449601
6947.000000;0.446853
6946.000000;0.443708
6945.000000;0.440334
6944.000000;0.437160
6943.000000;0.434569
6942.000000;0.432633
6941.000000;0.431185
6940.000000;0.430057
6939.000000;0.429147
6938.000000;0.428319
6937.000000;0.427382
6936.000000;0.426167
6935.000000;0.424525
6934.000000;0.422328
6933.000000;0.419723
6932.000000;0.417326
6931.000000;0.415727
6930.000000;0.414647
6929.000000;0.413005
6928.000000;0.410212
6927.000000;0.407037
6926.000000;0.404721
6925.000000;0.403500
6924.000000;0.402511
6923.000000;0.401025
6922.000000;0.399173
6921.000000;0.397428
6920.000000;0.395946
6919.000000;0.394606
6918.000000;0.393275
6917.000000;0.391908
6916.000000;0.390654
6915.000000;0.389831
6914.000000;0.389446
6913.000000;0.388831
6912.000000;0.387291
6911.000000;0.385084
6910.000000;0.383165
6909.000000;0.381847
6908.000000;0.380346
6907.000000;0.377921
6906.000000;0.374960
6905.000000;0.372585
6904.000000;0.371560
6903.000000;0.371802
6902.000000;0.372626
6901.000000;0.373205
6900.000000;0.373073
6899.000000;0.372322
6898.000000;0.371121
6897.000000;0.369125
6896.000000;0.365920
6895.000000;0.362091
6894.000000;0.359132
6893.000000;0.358001
6892.000000;0.358201
6891.000000;0.358567
6890.000000;0.358435
6889.000000;0.357793
6888.000000;0.356837
6887.000000;0.355848
6886.000000;0.355087
6885.000000;0.354425
6884.000000;0.353381
6883.000000;0.351861
6882.000000;0.350461
6881.000000;0.349688
6880.000000;0.349274
6879.000000;0.348583
6878.000000;0.347420
6877.000000;0.346086
6876.000000;0.344956
6875.000000;0.344311
6874.000000;0.344264
6873.000000;0.344519
6872.000000;0.344502
6871.000000;0.343994
6870.000000;0.343338
6869.000000;0.342826
6868.000000;0.342305
6867.000000;0.341671
6866.000000;0.341264
6865.000000;0.341393
6864.000000;0.341839
6863.000000;0.342202
6862.000000;0.342375
6861.000000;0.342336
6860.000000;0.341891
6859.000000;0.340999
6858.000000;0.340004
6857.000000;0.339187
6856.000000;0.338435
6855.000000;0.337691
6854.000000;0.337264
6853.000000;0.337248
6852.000000;0.337072
6851.000000;0.336200
6850.000000;0.334968
6849.000000;0.334246
6848.000000;0.334492
6847.000000;0.335539
6846.000000;0.337003
6845.000000;0.338351
6844.000000;0.338836
6843.000000;0.337973
6842.000000;0.336132
6841.000000;0.334356
6840.000000;0.333582
6839.000000;0.334113
6838.000000;0.335542
6837.000000;0.336885
6836.000000;0.337213
6835.000000;0.336619
6834.000000;0.336280
6833.000000;0.337151
6832.000000;0.338932
6831.000000;0.340641
6830.000000;0.341752
6829.000000;0.342277
6828.000000;0.342187
6827.000000;0.341513
6826.000000;0.340780
6825.000000;0.340580
6824.000000;0.340729
6823.000000;0.340532
6822.000000;0.339883
6821.000000;0.339528
6820.000000;0.340151
6819.000000;0.341659
6818.000000;0.343440
6817.000000;0.344933
6816.000000;0.345912
6815.000000;0.346543
6814.000000;0.347235
6813.000000;0.348181
6812.000000;0.349052
6811.000000;0.349413
6810.000000;0.349371
6809.000000;0.349467
6808.000000;0.349986
6807.000000;0.350706
6806.000000;0.351315
6805.000000;0.351762
6804.000000;0.352186
6803.000000;0.352777
6802.000000;0.353685
6801.000000;0.354764
6800.000000;0.355530
6799.000000;0.355686
6798.000000;0.355652
6797.000000;0.356137
6796.000000;0.357197
6795.000000;0.358134
6794.000000;0.358443
6793.000000;0.358482
6792.000000;0.359022
6791.000000;0.360399
6790.000000;0.362314
6789.000000;0.364235
6788.000000;0.365743
6787.000000;0.366638
6786.000000;0.366982
6785.000000;0.367089
6784.000000;0.367335
6783.000000;0.367894
6782.000000;0.368645
6781.000000;0.369339
6780.000000;0.369877
6779.000000;0.370402
6778.000000;0.371100
6777.000000;0.371920
6776.000000;0.372625
6775.000000;0.373165
6774.000000;0.373809
6773.000000;0.374799
6772.000000;0.375973
6771.000000;0.376910
6770.000000;0.377408
6769.000000;0.377713
6768.000000;0.378306
6767.000000;0.379504
6766.000000;0.381190
6765.000000;0.382829
6764.000000;0.383889
6763.000000;0.384325
6762.000000;0.384563
6761.000000;0.384945
6760.000000;0.385402
6759.000000;0.385789
6758.000000;0.386293
6757.000000;0.387207
6756.000000;0.388413
6755.000000;0.389470
6754.000000;0.390205
6753.000000;0.390937
6752.000000;0.392021
6751.000000;0.393380
6750.000000;0.394617
6749.000000;0.395469
6748.000000;0.396022
6747.000000;0.396533
6746.000000;0.397115
6745.000000;0.397638
6744.000000;0.397983
6743.000000;0.398356
6742.000000;0.399155
6741.000000;0.400427
6740.000000;0.401642
6739.000000;0.402247
6738.000000;0.402352
6737.000000;0.402604
6736.000000;0.403415
6735.000000;0.404579
6734.000000;0.405672
6733.000000;0.406553
6732.000000;0.407333
6731.000000;0.408097
6730.000000;0.408858
6729.000000;0.409665
6728.000000;0.410574
6727.000000;0.411539
6726.000000;0.412455
6725.000000;0.413292
6724.000000;0.414064
6723.000000;0.414732
6722.000000;0.415229
6721.000000;0.415599
6720.000000;0.416003
6719.000000;0.416559
6718.000000;0.417238
6717.000000;0.417940
6716.000000;0.418635
6715.000000;0.419379
6714.000000;0.420214
6713.000000;0.421096
6712.000000;0.421930
6711.000000;0.422654
6710.000000;0.423263
6709.000000;0.423782
6708.000000;0.424266
6707.000000;0.424803
6706.000000;0.425474
6705.000000;0.426259
6704.000000;0.427038
6703.000000;0.427683
6702.000000;0.428144
6701.000000;0.428477
6700.000000;0.428790
6699.000000;0.429209
6698.000000;0.429799
6697.000000;0.430501
6696.000000;0.431173
6695.000000;0.431745
6694.000000;0.432293
6693.000000;0.432927
6692.000000;0.433678
6691.000000;0.434511
6690.000000;0.435423
6689.000000;0.436410
6688.000000;0.437410
6687.000000;0.438342
6686.000000;0.439197
6685.000000;0.440016
6684.000000;0.440783
6683.000000;0.441413
6682.000000;0.441844
6681.000000;0.442109
6680.000000;0.442311
6679.000000;0.442584
6678.000000;0.443053
6677.000000;0.443769
6676.000000;0.444651
6675.000000;0.445548
6674.000000;0.446367
6673.000000;0.447113
6672.000000;0.447819
6671.000000;0.448504
6670.000000;0.449192
6669.000000;0.449905
6668.000000;0.450607
6667.000000;0.451217
6666.000000;0.451722
6665.000000;0.452209
6664.000000;0.452751
6663.000000;0.453289
6662.000000;0.453698
6661.000000;0.453958
6660.000000;0.454222
6659.000000;0.454708
6658.000000;0.455506
6657.000000;0.456470
6656.000000;0.457285
6655.000000;0.457705
6654.000000;0.457802
6653.000000;0.457941
6652.000000;0.458448
6651.000000;0.459298
6650.000000;0.460174
6649.000000;0.460820
6648.000000;0.461268
6647.000000;0.461704
6646.000000;0.462224
6645.000000;0.462773
6644.000000;0.463280
6643.000000;0.463760
6642.000000;0.464263
6641.000000;0.464789
6640.000000;0.465282
6639.000000;0.465675
6638.000000;0.465951
6637.000000;0.466165
6636.000000;0.466425
6635.000000;0.466831
6634.000000;0.467404
6633.000000;0.468075
6632.000000;0.468744
6631.000000;0.469345
6630.000000;0.469881
6629.000000;0.470424
6628.000000;0.471052
6627.000000;0.471742
6626.000000;0.472359
6625.000000;0.472784
6624.000000;0.473051
6623.000000;0.473317
6622.000000;0.473694
6621.000000;0.474183
6620.000000;0.474774
6619.000000;0.475515
6618.000000;0.476414
6617.000000;0.477334
6616.000000;0.478068
6615.000000;0.478514
6614.000000;0.478750
6613.000000;0.478935
6612.000000;0.479179
6611.000000;0.479500
6610.000000;0.479885
6609.000000;0.480351
6608.000000;0.480953
6607.000000;0.481710
6606.000000;0.482539
6605.000000;0.483285
6604.000000;0.483838
6603.000000;0.484198
6602.000000;0.484427
6601.000000;0.484596
6600.000000;0.484779
6599.000000;0.485046
6598.000000;0.485404
6597.000000;0.485791
6596.000000;0.486154
6595.000000;0.486509
6594.000000;0.486886
6593.000000;0.487265
6592.000000;0.487621
6591.000000;0.487977
6590.000000;0.488382
6589.000000;0.488863
6588.000000;0.489431
6587.000000;0.490088
6586.000000;0.490763
6585.000000;0.491300
6584.000000;0.491617
6583.000000;0.491835
6582.000000;0.492148
6581.000000;0.492588
6580.000000;0.493032
6579.000000;0.493422
6578.000000;0.493858
6577.000000;0.494417
6576.000000;0.495018
6575.000000;0.495517
6574.000000;0.495881
6573.000000;0.496174
6572.000000;0.496452
6571.000000;0.496725
6570.000000;0.497002
6569.000000;0.497309
6568.000000;0.497648
6567.000000;0.497997
6566.000000;0.498338
6565.000000;0.498667
6564.000000;0.499010
6563.000000;0.499405
6562.000000;0.499868
6561.000000;0.500359
6560.000000;0.500833
6559.000000;0.501310
6558.000000;0.501849
6557.000000;0.502415
6556.000000;0.502873
6555.000000;0.503137
6554.000000;0.503291
6553.000000;0.503490
6552.000000;0.503802
6551.000000;0.504186
6550.000000;0.504597
6549.000000;0.505014
6548.000000;0.505408
6547.000000;0.505735
6546.000000;0.506001
6545.000000;0.506273
6544.000000;0.506606
6543.000000;0.506996
6542.000000;0.507408
6541.000000;0.507823
6540.000000;0.508244
6539.000000;0.508665
6538.000000;0.509065
6537.000000;0.509414
6536.000000;0.509709
6535.000000;0.509975
6534.000000;0.510243
6533.000000;0.510512
6532.000000;0.510759
6531.000000;0.510987
6530.000000;0.511249
6529.000000;0.511603
6528.000000;0.512052
6527.000000;0.512543
6526.000000;0.513021
6525.000000;0.513450
6524.000000;0.513815
6523.000000;0.514108
6522.000000;0.514334
6521.000000;0.514518
6520.000000;0.514713
6519.000000;0.514981
6518.000000;0.515348
6517.000000;0.515759
6516.000000;0.516117
6515.000000;0.516376
6514.000000;0.516578
6513.000000;0.516792
6512.000000;0.517045
6511.000000;0.517327
6510.000000;0.517629
6509.000000;0.517943
6508.000000;0.518250
6507.000000;0.518537
6506.000000;0.518817
6505.000000;0.519119
6504.000000;0.519453
6503.000000;0.519814
6502.000000;0.520188
6501.000000;0.520552
6500.000000;0.520873
6499.000000;0.521145
6498.000000;0.521406
6497.000000;0.521705
6496.000000;0.522045
6495.000000;0.522376
6494.000000;0.522624
6493.000000;0.522744
6492.000000;0.522760
6491.000000;0.522783
6490.000000;0.522944
6489.000000;0.523281
6488.000000;0.523707
6487.000000;0.524112
6486.000000;0.524456
6485.000000;0.524769
6484.000000;0.525080
6483.000000;0.525400
6482.000000;0.525734
6481.000000;0.526065
6480.000000;0.526347
6479.000000;0.526557
6478.000000;0.526751
6477.000000;0.527011
6476.000000;0.527341
6475.000000;0.527665
6474.000000;0.527925
6473.000000;0.528143
6472.000000;0.528363
6471.000000;0.528584
6470.000000;0.528791
6469.000000;0.529004
6468.000000;0.529265
6467.000000;0.529582
6466.000000;0.529923
6465.000000;0.530245
6464.000000;0.530521
6463.000000;0.530749
6462.000000;0.530951
6461.000000;0.531163
6460.000000;0.531392
6459.000000;0.531603
6458.000000;0.531759
6457.000000;0.531873
6456.000000;0.532001
6455.000000;0.532184
6454.000000;0.532402
6453.000000;0.532605
6452.000000;0.532776
6451.000000;0.532969
6450.000000;0.533249
6449.000000;0.533611
6448.000000;0.533971
6447.000000;0.534252
6446.000000;0.534462
6445.000000;0.534664
6444.000000;0.534885
6443.000000;0.535103
6442.000000;0.535301
6441.000000;0.535504
6440.000000;0.535737
6439.000000;0.535988
6438.000000;0.536223
6437.000000;0.536428
6436.000000;0.536621
6435.000000;0.536820
6434.000000;0.537027
6433.000000;0.537228
6432.000000;0.537408
6431.000000;0.537565
6430.000000;0.537724
6429.000000;0.537917
6428.000000;0.538150
6427.000000;0.538388
6426.000000;0.538585
6425.000000;0.538710
6424.000000;0.538771
6423.000000;0.538820
6422.000000;0.538930
6421.000000;0.539146
6420.000000;0.539436
6419.000000;0.539716
6418.000000;0.539923
6417.000000;0.540058
6416.000000;0.540163
6415.000000;0.540283
6414.000000;0.540455
6413.000000;0.540703
6412.000000;0.541000
6411.000000;0.541272
6410.000000;0.541451
6409.000000;0.541540
6408.000000;0.541602
6407.000000;0.541694
6406.000000;0.541821
6405.000000;0.541962
6404.000000;0.542105
6403.000000;0.542266
6402.000000;0.542474
6401.000000;0.542737
6400.000000;0.543018
6399.000000;0.543252
6398.000000;0.543406
6397.000000;0.543518
6396.000000;0.543654
6395.000000;0.543838
6394.000000;0.544023
6393.000000;0.544151
6392.000000;0.544202
6391.000000;0.544202
6390.000000;0.544202
6389.000000;0.544252
6388.000000;0.544377
6387.000000;0.544561
6386.000000;0.544770
6385.000000;0.544993
6384.000000;0.545244
6383.000000;0.545515
6382.000000;0.545749
6381.000000;0.545895
6380.000000;0.545971
6379.000000;0.546060
6378.000000;0.546217
6377.000000;0.546412
6376.000000;0.546585
6375.000000;0.546722
6374.000000;0.546851
6373.000000;0.546982
6372.000000;0.547084
6371.000000;0.547140
6370.000000;0.547188
6369.000000;0.547276
6368.000000;0.547399
6367.000000;0.547509
6366.000000;0.547586
6365.000000;0.547663
6364.000000;0.547778
6363.000000;0.547929
6362.000000;0.548086
6361.000000;0.548225
6360.000000;0.548336
6359.000000;0.548417
6358.000000;0.548478
6357.000000;0.548538
6356.000000;0.548602
6355.000000;0.548667
6354.000000;0.548742
6353.000000;0.548860
6352.000000;0.549028
6351.000000;0.549205
6350.000000;0.549344
6349.000000;0.549443
6348.000000;0.549531
6347.000000;0.549621
6346.000000;0.549714
6345.000000;0.549831
6344.000000;0.549986
6343.000000;0.550128
6342.000000;0.550171
6341.000000;0.550103
6340.000000;0.550033
6339.000000;0.550083
6338.000000;0.550269
6337.000000;0.550500
6336.000000;0.550686
6335.000000;0.550798
6334.000000;0.550855
6333.000000;0.550884
6332.000000;0.550902
6331.000000;0.550924
6330.000000;0.550953
6329.000000;0.550987
6328.000000;0.551025
6327.000000;0.551072
6326.000000;0.551140
6325.000000;0.551231
6324.000000;0.551331
6323.000000;0.551412
6322.000000;0.551466
6321.000000;0.551521
6320.000000;0.551624
6319.000000;0.551792
6318.000000;0.551993
6317.000000;0.552172
6316.000000;0.552296
6315.000000;0.552361
6314.000000;0.552392
6313.000000;0.552422
6312.000000;0.552472
6311.000000;0.552537
6310.000000;0.552585
6309.000000;0.552595
6308.000000;0.552579
6307.000000;0.552575
6306.000000;0.552627
6305.000000;0.552754
6304.000000;0.552923
6303.000000;0.553064
6302.000000;0.553121
6301.000000;0.553117
6300.000000;0.553124
6299.000000;0.553171
6298.000000;0.553214
6297.000000;0.553221
6296.000000;0.553227
6295.000000;0.553288
6294.000000;0.553395
6293.000000;0.553477
6292.000000;0.553487
6291.000000;0.553442
6290.000000;0.553396
6289.000000;0.553398
6288.000000;0.553473
6287.000000;0.553602
6286.000000;0.553733
6285.000000;0.553829
6284.000000;0.553910
6283.000000;0.554010
6282.000000;0.554109
6281.000000;0.554143
6280.000000;0.554096
6279.000000;0.554021
6278.000000;0.553971
6277.000000;0.553945
6276.000000;0.553929
6275.000000;0.553933
6274.000000;0.553971
6273.000000;0.554025
6272.000000;0.554073
6271.000000;0.554122
6270.000000;0.554190
6269.000000;0.554280
6268.000000;0.554376
6267.000000;0.554481
6266.000000;0.554598
6265.000000;0.554709
6264.000000;0.554781
6263.000000;0.554805
6262.000000;0.554791
6261.000000;0.554744
6260.000000;0.554663
6259.000000;0.554565
6258.000000;0.554495
6257.000000;0.554483
6256.000000;0.554523
6255.000000;0.554588
6254.000000;0.554665
6253.000000;0.554753
6252.000000;0.554838
6251.000000;0.554892
6250.000000;0.554901
6249.000000;0.554884
6248.000000;0.554875
6247.000000;0.554876
6246.000000;0.554860
6245.000000;0.554814
6244.000000;0.554777
6243.000000;0.554800
6242.000000;0.554886
6241.000000;0.554982
6240.000000;0.555040
6239.000000;0.555050
6238.000000;0.555024
6237.000000;0.554974
6236.000000;0.554923
6235.000000;0.554896
6234.000000;0.554900
6233.000000;0.554916
6232.000000;0.554934
6231.000000;0.554967
6230.000000;0.555017
6229.000000;0.555055
6228.000000;0.555072
6227.000000;0.555099
6226.000000;0.555170
6225.000000;0.555267
6224.000000;0.555330
6223.000000;0.555324
6222.000000;0.555263
6221.000000;0.555185
6220.000000;0.555125
6219.000000;0.555107
6218.000000;0.555128
6217.000000;0.555156
6216.000000;0.555167
6215.000000;0.555160
6214.000000;0.555141
6213.000000;0.555106
6212.000000;0.555064
6211.000000;0.555052
6210.000000;0.555097
6209.000000;0.555166
6208.000000;0.555194
6207.000000;0.555160
6206.000000;0.555094
6205.000000;0.555033
6204.000000;0.554987
6203.000000;0.554966
6202.000000;0.554988
6201.000000;0.555052
6200.000000;0.555123
6199.000000;0.555161
6198.000000;0.555154
6197.000000;0.555116
6196.000000;0.555084
6195.000000;0.555088
6194.000000;0.555128
6193.000000;0.555159
6192.000000;0.555141
6191.000000;0.555086
6190.000000;0.555033
6189.000000;0.554991
6188.000000;0.554932
6187.000000;0.554854
6186.000000;0.554801
6185.000000;0.554799
6184.000000;0.554820
6183.000000;0.554829
6182.000000;0.554842
6181.000000;0.554895
6180.000000;0.554979
6179.000000;0.555038
6178.000000;0.555023
6177.000000;0.554923
6176.000000;0.554770
6175.000000;0.554622
6174.000000;0.554533
6173.000000;0.554527
6172.000000;0.554589
6171.000000;0.554691
6170.000000;0.554799
6169.000000;0.554863
6168.000000;0.554834
6167.000000;0.554706
6166.000000;0.554541
6165.000000;0.554418
6164.000000;0.554367
6163.000000;0.554372
6162.000000;0.554407
6161.000000;0.554439
6160.000000;0.554430
6159.000000;0.554365
6158.000000;0.554287
6157.000000;0.554266
6156.000000;0.554323
6155.000000;0.554420
6154.000000;0.554503
6153.000000;0.554545
6152.000000;0.554544
6151.000000;0.554505
6150.000000;0.554445
6149.000000;0.554393
6148.000000;0.554368
6147.000000;0.554366
6146.000000;0.554374
6145.000000;0.554385
6144.000000;0.554399
6143.000000;0.554402
6142.000000;0.554377
6141.000000;0.554315
6140.000000;0.554231
6139.000000;0.554152
6138.000000;0.554096
6137.000000;0.554049
6136.000000;0.553984
6135.000000;0.553899
6134.000000;0.553833
6133.000000;0.553818
6132.000000;0.553843
6131.000000;0.553867
6130.000000;0.553870
6129.000000;0.553871
6128.000000;0.553879
6127.000000;0.553876
6126.000000;0.553833
6125.000000;0.553750
6124.000000;0.553658
6123.000000;0.553590
6122.000000;0.553562
6121.000000;0.553572
6120.000000;0.553605
6119.000000;0.553640
6118.000000;0.553659
6117.000000;0.553647
6116.000000;0.553601
6115.000000;0.553538
6114.000000;0.553492
6113.000000;0.553484
6112.000000;0.553498
6111.000000;0.553497
6110.000000;0.553460
6109.000000;0.553403
6108.000000;0.553353
6107.000000;0.553328
6106.000000;0.553326
6105.000000;0.553328
6104.000000;0.553303
6103.000000;0.553231
6102.000000;0.553131
6101.000000;0.553051
6100.000000;0.553022
6099.000000;0.553034
6098.000000;0.553057
6097.000000;0.553080
6096.000000;0.553098
6095.000000;0.553094
6094.000000;0.553048
6093.000000;0.552965
6092.000000;0.552879
6091.000000;0.552816
6090.000000;0.552775
6089.000000;0.552752
6088.000000;0.552754
6087.000000;0.552780
6086.000000;0.552803
6085.000000;0.552791
6084.000000;0.552744
6083.000000;0.552687
6082.000000;0.552638
6081.000000;0.552596
6080.000000;0.552556
6079.000000;0.552530
6078.000000;0.552529
6077.000000;0.552541
6076.000000;0.552534
6075.000000;0.552498
6074.000000;0.552448
6073.000000;0.552415
6072.000000;0.552405
6071.000000;0.552398
6070.000000;0.552361
6069.000000;0.552280
6068.000000;0.552168
6067.000000;0.552044
6066.000000;0.551926
6065.000000;0.551829
6064.000000;0.551778
6063.000000;0.551795
6062.000000;0.551864
6061.000000;0.551947
6060.000000;0.552009
6059.000000;0.552041
6058.000000;0.552038
6057.000000;0.551991
6056.000000;0.551902
6055.000000;0.551809
6054.000000;0.551755
6053.000000;0.551750
6052.000000;0.551763
6051.000000;0.551771
6050.000000;0.551778
6049.000000;0.551803
6048.000000;0.551847
6047.000000;0.551889
6046.000000;0.551902
6045.000000;0.551876
6044.000000;0.551830
6043.000000;0.551806
6042.000000;0.551832
6041.000000;0.551886
6040.000000;0.551905
6039.000000;0.551853
6038.000000;0.551759
6037.000000;0.551682
6036.000000;0.551647
6035.000000;0.551622
6034.000000;0.551569
6033.000000;0.551487
6032.000000;0.551412
6031.000000;0.551376
6030.000000;0.551368
6029.000000;0.551352
6028.000000;0.551307
6027.000000;0.551244
6026.000000;0.551196
6025.000000;0.551178
6024.000000;0.551176
6023.000000;0.551164
6022.000000;0.551128
6021.000000;0.551074
6020.000000;0.551020
6019.000000;0.550990
6018.000000;0.551001
6017.000000;0.551046
6016.000000;0.551096
6015.000000;0.551119
6014.000000;0.551109
6013.000000;0.551087
6012.000000;0.551086
6011.000000;0.551123
6010.000000;0.551186
6009.000000;0.551241
6008.000000;0.551264
6007.000000;0.551255
6006.000000;0.551226
6005.000000;0.551179
6004.000000;0.551109
6003.000000;0.551027
6002.000000;0.550968
6001.000000;0.550957
6000.000000;0.550986
5999.000000;0.551011
5998.000000;0.550992
5997.000000;0.550920
5996.000000;0.550822
5995.000000;0.550739
5994.000000;0.550698
5993.000000;0.550704
5992.000000;0.550738
5991.000000;0.550771
5990.000000;0.550763
5989.000000;0.550686
5988.000000;0.550550
5987.000000;0.550410
5986.000000;0.550326
5985.000000;0.550318
5984.000000;0.550356
5983.000000;0.550400
5982.000000;0.550436
5981.000000;0.550468
5980.000000;0.550501
5979.000000;0.550541
5978.000000;0.550591
5977.000000;0.550639
5976.000000;0.550664
5975.000000;0.550657
5974.000000;0.550635
5973.000000;0.550621
5972.000000;0.550620
5971.000000;0.550621
5970.000000;0.550618
5969.000000;0.550616
5968.000000;0.550612
5967.000000;0.550595
5966.000000;0.550558
5965.000000;0.550508
5964.000000;0.550465
5963.000000;0.550450
5962.000000;0.550469
5961.000000;0.550496
5960.000000;0.550492
5959.000000;0.550443
5958.000000;0.550379
5957.000000;0.550339
5956.000000;0.550326
5955.000000;0.550313
5954.000000;0.550286
5953.000000;0.550260
5952.000000;0.550252
5951.000000;0.550255
5950.000000;0.550257
5949.000000;0.550255
5948.000000;0.550260
5947.000000;0.550275
5946.000000;0.550303
5945.000000;0.550346
5944.000000;0.550400
5943.000000;0.550446
5942.000000;0.550466
5941.000000;0.550464
5940.000000;0.550469
5939.000000;0.550500
5938.000000;0.550550
5937.000000;0.550588
5936.000000;0.550597
5935.000000;0.550577
5934.000000;0.550546
5933.000000;0.550522
5932.000000;0.550516
5931.000000;0.550520
5930.000000;0.550515
5929.000000;0.550493
5928.000000;0.550469
5927.000000;0.550459
5926.000000;0.550457
5925.000000;0.550441
5924.000000;0.550400
5923.000000;0.550352
5922.000000;0.550313
5921.000000;0.550282
5920.000000;0.550249
5919.000000;0.550211
5918.000000;0.550172
5917.000000;0.550128
5916.000000;0.550080
5915.000000;0.550033
5914.000000;0.550000
5913.000000;0.549991
5912.000000;0.550005
5911.000000;0.550039
5910.000000;0.550063
5909.000000;0.550039
5908.000000;0.549967
5907.000000;0.549904
5906.000000;0.549911
5905.000000;0.549976
5904.000000;0.550023
5903.000000;0.550002
5902.000000;0.549943
5901.000000;0.549895
5900.000000;0.549864
5899.000000;0.549819
5898.000000;0.549753
5897.000000;0.549697
5896.000000;0.549685
5895.000000;0.549710
5894.000000;0.549729
5893.000000;0.549696
5892.000000;0.549595
5891.000000;0.549459
5890.000000;0.549347
5889.000000;0.549299
5888.000000;0.549310
5887.000000;0.549351
5886.000000;0.549393
5885.000000;0.549414
5884.000000;0.549400
5883.000000;0.549356
5882.000000;0.549307
5881.000000;0.549280
5880.000000;0.549280
5879.000000;0.549300
5878.000000;0.549330
5877.000000;0.549356
5876.000000;0.549356
5875.000000;0.549322
5874.000000;0.549278
5873.000000;0.549255
5872.000000;0.549255
5871.000000;0.549261
5870.000000;0.549265
5869.000000;0.549269
5868.000000;0.549269
5867.000000;0.549257
5866.000000;0.549245
5865.000000;0.549248
5864.000000;0.549253
5863.000000;0.549229
5862.000000;0.549168
5861.000000;0.549110
5860.000000;0.549096
5859.000000;0.549129
5858.000000;0.549173
5857.000000;0.549185
5856.000000;0.549146
5855.000000;0.549060
5854.000000;0.548957
5853.000000;0.548875
5852.000000;0.548836
5851.000000;0.548840
5850.000000;0.548874
5849.000000;0.548923
5848.000000;0.548972
5847.000000;0.549005
5846.000000;0.549009
5845.000000;0.548972
5844.000000;0.548900
5843.000000;0.548814
5842.000000;0.548753
5841.000000;0.548739
5840.000000;0.548756
5839.000000;0.548767
5838.000000;0.548752
5837.000000;0.548721
5836.000000;0.548694
5835.000000;0.548680
5834.000000;0.548682
5833.000000;0.548692
5832.000000;0.548686
5831.000000;0.548647
5830.000000;0.548591
5829.000000;0.548560
5828.000000;0.548575
5827.000000;0.548608
5826.000000;0.548624
5825.000000;0.548619
5824.000000;0.548609
5823.000000;0.548607
5822.000000;0.548613
5821.000000;0.548624
5820.000000;0.548639
5819.000000;0.548653
5818.000000;0.548660
5817.000000;0.548664
5816.000000;0.548670
5815.000000;0.548666
5814.000000;0.548641
5813.000000;0.548602
5812.000000;0.548568
5811.000000;0.548552
5810.000000;0.548549
5809.000000;0.548556
5808.000000;0.548571
5807.000000;0.548592
5806.000000;0.548603
5805.000000;0.548586
5804.000000;0.548531
5803.000000;0.548449
5802.000000;0.548363
5801.000000;0.548301
5800.000000;0.548282
5799.000000;0.548303
5798.000000;0.548350
5797.000000;0.548404
5796.000000;0.548461
5795.000000;0.548524
5794.000000;0.548592
5793.000000;0.548643
5792.000000;0.548647
5791.000000;0.548593
5790.000000;0.548512
5789.000000;0.548457
5788.000000;0.548456
5787.000000;0.548489
5786.000000;0.548513
5785.000000;0.548507
5784.000000;0.548485
5783.000000;0.548466
5782.000000;0.548448
5781.000000;0.548415
5780.000000;0.548361
5779.000000;0.548300
5778.000000;0.548250
5777.000000;0.548207
5776.000000;0.548157
5775.000000;0.548108
5774.000000;0.548078
5773.000000;0.548065
5772.000000;0.548030
5771.000000;0.547940
5770.000000;0.547815
5769.000000;0.547715
5768.000000;0.547677
5767.000000;0.547683
5766.000000;0.547690
5765.000000;0.547673
5764.000000;0.547627
5763.000000;0.547558
5762.000000;0.547483
5761.000000;0.547433
5760.000000;0.547423
5759.000000;0.547430
5758.000000;0.547411
5757.000000;0.547353
5756.000000;0.547274
5755.000000;0.547204
5754.000000;0.547153
5753.000000;0.547127
5752.000000;0.547131
5751.000000;0.547160
5750.000000;0.547187
5749.000000;0.547178
5748.000000;0.547125
5747.000000;0.547045
5746.000000;0.546958
5745.000000;0.546863
5744.000000;0.546755
5743.000000;0.546641
5742.000000;0.546547
5741.000000;0.546489
5740.000000;0.546450
5739.000000;0.546406
5738.000000;0.546356
5737.000000;0.546328
5736.000000;0.546340
5735.000000;0.546374
5734.000000;0.546395
5733.000000;0.546387
5732.000000;0.546358
5731.000000;0.546314
5730.000000;0.546243
5729.000000;0.546139
5728.000000;0.546035
5727.000000;0.545980
5726.000000;0.545989
5725.000000;0.546016
5724.000000;0.545991
5723.000000;0.545891
5722.000000;0.545755
5721.000000;0.545641
5720.000000;0.545561
5719.000000;0.545493
5718.000000;0.545426
5717.000000;0.545374
5716.000000;0.545351
5715.000000;0.545338
5714.000000;0.545306
5713.000000;0.545247
5712.000000;0.545173
5711.000000;0.545083
5710.000000;0.544971
5709.000000;0.544849
5708.000000;0.544760
5707.000000;0.544732
5706.000000;0.544742
5705.000000;0.544741
5704.000000;0.544705
5703.000000;0.544664
5702.000000;0.544662
5701.000000;0.544709
5700.000000;0.544763
5699.000000;0.544766
5698.000000;0.544696
5697.000000;0.544585
5696.000000;0.544478
5695.000000;0.544396
5694.000000;0.544326
5693.000000;0.544265
5692.000000;0.544227
5691.000000;0.544215
5690.000000;0.544205
5689.000000;0.544167
5688.000000;0.544103
5687.000000;0.544046
5686.000000;0.544005
5685.000000;0.543966
5684.000000;0.543916
5683.000000;0.543872
5682.000000;0.543844
5681.000000;0.543805
5680.000000;0.543719
5679.000000;0.543591
5678.000000;0.543473
5677.000000;0.543415
5676.000000;0.543421
5675.000000;0.543459
5674.000000;0.543495
5673.000000;0.543515
5672.000000;0.543521
5671.000000;0.543515
5670.000000;0.543495
5669.000000;0.543461
5668.000000;0.543433
5667.000000;0.543438
5666.000000;0.543480
5665.000000;0.543522
5664.000000;0.543514
5663.000000;0.543442
5662.000000;0.543345
5661.000000;0.543273
5660.000000;0.543245
5659.000000;0.543250
5658.000000;0.543267
5657.000000;0.543276
5656.000000;0.543265
5655.000000;0.543234
5654.000000;0.543191
5653.000000;0.543140
5652.000000;0.543069
5651.000000;0.542984
5650.000000;0.542915
5649.000000;0.542897
5648.000000;0.542929
5647.000000;0.542971
5646.000000;0.542984
5645.000000;0.542964
5644.000000;0.542935
5643.000000;0.542931
5642.000000;0.542968
5641.000000;0.543041
5640.000000;0.543126
5639.000000;0.543204
5638.000000;0.543265
5637.000000;0.543291
5636.000000;0.543263
5635.000000;0.543192
5634.000000;0.543133
5633.000000;0.543152
5632.000000;0.543256
5631.000000;0.543390
5630.000000;0.543494
5629.000000;0.543551
5628.000000;0.543578
5627.000000;0.543594
5626.000000;0.543607
5625.000000;0.543623
5624.000000;0.543647
5623.000000;0.543678
5622.000000;0.543705
5621.000000;0.543720
5620.000000;0.543725
5619.000000;0.543745
5618.000000;0.543807
5617.000000;0.543909
5616.000000;0.544007
5615.000000;0.544067
5614.000000;0.544111
5613.000000;0.544192
5612.000000;0.544312
5611.000000;0.544412
5610.000000;0.544444
5609.000000;0.544447
5608.000000;0.544495
5607.000000;0.544608
5606.000000;0.544720
5605.000000;0.544761
5604.000000;0.544719
5603.000000;0.544640
5602.000000;0.544581
5601.000000;0.544576
5600.000000;0.544622
5599.000000;0.544687
5598.000000;0.544749
5597.000000;0.544821
5596.000000;0.544942
5595.000000;0.545121
5594.000000;0.545305
5593.000000;0.545426
5592.000000;0.545471
5591.000000;0.545496
5590.000000;0.545567
5589.000000;0.545691
5588.000000;0.545807
5587.000000;0.545861
5586.000000;0.545861
5585.000000;0.545871
5584.000000;0.545944
5583.000000;0.546076
5582.000000;0.546217
5581.000000;0.546319
5580.000000;0.546373
5579.000000;0.546389
5578.000000;0.546385
5577.000000;0.546382
5576.000000;0.546407
5575.000000;0.546473
5574.000000;0.546562
5573.000000;0.546626
5572.000000;0.546636
5571.000000;0.546607
5570.000000;0.546588
5569.000000;0.546619
5568.000000;0.546703
5567.000000;0.546813
5566.000000;0.546924
5565.000000;0.547031
5564.000000;0.547144
5563.000000;0.547262
5562.000000;0.547361
5561.000000;0.547410
5560.000000;0.547410
5559.000000;0.547399
5558.000000;0.547417
5557.000000;0.547475
5556.000000;0.547567
5555.000000;0.547682
5554.000000;0.547808
5553.000000;0.547908
5552.000000;0.547941
5551.000000;0.547906
5550.000000;0.547845
5549.000000;0.547809
5548.000000;0.547811
5547.000000;0.547838
5546.000000;0.547881
5545.000000;0.547933
5544.000000;0.547987
5543.000000;0.548034
5542.000000;0.548090
5541.000000;0.548172
5540.000000;0.548267
5539.000000;0.548336
5538.000000;0.548370
5537.000000;0.548407
5536.000000;0.548478
5535.000000;0.548558
5534.000000;0.548603
5533.000000;0.548620
5532.000000;0.548670
5531.000000;0.548779
5530.000000;0.548896
5529.000000;0.548949
5528.000000;0.548929
5527.000000;0.548899
5526.000000;0.548909
5525.000000;0.548945
5524.000000;0.548958
5523.000000;0.548931
5522.000000;0.548900
5521.000000;0.548904
5520.000000;0.548943
5519.000000;0.548985
5518.000000;0.549008
5517.000000;0.549022
5516.000000;0.549044
5515.000000;0.549081
5514.000000;0.549119
5513.000000;0.549146
5512.000000;0.549172
5511.000000;0.549221
5510.000000;0.549307
5509.000000;0.549412
5508.000000;0.549501
5507.000000;0.549550
5506.000000;0.549569
5505.000000;0.549576
5504.000000;0.549578
5503.000000;0.549576
5502.000000;0.549578
5501.000000;0.549591
5500.000000;0.549604
5499.000000;0.549605
5498.000000;0.549627
5497.000000;0.549723
5496.000000;0.549893
5495.000000;0.550067
5494.000000;0.550172
5493.000000;0.550208
5492.000000;0.550229
5491.000000;0.550260
5490.000000;0.550278
5489.000000;0.550258
5488.000000;0.550208
5487.000000;0.550146
5486.000000;0.550076
5485.000000;0.550007
5484.000000;0.549971
5483.000000;0.549998
5482.000000;0.550088
5481.000000;0.550228
5480.000000;0.550407
5479.000000;0.550605
5478.000000;0.550783
5477.000000;0.550908
5476.000000;0.550980
5475.000000;0.551009
5474.000000;0.550967
5473.000000;0.550821
5472.000000;0.550598
5471.000000;0.550387
5470.000000;0.550274
5469.000000;0.550288
5468.000000;0.550390
5467.000000;0.550519
5466.000000;0.550637
5465.000000;0.550751
5464.000000;0.550884
5463.000000;0.551037
5462.000000;0.551180
5461.000000;0.551281
5460.000000;0.551332
5459.000000;0.551350
5458.000000;0.551355
5457.000000;0.551349
5456.000000;0.551326
5455.000000;0.551303
5454.000000;0.551311
5453.000000;0.551358
5452.000000;0.551418
5451.000000;0.551490
5450.000000;0.551613
5449.000000;0.551782
5448.000000;0.551899
5447.000000;0.551884
5446.000000;0.551802
5445.000000;0.551797
5444.000000;0.551905
5443.000000;0.552025
5442.000000;0.552069
5441.000000;0.552073
5440.000000;0.552132
5439.000000;0.552261
5438.000000;0.552379
5437.000000;0.552404
5436.000000;0.552325
5435.000000;0.552237
5434.000000;0.552271
5433.000000;0.552450
5432.000000;0.552655
5431.000000;0.552761
5430.000000;0.552774
5429.000000;0.552798
5428.000000;0.552899
5427.000000;0.553037
5426.000000;0.553137
5425.000000;0.553182
5424.000000;0.553210
5423.000000;0.553268
5422.000000;0.553356
5421.000000;0.553435
5420.000000;0.553478
5419.000000;0.553508
5418.000000;0.553562
5417.000000;0.553638
5416.000000;0.553703
5415.000000;0.553775
5414.000000;0.553939
5413.000000;0.554239
5412.000000;0.554589
5411.000000;0.554871
5410.000000;0.555074
5409.000000;0.555272
5408.000000;0.555498
5407.000000;0.555702
5406.000000;0.555839
5405.000000;0.555916
5404.000000;0.555961
5403.000000;0.556000
5402.000000;0.556071
5401.000000;0.556179
5400.000000;0.556287
5399.000000;0.556376
5398.000000;0.556509
5397.000000;0.556761
5396.000000;0.557102
5395.000000;0.557419
5394.000000;0.557647
5393.000000;0.557827
5392.000000;0.558021
5391.000000;0.558249
5390.000000;0.558509
5389.000000;0.558812
5388.000000;0.559147
5387.000000;0.559465
5386.000000;0.559740
5385.000000;0.559990
5384.000000;0.560212
5383.000000;0.560392
5382.000000;0.560574
5381.000000;0.560835
5380.000000;0.561174
5379.000000;0.561504
5378.000000;0.561778
5377.000000;0.562073
5376.000000;0.562478
5375.000000;0.562961
5374.000000;0.563423
5373.000000;0.563819
5372.000000;0.564155
5371.000000;0.564438
5370.000000;0.564683
5369.000000;0.564954
5368.000000;0.565314
5367.000000;0.565749
5366.000000;0.566201
5365.000000;0.566649
5364.000000;0.567129
5363.000000;0.567672
5362.000000;0.568263
5361.000000;0.568843
5360.000000;0.569347
5359.000000;0.569769
5358.000000;0.570193
5357.000000;0.570705
5356.000000;0.571277
5355.000000;0.571801
5354.000000;0.572258
5353.000000;0.572750
5352.000000;0.573318
5351.000000;0.573868
5350.000000;0.574356
5349.000000;0.574900
5348.000000;0.575599
5347.000000;0.576309
5346.000000;0.576801
5345.000000;0.577108
5344.000000;0.577543
5343.000000;0.578268
5342.000000;0.579037
5341.000000;0.579494
5340.000000;0.579561
5339.000000;0.579489
5338.000000;0.579643
5337.000000;0.580213
5336.000000;0.581083
5335.000000;0.581943
5334.000000;0.582536
5333.000000;0.582813
5332.000000;0.582874
5331.000000;0.582785
5330.000000;0.582511
5329.000000;0.582015
5328.000000;0.581363
5327.000000;0.580675
5326.000000;0.579994
5325.000000;0.579248
5324.000000;0.578282
5323.000000;0.576892
5322.000000;0.574926
5321.000000;0.572444
5320.000000;0.569678
5319.000000;0.566723
5318.000000;0.563341
5317.000000;0.559214
5316.000000;0.554345
5315.000000;0.548994
5314.000000;0.543231
5313.000000;0.536741
5312.000000;0.529116
5311.000000;0.520104
5310.000000;0.509565
5309.000000;0.497474
5308.000000;0.484104
5307.000000;0.469851
5306.000000;0.454641
5305.000000;0.437990
5304.000000;0.419871
5303.000000;0.400902
5302.000000;0.381561
5301.000000;0.362320
5300.000000;0.345135
5299.000000;0.333921
5298.000000;0.333081
5297.000000;0.345189
5296.000000;0.368222
5295.000000;0.396592
5294.000000;0.428025
5293.000000;0.465146
5292.000000;0.508183
5291.000000;0.552430
5290.000000;0.593647
5289.000000;0.630150
5288.000000;0.660674
5287.000000;0.686047
5286.000000;0.710901
5285.000000;0.738173
5284.000000;0.764343
5283.000000;0.785241
5282.000000;0.803426
5281.000000;0.823371
5280.000000;0.842967
5279.000000;0.856726
5278.000000;0.864627
5277.000000;0.871209
5276.000000;0.878711
5275.000000;0.886936
5274.000000;0.896248
5273.000000;0.905058
5272.000000;0.908487
5271.000000;0.905913
5270.000000;0.905216
5269.000000;0.913152
5268.000000;0.926352
5267.000000;0.936902
5266.000000;0.942635
5265.000000;0.945443
5264.000000;0.944060
5263.000000;0.936784
5262.000000;0.927845
5261.000000;0.923411
5260.000000;0.923924
5259.000000;0.926213
5258.000000;0.930676
5257.000000;0.940256
5256.000000;0.953540
5255.000000;0.964421
5254.000000;0.968318
5253.000000;0.964959
5252.000000;0.957191
5251.000000;0.950851
5250.000000;0.952066
5249.000000;0.960638
5248.000000;0.968824
5247.000000;0.970466
5246.000000;0.968331
5245.000000;0.967597
5244.000000;0.967544
5243.000000;0.965561
5242.000000;0.963700
5241.000000;0.964395
5240.000000;0.963914
5239.000000;0.957103
5238.000000;0.946059
5237.000000;0.937382
5236.000000;0.933887
5235.000000;0.934852
5234.000000;0.940874
5233.000000;0.952076
5232.000000;0.963156
5231.000000;0.966506
5230.000000;0.960953
5229.000000;0.952559
5228.000000;0.946797
5227.000000;0.944868
5226.000000;0.946150
5225.000000;0.949067
5224.000000;0.950408
5223.000000;0.948039
5222.000000;0.943867
5221.000000;0.941412
5220.000000;0.942003
5219.000000;0.945157
5218.000000;0.949891
5217.000000;0.953559
5216.000000;0.952730
5215.000000;0.947968
5214.000000;0.944495
5213.000000;0.945076
5212.000000;0.945721
5211.000000;0.942588
5210.000000;0.939619
5209.000000;0.943935
5208.000000;0.956486
5207.000000;0.970876
5206.000000;0.979489
5205.000000;0.978477
5204.000000;0.968412
5203.000000;0.953462
5202.000000;0.939543
5201.000000;0.930778
5200.000000;0.927901
5199.000000;0.930485
5198.000000;0.938182
5197.000000;0.948183
5196.000000;0.954890
5195.000000;0.955229
5194.000000;0.951737
5193.000000;0.948380
5192.000000;0.946466
5191.000000;0.946248
5190.000000;0.948810
5189.000000;0.953637
5188.000000;0.957419
5187.000000;0.958108
5186.000000;0.957231
5185.000000;0.955762
5184.000000;0.951830
5183.000000;0.945474
5182.000000;0.941138
5181.000000;0.942150
5180.000000;0.946666
5179.000000;0.951591
5178.000000;0.956632
5177.000000;0.961176
5176.000000;0.961668
5175.000000;0.957173
5174.000000;0.953507
5173.000000;0.956302
5172.000000;0.963213
5171.000000;0.967479
5170.000000;0.966953
5169.000000;0.964575
5168.000000;0.961989
5167.000000;0.958571
5166.000000;0.955778
5165.000000;0.957044
5164.000000;0.963019
5163.000000;0.970416
5162.000000;0.974955
5161.000000;0.973636
5160.000000;0.966271
5159.000000;0.957144
5158.000000;0.952903
5157.000000;0.956130
5156.000000;0.962400
5155.000000;0.965805
5154.000000;0.965902
5153.000000;0.966024
5152.000000;0.967096
5151.000000;0.967468
5150.000000;0.966986
5149.000000;0.966965
5148.000000;0.967074
5147.000000;0.966044
5146.000000;0.964803
5145.000000;0.965686
5144.000000;0.968806
5143.000000;0.971698
5142.000000;0.972133
5141.000000;0.969480
5140.000000;0.964204
5139.000000;0.958059
5138.000000;0.953841
5137.000000;0.953153
5136.000000;0.954874
5135.000000;0.956669
5134.000000;0.956995
5133.000000;0.954893
5132.000000;0.949738
5131.000000;0.942699
5130.000000;0.936509
5129.000000;0.932461
5128.000000;0.929757
5127.000000;0.928834
5126.000000;0.932451
5125.000000;0.941669
5124.000000;0.953018
5123.000000;0.961738
5122.000000;0.966271
5121.000000;0.967425
5120.000000;0.965315
5119.000000;0.960260
5118.000000;0.954833
5117.000000;0.951838
5116.000000;0.951361
5115.000000;0.951821
5114.000000;0.952369
5113.000000;0.952549
5112.000000;0.951442
5111.000000;0.948939
5110.000000;0.946652
5109.000000;0.946180
5108.000000;0.947451
5107.000000;0.949395
5106.000000;0.950937
5105.000000;0.951357
5104.000000;0.951097
5103.000000;0.951814
5102.000000;0.954348
5101.000000;0.956594
5100.000000;0.955541
5099.000000;0.952278
5098.000000;0.951474
5097.000000;0.954777
5096.000000;0.958427
5095.000000;0.958672
5094.000000;0.956128
5093.000000;0.952792
5092.000000;0.948544
5091.000000;0.943231
5090.000000;0.938858
5089.000000;0.937024
5088.000000;0.936830
5087.000000;0.937527
5086.000000;0.940269
5085.000000;0.944831
5084.000000;0.947455
5083.000000;0.945088
5082.000000;0.939915
5081.000000;0.936731
5080.000000;0.937765
5079.000000;0.942037
5078.000000;0.947209
5077.000000;0.950355
5076.000000;0.949534
5075.000000;0.946402
5074.000000;0.944804
5073.000000;0.945686
5072.000000;0.946240
5071.000000;0.945191
5070.000000;0.945208
5069.000000;0.947783
5068.000000;0.949789
5067.000000;0.948486
5066.000000;0.946512
5065.000000;0.947881
5064.000000;0.951750
5063.000000;0.953883
5062.000000;0.952604
5061.000000;0.949534
5060.000000;0.945780
5059.000000;0.941379
5058.000000;0.937290
5057.000000;0.934468
5056.000000;0.932063
5055.000000;0.929208
5054.000000;0.927185
5053.000000;0.927235
5052.000000;0.928021
5051.000000;0.927676
5050.000000;0.926724
5049.000000;0.926858
5048.000000;0.928117
5047.000000;0.929278
5046.000000;0.929940
5045.000000;0.929820
5044.000000;0.927389
5043.000000;0.922059
5042.000000;0.916548
5041.000000;0.914359
5040.000000;0.915812
5039.000000;0.918525
5038.000000;0.920530
5037.000000;0.920899
5036.000000;0.918911
5035.000000;0.915284
5034.000000;0.912745
5033.000000;0.912600
5032.000000;0.912402
5031.000000;0.909983
5030.000000;0.907963
5029.000000;0.910634
5028.000000;0.917215
5027.000000;0.921670
5026.000000;0.919674
5025.000000;0.912575
5024.000000;0.903653
5023.000000;0.894324
5022.000000;0.885379
5021.000000;0.878595
5020.000000;0.875384
5019.000000;0.875267
5018.000000;0.876472
5017.000000;0.877387
5016.000000;0.877115
5015.000000;0.875181
5014.000000;0.871315
5013.000000;0.865682
5012.000000;0.859591
5011.000000;0.855536
5010.000000;0.855080
5009.000000;0.856722
5008.000000;0.857271
5007.000000;0.855471
5006.000000;0.852441
5005.000000;0.848263
5004.000000;0.840990
5003.000000;0.830397
5002.000000;0.820190
5001.000000;0.814342
5000.000000;0.812946
4999.000000;0.812949
4998.000000;0.811592
4997.000000;0.807996
4996.000000;0.802496
4995.000000;0.796377
4994.000000;0.791801
4993.000000;0.790022
4992.000000;0.789898
4991.000000;0.789280
4990.000000;0.787186
4989.000000;0.783652
4988.000000;0.778742
4987.000000;0.773151
4986.000000;0.768568
4985.000000;0.765806
4984.000000;0.763501
4983.000000;0.760027
4982.000000;0.755786
4981.000000;0.752148
4980.000000;0.749044
4979.000000;0.745249
4978.000000;0.740145
4977.000000;0.733625
4976.000000;0.725154
4975.000000;0.714565
4974.000000;0.703327
4973.000000;0.693530
4972.000000;0.686077
4971.000000;0.680907
4970.000000;0.678034
4969.000000;0.676938
4968.000000;0.675548
4967.000000;0.671535
4966.000000;0.664574
4965.000000;0.656406
4964.000000;0.648929
4963.000000;0.642922
4962.000000;0.638067
4961.000000;0.633311
4960.000000;0.627363
4959.000000;0.619794
4958.000000;0.611474
4957.000000;0.603512
4956.000000;0.596375
4955.000000;0.590330
4954.000000;0.585561
4953.000000;0.581121
4952.000000;0.575065
4951.000000;0.566735
4950.000000;0.557913
4949.000000;0.550722
4948.000000;0.545322
4947.000000;0.540665
4946.000000;0.536382
4945.000000;0.532456
4944.000000;0.527825
4943.000000;0.521186
4942.000000;0.512997
4941.000000;0.505122
4940.000000;0.498369
4939.000000;0.491709
4938.000000;0.484111
4937.000000;0.475987
4936.000000;0.468416
4935.000000;0.461705
4934.000000;0.455028
4933.000000;0.447201
4932.000000;0.437723
4931.000000;0.427292
4930.000000;0.417397
4929.000000;0.409371
4928.000000;0.403637
4927.000000;0.399616
4926.000000;0.395882
4925.000000;0.390509
4924.000000;0.382240
4923.000000;0.371802
4922.000000;0.361517
4921.000000;0.353167
4920.000000;0.346730
4919.000000;0.341252
4918.000000;0.336047
4917.000000;0.330686
4916.000000;0.324642
4915.000000;0.317627
4914.000000;0.309790
4913.000000;0.301242
4912.000000;0.291966
4911.000000;0.282439
4910.000000;0.273713
4909.000000;0.266380
4908.000000;0.259965
4907.000000;0.253777
4906.000000;0.247794
4905.000000;0.242118
4904.000000;0.236210
4903.000000;0.229369
4902.000000;0.221512
4901.000000;0.212965
4900.000000;0.203874
4899.000000;0.194412
4898.000000;0.185320
4897.000000;0.177580
4896.000000;0.171417
4895.000000;0.165908
4894.000000;0.159705
4893.000000;0.152107
4892.000000;0.143719
4891.000000;0.136147
4890.000000;0.130683
4889.000000;0.127075
4888.000000;0.123833
4887.000000;0.119824
4886.000000;0.115251
4885.000000;0.110934
4884.000000;0.107204
4883.000000;0.103836
4882.000000;0.100713
4881.000000;0.098024
4880.000000;0.095710
4879.000000;0.093078
4878.000000;0.089325
4877.000000;0.084455
4876.000000;0.079406
4875.000000;0.075187
4874.000000;0.072057
4873.000000;0.069648
4872.000000;0.067598
4871.000000;0.065829
4870.000000;0.064417
4869.000000;0.063555
4868.000000;0.063509
4867.000000;0.064192
4866.000000;0.064915
4865.000000;0.064919
4864.000000;0.064095
4863.000000;0.063030
4862.000000;0.062400
4861.000000;0.062512
4860.000000;0.063305
4859.000000;0.064377
4858.000000;0.065096
4857.000000;0.065110
4856.000000;0.064879
4855.000000;0.065507
4854.000000;0.067839
4853.000000;0.071654
4852.000000;0.075754
4851.000000;0.078919
4850.000000;0.080949
4849.000000;0.082708
4848.000000;0.084996
4847.000000;0.087607
4846.000000;0.089816
4845.000000;0.091553
4844.000000;0.093521
4843.000000;0.096202
4842.000000;0.099332
4841.000000;0.102490
4840.000000;0.105666
4839.000000;0.109003
4838.000000;0.112385
4837.000000;0.115516
4836.000000;0.118143
4835.000000;0.120192
4834.000000;0.122006
4833.000000;0.124382
4832.000000;0.127867
4831.000000;0.131927
4830.000000;0.135382
4829.000000;0.137804
4828.000000;0.139910
4827.000000;0.142450
4826.000000;0.145372
4825.000000;0.148380
4824.000000;0.151588
4823.000000;0.155089
4822.000000;0.158482
4821.000000;0.161461
4820.000000;0.164523
4819.000000;0.168373
4818.000000;0.172807
4817.000000;0.176807
4816.000000;0.179731
4815.000000;0.181951
4814.000000;0.184338
4813.000000;0.187406
4812.000000;0.191001
4811.000000;0.194535
4810.000000;0.197454
4809.000000;0.199756
4808.000000;0.201982
4807.000000;0.204644
4806.000000;0.207683
4805.000000;0.210664
4804.000000;0.213354
4803.000000;0.215842
4802.000000;0.218216
4801.000000;0.220444
4800.000000;0.222595
4799.000000;0.224921
4798.000000;0.227573
4797.000000;0.230382
4796.000000;0.233007
4795.000000;0.235289
4794.000000;0.237396
4793.000000;0.239633
4792.000000;0.242113
4791.000000;0.244638
4790.000000;0.246938
4789.000000;0.248967
4788.000000;0.250879
4787.000000;0.252788
4786.000000;0.254742
4785.000000;0.256883
4784.000000;0.259394
4783.000000;0.262185
4782.000000;0.264841
4781.000000;0.267059
4780.000000;0.269012
4779.000000;0.271128
4778.000000;0.273608
4777.000000;0.276274
4776.000000;0.278803
4775.000000;0.280992
4774.000000;0.282872
4773.000000;0.284688
4772.000000;0.286739
4771.000000;0.289106
4770.000000;0.291541
4769.000000;0.293704
4768.000000;0.295470
4767.000000;0.296931
4766.000000;0.298175
4765.000000;0.299204
4764.000000;0.300097
4763.000000;0.301125
4762.000000;0.302596
4761.000000;0.304601
4760.000000;0.306963
4759.000000;0.309412
4758.000000;0.311729
4757.000000;0.313727
4756.000000;0.315240
4755.000000;0.316305
4754.000000;0.317312
4753.000000;0.318747
4752.000000;0.320689
4751.000000;0.322714
4750.000000;0.324417
4749.000000;0.325880
4748.000000;0.327470
4747.000000;0.329309
4746.000000;0.331139
4745.000000;0.332663
4744.000000;0.333834
4743.000000;0.334833
4742.000000;0.335944
4741.000000;0.337384
4740.000000;0.339069
4739.000000;0.340606
4738.000000;0.341714
4737.000000;0.342628
4736.000000;0.343831
4735.000000;0.345433
4734.000000;0.347066
4733.000000;0.348440
4732.000000;0.349683
4731.000000;0.351040
4730.000000;0.352506
4729.000000;0.353919
4728.000000;0.355214
4727.000000;0.356424
4726.000000;0.357573
4725.000000;0.358706
4724.000000;0.359885
4723.000000;0.361040
4722.000000;0.361968
4721.000000;0.362634
4720.000000;0.363319
4719.000000;0.364295
4718.000000;0.365480
4717.000000;0.366605
4716.000000;0.367616
4715.000000;0.368719
4714.000000;0.370067
4713.000000;0.371550
4712.000000;0.372903
4711.000000;0.373916
4710.000000;0.374589
4709.000000;0.375162
4708.000000;0.375945
4707.000000;0.377009
4706.000000;0.378112
4705.000000;0.379000
4704.000000;0.379703
4703.000000;0.380428
4702.000000;0.381277
4701.000000;0.382215
4700.000000;0.383217
4699.000000;0.384280
4698.000000;0.385329
4697.000000;0.386271
4696.000000;0.387137
4695.000000;0.388025
4694.000000;0.388939
4693.000000;0.389804
4692.000000;0.390631
4691.000000;0.391519
4690.000000;0.392497
4689.000000;0.393493
4688.000000;0.394457
4687.000000;0.395386
4686.000000;0.396241
4685.000000;0.396950
4684.000000;0.397536
4683.000000;0.398109
4682.000000;0.398711
4681.000000;0.399273
4680.000000;0.399751
4679.000000;0.400205
4678.000000;0.400694
4677.000000;0.401211
4676.000000;0.401769
4675.000000;0.402460
4674.000000;0.403370
4673.000000;0.404453
4672.000000;0.405547
4671.000000;0.406485
4670.000000;0.407200
4669.000000;0.407762
4668.000000;0.408319
4667.000000;0.408959
4666.000000;0.409653
4665.000000;0.410344
4664.000000;0.411071
4663.000000;0.411897
4662.000000;0.412747
4661.000000;0.413417
4660.000000;0.413801
4659.000000;0.414013
4658.000000;0.414267
4657.000000;0.414683
4656.000000;0.415247
4655.000000;0.415866
4654.000000;0.416421
4653.000000;0.416840
4652.000000;0.417193
4651.000000;0.417668
4650.000000;0.418384
4649.000000;0.419237
4648.000000;0.419987
4647.000000;0.420485
4646.000000;0.420787
4645.000000;0.421045
4644.000000;0.421349
4643.000000;0.421686
4642.000000;0.422027
4641.000000;0.422413
4640.000000;0.422927
4639.000000;0.423593
4638.000000;0.424330
4637.000000;0.425023
4636.000000;0.425617
4635.000000;0.426127
4634.000000;0.426583
4633.000000;0.427015
4632.000000;0.427444
4631.000000;0.427839
4630.000000;0.428110
4629.000000;0.428233
4628.000000;0.428366
4627.000000;0.428737
4626.000000;0.429361
4625.000000;0.429967
4624.000000;0.430289
4623.000000;0.430384
4622.000000;0.430576
4621.000000;0.431095
4620.000000;0.431846
4619.000000;0.432547
4618.000000;0.433022
4617.000000;0.433327
4616.000000;0.433623
4615.000000;0.433997
4614.000000;0.434424
4613.000000;0.434856
4612.000000;0.435289
4611.000000;0.435721
4610.000000;0.436088
4609.000000;0.436275
4608.000000;0.436226
4607.000000;0.436051
4606.000000;0.435993
4605.000000;0.436253
4604.000000;0.436806
4603.000000;0.437409
4602.000000;0.437849
4601.000000;0.438150
4600.000000;0.438504
4599.000000;0.438997
4598.000000;0.439502
4597.000000;0.439870
4596.000000;0.440136
4595.000000;0.440431
4594.000000;0.440757
4593.000000;0.440965
4592.000000;0.440957
4591.000000;0.440844
4590.000000;0.440846
4589.000000;0.441084
4588.000000;0.441479
4587.000000;0.441838
4586.000000;0.442035
4585.000000;0.442109
4584.000000;0.442194
4583.000000;0.442372
4582.000000;0.442604
4581.000000;0.442832
4580.000000;0.443068
4579.000000;0.443344
4578.000000;0.443609
4577.000000;0.443759
4576.000000;0.443767
4575.000000;0.443721
4574.000000;0.443749
4573.000000;0.443926
4572.000000;0.444238
4571.000000;0.444581
4570.000000;0.444828
4569.000000;0.444951
4568.000000;0.445047
4567.000000;0.445206
4566.000000;0.445389
4565.000000;0.445523
4564.000000;0.445657
4563.000000;0.445917
4562.000000;0.446290
4561.000000;0.446605
4560.000000;0.446750
4559.000000;0.446787
4558.000000;0.446806
4557.000000;0.446777
4556.000000;0.446660
4555.000000;0.446568
4554.000000;0.446660
4553.000000;0.446920
4552.000000;0.447146
4551.000000;0.447193
4550.000000;0.447110
4549.000000;0.447015
4548.000000;0.446930
4547.000000;0.446812
4546.000000;0.446696
4545.000000;0.446691
4544.000000;0.446845
4543.000000;0.447070
4542.000000;0.447272
4541.000000;0.447472
4540.000000;0.447732
4539.000000;0.447971
4538.000000;0.447994
4537.000000;0.447745
4536.000000;0.447455
4535.000000;0.447411
4534.000000;0.447637
4533.000000;0.447889
4532.000000;0.447977
4531.000000;0.447954
4530.000000;0.447970
4529.000000;0.448040
4528.000000;0.448061
4527.000000;0.447987
4526.000000;0.447882
4525.000000;0.447815
4524.000000;0.447774
4523.000000;0.447706
4522.000000;0.447610
4521.000000;0.447560
4520.000000;0.447623
4519.000000;0.447756
4518.000000;0.447823
4517.000000;0.447750
4516.000000;0.447636
4515.000000;0.447655
4514.000000;0.447833
4513.000000;0.448003
4512.000000;0.448028
4511.000000;0.447982
4510.000000;0.448053
4509.000000;0.448291
4508.000000;0.448549
4507.000000;0.448663
4506.000000;0.448613
4505.000000;0.448499
4504.000000;0.448405
4503.000000;0.448326
4502.000000;0.448183
4501.000000;0.447894
4500.000000;0.447470
4499.000000;0.447063
4498.000000;0.446897
4497.000000;0.447080
4496.000000;0.447478
4495.000000;0.447786
4494.000000;0.447771
4493.000000;0.447445
4492.000000;0.447030
4491.000000;0.446758
4490.000000;0.446717
4489.000000;0.446855
4488.000000;0.447066
4487.000000;0.447248
4486.000000;0.447332
4485.000000;0.447302
4484.000000;0.447216
4483.000000;0.447146
4482.000000;0.447115
4481.000000;0.447090
4480.000000;0.447033
4479.000000;0.446916
4478.000000;0.446721
4477.000000;0.446459
4476.000000;0.446219
4475.000000;0.446138
4474.000000;0.446294
4473.000000;0.446636
4472.000000;0.447006
4471.000000;0.447215
4470.000000;0.447146
4469.000000;0.446866
4468.000000;0.446637
4467.000000;0.446710
4466.000000;0.447038
4465.000000;0.447252
4464.000000;0.447001
4463.000000;0.446314
4462.000000;0.445582
4461.000000;0.445195
4460.000000;0.445240
4459.000000;0.445509
4458.000000;0.445730
4457.000000;0.445758
4456.000000;0.445614
4455.000000;0.445392
4454.000000;0.445151
4453.000000;0.444909
4452.000000;0.444709
4451.000000;0.444622
4450.000000;0.444673
4449.000000;0.444791
4448.000000;0.444880
4447.000000;0.444904
4446.000000;0.444879
4445.000000;0.444828
4444.000000;0.444789
4443.000000;0.444831
4442.000000;0.444975
4441.000000;0.445109
4440.000000;0.445050
4439.000000;0.444740
4438.000000;0.444320
4437.000000;0.444010
4436.000000;0.443952
4435.000000;0.444161
4434.000000;0.444544
4433.000000;0.444906
4432.000000;0.445013
4431.000000;0.444767
4430.000000;0.444325
4429.000000;0.443973
4428.000000;0.443859
4427.000000;0.443864
4426.000000;0.443775
4425.000000;0.443520
4424.000000;0.443215
4423.000000;0.442996
4422.000000;0.442872
4421.000000;0.442753
4420.000000;0.442581
4419.000000;0.442395
4418.000000;0.442268
4417.000000;0.442207
4416.000000;0.442138
4415.000000;0.441980
4414.000000;0.441706
4413.000000;0.441331
4412.000000;0.440874
4411.000000;0.440346
4410.000000;0.439799
4409.000000;0.439328
4408.000000;0.439004
4407.000000;0.438810
4406.000000;0.438655
4405.000000;0.438467
4404.000000;0.438246
4403.000000;0.438014
4402.000000;0.437732
4401.000000;0.437309
4400.000000;0.436693
4399.000000;0.435952
4398.000000;0.435249
4397.000000;0.434715
4396.000000;0.434361
4395.000000;0.434106
4394.000000;0.433856
4393.000000;0.433538
4392.000000;0.433109
4391.000000;0.432607
4390.000000;0.432167
4389.000000;0.431887
4388.000000;0.431623
4387.000000;0.431023
4386.000000;0.429855
4385.000000;0.428288
4384.000000;0.426793
4383.000000;0.425787
4382.000000;0.425387
4381.000000;0.425387
4380.000000;0.425362
4379.000000;0.424896
4378.000000;0.423913
4377.000000;0.422778
4376.000000;0.421925
4375.000000;0.421351
4374.000000;0.420642
4373.000000;0.419497
4372.000000;0.418026
4371.000000;0.416450
4370.000000;0.414782
4369.000000;0.413010
4368.000000;0.411423
4367.000000;0.410444
4366.000000;0.410143
4365.000000;0.410111
4364.000000;0.409818
4363.000000;0.408981
4362.000000;0.407645
4361.000000;0.406092
4360.000000;0.404715
4359.000000;0.403760
4358.000000;0.403106
4357.000000;0.402360
4356.000000;0.401226
4355.000000;0.399748
4354.000000;0.398216
4353.000000;0.396936
4352.000000;0.396047
4351.000000;0.395407
4350.000000;0.394636
4349.000000;0.393395
4348.000000;0.391692
4347.000000;0.389838
4346.000000;0.388113
4345.000000;0.386609
4344.000000;0.385359
4343.000000;0.384386
4342.000000;0.383519
4341.000000;0.382339
4340.000000;0.380543
4339.000000;0.378340
4338.000000;0.376369
4337.000000;0.375175
4336.000000;0.374757
4335.000000;0.374573
4334.000000;0.373979
4333.000000;0.372710
4332.000000;0.370974
4331.000000;0.369142
4330.000000;0.367427
4329.000000;0.365873
4328.000000;0.364519
4327.000000;0.363388
4326.000000;0.362327
4325.000000;0.361060
4324.000000;0.359479
4323.000000;0.357757
4322.000000;0.356103
4321.000000;0.354527
4320.000000;0.352912
4319.000000;0.351211
4318.000000;0.349508
4317.000000;0.347958
4316.000000;0.346710
4315.000000;0.345788
4314.000000;0.344958
4313.000000;0.343832
4312.000000;0.342230
4311.000000;0.340372
4310.000000;0.338625
4309.000000;0.337134
4308.000000;0.335890
4307.000000;0.335064
4306.000000;0.335005
4305.000000;0.335768
4304.000000;0.336813
4303.000000;0.337341
4302.000000;0.336845
4301.000000;0.335258
4300.000000;0.332798
4299.000000;0.329964
4298.000000;0.327559
4297.000000;0.326244
4296.000000;0.325838
4295.000000;0.325458
4294.000000;0.324646
4293.000000;0.324026
4292.000000;0.324516
4291.000000;0.326070
4290.000000;0.327697
4289.000000;0.328684
4288.000000;0.329281
4287.000000;0.330184
4286.000000;0.331780
4285.000000;0.333905
4284.000000;0.335968
4283.000000;0.337307
4282.000000;0.337880
4281.000000;0.338619
4280.000000;0.340543
4279.000000;0.343422
4278.000000;0.345942
4277.000000;0.347443
4276.000000;0.348802
4275.000000;0.351244
4274.000000;0.354976
4273.000000;0.359557
4272.000000;0.364859
4271.000000;0.370735
4270.000000;0.376304
4269.000000;0.380773
4268.000000;0.384703
4267.000000;0.389163
4266.000000;0.393682
4265.000000;0.396623
4264.000000;0.398247
4263.000000;0.401743
4262.000000;0.409879
4261.000000;0.421369
4260.000000;0.431800
4259.000000;0.438267
4258.000000;0.442138
4257.000000;0.446982
4256.000000;0.454871
4255.000000;0.465275
4254.000000;0.476605
4253.000000;0.487815
4252.000000;0.498560
4251.000000;0.508411
4250.000000;0.516552
4249.000000;0.522535
4248.000000;0.527271
4247.000000;0.532606
4246.000000;0.539779
4245.000000;0.548578
4244.000000;0.558048
4243.000000;0.567744
4242.000000;0.577821
4241.000000;0.588001
4240.000000;0.597559
4239.000000;0.606556
4238.000000;0.616235
4237.000000;0.627778
4236.000000;0.640944
4235.000000;0.654190
4234.000000;0.666081
4233.000000;0.676386
4232.000000;0.685728
4231.000000;0.694581
4230.000000;0.703007
4229.000000;0.711334
4228.000000;0.720353
4227.000000;0.730058
4226.000000;0.738928
4225.000000;0.746100
4224.000000;0.753855
4223.000000;0.765504
4222.000000;0.780471
4221.000000;0.793914
4220.000000;0.802915
4219.000000;0.810993
4218.000000;0.823639
4217.000000;0.841028
4216.000000;0.857374
4215.000000;0.866991
4214.000000;0.869436
4213.000000;0.868859
4212.000000;0.870765
4211.000000;0.879515
4210.000000;0.895749
4209.000000;0.914688
4208.000000;0.929254
4207.000000;0.936611
4206.000000;0.939913
4205.000000;0.943720
4204.000000;0.950682
4203.000000;0.962053
4202.000000;0.977747
4201.000000;0.994845
4200.000000;1.008525
4199.000000;1.016382
4198.000000;1.020898
4197.000000;1.026992
4196.000000;1.038634
4195.000000;1.057369
4194.000000;1.081016
4193.000000;1.103031
4192.000000;1.116555
4191.000000;1.121216
4190.000000;1.123098
4189.000000;1.127139
4188.000000;1.132604
4187.000000;1.136485
4186.000000;1.138701
4185.000000;1.142148
4184.000000;1.149236
4183.000000;1.160065
4182.000000;1.173183
4181.000000;1.187617
4180.000000;1.204363
4179.000000;1.224940
4178.000000;1.247399
4177.000000;1.265143
4176.000000;1.273647
4175.000000;1.277863
4174.000000;1.287327
4173.000000;1.304363
4172.000000;1.320859
4171.000000;1.327517
4170.000000;1.324029
4169.000000;1.316929
4168.000000;1.311333
4167.000000;1.308828
4166.000000;1.309621
4165.000000;1.313958
4164.000000;1.323290
4163.000000;1.340433
4162.000000;1.365798
4161.000000;1.392669
4160.000000;1.411120
4159.000000;1.419779
4158.000000;1.428094
4157.000000;1.444219
4156.000000;1.464968
4155.000000;1.481776
4154.000000;1.493544
4153.000000;1.505134
4152.000000;1.515731
4151.000000;1.516957
4150.000000;1.504357
4149.000000;1.485611
4148.000000;1.474329
4147.000000;1.479503
4146.000000;1.500003
4145.000000;1.525069
4144.000000;1.541675
4143.000000;1.545229
4142.000000;1.541273
4141.000000;1.537268
4140.000000;1.536170
4139.000000;1.537626
4138.000000;1.541920
4137.000000;1.551749
4136.000000;1.570660
4135.000000;1.597143
4134.000000;1.622845
4133.000000;1.636927
4132.000000;1.634595
4131.000000;1.629735
4130.000000;1.641433
4129.000000;1.670067
4128.000000;1.701839
4127.000000;1.724400
4126.000000;1.730216
4125.000000;1.718805
4124.000000;1.702128
4123.000000;1.699081
4122.000000;1.721140
4121.000000;1.761791
4120.000000;1.800954
4119.000000;1.827836
4118.000000;1.850136
4117.000000;1.867934
4116.000000;1.863135
4115.000000;1.832015
4114.000000;1.800241
4113.000000;1.794095
4112.000000;1.822065
4111.000000;1.876882
4110.000000;1.941898
4109.000000;1.993767
4108.000000;2.008802
4107.000000;1.979920
4106.000000;1.919867
4105.000000;1.855224
4104.000000;1.814940
4103.000000;1.814342
4102.000000;1.845592
4101.000000;1.884759
4100.000000;1.918570
4099.000000;1.952537
4098.000000;1.992440
4097.000000;2.027556
4096.000000;2.027970
4095.000000;1.981157
4094.000000;1.907912
4093.000000;1.842838
4092.000000;1.816968
4091.000000;1.832990
4090.000000;1.863562
4089.000000;1.880916
4088.000000;1.883090
4087.000000;1.883461
4086.000000;1.896104
4085.000000;1.926739
4084.000000;1.972393
4083.000000;2.029218
4082.000000;2.080241
4081.000000;2.078806
4080.000000;2.013016
4079.000000;1.933961
4078.000000;1.881074
4077.000000;1.864544
4076.000000;1.876372
4075.000000;1.900616
4074.000000;1.921107
4073.000000;1.929812
4072.000000;1.929549
4071.000000;1.931776
4070.000000;1.961062
4069.000000;2.041748
4068.000000;2.161169
4067.000000;2.230444
4066.000000;2.204380
4065.000000;2.149663
4064.000000;2.102842
4063.000000;2.069131
4062.000000;2.049546
4061.000000;2.052233
4060.000000;2.083102
4059.000000;2.135992
4058.000000;2.207089
4057.000000;2.286147
4056.000000;2.322344
4055.000000;2.270865
4054.000000;2.183667
4053.000000;2.125965
4052.000000;2.111347
4051.000000;2.133596
4050.000000;2.182220
4049.000000;2.232014
4048.000000;2.253276
4047.000000;2.259766
4046.000000;2.304106
4045.000000;2.417471
4044.000000;2.582902
4043.000000;2.635992
4042.000000;2.508670
4041.000000;2.370569
4040.000000;2.238094
4039.000000;2.121356
4038.000000;2.061423
4037.000000;2.046542
4036.000000;2.022197
4035.000000;1.978773
4034.000000;1.950564
4033.000000;1.963376
4032.000000;2.023927
4031.000000;2.122848
4030.000000;2.245016
4029.000000;2.356505
4028.000000;2.395070
4027.000000;2.373552
4026.000000;2.359590
4025.000000;2.388580
4024.000000;2.439379
4023.000000;2.424118
4022.000000;2.318872
4021.000000;2.221286
4020.000000;2.199528
4019.000000;2.253793
4018.000000;2.334877
4017.000000;2.372007
4016.000000;2.327672
4015.000000;2.238134
4014.000000;2.176155
4013.000000;2.163049
4012.000000;2.173673
4011.000000;2.180157
4010.000000;2.176071
4009.000000;2.188046
4008.000000;2.254366
4007.000000;2.388609
4006.000000;2.567465
4005.000000;2.709916
4004.000000;2.861328
4003.000000;2.963890
4002.000000;2.589754
4001.000000;2.375830
4000.000000;2.305962
3999.000000;2.316967
3998.000000;2.354022
3997.000000;2.427057
3996.000000;2.571071
3995.000000;2.692930
3994.000000;2.660919
3993.000000;2.587927
3992.000000;2.566191
3991.000000;2.596215
3990.000000;2.622534
3989.000000;2.597187
3988.000000;2.553269
3987.000000;2.519263
3986.000000;2.445489
3985.000000;2.359169
3984.000000;2.376536
3983.000000;2.596738
3982.000000;3.070788
3981.000000;2.609889
3980.000000;2.454382
3979.000000;2.361697
3978.000000;2.270927
3977.000000;2.225745
3976.000000;2.254866
3975.000000;2.331488
3974.000000;2.378933
3973.000000;2.355878
3972.000000;2.323895
3971.000000;2.308345
3970.000000;2.301394
3969.000000;2.305631
3968.000000;2.319323
3967.000000;2.371316
3966.000000;2.486490
3965.000000;2.555061
3964.000000;2.531412
3963.000000;2.527447
3962.000000;2.548994
3961.000000;2.586415
3960.000000;2.656122
3959.000000;2.709717
3958.000000;2.675577
3957.000000;2.560635
3956.000000;2.425943
3955.000000;2.311442
3954.000000;2.246227
3953.000000;2.260654
3952.000000;2.356320
3951.000000;2.477043
3950.000000;2.542567
3949.000000;2.539917
3948.000000;2.486280
3947.000000;2.423424
3946.000000;2.402076
3945.000000;2.442171
3944.000000;2.525331
3943.000000;2.615812
3942.000000;2.669534
3941.000000;2.661787
3940.000000;2.572413
3939.000000;2.427974
3938.000000;2.341096
3937.000000;2.347709
3936.000000;2.418622
3935.000000;2.412173
3934.000000;2.291396
3933.000000;2.225946
3932.000000;2.279070
3931.000000;2.461515
3930.000000;2.786293
3929.000000;3.095778
3928.000000;2.920144
3927.000000;2.956689
3926.000000;3.086605
3925.000000;3.045270
3924.000000;2.936156
3923.000000;2.979439
3922.000000;2.933854
3921.000000;2.708981
3920.000000;2.634931
3919.000000;2.801522
3918.000000;3.291791
3917.000000;3.032973
3916.000000;2.881599
3915.000000;3.158464
3914.000000;3.310905
3913.000000;3.186579
3912.000000;3.301351
3911.000000;3.254029
3910.000000;3.016284
3909.000000;3.529203
3908.000000;3.201125
3907.000000;2.858029
3906.000000;2.896521
3905.000000;3.077687
3904.000000;3.139870
3903.000000;2.905177
3902.000000;2.643516
3901.000000;2.474330
3900.000000;2.391495
3899.000000;2.368374
3898.000000;2.391850
3897.000000;2.511081
3896.000000;2.683633
3895.000000;2.556873
3894.000000;2.407343
3893.000000;2.301039
3892.000000;2.177178
3891.000000;2.093349
3890.000000;2.073493
3889.000000;2.109960
3888.000000;2.195385
3887.000000;2.309672
3886.000000;2.391135
3885.000000;2.390242
3884.000000;2.390776
3883.000000;2.469466
3882.000000;2.638431
3881.000000;2.680378
3880.000000;2.467337
3879.000000;2.321024
3878.000000;2.332037
3877.000000;2.502098
3876.000000;3.075709
3875.000000;2.582934
3874.000000;2.261188
3873.000000;2.140581
3872.000000;2.150745
3871.000000;2.214374
3870.000000;2.215922
3869.000000;2.238348
3868.000000;2.380174
3867.000000;2.548664
3866.000000;2.474492
3865.000000;2.350435
3864.000000;2.325551
3863.000000;2.404767
3862.000000;2.626716
3861.000000;2.644124
3860.000000;2.470675
3859.000000;2.456280
3858.000000;2.464561
3857.000000;2.294414
3856.000000;2.113021
3855.000000;2.087241
3854.000000;2.010049
3853.000000;1.994503
3852.000000;2.096650
3851.000000;2.253170
3850.000000;2.328522
3849.000000;2.320365
3848.000000;2.380250
3847.000000;2.554040
3846.000000;2.689867
3845.000000;2.620869
3844.000000;2.555741
3843.000000;2.396243
3842.000000;2.235698
3841.000000;2.165827
3840.000000;2.253895
3839.000000;2.629926
3838.000000;2.381094
3837.000000;2.123576
3836.000000;2.115505
3835.000000;2.169074
3834.000000;2.329042
3833.000000;2.611717
3832.000000;2.466292
3831.000000;2.225738
3830.000000;2.116670
3829.000000;2.046652
3828.000000;2.011011
3827.000000;2.019370
3826.000000;2.094919
3825.000000;2.268392
3824.000000;2.372309
3823.000000;2.125245
3822.000000;1.956149
3821.000000;1.940142
3820.000000;2.026086
3819.000000;2.138997
3818.000000;2.228926
3817.000000;2.228822
3816.000000;2.139725
3815.000000;2.100088
3814.000000;2.180385
3813.000000;2.369757
3812.000000;2.627099
3811.000000;2.853159
3810.000000;2.998351
3809.000000;2.732381
3808.000000;2.311097
3807.000000;2.098417
3806.000000;2.040273
3805.000000;2.059745
3804.000000;2.054313
3803.000000;2.007443
3802.000000;2.011869
3801.000000;2.115269
3800.000000;2.135793
3799.000000;2.115473
3798.000000;2.175339
3797.000000;2.320978
3796.000000;2.536491
3795.000000;2.745293
3794.000000;2.911504
3793.000000;2.903875
3792.000000;2.723524
3791.000000;2.558581
3790.000000;2.522578
3789.000000;2.653741
3788.000000;2.945852
3787.000000;3.059440
3786.000000;2.810894
3785.000000;2.615440
3784.000000;2.544811
3783.000000;2.541479
3782.000000;2.489209
3781.000000;2.328785
3780.000000;2.151804
3779.000000;2.065611
3778.000000;2.087181
3777.000000;2.183702
3776.000000;2.317144
3775.000000;2.470810
3774.000000;2.582849
3773.000000;2.632024
3772.000000;2.783440
3771.000000;3.396144
3770.000000;2.903508
3769.000000;2.863917
3768.000000;2.995237
3767.000000;2.752218
3766.000000;2.660116
3765.000000;2.602642
3764.000000;2.464555
3763.000000;2.394070
3762.000000;2.464857
3761.000000;2.763865
3760.000000;3.086739
3759.000000;2.796280
3758.000000;3.029078
3757.000000;3.042067
3756.000000;2.472143
3755.000000;2.517651
3754.000000;2.555097
3753.000000;2.677722
3752.000000;2.641539
3751.000000;2.536183
3750.000000;2.565752
3749.000000;2.678222
3748.000000;2.867782
3747.000000;2.707865
3746.000000;2.436281
3745.000000;2.449915
3744.000000;2.202864
3743.000000;2.601407
3742.000000;2.599108
3741.000000;2.501842
3740.000000;2.343258
3739.000000;2.224255
3738.000000;2.224597
3737.000000;2.276537
3736.000000;2.321949
3735.000000;2.270576
3734.000000;2.158592
3733.000000;2.145227
3732.000000;2.229027
3731.000000;2.301713
3730.000000;2.369875
3729.000000;2.440829
3728.000000;2.474896
3727.000000;2.477387
3726.000000;2.486018
3725.000000;2.540260
3724.000000;2.596709
3723.000000;2.520364
3722.000000;2.335468
3721.000000;2.183491
3720.000000;2.117734
3719.000000;2.127303
3718.000000;2.185931
3717.000000;2.266899
3716.000000;2.334290
3715.000000;2.348764
3714.000000;2.304151
3713.000000;2.229743
3712.000000;2.172826
3711.000000;2.227208
3710.000000;2.534286
3709.000000;2.726273
3708.000000;2.438078
3707.000000;2.422496
3706.000000;2.563991
3705.000000;2.837600
3704.000000;2.917706
3703.000000;2.656882
3702.000000;2.451678
3701.000000;2.381611
3700.000000;2.446434
3699.000000;2.691792
3698.000000;2.787072
3697.000000;2.492277
3696.000000;2.331279
3695.000000;2.326020
3694.000000;2.538283
3693.000000;2.978708
3692.000000;2.392490
3691.000000;2.114534
3690.000000;2.122385
3689.000000;2.379810
3688.000000;2.934053
3687.000000;3.240383
3686.000000;3.054512
3685.000000;2.576935
3684.000000;2.411412
3683.000000;2.379406
3682.000000;2.430310
3681.000000;2.554029
3680.000000;2.677799
3679.000000;2.868220
3678.000000;2.797045
3677.000000;2.268052
3676.000000;2.226448
3675.000000;2.226113
3674.000000;2.134060
3673.000000;2.156601
3672.000000;2.198577
3671.000000;2.261566
3670.000000;2.481603
3669.000000;3.139459
3668.000000;3.330660
3667.000000;3.281486
3666.000000;3.222080
3665.000000;2.622912
3664.000000;2.334936
3663.000000;2.174914
3662.000000;2.070912
3661.000000;2.020171
3660.000000;2.048437
3659.000000;2.193950
3658.000000;2.541786
3657.000000;2.756520
3656.000000;2.306699
3655.000000;2.131443
3654.000000;2.089397
3653.000000;2.138432
3652.000000;2.320932
3651.000000;2.789640
3650.000000;2.506877
3649.000000;2.262929
3648.000000;2.305242
3647.000000;2.377219
3646.000000;2.451392
3645.000000;2.497421
3644.000000;2.431856
3643.000000;2.332793
3642.000000;2.244013
3641.000000;2.179794
3640.000000;2.199793
3639.000000;2.339815
3638.000000;2.656713
3637.000000;2.776677
3636.000000;2.530427
3635.000000;2.445056
3634.000000;2.503835
3633.000000;2.623059
3632.000000;2.694703
3631.000000;2.689788
3630.000000;2.698820
3629.000000;2.766580
3628.000000;2.668897
3627.000000;2.600243
3626.000000;2.657767
3625.000000;2.710505
3624.000000;2.711127
3623.000000;2.697124
3622.000000;2.669085
3621.000000;2.696202
3620.000000;2.667714
3619.000000;2.391954
3618.000000;2.179103
3617.000000;2.112776
3616.000000;2.166590
3615.000000;2.335524
3614.000000;2.574373
3613.000000;3.219053
3612.000000;3.098380
3611.000000;2.795284
3610.000000;3.055537
3609.000000;2.714233
3608.000000;2.444408
3607.000000;2.373087
3606.000000;2.372894
3605.000000;2.358096
3604.000000;2.297193
3603.000000;2.256172
3602.000000;2.294340
3601.000000;2.543159
3600.000000;3.169435
3599.000000;2.740272
3598.000000;2.648550
3597.000000;2.724981
3596.000000;2.948648
3595.000000;3.070929
3594.000000;2.705607
3593.000000;2.514007
3592.000000;2.432869
3591.000000;2.414075
3590.000000;2.472199
3589.000000;2.629537
3588.000000;2.918507
3587.000000;3.275834
3586.000000;3.049534
3585.000000;2.903560
3584.000000;3.175993
3583.000000;3.344907
3582.000000;3.018104
3581.000000;2.953662
3580.000000;3.009395
3579.000000;3.012605
3578.000000;2.943745
3577.000000;2.988114
3576.000000;3.026829
3575.000000;2.706825
3574.000000;2.494249
3573.000000;2.419989
3572.000000;2.437910
3571.000000;2.483936
3570.000000;2.519222
3569.000000;2.533428
3568.000000;2.509480
3567.000000;2.505265
3566.000000;2.623356
3565.000000;2.938794
3564.000000;3.126989
3563.000000;3.319962
3562.000000;3.145714
3561.000000;3.023576
3560.000000;3.049625
3559.000000;2.625658
3558.000000;2.376897
3557.000000;2.304665
3556.000000;2.335863
3555.000000;2.386513
3554.000000;2.405598
3553.000000;2.433680
3552.000000;2.514770
3551.000000;2.664280
3550.000000;2.875869
3549.000000;3.338704
3548.000000;3.113358
3547.000000;2.860811
3546.000000;2.943652
3545.000000;3.317106
3544.000000;3.545319
3543.000000;3.253386
3542.000000;3.371560
3541.000000;3.097603
3540.000000;2.798996
3539.000000;2.691421
3538.000000;2.671671
3537.000000;2.717355
3536.000000;2.612765
3535.000000;2.399059
3534.000000;2.261764
3533.000000;2.212703
3532.000000;2.242495
3531.000000;2.333058
3530.000000;2.528045
3529.000000;2.765494
3528.000000;2.548096
3527.000000;2.487340
3526.000000;2.655640
3525.000000;2.725635
3524.000000;2.526256
3523.000000;2.361823
3522.000000;2.279964
3521.000000;2.288366
3520.000000;2.390349
3519.000000;2.563261
3518.000000;2.738958
3517.000000;2.682113
3516.000000;2.536231
3515.000000;2.476859
3514.000000;2.418497
3513.000000;2.359299
3512.000000;2.342602
3511.000000;2.398847
3510.000000;2.566117
3509.000000;2.857164
3508.000000;2.821939
3507.000000;2.690401
3506.000000;2.854033
3505.000000;3.124533
3504.000000;2.918116
3503.000000;2.874437
3502.000000;3.006832
3501.000000;2.808285
3500.000000;2.707366
3499.000000;2.880539
3498.000000;2.696495
3497.000000;2.413942
3496.000000;2.320299
3495.000000;2.353772
3494.000000;2.466184
3493.000000;2.550725
3492.000000;2.498499
3491.000000;2.400221
3490.000000;2.369433
3489.000000;2.442389
3488.000000;2.666493
3487.000000;2.842272
3486.000000;2.741099
3485.000000;2.725469
3484.000000;2.585685
3483.000000;2.427092
3482.000000;2.392905
3481.000000;2.456411
3480.000000;2.592194
3479.000000;2.899163
3478.000000;3.127768
3477.000000;2.746349
3476.000000;2.597618
3475.000000;2.616916
3474.000000;2.709069
3473.000000;2.832731
3472.000000;3.050601
3471.000000;3.741592
3470.000000;2.964920
3469.000000;2.708026
3468.000000;2.635607
3467.000000;2.647436
3466.000000;2.712263
3465.000000;2.797018
3464.000000;2.902673
3463.000000;3.048800
3462.000000;3.294742
3461.000000;3.164426
3460.000000;3.411605
3459.000000;3.342270
3458.000000;2.622469
3457.000000;2.421710
3456.000000;2.410835
3455.000000;2.543737
3454.000000;2.585157
3453.000000;2.415559
3452.000000;2.265394
3451.000000;2.209450
3450.000000;2.259299
3449.000000;2.428771
3448.000000;2.801347
3447.000000;2.628734
3446.000000;2.389667
3445.000000;2.325253
3444.000000;2.343161
3443.000000;2.439354
3442.000000;2.698409
3441.000000;3.355454
3440.000000;2.986025
3439.000000;2.762190
3438.000000;2.626805
3437.000000;2.489774
3436.000000;2.412247
3435.000000;2.385669
3434.000000;2.410075
3433.000000;2.464479
3432.000000;2.460921
3431.000000;2.409158
3430.000000;2.428067
3429.000000;2.721787
3428.000000;2.914399
3427.000000;2.663807
3426.000000;2.885856
3425.000000;2.932052
3424.000000;2.566080
3423.000000;2.463872
3422.000000;2.483009
3421.000000;2.532679
3420.000000;2.595761
3419.000000;2.781389
3418.000000;3.794342
3417.000000;2.776444
3416.000000;2.460895
3415.000000;2.367184
3414.000000;2.395652
3413.000000;2.595286
3412.000000;2.961134
3411.000000;2.835845
3410.000000;2.650266
3409.000000;2.669352
3408.000000;2.945252
3407.000000;2.869674
3406.000000;2.482630
3405.000000;2.383101
3404.000000;2.442016
3403.000000;2.722379
3402.000000;2.975999
3401.000000;2.914740
3400.000000;2.669711
3399.000000;2.416204
3398.000000;2.352312
3397.000000;2.411531
3396.000000;2.463362
3395.000000;2.456258
3394.000000;2.454738
3393.000000;2.472057
3392.000000;2.479327
3391.000000;2.478475
3390.000000;2.517906
3389.000000;2.668409
3388.000000;2.750592
3387.000000;2.521895
3386.000000;2.381210
3385.000000;2.360062
3384.000000;2.461975
3383.000000;2.683070
3382.000000;2.757351
3381.000000;2.694845
3380.000000;2.804726
3379.000000;3.316038
3378.000000;3.422883
3377.000000;2.844790
3376.000000;2.685506
3375.000000;2.628913
3374.000000;2.676648
3373.000000;2.854034
3372.000000;2.906948
3371.000000;2.833057
3370.000000;2.932198
3369.000000;3.008668
3368.000000;2.756957
3367.000000;2.466042
3366.000000;2.255781
3365.000000;2.135901
3364.000000;2.119000
3363.000000;2.220846
3362.000000;2.460220
3361.000000;2.814409
3360.000000;3.039286
3359.000000;2.911273
3358.000000;2.725427
3357.000000;2.796445
3356.000000;2.947216
3355.000000;2.597260
3354.000000;2.334471
3353.000000;2.234084
3352.000000;2.245966
3351.000000;2.325998
3350.000000;2.440909
3349.000000;2.603903
3348.000000;2.788442
3347.000000;2.778959
3346.000000;2.649158
3345.000000;2.609155
3344.000000;2.662551
3343.000000;2.791888
3342.000000;2.788387
3341.000000;2.619530
3340.000000;2.529966
3339.000000;2.563674
3338.000000;2.714922
3337.000000;2.737953
3336.000000;2.572981
3335.000000;2.479160
3334.000000;2.422387
3333.000000;2.395088
3332.000000;2.438054
3331.000000;2.638103
3330.000000;3.123217
3329.000000;2.906933
3328.000000;2.572784
3327.000000;2.469632
3326.000000;2.471184
3325.000000;2.653475
3324.000000;2.973902
3323.000000;2.899616
3322.000000;2.768389
3321.000000;2.746538
3320.000000;2.765121
3319.000000;2.808728
3318.000000;2.746631
3317.000000;2.635695
3316.000000;2.620641
3315.000000;2.676507
3314.000000;2.829532
3313.000000;3.743230
3312.000000;2.952961
3311.000000;2.749820
3310.000000;2.942629
3309.000000;2.975547
3308.000000;2.680306
3307.000000;2.510037
3306.000000;2.519141
3305.000000;2.707061
3304.000000;3.011536
3303.000000;2.996042
3302.000000;2.753878
3301.000000;2.596538
3300.000000;2.504451
3299.000000;2.477369
3298.000000;2.617149
3297.000000;2.773184
3296.000000;2.546362
3295.000000;2.410889
3294.000000;2.496987
3293.000000;2.730884
3292.000000;2.630372
3291.000000;2.474053
3290.000000;2.523085
3289.000000;2.686970
3288.000000;2.900458
3287.000000;3.125449
3286.000000;2.960668
3285.000000;2.780252
3284.000000;2.593385
3283.000000;2.363528
3282.000000;2.230712
3281.000000;2.215349
3280.000000;2.313985
3279.000000;2.602827
3278.000000;2.786989
3277.000000;2.444017
3276.000000;2.349036
3275.000000;2.402008
3274.000000;2.510510
3273.000000;2.550073
3272.000000;2.531144
3271.000000;2.587675
3270.000000;2.894452
3269.000000;3.085770
3268.000000;2.802868
3267.000000;2.799207
3266.000000;2.887581
3265.000000;2.949787
3264.000000;2.898167
3263.000000;2.785012
3262.000000;2.751004
3261.000000;2.708964
3260.000000;2.673036
3259.000000;2.605758
3258.000000;2.447208
3257.000000;2.358272
3256.000000;2.406728
3255.000000;2.704807
3254.000000;2.906978
3253.000000;2.495760
3252.000000;2.401600
3251.000000;2.476459
3250.000000;2.643739
3249.000000;2.658201
3248.000000;2.530944
3247.000000;2.528785
3246.000000;2.670941
3245.000000;2.681425
3244.000000;2.466816
3243.000000;2.388707
3242.000000;2.440124
3241.000000;2.571150
3240.000000;2.712887
3239.000000;2.787746
3238.000000;3.029474
3237.000000;2.892056
3236.000000;2.501590
3235.000000;2.355988
3234.000000;2.388648
3233.000000;2.561795
3232.000000;2.926578
3231.000000;3.507673
3230.000000;2.826898
3229.000000;2.537899
3228.000000;2.429022
3227.000000;2.397483
3226.000000;2.376433
3225.000000;2.354135
3224.000000;2.399434
3223.000000;2.538511
3222.000000;2.692911
3221.000000;2.599808
3220.000000;2.469722
3219.000000;2.487546
3218.000000;2.690053
3217.000000;2.951289
3216.000000;2.728525
3215.000000;2.475745
3214.000000;2.332479
3213.000000;2.272740
3212.000000;2.307689
3211.000000;2.459440
3210.000000;2.784657
3209.000000;3.117800
3208.000000;2.981876
3207.000000;2.792666
3206.000000;2.741454
3205.000000;2.935709
3204.000000;3.413556
3203.000000;2.875635
3202.000000;2.618126
3201.000000;2.697915
3200.000000;3.199191
3199.000000;3.114329
3198.000000;2.929704
3197.000000;2.952964
3196.000000;2.946441
3195.000000;2.919633
3194.000000;3.066648
3193.000000;3.097742
3192.000000;2.676737
3191.000000;2.478951
3190.000000;2.411321
3189.000000;2.437885
3188.000000;2.487780
3187.000000;2.518412
3186.000000;2.573431
3185.000000;2.694843
3184.000000;2.861375
3183.000000;2.856601
3182.000000;2.802441
3181.000000;2.794958
3180.000000;2.788849
3179.000000;2.872422
3178.000000;2.756811
3177.000000;2.405878
3176.000000;2.219901
3175.000000;2.190363
3174.000000;2.272359
3173.000000;2.414878
3172.000000;2.569355
3171.000000;2.716445
3170.000000;2.761691
3169.000000;2.669238
3168.000000;2.524226
3167.000000;2.438045
3166.000000;2.421421
3165.000000;2.464710
3164.000000;2.578325
3163.000000;2.822137
3162.000000;3.326557
3161.000000;3.363577
3160.000000;3.287630
3159.000000;3.066998
3158.000000;2.765661
3157.000000;2.672015
3156.000000;2.573682
3155.000000;2.481340
3154.000000;2.457274
3153.000000;2.542110
3152.000000;2.884606
3151.000000;3.098829
3150.000000;2.748536
3149.000000;2.851816
3148.000000;3.660001
3147.000000;2.989003
3146.000000;2.791314
3145.000000;2.771153
3144.000000;2.868378
3143.000000;2.986347
3142.000000;3.174873
3141.000000;3.077022
3140.000000;2.598935
3139.000000;2.460378
3138.000000;2.519339
3137.000000;2.577771
3136.000000;2.401599
3135.000000;2.282508
3134.000000;2.325510
3133.000000;2.590584
3132.000000;3.205286
3131.000000;3.023549
3130.000000;2.880871
3129.000000;2.910293
3128.000000;2.744664
3127.000000;2.547544
3126.000000;2.420230
3125.000000;2.409232
3124.000000;2.492740
3123.000000;2.605895
3122.000000;2.660578
3121.000000;2.645886
3120.000000;2.624340
3119.000000;2.574086
3118.000000;2.483887
3117.000000;2.463182
3116.000000;2.568875
3115.000000;2.714300
3114.000000;2.616367
3113.000000;2.399307
3112.000000;2.305287
3111.000000;2.399414
3110.000000;2.764049
3109.000000;2.936151
3108.000000;2.727355
3107.000000;2.681622
3106.000000;2.552001
3105.000000;2.447054
3104.000000;2.457332
3103.000000;2.562440
3102.000000;2.616362
3101.000000;2.634951
3100.000000;2.639121
3099.000000;2.554360
3098.000000;2.539400
3097.000000;2.669745
3096.000000;2.733286
3095.000000;2.563182
3094.000000;2.487377
3093.000000;2.543503
3092.000000;2.740635
3091.000000;3.099862
3090.000000;3.460141
3089.000000;3.250953
3088.000000;2.637859
3087.000000;2.363208
3086.000000;2.289556
3085.000000;2.406778
3084.000000;2.540431
3083.000000;2.416135
3082.000000;2.348845
3081.000000;2.404578
3080.000000;2.545400
3079.000000;2.751181
3078.000000;2.923147
3077.000000;2.734022
3076.000000;2.502654
3075.000000;2.410149
3074.000000;2.495270
3073.000000;2.789629
3072.000000;2.654548
3071.000000;2.473319
3070.000000;2.480924
3069.000000;2.551738
3068.000000;2.640833
3067.000000;2.728055
3066.000000;2.776184
3065.000000;2.694963
3064.000000;2.606236
3063.000000;2.674479
3062.000000;2.834474
3061.000000;2.681331
3060.000000;2.486442
3059.000000;2.394177
3058.000000;2.352710
3057.000000;2.348897
3056.000000;2.373100
3055.000000;2.436386
3054.000000;2.563255
3053.000000;2.745730
3052.000000;2.959193
3051.000000;3.009517
3050.000000;2.842943
3049.000000;2.794834
3048.000000;2.869787
3047.000000;2.897341
3046.000000;2.886431
3045.000000;2.992131
3044.000000;3.286020
3043.000000;3.446087
3042.000000;3.252606
3041.000000;3.356861
3040.000000;3.208276
3039.000000;2.675323
3038.000000;2.457474
3037.000000;2.400647
3036.000000;2.393935
3035.000000;2.387128
3034.000000;2.357731
3033.000000;2.310449
3032.000000;2.255584
3031.000000;2.213646
3030.000000;2.198681
3029.000000;2.216612
3028.000000;2.261507
3027.000000;2.360540
3026.000000;2.805119
3025.000000;2.948041
3024.000000;2.490712
3023.000000;2.411792
3022.000000;2.523112
3021.000000;2.871622
3020.000000;2.699661
3019.000000;2.512177
3018.000000;2.631805
3017.000000;2.993043
3016.000000;3.165495
3015.000000;2.935269
3014.000000;2.842160
3013.000000;2.756558
3012.000000;2.618874
3011.000000;2.514357
3010.000000;2.497618
3009.000000;2.673045
3008.000000;3.146377
3007.000000;2.839307
3006.000000;2.551015
3005.000000;2.618293
3004.000000;2.994409
3003.000000;2.983896
3002.000000;2.807154
3001.000000;2.951225
3000.000000;2.797036
2999.000000;2.595645
2998.000000;2.536629
2997.000000;2.590524
2996.000000;2.775336
2995.000000;2.759943
2994.000000;2.600125
2993.000000;2.559814
2992.000000;2.632668
2991.000000;2.722868
2990.000000;2.759798
2989.000000;2.773275
2988.000000;2.978860
2987.000000;3.440788
2986.000000;2.693593
2985.000000;2.380999
2984.000000;2.255680
2983.000000;2.239921
2982.000000;2.341310
2981.000000;2.543370
2980.000000;2.731321
2979.000000;2.672769
2978.000000;2.558661
2977.000000;2.535279
2976.000000;2.553726
2975.000000;2.488201
2974.000000;2.438167
2973.000000;2.507194
2972.000000;2.797959
2971.000000;3.385195
2970.000000;3.391751
2969.000000;3.422076
2968.000000;2.858359
2967.000000;2.512157
2966.000000;2.418081
2965.000000;2.453311
2964.000000;2.595053
2963.000000;2.686906
2962.000000;2.885340
2961.000000;3.268532
2960.000000;2.916535
2959.000000;2.831160
2958.000000;2.688158
2957.000000;2.560369
2956.000000;2.684417
2955.000000;2.805349
2954.000000;2.646265
2953.000000;2.594334
2952.000000;2.574177
2951.000000;2.507929
2950.000000;2.492276
2949.000000;2.574667
2948.000000;2.748492
2947.000000;3.088898
2946.000000;3.442225
2945.000000;2.949913
2944.000000;2.749965
2943.000000;2.700050
2942.000000;2.588750
2941.000000;2.473390
2940.000000;2.451761
2939.000000;2.533238
2938.000000;2.813835
2937.000000;3.560700
2936.000000;3.164905
2935.000000;3.025612
2934.000000;3.004529
2933.000000;2.915900
2932.000000;2.896972
2931.000000;2.825393
2930.000000;2.626260
2929.000000;2.426692
2928.000000;2.322267
2927.000000;2.296750
2926.000000;2.314549
2925.000000;2.342080
2924.000000;2.364896
2923.000000;2.457488
2922.000000;2.772967
2921.000000;2.888418
2920.000000;2.617776
2919.000000;2.570530
2918.000000;2.545955
2917.000000;2.651946
2916.000000;3.238115
2915.000000;2.849250
2914.000000;2.480320
2913.000000;2.355408
2912.000000;2.244891
2911.000000;2.188211
2910.000000;2.205735
2909.000000;2.302498
2908.000000;2.444941
2907.000000;2.598495
2906.000000;2.725612
2905.000000;2.767841
2904.000000;2.753306
2903.000000;2.701241
2902.000000;2.725392
2901.000000;2.791383
2900.000000;2.804997
2899.000000;3.039498
2898.000000;3.189761
2897.000000;2.799527
2896.000000;2.688495
2895.000000;2.669775
2894.000000;2.666024
2893.000000;2.795581
2892.000000;3.007456
2891.000000;3.106177
2890.000000;3.144164
2889.000000;2.835235
2888.000000;2.599328
2887.000000;2.526119
2886.000000;2.611281
2885.000000;2.760870
2884.000000;2.529345
2883.000000;2.353122
2882.000000;2.317939
2881.000000;2.306323
2880.000000;2.272953
2879.000000;2.243827
2878.000000;2.284912
2877.000000;2.422744
2876.000000;2.620382
2875.000000;2.800688
2874.000000;2.936277
2873.000000;2.805395
2872.000000;2.606083
2871.000000;2.574598
2870.000000;2.532622
2869.000000;2.395717
2868.000000;2.359678
2867.000000;2.468550
2866.000000;2.751975
2865.000000;3.381284
2864.000000;3.175135
2863.000000;2.841903
2862.000000;2.829083
2861.000000;2.798478
2860.000000;2.650873
2859.000000;2.506111
2858.000000;2.438466
2857.000000;2.454098
2856.000000;2.580051
2855.000000;2.723106
2854.000000;2.633456
2853.000000;2.465745
2852.000000;2.382294
2851.000000;2.388894
2850.000000;2.590663
2849.000000;3.155014
2848.000000;2.892392
2847.000000;2.646837
2846.000000;2.687949
2845.000000;2.915235
2844.000000;2.879267
2843.000000;2.591816
2842.000000;2.541137
2841.000000;2.633061
2840.000000;2.719729
2839.000000;2.987958
2838.000000;3.264016
2837.000000;2.803809
2836.000000;2.613231
2835.000000;2.681346
2834.000000;3.343818
2833.000000;2.999365
2832.000000;2.550998
2831.000000;2.445401
2830.000000;2.394464
2829.000000;2.407771
2828.000000;2.536422
2827.000000;2.979156
2826.000000;3.049908
2825.000000;2.661590
2824.000000;2.603413
2823.000000;2.680880
2822.000000;2.656892
2821.000000;2.576666
2820.000000;2.621983
2819.000000;2.768444
2818.000000;2.987844
2817.000000;2.968706
2816.000000;2.652051
2815.000000;2.455477
2814.000000;2.387168
2813.000000;2.399663
2812.000000;2.603639
2811.000000;3.114076
2810.000000;2.901980
2809.000000;2.732211
2808.000000;2.716607
2807.000000;2.719988
2806.000000;2.668071
2805.000000;2.473421
2804.000000;2.411698
2803.000000;2.540880
2802.000000;2.873330
2801.000000;2.845131
2800.000000;2.642983
2799.000000;2.594600
2798.000000;2.541514
2797.000000;2.480968
2796.000000;2.462278
2795.000000;2.595892
2794.000000;3.029675
2793.000000;3.071937
2792.000000;2.766468
2791.000000;3.084734
2790.000000;3.302671
2789.000000;2.716175
2788.000000;2.700775
2787.000000;2.748344
2786.000000;2.611493
2785.000000;2.549294
2784.000000;2.621945
2783.000000;2.788913
2782.000000;2.795052
2781.000000;2.846829
2780.000000;3.209490
2779.000000;2.837618
2778.000000;2.548325
2777.000000;2.597852
2776.000000;2.911099
2775.000000;2.856899
2774.000000;2.623510
2773.000000;2.577714
2772.000000;2.571475
2771.000000;2.591790
2770.000000;2.650513
2769.000000;2.732450
2768.000000;2.801975
2767.000000;2.840870
2766.000000;2.846861
2765.000000;2.803189
2764.000000;2.728309
2763.000000;2.727646
2762.000000;2.990215
2761.000000;3.392753
2760.000000;3.194940
2759.000000;3.155585
2758.000000;3.407597
2757.000000;3.218039
2756.000000;2.875539
2755.000000;2.707896
2754.000000;2.765788
2753.000000;3.265985
2752.000000;3.098526
2751.000000;2.711254
2750.000000;2.718997
2749.000000;3.164972
2748.000000;2.928888
2747.000000;2.571738
2746.000000;2.542184
2745.000000;2.779886
2744.000000;3.266832
2743.000000;3.191131
2742.000000;2.972168
2741.000000;2.605854
2740.000000;2.479576
2739.000000;2.596898
2738.000000;2.839754
2737.000000;2.769151
2736.000000;2.577424
2735.000000;2.577990
2734.000000;2.671829
2733.000000;2.613272
2732.000000;2.494356
2731.000000;2.490752
2730.000000;2.546492
2729.000000;2.592966
2728.000000;2.539921
2727.000000;2.429692
2726.000000;2.351451
2725.000000;2.342672
2724.000000;2.424346
2723.000000;2.636012
2722.000000;3.031063
2721.000000;3.203201
2720.000000;2.976090
2719.000000;2.724157
2718.000000;2.571590
2717.000000;2.554244
2716.000000;2.590711
2715.000000;2.752319
2714.000000;2.872721
2713.000000;2.585749
2712.000000;2.462283
2711.000000;2.512870
2710.000000;2.703297
2709.000000;3.038863
2708.000000;3.090052
2707.000000;2.991653
2706.000000;3.044022
2705.000000;3.122986
2704.000000;3.028154
2703.000000;2.871992
2702.000000;2.805503
2701.000000;2.730923
2700.000000;2.638997
2699.000000;2.570518
2698.000000;2.521236
2697.000000;2.533306
2696.000000;2.624145
2695.000000;2.766103
2694.000000;2.678345
2693.000000;2.434485
2692.000000;2.312678
2691.000000;2.328024
2690.000000;2.439001
2689.000000;2.615369
2688.000000;2.789443
2687.000000;2.697103
2686.000000;2.586659
2685.000000;2.653510
2684.000000;2.747162
2683.000000;2.671417
2682.000000;2.565266
2681.000000;2.480670
2680.000000;2.376724
2679.000000;2.310778
2678.000000;2.302408
2677.000000;2.291195
2676.000000;2.239324
2675.000000;2.190016
2674.000000;2.202396
2673.000000;2.315922
2672.000000;2.556992
2671.000000;2.838217
2670.000000;2.810947
2669.000000;2.571754
2668.000000;2.385733
2667.000000;2.289388
2666.000000;2.268803
2665.000000;2.305350
2664.000000;2.358200
2663.000000;2.363276
2662.000000;2.313758
2661.000000;2.255032
2660.000000;2.228520
2659.000000;2.269154
2658.000000;2.433071
2657.000000;2.922339
2656.000000;3.189480
2655.000000;2.849108
2654.000000;3.009973
2653.000000;2.870681
2652.000000;2.646233
2651.000000;2.610239
2650.000000;2.573320
2649.000000;2.500589
2648.000000;2.509484
2647.000000;2.653140
2646.000000;2.769403
2645.000000;2.682332
2644.000000;2.515369
2643.000000;2.373351
2642.000000;2.277750
2641.000000;2.253729
2640.000000;2.314576
2639.000000;2.503182
2638.000000;2.928860
2637.000000;3.115933
2636.000000;2.665682
2635.000000;2.713127
2634.000000;3.049885
2633.000000;2.559721
2632.000000;2.358061
2631.000000;2.384286
2630.000000;2.676797
2629.000000;2.928593
2628.000000;2.519372
2627.000000;2.402045
2626.000000;2.400122
2625.000000;2.483861
2624.000000;2.675867
2623.000000;2.938676
2622.000000;3.457649
2621.000000;3.487918
2620.000000;2.891973
2619.000000;2.635504
2618.000000;2.556459
2617.000000;2.518610
2616.000000;2.500051
2615.000000;2.566226
2614.000000;2.854760
2613.000000;3.077397
2612.000000;2.785731
2611.000000;2.741715
2610.000000;2.774230
2609.000000;2.710176
2608.000000;2.758491
2607.000000;2.890153
2606.000000;2.939278
2605.000000;2.899772
2604.000000;2.757993
2603.000000;2.592622
2602.000000;2.510581
2601.000000;2.527770
2600.000000;2.600875
2599.000000;2.698409
2598.000000;2.842344
2597.000000;3.113331
2596.000000;3.382844
2595.000000;2.965163
2594.000000;2.680834
2593.000000;2.676842
2592.000000;2.869953
2591.000000;2.873452
2590.000000;2.680295
2589.000000;2.622402
2588.000000;2.666380
2587.000000;2.654394
2586.000000;2.574757
2585.000000;2.627703
2584.000000;2.718320
2583.000000;2.564455
2582.000000;2.402952
2581.000000;2.330958
2580.000000;2.324535
2579.000000;2.366607
2578.000000;2.454960
2577.000000;2.618034
2576.000000;2.816433
2575.000000;2.806360
2574.000000;3.019860
2573.000000;3.271038
2572.000000;2.632180
2571.000000;2.396648
2570.000000;2.318710
2569.000000;2.276154
2568.000000;2.244171
2567.000000;2.254175
2566.000000;2.351685
2565.000000;2.527522
2564.000000;2.811951
2563.000000;3.140427
2562.000000;3.222359
2561.000000;3.103236
2560.000000;2.931902
2559.000000;2.680376
2558.000000;2.438920
2557.000000;2.304459
2556.000000;2.252119
2555.000000;2.251399
2554.000000;2.307776
2553.000000;2.329225
2552.000000;2.287987
2551.000000;2.344118
2550.000000;2.561610
2549.000000;2.970600
2548.000000;3.594297
2547.000000;3.477809
2546.000000;3.102306
2545.000000;2.752534
2544.000000;2.521622
2543.000000;2.440728
2542.000000;2.479118
2541.000000;2.688895
2540.000000;2.813120
2539.000000;2.541108
2538.000000;2.377099
2537.000000;2.366749
2536.000000;2.454523
2535.000000;2.444327
2534.000000;2.390264
2533.000000;2.447622
2532.000000;2.723524
2531.000000;3.161540
2530.000000;2.712117
2529.000000;2.517190
2528.000000;2.495669
2527.000000;2.509177
2526.000000;2.668633
2525.000000;2.910865
2524.000000;2.714264
2523.000000;2.485312
2522.000000;2.413429
2521.000000;2.430789
2520.000000;2.537709
2519.000000;2.708227
2518.000000;2.857445
2517.000000;2.732625
2516.000000;2.503735
2515.000000;2.370264
2514.000000;2.380110
2513.000000;2.580704
2512.000000;2.599491
2511.000000;2.350363
2510.000000;2.225997
2509.000000;2.209119
2508.000000;2.288091
2507.000000;2.530421
2506.000000;2.779240
2505.000000;2.620827
2504.000000;2.656282
2503.000000;2.842407
2502.000000;2.730080
2501.000000;2.760434
2500.000000;2.993798
2499.000000;2.967409
2498.000000;2.790215
2497.000000;2.705818
2496.000000;2.660633
2495.000000;2.648034
2494.000000;2.702847
2493.000000;2.820514
2492.000000;2.873611
2491.000000;2.789235
2490.000000;2.683533
2489.000000;2.615963
2488.000000;2.644857
2487.000000;2.659463
2486.000000;2.494215
2485.000000;2.356987
2484.000000;2.347517
2483.000000;2.461624
2482.000000;2.709585
2481.000000;2.917955
2480.000000;2.742492
2479.000000;2.504773
2478.000000;2.357295
2477.000000;2.281732
2476.000000;2.253479
2475.000000;2.283231
2474.000000;2.403657
2473.000000;2.606177
2472.000000;2.755478
2471.000000;2.802074
2470.000000;2.860314
2469.000000;2.897814
2468.000000;2.865032
2467.000000;2.804698
2466.000000;3.068013
2465.000000;3.287045
2464.000000;2.789605
2463.000000;2.624620
2462.000000;2.783798
2461.000000;3.099770
2460.000000;2.654797
2459.000000;2.359719
2458.000000;2.307565
2457.000000;2.355058
2456.000000;2.533432
2455.000000;3.056784
2454.000000;2.846504
2453.000000;2.587011
2452.000000;2.796654
2451.000000;2.742864
2450.000000;2.436164
2449.000000;2.360546
2448.000000;2.462368
2447.000000;2.729763
2446.000000;2.961051
2445.000000;2.923090
2444.000000;3.008706
2443.000000;2.928308
2442.000000;2.723378
2441.000000;2.851055
2440.000000;3.275535
2439.000000;2.878208
2438.000000;2.605641
2437.000000;2.564125
2436.000000;2.635694
2435.000000;2.921854
2434.000000;3.269362
2433.000000;3.154441
2432.000000;2.965466
2431.000000;2.871553
2430.000000;3.066766
2429.000000;2.826328
2428.000000;2.340608
2427.000000;2.176740
2426.000000;2.167869
2425.000000;2.337796
2424.000000;2.922590
2423.000000;2.660062
2422.000000;2.339048
2421.000000;2.364628
2420.000000;2.524635
2419.000000;2.530423
2418.000000;2.545433
2417.000000;2.873745
2416.000000;2.840813
2415.000000;2.612686
2414.000000;2.631355
2413.000000;2.751329
2412.000000;2.794831
2411.000000;2.774819
2410.000000;3.030884
2409.000000;3.315282
2408.000000;2.928515
2407.000000;2.882155
2406.000000;2.826933
2405.000000;2.575318
2404.000000;2.462398
2403.000000;2.542599
2402.000000;2.718188
2401.000000;2.697896
2400.000000;2.600999
2399.000000;2.540720
2398.000000;2.642806
2397.000000;2.828520
2396.000000;2.591019
2395.000000;2.464214
2394.000000;2.501715
2393.000000;2.557986
2392.000000;2.572373
2391.000000;2.541445
2390.000000;2.535609
2389.000000;2.527047
2388.000000;2.489530
2387.000000;2.503611
2386.000000;2.680236
2385.000000;3.080672
2384.000000;3.230671
2383.000000;2.839485
2382.000000;2.691053
2381.000000;2.768072
2380.000000;2.690350
2379.000000;2.497183
2378.000000;2.411229
2377.000000;2.361458
2376.000000;2.315725
2375.000000;2.291479
2374.000000;2.306699
2373.000000;2.375299
2372.000000;2.493950
2371.000000;2.644796
2370.000000;2.710376
2369.000000;2.585963
2368.000000;2.501652
2367.000000;2.575340
2366.000000;2.760299
2365.000000;2.839721
2364.000000;2.701763
2363.000000;2.583778
2362.000000;2.542693
2361.000000;2.506279
2360.000000;2.439890
2359.000000;2.401828
2358.000000;2.430618
2357.000000;2.553093
2356.000000;2.760751
2355.000000;2.928578
2354.000000;2.816820
2353.000000;2.560560
2352.000000;2.437541
2351.000000;2.490395
2350.000000;2.641358
2349.000000;2.793256
2348.000000;3.198953
2347.000000;3.131357
2346.000000;2.676479
2345.000000;2.638340
2344.000000;2.883501
2343.000000;3.089416
2342.000000;2.750533
2341.000000;2.528723
2340.000000;2.474430
2339.000000;2.510077
2338.000000;2.562337
2337.000000;2.647445
2336.000000;3.014074
2335.000000;2.994367
2334.000000;2.630454
2333.000000;2.589683
2332.000000;2.650298
2331.000000;2.692415
2330.000000;2.674445
2329.000000;2.711846
2328.000000;2.764970
2327.000000;2.718375
2326.000000;2.886738
2325.000000;2.927704
2324.000000;2.637563
2323.000000;2.600320
2322.000000;2.674013
2321.000000;2.670849
2320.000000;2.636313
2319.000000;2.544672
2318.000000;2.518335
2317.000000;2.574407
2316.000000;2.544262
2315.000000;2.472002
2314.000000;2.547851
2313.000000;2.699275
2312.000000;2.704211
2311.000000;2.607973
2310.000000;2.460032
2309.000000;2.370708
2308.000000;2.349767
2307.000000;2.350630
2306.000000;2.377221
2305.000000;2.408690
2304.000000;2.358645
2303.000000;2.269587
2302.000000;2.253854
2301.000000;2.353129
2300.000000;2.585412
2299.000000;2.854571
2298.000000;2.835651
2297.000000;2.878836
2296.000000;3.461716
2295.000000;3.291256
2294.000000;2.804350
2293.000000;2.640342
2292.000000;2.602730
2291.000000;2.661853
2290.000000;2.617927
2289.000000;2.481098
2288.000000;2.404433
2287.000000;2.423575
2286.000000;2.574140
2285.000000;2.825855
2284.000000;2.932960
2283.000000;2.927066
2282.000000;3.040713
2281.000000;3.231159
2280.000000;2.872951
2279.000000;2.537547
2278.000000;2.441631
2277.000000;2.469421
2276.000000;2.695789
2275.000000;2.952741
2274.000000;2.650870
2273.000000;2.530104
2272.000000;2.726502
2271.000000;3.192248
2270.000000;2.950353
2269.000000;2.720998
2268.000000;2.713055
2267.000000;2.690347
2266.000000;2.712095
2265.000000;2.730626
2264.000000;2.669988
2263.000000;2.575772
2262.000000;2.578485
2261.000000;2.604764
2260.000000;2.711038
2259.000000;2.808932
2258.000000;2.455557
2257.000000;2.248549
2256.000000;2.226018
2255.000000;2.326946
2254.000000;2.666426
2253.000000;3.322009
2252.000000;2.982341
2251.000000;2.755555
2250.000000;2.717939
2249.000000;2.794949
2248.000000;2.901662
2247.000000;2.656838
2246.000000;2.413191
2245.000000;2.293747
2244.000000;2.261959
2243.000000;2.295433
2242.000000;2.359294
2241.000000;2.430995
2240.000000;2.474382
2239.000000;2.396777
2238.000000;2.327762
2237.000000;2.392773
2236.000000;2.597279
2235.000000;2.854095
2234.000000;2.866134
2233.000000;2.841964
2232.000000;2.914379
2231.000000;2.736460
2230.000000;2.524326
2229.000000;2.413405
2228.000000;2.377187
2227.000000;2.424133
2226.000000;2.524189
2225.000000;2.537534
2224.000000;2.499876
2223.000000;2.510824
2222.000000;2.599465
2221.000000;2.715199
2220.000000;2.638126
2219.000000;2.461209
2218.000000;2.416550
2217.000000;2.721013
2216.000000;2.913863
2215.000000;2.462730
2214.000000;2.371481
2213.000000;2.474775
2212.000000;2.626185
2211.000000;2.887309
2210.000000;2.751433
2209.000000;2.457666
2208.000000;2.387600
2207.000000;2.474716
2206.000000;2.645336
2205.000000;2.828423
2204.000000;3.212190
2203.000000;3.347288
2202.000000;3.066772
2201.000000;3.312201
2200.000000;2.957238
2199.000000;2.568915
2198.000000;2.450813
2197.000000;2.454079
2196.000000;2.767878
2195.000000;3.156014
2194.000000;2.627336
2193.000000;2.467319
2192.000000;2.478833
2191.000000;2.605789
2190.000000;2.893731
2189.000000;2.860311
2188.000000;2.711317
2187.000000;2.740559
2186.000000;2.708198
2185.000000;2.630070
2184.000000;2.675866
2183.000000;2.963832
2182.000000;3.316760
2181.000000;3.166295
2180.000000;3.351235
2179.000000;3.245668
2178.000000;3.103700
2177.000000;3.009927
2176.000000;2.738399
2175.000000;2.621606
2174.000000;2.619637
2173.000000;2.640608
2172.000000;2.675502
2171.000000;2.782762
2170.000000;2.677496
2169.000000;2.443299
2168.000000;2.384540
2167.000000;2.626758
2166.000000;3.029260
2165.000000;2.715194
2164.000000;2.620854
2163.000000;2.725428
2162.000000;2.754472
2161.000000;2.610769
2160.000000;2.431833
2159.000000;2.379897
2158.000000;2.454923
2157.000000;2.780024
2156.000000;3.090457
2155.000000;2.715907
2154.000000;2.631265
2153.000000;2.681952
2152.000000;2.747796
2151.000000;2.928692
2150.000000;3.053223
2149.000000;2.965972
2148.000000;2.779610
2147.000000;2.709986
2146.000000;2.764414
2145.000000;2.620701
2144.000000;2.436620
2143.000000;2.422846
2142.000000;2.477436
2141.000000;2.440454
2140.000000;2.380408
2139.000000;2.416002
2138.000000;2.558843
2137.000000;2.646832
2136.000000;2.571736
2135.000000;2.523581
2134.000000;2.552729
2133.000000;2.676273
2132.000000;2.735574
2131.000000;2.643011
2130.000000;2.604785
2129.000000;2.576389
2128.000000;2.533401
2127.000000;2.604039
2126.000000;2.830410
2125.000000;2.802081
2124.000000;2.645968
2123.000000;2.622908
2122.000000;2.562641
2121.000000;2.518510
2120.000000;2.601170
2119.000000;2.699262
2118.000000;2.604570
2117.000000;2.492676
2116.000000;2.489627
2115.000000;2.610828
2114.000000;3.038056
2113.000000;3.399698
2112.000000;2.969077
2111.000000;2.895547
2110.000000;3.038629
2109.000000;3.399531
2108.000000;3.111006
2107.000000;2.841179
2106.000000;2.782944
2105.000000;2.663998
2104.000000;2.549727
2103.000000;2.508613
2102.000000;2.503446
2101.000000;2.485198
2100.000000;2.493710
2099.000000;2.576568
2098.000000;2.655748
2097.000000;2.579231
2096.000000;2.432184
2095.000000;2.356575
2094.000000;2.410342
2093.000000;2.618172
2092.000000;3.039145
2091.000000;3.766972
2090.000000;3.533293
2089.000000;3.193758
2088.000000;3.245132
2087.000000;3.263142
2086.000000;2.866358
2085.000000;2.637107
2084.000000;2.536845
2083.000000;2.477163
2082.000000;2.456784
2081.000000;2.535276
2080.000000;2.729298
2079.000000;2.694977
2078.000000;2.501748
2077.000000;2.363421
2076.000000;2.239412
2075.000000;2.163212
2074.000000;2.173123
2073.000000;2.279377
2072.000000;2.467091
2071.000000;2.650225
2070.000000;2.651039
2069.000000;2.584135
2068.000000;2.608388
2067.000000;2.594587
2066.000000;2.549585
2065.000000;2.648401
2064.000000;2.921733
2063.000000;3.082396
2062.000000;2.750382
2061.000000;2.516434
2060.000000;2.476924
2059.000000;2.539592
2058.000000;2.599470
2057.000000;2.600099
2056.000000;2.611206
2055.000000;2.646302
2054.000000;2.613247
2053.000000;2.541621
2052.000000;2.488350
2051.000000;2.432180
2050.000000;2.370863
2049.000000;2.326407
2048.000000;2.317383
2047.000000;2.351899
2046.000000;2.433863
2045.000000;2.549792
2044.000000;2.654802
2043.000000;2.810597
2042.000000;2.863753
2041.000000;2.694204
2040.000000;2.657105
2039.000000;2.837684
2038.000000;3.111503
2037.000000;2.914450
2036.000000;2.727429
2035.000000;2.799623
2034.000000;2.969516
2033.000000;2.889199
2032.000000;2.694370
2031.000000;2.587176
2030.000000;2.631925
2029.000000;2.738652
2028.000000;2.682657
2027.000000;2.614244
2026.000000;2.665367
2025.000000;2.778851
2024.000000;2.779594
2023.000000;2.771894
2022.000000;2.877864
2021.000000;3.120484
2020.000000;3.075106
2019.000000;2.724158
2018.000000;2.718225
2017.000000;2.770994
2016.000000;2.588018
2015.000000;2.537265
2014.000000;2.587650
2013.000000;2.628458
2012.000000;2.655237
2011.000000;2.657210
2010.000000;2.604897
2009.000000;2.524157
2008.000000;2.483837
2007.000000;2.481119
2006.000000;2.498672
2005.000000;2.482955
2004.000000;2.433512
2003.000000;2.457424
2002.000000;2.582259
2001.000000;2.771377
2000.000000;2.807305
1999.000000;2.755092
1998.000000;2.821503
1997.000000;2.722451
1996.000000;2.576756
1995.000000;2.514846
1994.000000;2.453723
1993.000000;2.385833
1992.000000;2.351124
1991.000000;2.371799
1990.000000;2.484875
1989.000000;2.621073
1988.000000;2.540311
1987.000000;2.411187
1986.000000;2.373805
1985.000000;2.443545
1984.000000;2.695012
1983.000000;3.251297
1982.000000;3.274360
1981.000000;3.063751
1980.000000;2.994292
1979.000000;2.766320
1978.000000;2.650127
1977.000000;2.576848
1976.000000;2.533930
1975.000000;2.549139
1974.000000;2.698170
1973.000000;2.862168
1972.000000;2.527426
1971.000000;2.260539
1970.000000;2.171400
1969.000000;2.194352
1968.000000;2.349067
1967.000000;2.574778
1966.000000;2.457072
1965.000000;2.261429
1964.000000;2.167791
1963.000000;2.164596
1962.000000;2.255918
1961.000000;2.535700
1960.000000;3.072489
1959.000000;2.883576
1958.000000;3.043624
1957.000000;3.043963
1956.000000;2.582757
1955.000000;2.476001
1954.000000;2.470149
1953.000000;2.507857
1952.000000;2.532538
1951.000000;2.501613
1950.000000;2.406001
1949.000000;2.327777
1948.000000;2.357748
1947.000000;2.538922
1946.000000;2.893575
1945.000000;2.910749
1944.000000;2.789772
1943.000000;2.786887
1942.000000;2.606483
1941.000000;2.425741
1940.000000;2.323264
1939.000000;2.268012
1938.000000;2.256257
1937.000000;2.285645
1936.000000;2.340861
1935.000000;2.427782
1934.000000;2.575859
1933.000000;2.698917
1932.000000;2.800372
1931.000000;2.737663
1930.000000;2.473580
1929.000000;2.358528
1928.000000;2.376931
1927.000000;2.426113
1926.000000;2.422017
1925.000000;2.349817
1924.000000;2.262464
1923.000000;2.186881
1922.000000;2.154458
1921.000000;2.194732
1920.000000;2.334488
1919.000000;2.514391
1918.000000;2.649130
1917.000000;2.753466
1916.000000;2.911388
1915.000000;3.367045
1914.000000;3.005419
1913.000000;2.635691
1912.000000;2.547403
1911.000000;2.616711
1910.000000;2.969045
1909.000000;3.141226
1908.000000;2.841708
1907.000000;2.799938
1906.000000;2.763122
1905.000000;2.638586
1904.000000;2.515915
1903.000000;2.484492
1902.000000;2.554211
1901.000000;2.513375
1900.000000;2.380851
1899.000000;2.318821
1898.000000;2.341987
1897.000000;2.431783
1896.000000;2.596257
1895.000000;2.840115
1894.000000;2.697277
1893.000000;2.441567
1892.000000;2.386390
1891.000000;2.494049
1890.000000;2.602860
1889.000000;2.491307
1888.000000;2.389056
1887.000000;2.374122
1886.000000;2.409405
1885.000000;2.444823
1884.000000;2.405113
1883.000000;2.357563
1882.000000;2.389628
1881.000000;2.488143
1880.000000;2.603535
1879.000000;2.741099
1878.000000;2.741643
1877.000000;2.922011
1876.000000;3.204985
1875.000000;2.693993
1874.000000;2.548030
1873.000000;2.630934
1872.000000;2.705774
1871.000000;2.614078
1870.000000;2.558160
1869.000000;2.647990
1868.000000;2.771514
1867.000000;2.713533
1866.000000;2.709577
1865.000000;3.068439
1864.000000;3.013094
1863.000000;2.571774
1862.000000;2.293044
1861.000000;2.144436
1860.000000;2.131834
1859.000000;2.246898
1858.000000;2.457659
1857.000000;2.520183
1856.000000;2.381622
1855.000000;2.250746
1854.000000;2.171175
1853.000000;2.170772
1852.000000;2.274286
1851.000000;2.451356
1850.000000;2.456300
1849.000000;2.325090
1848.000000;2.281743
1847.000000;2.331608
1846.000000;2.403143
1845.000000;2.414643
1844.000000;2.421493
1843.000000;2.498356
1842.000000;2.740517
1841.000000;3.047348
1840.000000;3.175251
1839.000000;3.100895
1838.000000;2.873751
1837.000000;3.084277
1836.000000;2.833389
1835.000000;2.483991
1834.000000;2.416282
1833.000000;2.577296
1832.000000;3.183058
1831.000000;2.962992
1830.000000;2.566571
1829.000000;2.405189
1828.000000;2.353159
1827.000000;2.433054
1826.000000;2.598949
1825.000000;2.857984
1824.000000;3.054968
1823.000000;3.286225
1822.000000;3.223881
1821.000000;2.818532
1820.000000;2.756390
1819.000000;2.794903
1818.000000;2.763710
1817.000000;2.812956
1816.000000;2.890138
1815.000000;2.843074
1814.000000;2.817720
1813.000000;2.670169
1812.000000;2.478975
1811.000000;2.426077
1810.000000;2.532218
1809.000000;2.916150
1808.000000;3.043209
1807.000000;2.656911
1806.000000;2.493419
1805.000000;2.421966
1804.000000;2.376578
1803.000000;2.321086
1802.000000;2.284465
1801.000000;2.324241
1800.000000;2.461891
1799.000000;2.591281
1798.000000;2.492330
1797.000000;2.327980
1796.000000;2.222059
1795.000000;2.180965
1794.000000;2.217172
1793.000000;2.328103
1792.000000;2.546849
1791.000000;2.957589
1790.000000;2.984218
1789.000000;2.588943
1788.000000;2.373183
1787.000000;2.284785
1786.000000;2.294111
1785.000000;2.339757
1784.000000;2.366867
1783.000000;2.413728
1782.000000;2.496716
1781.000000;2.518856
1780.000000;2.461125
1779.000000;2.427549
1778.000000;2.472278
1777.000000;2.497228
1776.000000;2.453179
1775.000000;2.449386
1774.000000;2.683071
1773.000000;3.131087
1772.000000;2.738090
1771.000000;2.540666
1770.000000;2.481911
1769.000000;2.499865
1768.000000;2.706610
1767.000000;2.684567
1766.000000;2.489265
1765.000000;2.550605
1764.000000;2.885877
1763.000000;3.394610
1762.000000;2.843264
1761.000000;2.440285
1760.000000;2.298778
1759.000000;2.309927
1758.000000;2.445377
1757.000000;2.686326
1756.000000;3.033405
1755.000000;3.297877
1754.000000;3.278860
1753.000000;3.024623
1752.000000;2.814526
1751.000000;2.502761
1750.000000;2.260246
1749.000000;2.189973
1748.000000;2.218629
1747.000000;2.265691
1746.000000;2.322976
1745.000000;2.505973
1744.000000;2.556673
1743.000000;2.438925
1742.000000;2.529725
1741.000000;2.522576
1740.000000;2.404383
1739.000000;2.383764
1738.000000;2.507370
1737.000000;2.619944
1736.000000;2.526180
1735.000000;2.616760
1734.000000;2.762215
1733.000000;2.909835
1732.000000;3.051080
1731.000000;2.618307
1730.000000;2.417545
1729.000000;2.417715
1728.000000;2.512485
1727.000000;2.690566
1726.000000;2.936959
1725.000000;2.774805
1724.000000;2.517401
1723.000000;2.471096
1722.000000;2.547948
1721.000000;2.606583
1720.000000;2.711453
1719.000000;2.880034
1718.000000;2.926065
1717.000000;3.125750
1716.000000;2.730473
1715.000000;2.429056
1714.000000;2.387853
1713.000000;2.390866
1712.000000;2.428650
1711.000000;2.456387
1710.000000;2.472202
1709.000000;2.573689
1708.000000;2.796861
1707.000000;2.936762
1706.000000;2.794357
1705.000000;2.637905
1704.000000;2.607994
1703.000000;2.564002
1702.000000;2.489309
1701.000000;2.495940
1700.000000;2.491981
1699.000000;2.507807
1698.000000;2.525244
1697.000000;2.402954
1696.000000;2.311968
1695.000000;2.328478
1694.000000;2.437478
1693.000000;2.779447
1692.000000;2.853132
1691.000000;2.423037
1690.000000;2.290690
1689.000000;2.271549
1688.000000;2.291029
1687.000000;2.405521
1686.000000;2.496591
1685.000000;2.360474
1684.000000;2.229753
1683.000000;2.216398
1682.000000;2.297792
1681.000000;2.645111
1680.000000;2.950995
1679.000000;2.587877
1678.000000;2.570277
1677.000000;2.867112
1676.000000;3.209713
1675.000000;2.991333
1674.000000;2.626591
1673.000000;2.329891
1672.000000;2.174397
1671.000000;2.146580
1670.000000;2.186375
1669.000000;2.268549
1668.000000;2.395948
1667.000000;2.587015
1666.000000;2.704561
1665.000000;2.562139
1664.000000;2.395229
1663.000000;2.301313
1662.000000;2.276306
1661.000000;2.326189
1660.000000;2.419086
1659.000000;2.487762
1658.000000;2.508758
1657.000000;2.614274
1656.000000;3.033806
1655.000000;2.813794
1654.000000;2.440961
1653.000000;2.378559
1652.000000;2.417229
1651.000000;2.527611
1650.000000;2.530045
1649.000000;2.378122
1648.000000;2.259294
1647.000000;2.217708
1646.000000;2.288923
1645.000000;2.412254
1644.000000;2.610451
1643.000000;3.134200
1642.000000;3.240297
1641.000000;3.265031
1640.000000;3.304841
1639.000000;2.762418
1638.000000;2.555464
1637.000000;2.682230
1636.000000;2.915283
1635.000000;2.521300
1634.000000;2.347070
1633.000000;2.372570
1632.000000;2.491977
1631.000000;2.593948
1630.000000;2.664736
1629.000000;2.866424
1628.000000;2.955258
1627.000000;2.700000
1626.000000;2.511173
1625.000000;2.461979
1624.000000;2.467639
1623.000000;2.447795
1622.000000;2.423309
1621.000000;2.486825
1620.000000;2.561153
1619.000000;2.490276
1618.000000;2.421494
1617.000000;2.566179
1616.000000;2.619932
1615.000000;2.344103
1614.000000;2.248252
1613.000000;2.275996
1612.000000;2.345951
1611.000000;2.444605
1610.000000;2.533652
1609.000000;2.595175
1608.000000;2.702930
1607.000000;2.804305
1606.000000;2.641574
1605.000000;2.556968
1604.000000;2.958450
1603.000000;3.214474
1602.000000;2.615834
1601.000000;2.505194
1600.000000;2.464556
1599.000000;2.438697
1598.000000;2.443032
1597.000000;2.471400
1596.000000;2.542975
1595.000000;2.618123
1594.000000;2.710115
1593.000000;2.766777
1592.000000;2.856184
1591.000000;3.122217
1590.000000;3.168042
1589.000000;2.919916
1588.000000;2.744670
1587.000000;2.603154
1586.000000;2.544698
1585.000000;2.582683
1584.000000;2.690216
1583.000000;2.831744
1582.000000;3.092831
1581.000000;3.590873
1580.000000;3.156204
1579.000000;2.691308
1578.000000;2.429959
1577.000000;2.346264
1576.000000;2.487599
1575.000000;2.599442
1574.000000;2.453510
1573.000000;2.385244
1572.000000;2.418902
1571.000000;2.505378
1570.000000;2.506303
1569.000000;2.388347
1568.000000;2.260283
1567.000000;2.196135
1566.000000;2.229367
1565.000000;2.400254
1564.000000;2.609223
1563.000000;2.464484
1562.000000;2.346730
1561.000000;2.413657
1560.000000;2.529213
1559.000000;2.539273
1558.000000;2.445045
1557.000000;2.322403
1556.000000;2.258833
1555.000000;2.306411
1554.000000;2.448865
1553.000000;2.644816
1552.000000;2.809045
1551.000000;2.839126
1550.000000;2.743003
1549.000000;2.635761
1548.000000;2.574135
1547.000000;2.552399
1546.000000;2.481798
1545.000000;2.247644
1544.000000;2.024864
1543.000000;1.931990
1542.000000;1.948147
1541.000000;2.056230
1540.000000;2.311191
1539.000000;2.745480
1538.000000;2.928210
1537.000000;2.657253
1536.000000;2.476901
1535.000000;2.408385
1534.000000;2.391683
1533.000000;2.420704
1532.000000;2.472370
1531.000000;2.507944
1530.000000;2.523192
1529.000000;2.497672
1528.000000;2.475525
1527.000000;2.482856
1526.000000;2.716838
1525.000000;2.794615
1524.000000;2.309901
1523.000000;2.090009
1522.000000;2.040808
1521.000000;2.115048
1520.000000;2.207533
1519.000000;2.234958
1518.000000;2.252557
1517.000000;2.245957
1516.000000;2.241508
1515.000000;2.243683
1514.000000;2.260883
1513.000000;2.298363
1512.000000;2.348007
1511.000000;2.405976
1510.000000;2.372052
1509.000000;2.205649
1508.000000;2.167301
1507.000000;2.503149
1506.000000;3.055644
1505.000000;2.565425
1504.000000;2.305128
1503.000000;2.144197
1502.000000;2.081104
1501.000000;2.086202
1500.000000;2.117972
1499.000000;2.157343
1498.000000;2.190071
1497.000000;2.183344
1496.000000;2.107594
1495.000000;2.046754
1494.000000;2.090293
1493.000000;2.261482
1492.000000;2.604426
1491.000000;3.238425
1490.000000;2.969113
1489.000000;2.667217
1488.000000;2.610215
1487.000000;2.609062
1486.000000;2.725672
1485.000000;2.969913
1484.000000;3.001361
1483.000000;2.670500
1482.000000;2.441064
1481.000000;2.315104
1480.000000;2.256149
1479.000000;2.252406
1478.000000;2.296502
1477.000000;2.383451
1476.000000;2.460293
1475.000000;2.457760
1474.000000;2.372283
1473.000000;2.297747
1472.000000;2.298447
1471.000000;2.314827
1470.000000;2.299616
1469.000000;2.272768
1468.000000;2.229990
1467.000000;2.187180
1466.000000;2.191839
1465.000000;2.280989
1464.000000;2.441280
1463.000000;2.469273
1462.000000;2.446922
1461.000000;2.468461
1460.000000;2.308753
1459.000000;2.151231
1458.000000;2.163699
1457.000000;2.413046
1456.000000;2.610510
1455.000000;2.468927
1454.000000;2.517341
1453.000000;2.639693
1452.000000;2.522942
1451.000000;2.367855
1450.000000;2.336930
1449.000000;2.437172
1448.000000;2.844189
1447.000000;3.069660
1446.000000;2.496074
1445.000000;2.364032
1444.000000;2.381188
1443.000000;2.516915
1442.000000;2.958920
1441.000000;3.440123
1440.000000;3.008919
1439.000000;3.061138
1438.000000;3.487904
1437.000000;3.037707
1436.000000;2.667092
1435.000000;2.571598
1434.000000;2.577188
1433.000000;2.552574
1432.000000;2.514747
1431.000000;2.591840
1430.000000;2.877007
1429.000000;2.841830
1428.000000;2.615412
1427.000000;2.639009
1426.000000;2.701916
1425.000000;2.434390
1424.000000;2.191924
1423.000000;2.077702
1422.000000;2.065224
1421.000000;2.145111
1420.000000;2.264953
1419.000000;2.268997
1418.000000;2.162951
1417.000000;2.128432
1416.000000;2.194522
1415.000000;2.411423
1414.000000;2.840718
1413.000000;2.688473
1412.000000;2.466151
1411.000000;2.574842
1410.000000;2.889700
1409.000000;3.032693
1408.000000;2.923767
1407.000000;3.073989
1406.000000;3.244529
1405.000000;2.961273
1404.000000;3.010118
1403.000000;2.836361
1402.000000;2.464892
1401.000000;2.304036
1400.000000;2.271392
1399.000000;2.328120
1398.000000;2.447083
1397.000000;2.524123
1396.000000;2.450909
1395.000000;2.320318
1394.000000;2.246753
1393.000000;2.250962
1392.000000;2.326803
1391.000000;2.456366
1390.000000;2.573969
1389.000000;2.579259
1388.000000;2.523247
1387.000000;2.522635
1386.000000;2.624861
1385.000000;2.687605
1384.000000;2.630772
1383.000000;2.578412
1382.000000;2.480240
1381.000000;2.389802
1380.000000;2.443471
1379.000000;2.815731
1378.000000;3.088943
1377.000000;2.703944
1376.000000;2.563476
1375.000000;2.542178
1374.000000;2.599394
1373.000000;2.619384
1372.000000;2.538162
1371.000000;2.564694
1370.000000;2.703027
1369.000000;2.574398
1368.000000;2.420861
1367.000000;2.434825
1366.000000;2.444955
1365.000000;2.357380
1364.000000;2.318492
1363.000000;2.422649
1362.000000;2.633232
1361.000000;2.815057
1360.000000;2.942634
1359.000000;2.943653
1358.000000;2.772615
1357.000000;2.576697
1356.000000;2.516881
1355.000000;2.637701
1354.000000;2.742069
1353.000000;2.701926
1352.000000;2.871296
1351.000000;3.044593
1350.000000;2.701319
1349.000000;2.527833
1348.000000;2.477015
1347.000000;2.439085
1346.000000;2.405309
1345.000000;2.382694
1344.000000;2.396966
1343.000000;2.441279
1342.000000;2.534407
1341.000000;2.792376
1340.000000;2.602178
1339.000000;2.272976
1338.000000;2.231708
1337.000000;2.320698
1336.000000;2.455394
1335.000000;2.629152
1334.000000;2.673163
1333.000000;2.618572
1332.000000;2.633416
1331.000000;2.750000
1330.000000;2.981622
1329.000000;3.052519
1328.000000;3.502541
1327.000000;2.997697
1326.000000;2.502936
1325.000000;2.354118
1324.000000;2.326994
1323.000000;2.404746
1322.000000;2.560740
1321.000000;2.910129
1320.000000;3.319729
1319.000000;2.765394
1318.000000;2.560171
1317.000000;2.476627
1316.000000;2.432405
1315.000000;2.462888
1314.000000;2.543307
1313.000000;2.683048
1312.000000;2.974895
1311.000000;2.964873
1310.000000;2.637711
1309.000000;2.441828
1308.000000;2.316356
1307.000000;2.317384
1306.000000;2.406735
1305.000000;2.435113
1304.000000;2.412998
1303.000000;2.466501
1302.000000;2.660798
1301.000000;2.900156
1300.000000;2.783215
1299.000000;2.637360
1298.000000;2.589158
1297.000000;2.561981
1296.000000;2.558099
1295.000000;2.671645
1294.000000;2.959417
1293.000000;2.752955
1292.000000;2.474879
1291.000000;2.371796
1290.000000;2.367850
1289.000000;2.430162
1288.000000;2.472104
1287.000000;2.454336
1286.000000;2.478027
1285.000000;2.660988
1284.000000;3.168925
1283.000000;3.268361
1282.000000;2.938048
1281.000000;2.742946
1280.000000;2.534144
1279.000000;2.466992
1278.000000;2.439030
1277.000000;2.375820
1276.000000;2.309884
1275.000000;2.269972
1274.000000;2.284042
1273.000000;2.347819
1272.000000;2.416599
1271.000000;2.426663
1270.000000;2.377489
1269.000000;2.297215
1268.000000;2.232653
1267.000000;2.245046
1266.000000;2.352104
1265.000000;2.565360
1264.000000;2.712575
1263.000000;2.547722
1262.000000;2.449408
1261.000000;2.473881
1260.000000;2.566987
1259.000000;2.648223
1258.000000;2.830294
1257.000000;2.895883
1256.000000;2.513238
1255.000000;2.363403
1254.000000;2.403675
1253.000000;2.700523
1252.000000;3.150551
1251.000000;2.718787
1250.000000;2.483047
1249.000000;2.455652
1248.000000;2.525470
1247.000000;2.499941
1246.000000;2.416051
1245.000000;2.461152
1244.000000;2.560961
1243.000000;2.465143
1242.000000;2.281842
1241.000000;2.174688
1240.000000;2.162970
1239.000000;2.285619
1238.000000;2.664418
1237.000000;2.693038
1236.000000;2.341169
1235.000000;2.247836
1234.000000;2.283670
1233.000000;2.400760
1232.000000;2.578791
1231.000000;2.794018
1230.000000;3.190010
1229.000000;3.344459
1228.000000;2.893301
1227.000000;2.722866
1226.000000;2.667198
1225.000000;2.697281
1224.000000;2.664705
1223.000000;2.489890
1222.000000;2.373047
1221.000000;2.336146
1220.000000;2.329547
1219.000000;2.289854
1218.000000;2.254666
1217.000000;2.307186
1216.000000;2.540636
1215.000000;3.065334
1214.000000;2.917570
1213.000000;2.769137
1212.000000;2.675251
1211.000000;2.716058
1210.000000;2.953603
1209.000000;2.559963
1208.000000;2.387958
1207.000000;2.438989
1206.000000;2.599465
1205.000000;2.726380
1204.000000;2.658935
1203.000000;2.604221
1202.000000;2.570444
1201.000000;2.558106
1200.000000;2.618297
