Criado como novo conjunto de dados;"2706_e01_daniel.spp","41943.9 Secs"
cm-1;Abs
10000.000000;0.770976
9999.000000;0.771222
9998.000000;0.771805
9997.000000;0.772006
9996.000000;0.771335
9995.000000;0.770168
9994.000000;0.769418
9993.000000;0.769564
9992.000000;0.770234
9991.000000;0.770768
9990.000000;0.770957
9989.000000;0.771054
9988.000000;0.771261
9987.000000;0.771472
9986.000000;0.771475
9985.000000;0.771185
9984.000000;0.770636
9983.000000;0.769941
9982.000000;0.769333
9981.000000;0.769064
9980.000000;0.769130
9979.000000;0.769195
9978.000000;0.768934
9977.000000;0.768395
9976.000000;0.767903
9975.000000;0.767670
9974.000000;0.767692
9973.000000;0.767964
9972.000000;0.768530
9971.000000;0.769222
9970.000000;0.769610
9969.000000;0.769461
9968.000000;0.769114
9967.000000;0.769139
9966.000000;0.769623
9965.000000;0.770033
9964.000000;0.769822
9963.000000;0.768990
9962.000000;0.767972
9961.000000;0.767174
9960.000000;0.766760
9959.000000;0.766746
9958.000000;0.767046
9957.000000;0.767422
9956.000000;0.767593
9955.000000;0.767481
9954.000000;0.767285
9953.000000;0.767236
9952.000000;0.767317
9951.000000;0.767281
9950.000000;0.766906
9949.000000;0.766185
9948.000000;0.765294
9947.000000;0.764476
9946.000000;0.763993
9945.000000;0.764062
9944.000000;0.764694
9943.000000;0.765576
9942.000000;0.766248
9941.000000;0.766501
9940.000000;0.766538
9939.000000;0.766686
9938.000000;0.766988
9937.000000;0.767193
9936.000000;0.767065
9935.000000;0.766593
9934.000000;0.765911
9933.000000;0.765173
9932.000000;0.764538
9931.000000;0.764120
9930.000000;0.763874
9929.000000;0.763653
9928.000000;0.763439
9927.000000;0.763415
9926.000000;0.763711
9925.000000;0.764199
9924.000000;0.764680
9923.000000;0.765146
9922.000000;0.765666
9921.000000;0.766101
9920.000000;0.766151
9919.000000;0.765708
9918.000000;0.764962
9917.000000;0.764113
9916.000000;0.763168
9915.000000;0.762148
9914.000000;0.761310
9913.000000;0.760957
9912.000000;0.761082
9911.000000;0.761372
9910.000000;0.761577
9909.000000;0.761738
9908.000000;0.762008
9907.000000;0.762367
9906.000000;0.762632
9905.000000;0.762700
9904.000000;0.762635
9903.000000;0.762511
9902.000000;0.762260
9901.000000;0.761794
9900.000000;0.761251
9899.000000;0.760978
9898.000000;0.761180
9897.000000;0.761647
9896.000000;0.761904
9895.000000;0.761670
9894.000000;0.761079
9893.000000;0.760493
9892.000000;0.760168
9891.000000;0.760152
9890.000000;0.760384
9889.000000;0.760771
9888.000000;0.761157
9887.000000;0.761302
9886.000000;0.761023
9885.000000;0.760396
9884.000000;0.759777
9883.000000;0.759561
9882.000000;0.759848
9881.000000;0.760354
9880.000000;0.760690
9879.000000;0.760693
9878.000000;0.760463
9877.000000;0.760126
9876.000000;0.759711
9875.000000;0.759254
9874.000000;0.758889
9873.000000;0.758753
9872.000000;0.758844
9871.000000;0.759045
9870.000000;0.759242
9869.000000;0.759384
9868.000000;0.759455
9867.000000;0.759442
9866.000000;0.759312
9865.000000;0.758998
9864.000000;0.758462
9863.000000;0.757820
9862.000000;0.757320
9861.000000;0.757122
9860.000000;0.757168
9859.000000;0.757319
9858.000000;0.757547
9857.000000;0.757853
9856.000000;0.758061
9855.000000;0.757905
9854.000000;0.757375
9853.000000;0.756847
9852.000000;0.756728
9851.000000;0.757026
9850.000000;0.757333
9849.000000;0.757255
9848.000000;0.756829
9847.000000;0.756524
9846.000000;0.756769
9845.000000;0.757484
9844.000000;0.758098
9843.000000;0.758095
9842.000000;0.757523
9841.000000;0.756846
9840.000000;0.756386
9839.000000;0.756051
9838.000000;0.755636
9837.000000;0.755197
9836.000000;0.754991
9835.000000;0.755172
9834.000000;0.755676
9833.000000;0.756335
9832.000000;0.756963
9831.000000;0.757383
9830.000000;0.757481
9829.000000;0.757251
9828.000000;0.756729
9827.000000;0.755932
9826.000000;0.754978
9825.000000;0.754205
9824.000000;0.753984
9823.000000;0.754373
9822.000000;0.755068
9821.000000;0.755706
9820.000000;0.756116
9819.000000;0.756271
9818.000000;0.756155
9817.000000;0.755804
9816.000000;0.755367
9815.000000;0.754997
9814.000000;0.754724
9813.000000;0.754538
9812.000000;0.754514
9811.000000;0.754715
9810.000000;0.755013
9809.000000;0.755164
9808.000000;0.755070
9807.000000;0.754843
9806.000000;0.754579
9805.000000;0.754233
9804.000000;0.753794
9803.000000;0.753456
9802.000000;0.753444
9801.000000;0.753706
9800.000000;0.753928
9799.000000;0.753853
9798.000000;0.753512
9797.000000;0.753103
9796.000000;0.752777
9795.000000;0.752575
9794.000000;0.752503
9793.000000;0.752560
9792.000000;0.752673
9791.000000;0.752680
9790.000000;0.752431
9789.000000;0.751929
9788.000000;0.751360
9787.000000;0.750933
9786.000000;0.750708
9785.000000;0.750619
9784.000000;0.750640
9783.000000;0.750854
9782.000000;0.751284
9781.000000;0.751754
9780.000000;0.751987
9779.000000;0.751843
9778.000000;0.751393
9777.000000;0.750830
9776.000000;0.750394
9775.000000;0.750300
9774.000000;0.750546
9773.000000;0.750797
9772.000000;0.750648
9771.000000;0.750098
9770.000000;0.749630
9769.000000;0.749697
9768.000000;0.750236
9767.000000;0.750775
9766.000000;0.750944
9765.000000;0.750779
9764.000000;0.750570
9763.000000;0.750542
9762.000000;0.750670
9761.000000;0.750727
9760.000000;0.750527
9759.000000;0.750197
9758.000000;0.750106
9757.000000;0.750439
9756.000000;0.750906
9755.000000;0.751017
9754.000000;0.750625
9753.000000;0.750068
9752.000000;0.749757
9751.000000;0.749765
9750.000000;0.749838
9749.000000;0.749736
9748.000000;0.749485
9747.000000;0.749330
9746.000000;0.749439
9745.000000;0.749674
9744.000000;0.749702
9743.000000;0.749387
9742.000000;0.748959
9741.000000;0.748712
9740.000000;0.748650
9739.000000;0.748591
9738.000000;0.748532
9737.000000;0.748651
9736.000000;0.748953
9735.000000;0.749149
9734.000000;0.749013
9733.000000;0.748670
9732.000000;0.748406
9731.000000;0.748360
9730.000000;0.748495
9729.000000;0.748744
9728.000000;0.748994
9727.000000;0.749052
9726.000000;0.748779
9725.000000;0.748229
9724.000000;0.747550
9723.000000;0.746827
9722.000000;0.746164
9721.000000;0.745820
9720.000000;0.746032
9719.000000;0.746682
9718.000000;0.747326
9717.000000;0.747637
9716.000000;0.747689
9715.000000;0.747737
9714.000000;0.747819
9713.000000;0.747732
9712.000000;0.747341
9711.000000;0.746785
9710.000000;0.746337
9709.000000;0.746141
9708.000000;0.746127
9707.000000;0.746134
9706.000000;0.746075
9705.000000;0.745958
9704.000000;0.745818
9703.000000;0.745651
9702.000000;0.745436
9701.000000;0.745172
9700.000000;0.744900
9699.000000;0.744712
9698.000000;0.744703
9697.000000;0.744878
9696.000000;0.745102
9695.000000;0.745205
9694.000000;0.745170
9693.000000;0.745157
9692.000000;0.745302
9691.000000;0.745543
9690.000000;0.745680
9689.000000;0.745573
9688.000000;0.745241
9687.000000;0.744820
9686.000000;0.744490
9685.000000;0.744410
9684.000000;0.744643
9683.000000;0.745112
9682.000000;0.745642
9681.000000;0.746033
9680.000000;0.746092
9679.000000;0.745671
9678.000000;0.744817
9677.000000;0.743868
9676.000000;0.743270
9675.000000;0.743220
9674.000000;0.743500
9673.000000;0.743700
9672.000000;0.743560
9671.000000;0.743087
9670.000000;0.742476
9669.000000;0.742020
9668.000000;0.742022
9667.000000;0.742582
9666.000000;0.743376
9665.000000;0.743788
9664.000000;0.743437
9663.000000;0.742562
9662.000000;0.741786
9661.000000;0.741513
9660.000000;0.741694
9659.000000;0.742109
9658.000000;0.742659
9657.000000;0.743267
9656.000000;0.743690
9655.000000;0.743644
9654.000000;0.743121
9653.000000;0.742420
9652.000000;0.741874
9651.000000;0.741637
9650.000000;0.741685
9649.000000;0.741847
9648.000000;0.741836
9647.000000;0.741461
9646.000000;0.740883
9645.000000;0.740525
9644.000000;0.740596
9643.000000;0.740847
9642.000000;0.740883
9641.000000;0.740617
9640.000000;0.740281
9639.000000;0.740090
9638.000000;0.740079
9637.000000;0.740234
9636.000000;0.740572
9635.000000;0.741015
9634.000000;0.741314
9633.000000;0.741238
9632.000000;0.740819
9631.000000;0.740334
9630.000000;0.740053
9629.000000;0.740042
9628.000000;0.740200
9627.000000;0.740413
9626.000000;0.740620
9625.000000;0.740757
9624.000000;0.740724
9623.000000;0.740470
9622.000000;0.740062
9621.000000;0.739611
9620.000000;0.739154
9619.000000;0.738683
9618.000000;0.738285
9617.000000;0.738132
9616.000000;0.738304
9615.000000;0.738673
9614.000000;0.739030
9613.000000;0.739259
9612.000000;0.739357
9611.000000;0.739365
9610.000000;0.739366
9609.000000;0.739472
9608.000000;0.739707
9607.000000;0.739916
9606.000000;0.739876
9605.000000;0.739515
9604.000000;0.738986
9603.000000;0.738524
9602.000000;0.738254
9601.000000;0.738117
9600.000000;0.737940
9599.000000;0.737627
9598.000000;0.737313
9597.000000;0.737281
9596.000000;0.737662
9595.000000;0.738253
9594.000000;0.738709
9593.000000;0.738874
9592.000000;0.738842
9591.000000;0.738745
9590.000000;0.738602
9589.000000;0.738408
9588.000000;0.738226
9587.000000;0.738142
9586.000000;0.738152
9585.000000;0.738147
9584.000000;0.737982
9583.000000;0.737589
9582.000000;0.737076
9581.000000;0.736692
9580.000000;0.736591
9579.000000;0.736640
9578.000000;0.736578
9577.000000;0.736365
9576.000000;0.736259
9575.000000;0.736464
9574.000000;0.736820
9573.000000;0.736963
9572.000000;0.736739
9571.000000;0.736340
9570.000000;0.736048
9569.000000;0.735967
9568.000000;0.736011
9567.000000;0.736034
9566.000000;0.735921
9565.000000;0.735630
9564.000000;0.735228
9563.000000;0.734870
9562.000000;0.734711
9561.000000;0.734805
9560.000000;0.735105
9559.000000;0.735506
9558.000000;0.735874
9557.000000;0.736060
9556.000000;0.735971
9555.000000;0.735678
9554.000000;0.735398
9553.000000;0.735324
9552.000000;0.735447
9551.000000;0.735574
9550.000000;0.735546
9549.000000;0.735399
9548.000000;0.735291
9547.000000;0.735285
9546.000000;0.735272
9545.000000;0.735117
9544.000000;0.734829
9543.000000;0.734542
9542.000000;0.734362
9541.000000;0.734272
9540.000000;0.734169
9539.000000;0.733970
9538.000000;0.733665
9537.000000;0.733348
9536.000000;0.733187
9535.000000;0.733333
9534.000000;0.733761
9533.000000;0.734237
9532.000000;0.734490
9531.000000;0.734437
9530.000000;0.734226
9529.000000;0.734045
9528.000000;0.733948
9527.000000;0.733863
9526.000000;0.733727
9525.000000;0.733540
9524.000000;0.733331
9523.000000;0.733111
9522.000000;0.732895
9521.000000;0.732725
9520.000000;0.732625
9519.000000;0.732547
9518.000000;0.732407
9517.000000;0.732183
9516.000000;0.731961
9515.000000;0.731851
9514.000000;0.731826
9513.000000;0.731684
9512.000000;0.731247
9511.000000;0.730622
9510.000000;0.730209
9509.000000;0.730341
9508.000000;0.730910
9507.000000;0.731421
9506.000000;0.731473
9505.000000;0.731150
9504.000000;0.730868
9503.000000;0.730897
9502.000000;0.731148
9501.000000;0.731373
9500.000000;0.731453
9499.000000;0.731410
9498.000000;0.731286
9497.000000;0.731126
9496.000000;0.731022
9495.000000;0.731027
9494.000000;0.731019
9493.000000;0.730819
9492.000000;0.730473
9491.000000;0.730282
9490.000000;0.730465
9489.000000;0.730866
9488.000000;0.731121
9487.000000;0.731049
9486.000000;0.730796
9485.000000;0.730593
9484.000000;0.730512
9483.000000;0.730463
9482.000000;0.730363
9481.000000;0.730237
9480.000000;0.730167
9479.000000;0.730155
9478.000000;0.730042
9477.000000;0.729635
9476.000000;0.728977
9475.000000;0.728426
9474.000000;0.728340
9473.000000;0.728696
9472.000000;0.729113
9471.000000;0.729290
9470.000000;0.729279
9469.000000;0.729304
9468.000000;0.729428
9467.000000;0.729502
9466.000000;0.729364
9465.000000;0.728992
9464.000000;0.728488
9463.000000;0.728028
9462.000000;0.727786
9461.000000;0.727811
9460.000000;0.727996
9459.000000;0.728200
9458.000000;0.728385
9457.000000;0.728568
9456.000000;0.728698
9455.000000;0.728683
9454.000000;0.728542
9453.000000;0.728423
9452.000000;0.728436
9451.000000;0.728514
9450.000000;0.728475
9449.000000;0.728187
9448.000000;0.727683
9447.000000;0.727141
9446.000000;0.726774
9445.000000;0.726686
9444.000000;0.726838
9443.000000;0.727123
9442.000000;0.727449
9441.000000;0.727711
9440.000000;0.727765
9439.000000;0.727540
9438.000000;0.727155
9437.000000;0.726853
9436.000000;0.726766
9435.000000;0.726829
9434.000000;0.726888
9433.000000;0.726851
9432.000000;0.726688
9431.000000;0.726414
9430.000000;0.726123
9429.000000;0.725975
9428.000000;0.726055
9427.000000;0.726273
9426.000000;0.726439
9425.000000;0.726449
9424.000000;0.726326
9423.000000;0.726129
9422.000000;0.725912
9421.000000;0.725773
9420.000000;0.725815
9419.000000;0.726004
9418.000000;0.726118
9417.000000;0.725958
9416.000000;0.725607
9415.000000;0.725354
9414.000000;0.725355
9413.000000;0.725455
9412.000000;0.725414
9411.000000;0.725208
9410.000000;0.725012
9409.000000;0.724941
9408.000000;0.724931
9407.000000;0.724889
9406.000000;0.724815
9405.000000;0.724760
9404.000000;0.724750
9403.000000;0.724818
9402.000000;0.725012
9401.000000;0.725314
9400.000000;0.725578
9399.000000;0.725605
9398.000000;0.725293
9397.000000;0.724716
9396.000000;0.724103
9395.000000;0.723717
9394.000000;0.723662
9393.000000;0.723767
9392.000000;0.723769
9391.000000;0.723622
9390.000000;0.723524
9389.000000;0.723600
9388.000000;0.723676
9387.000000;0.723480
9386.000000;0.722993
9385.000000;0.722467
9384.000000;0.722168
9383.000000;0.722191
9382.000000;0.722468
9381.000000;0.722830
9380.000000;0.723055
9379.000000;0.722982
9378.000000;0.722635
9377.000000;0.722197
9376.000000;0.721855
9375.000000;0.721712
9374.000000;0.721774
9373.000000;0.721943
9372.000000;0.722049
9371.000000;0.721987
9370.000000;0.721823
9369.000000;0.721711
9368.000000;0.721719
9367.000000;0.721765
9366.000000;0.721708
9365.000000;0.721455
9364.000000;0.721041
9363.000000;0.720661
9362.000000;0.720550
9361.000000;0.720754
9360.000000;0.721067
9359.000000;0.721258
9358.000000;0.721293
9357.000000;0.721250
9356.000000;0.721128
9355.000000;0.720914
9354.000000;0.720748
9353.000000;0.720799
9352.000000;0.721007
9351.000000;0.721117
9350.000000;0.720999
9349.000000;0.720757
9348.000000;0.720492
9347.000000;0.720182
9346.000000;0.719866
9345.000000;0.719748
9344.000000;0.719959
9343.000000;0.720334
9342.000000;0.720569
9341.000000;0.720533
9340.000000;0.720313
9339.000000;0.720030
9338.000000;0.719741
9337.000000;0.719492
9336.000000;0.719327
9335.000000;0.719239
9334.000000;0.719188
9333.000000;0.719182
9332.000000;0.719247
9331.000000;0.719336
9330.000000;0.719342
9329.000000;0.719231
9328.000000;0.719103
9327.000000;0.719098
9326.000000;0.719253
9325.000000;0.719476
9324.000000;0.719643
9323.000000;0.719684
9322.000000;0.719567
9321.000000;0.719263
9320.000000;0.718789
9319.000000;0.718317
9318.000000;0.718110
9317.000000;0.718268
9316.000000;0.718548
9315.000000;0.718576
9314.000000;0.718236
9313.000000;0.717792
9312.000000;0.717587
9311.000000;0.717724
9310.000000;0.718059
9309.000000;0.718397
9308.000000;0.718620
9307.000000;0.718677
9306.000000;0.718585
9305.000000;0.718434
9304.000000;0.718320
9303.000000;0.718232
9302.000000;0.718057
9301.000000;0.717740
9300.000000;0.717416
9299.000000;0.717312
9298.000000;0.717467
9297.000000;0.717626
9296.000000;0.717479
9295.000000;0.717034
9294.000000;0.716642
9293.000000;0.716607
9292.000000;0.716843
9291.000000;0.716992
9290.000000;0.716838
9289.000000;0.716489
9288.000000;0.716179
9287.000000;0.716006
9286.000000;0.715893
9285.000000;0.715732
9284.000000;0.715515
9283.000000;0.715351
9282.000000;0.715331
9281.000000;0.715392
9280.000000;0.715351
9279.000000;0.715128
9278.000000;0.714884
9277.000000;0.714846
9276.000000;0.715026
9275.000000;0.715235
9274.000000;0.715327
9273.000000;0.715328
9272.000000;0.715315
9271.000000;0.715278
9270.000000;0.715164
9269.000000;0.714970
9268.000000;0.714735
9267.000000;0.714489
9266.000000;0.714260
9265.000000;0.714071
9264.000000;0.713914
9263.000000;0.713747
9262.000000;0.713528
9261.000000;0.713234
9260.000000;0.712900
9259.000000;0.712679
9258.000000;0.712805
9257.000000;0.713368
9256.000000;0.714141
9255.000000;0.714745
9254.000000;0.714996
9253.000000;0.714998
9252.000000;0.714919
9251.000000;0.714824
9250.000000;0.714760
9249.000000;0.714790
9248.000000;0.714851
9247.000000;0.714700
9246.000000;0.714164
9245.000000;0.713377
9244.000000;0.712682
9243.000000;0.712341
9242.000000;0.712378
9241.000000;0.712632
9240.000000;0.712859
9239.000000;0.712861
9238.000000;0.712642
9237.000000;0.712419
9236.000000;0.712404
9235.000000;0.712561
9234.000000;0.712655
9233.000000;0.712525
9232.000000;0.712251
9231.000000;0.712057
9230.000000;0.712081
9229.000000;0.712247
9228.000000;0.712324
9227.000000;0.712130
9226.000000;0.711703
9225.000000;0.711281
9224.000000;0.711102
9223.000000;0.711228
9222.000000;0.711547
9221.000000;0.711883
9220.000000;0.712059
9219.000000;0.711943
9218.000000;0.711516
9217.000000;0.710911
9216.000000;0.710353
9215.000000;0.710046
9214.000000;0.710077
9213.000000;0.710391
9212.000000;0.710830
9211.000000;0.711227
9210.000000;0.711486
9209.000000;0.711571
9208.000000;0.711474
9207.000000;0.711228
9206.000000;0.710941
9205.000000;0.710709
9204.000000;0.710506
9203.000000;0.710225
9202.000000;0.709877
9201.000000;0.709657
9200.000000;0.709767
9199.000000;0.710201
9198.000000;0.710732
9197.000000;0.711090
9196.000000;0.711125
9195.000000;0.710866
9194.000000;0.710465
9193.000000;0.710084
9192.000000;0.709782
9191.000000;0.709520
9190.000000;0.709267
9189.000000;0.709050
9188.000000;0.708896
9187.000000;0.708785
9186.000000;0.708700
9185.000000;0.708681
9184.000000;0.708762
9183.000000;0.708877
9182.000000;0.708869
9181.000000;0.708625
9180.000000;0.708224
9179.000000;0.707929
9178.000000;0.707971
9177.000000;0.708316
9176.000000;0.708669
9175.000000;0.708757
9174.000000;0.708568
9173.000000;0.708278
9172.000000;0.708006
9171.000000;0.707745
9170.000000;0.707489
9169.000000;0.707294
9168.000000;0.707218
9167.000000;0.707264
9166.000000;0.707410
9165.000000;0.707572
9164.000000;0.707581
9163.000000;0.707308
9162.000000;0.706868
9161.000000;0.706587
9160.000000;0.706688
9159.000000;0.707076
9158.000000;0.707453
9157.000000;0.707581
9156.000000;0.707412
9155.000000;0.707088
9154.000000;0.706842
9153.000000;0.706834
9152.000000;0.706986
9151.000000;0.707070
9150.000000;0.706984
9149.000000;0.706875
9148.000000;0.706920
9147.000000;0.707079
9146.000000;0.707142
9145.000000;0.706977
9144.000000;0.706651
9143.000000;0.706346
9142.000000;0.706210
9141.000000;0.706242
9140.000000;0.706287
9139.000000;0.706168
9138.000000;0.705874
9137.000000;0.705561
9136.000000;0.705365
9135.000000;0.705276
9134.000000;0.705236
9133.000000;0.705267
9132.000000;0.705401
9131.000000;0.705551
9130.000000;0.705568
9129.000000;0.705406
9128.000000;0.705175
9127.000000;0.705019
9126.000000;0.704969
9125.000000;0.704934
9124.000000;0.704811
9123.000000;0.704607
9122.000000;0.704433
9121.000000;0.704338
9120.000000;0.704224
9119.000000;0.703970
9118.000000;0.703632
9117.000000;0.703384
9116.000000;0.703295
9115.000000;0.703286
9114.000000;0.703322
9113.000000;0.703506
9112.000000;0.703878
9111.000000;0.704261
9110.000000;0.704414
9109.000000;0.704279
9108.000000;0.703992
9107.000000;0.703714
9106.000000;0.703536
9105.000000;0.703466
9104.000000;0.703424
9103.000000;0.703292
9102.000000;0.703051
9101.000000;0.702817
9100.000000;0.702698
9099.000000;0.702666
9098.000000;0.702643
9097.000000;0.702608
9096.000000;0.702556
9095.000000;0.702433
9094.000000;0.702226
9093.000000;0.702053
9092.000000;0.702040
9091.000000;0.702152
9090.000000;0.702243
9089.000000;0.702262
9088.000000;0.702272
9087.000000;0.702299
9086.000000;0.702270
9085.000000;0.702125
9084.000000;0.701901
9083.000000;0.701711
9082.000000;0.701676
9081.000000;0.701855
9080.000000;0.702166
9079.000000;0.702403
9078.000000;0.702398
9077.000000;0.702173
9076.000000;0.701864
9075.000000;0.701551
9074.000000;0.701244
9073.000000;0.700993
9072.000000;0.700890
9071.000000;0.700950
9070.000000;0.701083
9069.000000;0.701186
9068.000000;0.701221
9067.000000;0.701200
9066.000000;0.701160
9065.000000;0.701143
9064.000000;0.701129
9063.000000;0.701029
9062.000000;0.700807
9061.000000;0.700579
9060.000000;0.700485
9059.000000;0.700501
9058.000000;0.700492
9057.000000;0.700446
9056.000000;0.700491
9055.000000;0.700638
9054.000000;0.700674
9053.000000;0.700390
9052.000000;0.699856
9051.000000;0.699367
9050.000000;0.699167
9049.000000;0.699279
9048.000000;0.699534
9047.000000;0.699677
9046.000000;0.699519
9045.000000;0.699099
9044.000000;0.698705
9043.000000;0.698657
9042.000000;0.699019
9041.000000;0.699562
9040.000000;0.699993
9039.000000;0.700168
9038.000000;0.700103
9037.000000;0.699860
9036.000000;0.699501
9035.000000;0.699110
9034.000000;0.698807
9033.000000;0.698682
9032.000000;0.698736
9031.000000;0.698875
9030.000000;0.698995
9029.000000;0.699058
9028.000000;0.699102
9027.000000;0.699176
9026.000000;0.699265
9025.000000;0.699297
9024.000000;0.699224
9023.000000;0.699084
9022.000000;0.698939
9021.000000;0.698785
9020.000000;0.698562
9019.000000;0.698274
9018.000000;0.698037
9017.000000;0.697944
9016.000000;0.697924
9015.000000;0.697820
9014.000000;0.697615
9013.000000;0.697467
9012.000000;0.697502
9011.000000;0.697638
9010.000000;0.697675
9009.000000;0.697527
9008.000000;0.697307
9007.000000;0.697198
9006.000000;0.697280
9005.000000;0.697454
9004.000000;0.697528
9003.000000;0.697378
9002.000000;0.697066
9001.000000;0.696801
9000.000000;0.696757
8999.000000;0.696924
8998.000000;0.697116
8997.000000;0.697130
8996.000000;0.696895
8995.000000;0.696541
8994.000000;0.696321
8993.000000;0.696421
8992.000000;0.696790
8991.000000;0.697157
8990.000000;0.697248
8989.000000;0.696997
8988.000000;0.696571
8987.000000;0.696204
8986.000000;0.696002
8985.000000;0.695894
8984.000000;0.695750
8983.000000;0.695559
8982.000000;0.695456
8981.000000;0.695552
8980.000000;0.695776
8979.000000;0.695959
8978.000000;0.696022
8977.000000;0.696003
8976.000000;0.695928
8975.000000;0.695777
8974.000000;0.695603
8973.000000;0.695533
8972.000000;0.695593
8971.000000;0.695644
8970.000000;0.695569
8969.000000;0.695434
8968.000000;0.695354
8967.000000;0.695298
8966.000000;0.695159
8965.000000;0.694954
8964.000000;0.694803
8963.000000;0.694723
8962.000000;0.694612
8961.000000;0.694437
8960.000000;0.694321
8959.000000;0.694357
8958.000000;0.694456
8957.000000;0.694447
8956.000000;0.694270
8955.000000;0.693993
8954.000000;0.693712
8953.000000;0.693490
8952.000000;0.693382
8951.000000;0.693416
8950.000000;0.693529
8949.000000;0.693603
8948.000000;0.693581
8947.000000;0.693527
8946.000000;0.693528
8945.000000;0.693587
8944.000000;0.693655
8943.000000;0.693736
8942.000000;0.693872
8941.000000;0.694018
8940.000000;0.693995
8939.000000;0.693669
8938.000000;0.693117
8937.000000;0.692566
8936.000000;0.692188
8935.000000;0.692018
8934.000000;0.692052
8933.000000;0.692288
8932.000000;0.692631
8931.000000;0.692876
8930.000000;0.692869
8929.000000;0.692678
8928.000000;0.692500
8927.000000;0.692427
8926.000000;0.692371
8925.000000;0.692217
8924.000000;0.691993
8923.000000;0.691845
8922.000000;0.691859
8921.000000;0.691968
8920.000000;0.692045
8919.000000;0.692062
8918.000000;0.692096
8917.000000;0.692177
8916.000000;0.692188
8915.000000;0.691990
8914.000000;0.691636
8913.000000;0.691360
8912.000000;0.691355
8911.000000;0.691595
8910.000000;0.691878
8909.000000;0.692009
8908.000000;0.691922
8907.000000;0.691695
8906.000000;0.691475
8905.000000;0.691354
8904.000000;0.691315
8903.000000;0.691300
8902.000000;0.691298
8901.000000;0.691301
8900.000000;0.691215
8899.000000;0.690939
8898.000000;0.690565
8897.000000;0.690352
8896.000000;0.690452
8895.000000;0.690734
8894.000000;0.690945
8893.000000;0.690957
8892.000000;0.690800
8891.000000;0.690575
8890.000000;0.690423
8889.000000;0.690500
8888.000000;0.690824
8887.000000;0.691176
8886.000000;0.691276
8885.000000;0.691077
8884.000000;0.690791
8883.000000;0.690613
8882.000000;0.690527
8881.000000;0.690397
8880.000000;0.690153
8879.000000;0.689859
8878.000000;0.689623
8877.000000;0.689496
8876.000000;0.689428
8875.000000;0.689325
8874.000000;0.689160
8873.000000;0.689023
8872.000000;0.689030
8871.000000;0.689183
8870.000000;0.689353
8869.000000;0.689381
8868.000000;0.689199
8867.000000;0.688870
8866.000000;0.688559
8865.000000;0.688410
8864.000000;0.688413
8863.000000;0.688414
8862.000000;0.688307
8861.000000;0.688195
8860.000000;0.688273
8859.000000;0.688577
8858.000000;0.688927
8857.000000;0.689111
8856.000000;0.689046
8855.000000;0.688762
8854.000000;0.688338
8853.000000;0.687896
8852.000000;0.687592
8851.000000;0.687522
8850.000000;0.687654
8849.000000;0.687866
8848.000000;0.688037
8847.000000;0.688084
8846.000000;0.687988
8845.000000;0.687826
8844.000000;0.687720
8843.000000;0.687710
8842.000000;0.687700
8841.000000;0.687591
8840.000000;0.687441
8839.000000;0.687415
8838.000000;0.687571
8837.000000;0.687763
8836.000000;0.687817
8835.000000;0.687735
8834.000000;0.687670
8833.000000;0.687707
8832.000000;0.687753
8831.000000;0.687668
8830.000000;0.687473
8829.000000;0.687339
8828.000000;0.687382
8827.000000;0.687516
8826.000000;0.687549
8825.000000;0.687396
8824.000000;0.687149
8823.000000;0.686959
8822.000000;0.686895
8821.000000;0.686916
8820.000000;0.686935
8819.000000;0.686861
8818.000000;0.686636
8817.000000;0.686295
8816.000000;0.685987
8815.000000;0.685894
8814.000000;0.686066
8813.000000;0.686360
8812.000000;0.686556
8811.000000;0.686528
8810.000000;0.686298
8809.000000;0.685968
8808.000000;0.685656
8807.000000;0.685481
8806.000000;0.685494
8805.000000;0.685599
8804.000000;0.685609
8803.000000;0.685437
8802.000000;0.685197
8801.000000;0.685075
8800.000000;0.685114
8799.000000;0.685204
8798.000000;0.685240
8797.000000;0.685241
8796.000000;0.685303
8795.000000;0.685484
8794.000000;0.685742
8793.000000;0.685956
8792.000000;0.686020
8791.000000;0.685924
8790.000000;0.685753
8789.000000;0.685571
8788.000000;0.685373
8787.000000;0.685172
8786.000000;0.685079
8785.000000;0.685201
8784.000000;0.685469
8783.000000;0.685669
8782.000000;0.685634
8781.000000;0.685376
8780.000000;0.685015
8779.000000;0.684687
8778.000000;0.684499
8777.000000;0.684492
8776.000000;0.684590
8775.000000;0.684659
8774.000000;0.684641
8773.000000;0.684590
8772.000000;0.684556
8771.000000;0.684513
8770.000000;0.684424
8769.000000;0.684315
8768.000000;0.684224
8767.000000;0.684140
8766.000000;0.684029
8765.000000;0.683904
8764.000000;0.683828
8763.000000;0.683856
8762.000000;0.684009
8761.000000;0.684250
8760.000000;0.684484
8759.000000;0.684601
8758.000000;0.684554
8757.000000;0.684394
8756.000000;0.684228
8755.000000;0.684155
8754.000000;0.684217
8753.000000;0.684338
8752.000000;0.684341
8751.000000;0.684122
8750.000000;0.683808
8749.000000;0.683658
8748.000000;0.683776
8747.000000;0.684017
8746.000000;0.684187
8745.000000;0.684230
8744.000000;0.684166
8743.000000;0.683975
8742.000000;0.683661
8741.000000;0.683350
8740.000000;0.683200
8739.000000;0.683233
8738.000000;0.683354
8737.000000;0.683500
8736.000000;0.683682
8735.000000;0.683880
8734.000000;0.684011
8733.000000;0.684020
8732.000000;0.683942
8731.000000;0.683848
8730.000000;0.683754
8729.000000;0.683634
8728.000000;0.683465
8727.000000;0.683262
8726.000000;0.683075
8725.000000;0.682961
8724.000000;0.682958
8723.000000;0.683062
8722.000000;0.683234
8721.000000;0.683413
8720.000000;0.683542
8719.000000;0.683596
8718.000000;0.683582
8717.000000;0.683498
8716.000000;0.683326
8715.000000;0.683116
8714.000000;0.683015
8713.000000;0.683124
8712.000000;0.683312
8711.000000;0.683297
8710.000000;0.682973
8709.000000;0.682566
8708.000000;0.682379
8707.000000;0.682468
8706.000000;0.682650
8705.000000;0.682764
8704.000000;0.682817
8703.000000;0.682863
8702.000000;0.682892
8701.000000;0.682859
8700.000000;0.682772
8699.000000;0.682707
8698.000000;0.682733
8697.000000;0.682836
8696.000000;0.682889
8695.000000;0.682745
8694.000000;0.682391
8693.000000;0.682006
8692.000000;0.681803
8691.000000;0.681823
8690.000000;0.681925
8689.000000;0.681966
8688.000000;0.681933
8687.000000;0.681889
8686.000000;0.681872
8685.000000;0.681870
8684.000000;0.681871
8683.000000;0.681888
8682.000000;0.681933
8681.000000;0.681990
8680.000000;0.682034
8679.000000;0.682058
8678.000000;0.682076
8677.000000;0.682075
8676.000000;0.681998
8675.000000;0.681819
8674.000000;0.681633
8673.000000;0.681595
8672.000000;0.681737
8671.000000;0.681882
8670.000000;0.681802
8669.000000;0.681451
8668.000000;0.681016
8667.000000;0.680732
8666.000000;0.680686
8665.000000;0.680779
8664.000000;0.680830
8663.000000;0.680710
8662.000000;0.680424
8661.000000;0.680097
8660.000000;0.679891
8659.000000;0.679899
8658.000000;0.680091
8657.000000;0.680337
8656.000000;0.680476
8655.000000;0.680400
8654.000000;0.680119
8653.000000;0.679757
8652.000000;0.679492
8651.000000;0.679448
8650.000000;0.679609
8649.000000;0.679820
8648.000000;0.679893
8647.000000;0.679758
8646.000000;0.679508
8645.000000;0.679292
8644.000000;0.679180
8643.000000;0.679126
8642.000000;0.679042
8641.000000;0.678876
8640.000000;0.678647
8639.000000;0.678440
8638.000000;0.678323
8637.000000;0.678256
8636.000000;0.678121
8635.000000;0.677902
8634.000000;0.677753
8633.000000;0.677820
8632.000000;0.678029
8631.000000;0.678163
8630.000000;0.678119
8629.000000;0.677972
8628.000000;0.677786
8627.000000;0.677517
8626.000000;0.677136
8625.000000;0.676739
8624.000000;0.676451
8623.000000;0.676304
8622.000000;0.676253
8621.000000;0.676251
8620.000000;0.676246
8619.000000;0.676174
8618.000000;0.676024
8617.000000;0.675853
8616.000000;0.675707
8615.000000;0.675580
8614.000000;0.675510
8613.000000;0.675595
8612.000000;0.675849
8611.000000;0.676100
8610.000000;0.676157
8609.000000;0.676028
8608.000000;0.675889
8607.000000;0.675829
8606.000000;0.675751
8605.000000;0.675518
8604.000000;0.675131
8603.000000;0.674734
8602.000000;0.674481
8601.000000;0.674417
8600.000000;0.674441
8599.000000;0.674397
8598.000000;0.674205
8597.000000;0.673922
8596.000000;0.673670
8595.000000;0.673527
8594.000000;0.673509
8593.000000;0.673582
8592.000000;0.673669
8591.000000;0.673663
8590.000000;0.673505
8589.000000;0.673259
8588.000000;0.673066
8587.000000;0.673005
8586.000000;0.673024
8585.000000;0.672999
8584.000000;0.672868
8583.000000;0.672699
8582.000000;0.672623
8581.000000;0.672690
8580.000000;0.672814
8579.000000;0.672871
8578.000000;0.672817
8577.000000;0.672690
8576.000000;0.672526
8575.000000;0.672355
8574.000000;0.672218
8573.000000;0.672126
8572.000000;0.671993
8571.000000;0.671731
8570.000000;0.671397
8569.000000;0.671167
8568.000000;0.671125
8567.000000;0.671181
8566.000000;0.671201
8565.000000;0.671119
8564.000000;0.670899
8563.000000;0.670523
8562.000000;0.670079
8561.000000;0.669738
8560.000000;0.669590
8559.000000;0.669578
8558.000000;0.669626
8557.000000;0.669720
8556.000000;0.669798
8555.000000;0.669726
8554.000000;0.669486
8553.000000;0.669260
8552.000000;0.669194
8551.000000;0.669185
8550.000000;0.669058
8549.000000;0.668856
8548.000000;0.668771
8547.000000;0.668838
8546.000000;0.668885
8545.000000;0.668770
8544.000000;0.668528
8543.000000;0.668260
8542.000000;0.668036
8541.000000;0.667925
8540.000000;0.667970
8539.000000;0.668092
8538.000000;0.668126
8537.000000;0.668003
8536.000000;0.667817
8535.000000;0.667666
8534.000000;0.667534
8533.000000;0.667353
8532.000000;0.667119
8531.000000;0.666891
8530.000000;0.666727
8529.000000;0.666644
8528.000000;0.666608
8527.000000;0.666531
8526.000000;0.666356
8525.000000;0.666124
8524.000000;0.665927
8523.000000;0.665789
8522.000000;0.665653
8521.000000;0.665504
8520.000000;0.665415
8519.000000;0.665464
8518.000000;0.665647
8517.000000;0.665873
8516.000000;0.666019
8515.000000;0.665996
8514.000000;0.665816
8513.000000;0.665583
8512.000000;0.665368
8511.000000;0.665117
8510.000000;0.664785
8509.000000;0.664504
8508.000000;0.664495
8507.000000;0.664765
8506.000000;0.665037
8505.000000;0.665031
8504.000000;0.664742
8503.000000;0.664369
8502.000000;0.664073
8501.000000;0.663873
8500.000000;0.663722
8499.000000;0.663558
8498.000000;0.663324
8497.000000;0.662996
8496.000000;0.662638
8495.000000;0.662366
8494.000000;0.662270
8493.000000;0.662366
8492.000000;0.662579
8491.000000;0.662774
8490.000000;0.662816
8489.000000;0.662675
8488.000000;0.662444
8487.000000;0.662250
8486.000000;0.662149
8485.000000;0.662120
8484.000000;0.662140
8483.000000;0.662216
8482.000000;0.662345
8481.000000;0.662474
8480.000000;0.662517
8479.000000;0.662426
8478.000000;0.662255
8477.000000;0.662117
8476.000000;0.662054
8475.000000;0.661982
8474.000000;0.661792
8473.000000;0.661492
8472.000000;0.661201
8471.000000;0.661015
8470.000000;0.660937
8469.000000;0.660932
8468.000000;0.660971
8467.000000;0.661011
8466.000000;0.660984
8465.000000;0.660872
8464.000000;0.660732
8463.000000;0.660628
8462.000000;0.660549
8461.000000;0.660434
8460.000000;0.660263
8459.000000;0.660075
8458.000000;0.659924
8457.000000;0.659842
8456.000000;0.659829
8455.000000;0.659850
8454.000000;0.659848
8453.000000;0.659770
8452.000000;0.659586
8451.000000;0.659296
8450.000000;0.658934
8449.000000;0.658598
8448.000000;0.658416
8447.000000;0.658442
8446.000000;0.658582
8445.000000;0.658646
8444.000000;0.658510
8443.000000;0.658227
8442.000000;0.657955
8441.000000;0.657797
8440.000000;0.657704
8439.000000;0.657555
8438.000000;0.657311
8437.000000;0.657070
8436.000000;0.656955
8435.000000;0.656993
8434.000000;0.657123
8433.000000;0.657274
8432.000000;0.657405
8431.000000;0.657480
8430.000000;0.657481
8429.000000;0.657432
8428.000000;0.657372
8427.000000;0.657283
8426.000000;0.657096
8425.000000;0.656787
8424.000000;0.656422
8423.000000;0.656088
8422.000000;0.655820
8421.000000;0.655615
8420.000000;0.655478
8419.000000;0.655417
8418.000000;0.655408
8417.000000;0.655411
8416.000000;0.655413
8415.000000;0.655421
8414.000000;0.655422
8413.000000;0.655372
8412.000000;0.655240
8411.000000;0.655049
8410.000000;0.654863
8409.000000;0.654732
8408.000000;0.654669
8407.000000;0.654666
8406.000000;0.654707
8405.000000;0.654758
8404.000000;0.654778
8403.000000;0.654746
8402.000000;0.654694
8401.000000;0.654665
8400.000000;0.654671
8399.000000;0.654679
8398.000000;0.654659
8397.000000;0.654594
8396.000000;0.654480
8395.000000;0.654339
8394.000000;0.654226
8393.000000;0.654166
8392.000000;0.654086
8391.000000;0.653878
8390.000000;0.653547
8389.000000;0.653238
8388.000000;0.653078
8387.000000;0.653045
8386.000000;0.653044
8385.000000;0.653033
8384.000000;0.653002
8383.000000;0.652893
8382.000000;0.652655
8381.000000;0.652355
8380.000000;0.652152
8379.000000;0.652129
8378.000000;0.652222
8377.000000;0.652318
8376.000000;0.652369
8375.000000;0.652381
8374.000000;0.652364
8373.000000;0.652319
8372.000000;0.652254
8371.000000;0.652175
8370.000000;0.652087
8369.000000;0.652004
8368.000000;0.651923
8367.000000;0.651798
8366.000000;0.651587
8365.000000;0.651321
8364.000000;0.651098
8363.000000;0.650979
8362.000000;0.650946
8361.000000;0.650945
8360.000000;0.650939
8359.000000;0.650896
8358.000000;0.650800
8357.000000;0.650681
8356.000000;0.650600
8355.000000;0.650570
8354.000000;0.650529
8353.000000;0.650431
8352.000000;0.650311
8351.000000;0.650222
8350.000000;0.650145
8349.000000;0.650010
8348.000000;0.649784
8347.000000;0.649519
8346.000000;0.649301
8345.000000;0.649183
8344.000000;0.649158
8343.000000;0.649179
8342.000000;0.649202
8341.000000;0.649210
8340.000000;0.649212
8339.000000;0.649227
8338.000000;0.649290
8337.000000;0.649422
8336.000000;0.649561
8335.000000;0.649538
8334.000000;0.649215
8333.000000;0.648668
8332.000000;0.648159
8331.000000;0.647889
8330.000000;0.647828
8329.000000;0.647823
8328.000000;0.647810
8327.000000;0.647844
8326.000000;0.647957
8325.000000;0.648068
8324.000000;0.648064
8323.000000;0.647927
8322.000000;0.647771
8321.000000;0.647726
8320.000000;0.647797
8319.000000;0.647842
8318.000000;0.647711
8317.000000;0.647413
8316.000000;0.647107
8315.000000;0.646938
8314.000000;0.646909
8313.000000;0.646942
8312.000000;0.646979
8311.000000;0.646984
8310.000000;0.646904
8309.000000;0.646716
8308.000000;0.646506
8307.000000;0.646410
8306.000000;0.646460
8305.000000;0.646537
8304.000000;0.646510
8303.000000;0.646360
8302.000000;0.646172
8301.000000;0.646015
8300.000000;0.645904
8299.000000;0.645830
8298.000000;0.645797
8297.000000;0.645797
8296.000000;0.645780
8295.000000;0.645685
8294.000000;0.645503
8293.000000;0.645295
8292.000000;0.645134
8291.000000;0.645031
8290.000000;0.644948
8289.000000;0.644861
8288.000000;0.644787
8287.000000;0.644735
8286.000000;0.644686
8285.000000;0.644626
8284.000000;0.644577
8283.000000;0.644563
8282.000000;0.644579
8281.000000;0.644600
8280.000000;0.644617
8279.000000;0.644621
8278.000000;0.644579
8277.000000;0.644447
8276.000000;0.644223
8275.000000;0.643956
8274.000000;0.643722
8273.000000;0.643581
8272.000000;0.643539
8271.000000;0.643526
8270.000000;0.643458
8269.000000;0.643334
8268.000000;0.643242
8267.000000;0.643239
8266.000000;0.643252
8265.000000;0.643175
8264.000000;0.643027
8263.000000;0.642936
8262.000000;0.642974
8261.000000;0.643070
8260.000000;0.643113
8259.000000;0.643068
8258.000000;0.642970
8257.000000;0.642850
8256.000000;0.642715
8255.000000;0.642557
8254.000000;0.642357
8253.000000;0.642097
8252.000000;0.641816
8251.000000;0.641615
8250.000000;0.641569
8249.000000;0.641654
8248.000000;0.641780
8247.000000;0.641868
8246.000000;0.641877
8245.000000;0.641783
8244.000000;0.641601
8243.000000;0.641413
8242.000000;0.641313
8241.000000;0.641322
8240.000000;0.641362
8239.000000;0.641338
8238.000000;0.641211
8237.000000;0.641004
8236.000000;0.640773
8235.000000;0.640565
8234.000000;0.640395
8233.000000;0.640255
8232.000000;0.640140
8231.000000;0.640068
8230.000000;0.640042
8229.000000;0.640032
8228.000000;0.640006
8227.000000;0.639950
8226.000000;0.639864
8225.000000;0.639741
8224.000000;0.639605
8223.000000;0.639527
8222.000000;0.639559
8221.000000;0.639648
8220.000000;0.639669
8219.000000;0.639548
8218.000000;0.639343
8217.000000;0.639169
8216.000000;0.639112
8215.000000;0.639178
8214.000000;0.639311
8213.000000;0.639401
8212.000000;0.639330
8211.000000;0.639048
8210.000000;0.638631
8209.000000;0.638240
8208.000000;0.638006
8207.000000;0.637944
8206.000000;0.637963
8205.000000;0.637971
8204.000000;0.637956
8203.000000;0.637954
8202.000000;0.637965
8201.000000;0.637946
8200.000000;0.637890
8199.000000;0.637864
8198.000000;0.637915
8197.000000;0.637968
8196.000000;0.637902
8195.000000;0.637707
8194.000000;0.637517
8193.000000;0.637462
8192.000000;0.637531
8191.000000;0.637599
8190.000000;0.637553
8189.000000;0.637376
8188.000000;0.637142
8187.000000;0.636937
8186.000000;0.636789
8185.000000;0.636663
8184.000000;0.636546
8183.000000;0.636497
8182.000000;0.636569
8181.000000;0.636704
8180.000000;0.636775
8179.000000;0.636722
8178.000000;0.636584
8177.000000;0.636399
8176.000000;0.636154
8175.000000;0.635879
8174.000000;0.635679
8173.000000;0.635640
8172.000000;0.635734
8171.000000;0.635869
8170.000000;0.635977
8169.000000;0.636018
8168.000000;0.635957
8167.000000;0.635804
8166.000000;0.635633
8165.000000;0.635498
8164.000000;0.635375
8163.000000;0.635232
8162.000000;0.635124
8161.000000;0.635125
8160.000000;0.635220
8159.000000;0.635315
8158.000000;0.635344
8157.000000;0.635286
8156.000000;0.635113
8155.000000;0.634815
8154.000000;0.634475
8153.000000;0.634222
8152.000000;0.634107
8151.000000;0.634094
8150.000000;0.634159
8149.000000;0.634318
8148.000000;0.634517
8147.000000;0.634605
8146.000000;0.634488
8145.000000;0.634247
8144.000000;0.634053
8143.000000;0.633992
8142.000000;0.634018
8141.000000;0.634037
8140.000000;0.634000
8139.000000;0.633908
8138.000000;0.633786
8137.000000;0.633659
8136.000000;0.633536
8135.000000;0.633420
8134.000000;0.633321
8133.000000;0.633247
8132.000000;0.633176
8131.000000;0.633085
8130.000000;0.632998
8129.000000;0.632974
8128.000000;0.633029
8127.000000;0.633104
8126.000000;0.633118
8125.000000;0.633045
8124.000000;0.632910
8123.000000;0.632759
8122.000000;0.632630
8121.000000;0.632539
8120.000000;0.632460
8119.000000;0.632349
8118.000000;0.632196
8117.000000;0.632040
8116.000000;0.631914
8115.000000;0.631809
8114.000000;0.631713
8113.000000;0.631646
8112.000000;0.631638
8111.000000;0.631683
8110.000000;0.631741
8109.000000;0.631784
8108.000000;0.631816
8107.000000;0.631847
8106.000000;0.631874
8105.000000;0.631862
8104.000000;0.631764
8103.000000;0.631561
8102.000000;0.631295
8101.000000;0.631051
8100.000000;0.630884
8099.000000;0.630794
8098.000000;0.630753
8097.000000;0.630751
8096.000000;0.630781
8095.000000;0.630816
8094.000000;0.630821
8093.000000;0.630789
8092.000000;0.630752
8091.000000;0.630743
8090.000000;0.630760
8089.000000;0.630756
8088.000000;0.630678
8087.000000;0.630526
8086.000000;0.630371
8085.000000;0.630294
8084.000000;0.630307
8083.000000;0.630349
8082.000000;0.630367
8081.000000;0.630355
8080.000000;0.630324
8079.000000;0.630255
8078.000000;0.630126
8077.000000;0.629958
8076.000000;0.629794
8075.000000;0.629640
8074.000000;0.629463
8073.000000;0.629251
8072.000000;0.629050
8071.000000;0.628926
8070.000000;0.628891
8069.000000;0.628879
8068.000000;0.628802
8067.000000;0.628633
8066.000000;0.628450
8065.000000;0.628371
8064.000000;0.628439
8063.000000;0.628586
8062.000000;0.628704
8061.000000;0.628745
8060.000000;0.628739
8059.000000;0.628727
8058.000000;0.628699
8057.000000;0.628628
8056.000000;0.628519
8055.000000;0.628428
8054.000000;0.628394
8053.000000;0.628394
8052.000000;0.628354
8051.000000;0.628211
8050.000000;0.627971
8049.000000;0.627701
8048.000000;0.627499
8047.000000;0.627447
8046.000000;0.627550
8045.000000;0.627727
8044.000000;0.627867
8043.000000;0.627928
8042.000000;0.627941
8041.000000;0.627928
8040.000000;0.627847
8039.000000;0.627670
8038.000000;0.627470
8037.000000;0.627365
8036.000000;0.627375
8035.000000;0.627393
8034.000000;0.627315
8033.000000;0.627159
8032.000000;0.627030
8031.000000;0.626986
8030.000000;0.626982
8029.000000;0.626935
8028.000000;0.626808
8027.000000;0.626637
8026.000000;0.626482
8025.000000;0.626377
8024.000000;0.626316
8023.000000;0.626271
8022.000000;0.626214
8021.000000;0.626125
8020.000000;0.626004
8019.000000;0.625886
8018.000000;0.625818
8017.000000;0.625811
8016.000000;0.625831
8015.000000;0.625828
8014.000000;0.625789
8013.000000;0.625733
8012.000000;0.625668
8011.000000;0.625578
8010.000000;0.625435
8009.000000;0.625234
8008.000000;0.625016
8007.000000;0.624872
8006.000000;0.624880
8005.000000;0.625006
8004.000000;0.625113
8003.000000;0.625088
8002.000000;0.624965
8001.000000;0.624862
8000.000000;0.624842
7999.000000;0.624866
7998.000000;0.624878
7997.000000;0.624865
7996.000000;0.624833
7995.000000;0.624790
7994.000000;0.624774
7993.000000;0.624838
7992.000000;0.624969
7991.000000;0.625041
7990.000000;0.624903
7989.000000;0.624531
7988.000000;0.624069
7987.000000;0.623728
7986.000000;0.623635
7985.000000;0.623760
7984.000000;0.623966
7983.000000;0.624119
7982.000000;0.624160
7981.000000;0.624096
7980.000000;0.623960
7979.000000;0.623805
7978.000000;0.623705
7977.000000;0.623699
7976.000000;0.623741
7975.000000;0.623747
7974.000000;0.623687
7973.000000;0.623609
7972.000000;0.623565
7971.000000;0.623553
7970.000000;0.623541
7969.000000;0.623508
7968.000000;0.623448
7967.000000;0.623365
7966.000000;0.623289
7965.000000;0.623255
7964.000000;0.623263
7963.000000;0.623274
7962.000000;0.623262
7961.000000;0.623233
7960.000000;0.623179
7959.000000;0.623070
7958.000000;0.622898
7957.000000;0.622701
7956.000000;0.622522
7955.000000;0.622380
7954.000000;0.622290
7953.000000;0.622271
7952.000000;0.622302
7951.000000;0.622321
7950.000000;0.622297
7949.000000;0.622261
7948.000000;0.622225
7947.000000;0.622120
7946.000000;0.621883
7945.000000;0.621576
7944.000000;0.621337
7943.000000;0.621228
7942.000000;0.621189
7941.000000;0.621147
7940.000000;0.621109
7939.000000;0.621126
7938.000000;0.621216
7937.000000;0.621362
7936.000000;0.621530
7935.000000;0.621662
7934.000000;0.621688
7933.000000;0.621583
7932.000000;0.621412
7931.000000;0.621263
7930.000000;0.621163
7929.000000;0.621071
7928.000000;0.620965
7927.000000;0.620879
7926.000000;0.620849
7925.000000;0.620848
7924.000000;0.620829
7923.000000;0.620795
7922.000000;0.620780
7921.000000;0.620787
7920.000000;0.620764
7919.000000;0.620669
7918.000000;0.620523
7917.000000;0.620380
7916.000000;0.620265
7915.000000;0.620163
7914.000000;0.620055
7913.000000;0.619942
7912.000000;0.619831
7911.000000;0.619729
7910.000000;0.619637
7909.000000;0.619554
7908.000000;0.619478
7907.000000;0.619421
7906.000000;0.619407
7905.000000;0.619449
7904.000000;0.619524
7903.000000;0.619603
7902.000000;0.619664
7901.000000;0.619687
7900.000000;0.619643
7899.000000;0.619521
7898.000000;0.619355
7897.000000;0.619198
7896.000000;0.619089
7895.000000;0.619043
7894.000000;0.619063
7893.000000;0.619119
7892.000000;0.619139
7891.000000;0.619066
7890.000000;0.618911
7889.000000;0.618734
7888.000000;0.618572
7887.000000;0.618439
7886.000000;0.618360
7885.000000;0.618354
7884.000000;0.618384
7883.000000;0.618370
7882.000000;0.618276
7881.000000;0.618159
7880.000000;0.618101
7879.000000;0.618126
7878.000000;0.618193
7877.000000;0.618227
7876.000000;0.618164
7875.000000;0.617995
7874.000000;0.617788
7873.000000;0.617633
7872.000000;0.617557
7871.000000;0.617526
7870.000000;0.617526
7869.000000;0.617585
7868.000000;0.617695
7867.000000;0.617761
7866.000000;0.617694
7865.000000;0.617512
7864.000000;0.617325
7863.000000;0.617221
7862.000000;0.617223
7861.000000;0.617299
7860.000000;0.617400
7859.000000;0.617474
7858.000000;0.617495
7857.000000;0.617477
7856.000000;0.617428
7855.000000;0.617316
7854.000000;0.617110
7853.000000;0.616846
7852.000000;0.616614
7851.000000;0.616473
7850.000000;0.616402
7849.000000;0.616352
7848.000000;0.616305
7847.000000;0.616273
7846.000000;0.616260
7845.000000;0.616250
7844.000000;0.616231
7843.000000;0.616218
7842.000000;0.616224
7841.000000;0.616224
7840.000000;0.616179
7839.000000;0.616083
7838.000000;0.615978
7837.000000;0.615907
7836.000000;0.615862
7835.000000;0.615808
7834.000000;0.615743
7833.000000;0.615693
7832.000000;0.615655
7831.000000;0.615596
7830.000000;0.615509
7829.000000;0.615446
7828.000000;0.615452
7827.000000;0.615510
7826.000000;0.615564
7825.000000;0.615587
7824.000000;0.615581
7823.000000;0.615536
7822.000000;0.615438
7821.000000;0.615302
7820.000000;0.615174
7819.000000;0.615075
7818.000000;0.614982
7817.000000;0.614866
7816.000000;0.614728
7815.000000;0.614599
7814.000000;0.614504
7813.000000;0.614444
7812.000000;0.614400
7811.000000;0.614352
7810.000000;0.614303
7809.000000;0.614273
7808.000000;0.614272
7807.000000;0.614286
7806.000000;0.614289
7805.000000;0.614263
7804.000000;0.614208
7803.000000;0.614135
7802.000000;0.614068
7801.000000;0.614022
7800.000000;0.613987
7799.000000;0.613922
7798.000000;0.613808
7797.000000;0.613680
7796.000000;0.613594
7795.000000;0.613567
7794.000000;0.613562
7793.000000;0.613537
7792.000000;0.613489
7791.000000;0.613446
7790.000000;0.613431
7789.000000;0.613441
7788.000000;0.613454
7787.000000;0.613442
7786.000000;0.613376
7785.000000;0.613241
7784.000000;0.613052
7783.000000;0.612856
7782.000000;0.612701
7781.000000;0.612615
7780.000000;0.612607
7779.000000;0.612682
7778.000000;0.612824
7777.000000;0.612957
7776.000000;0.612969
7775.000000;0.612804
7774.000000;0.612528
7773.000000;0.612264
7772.000000;0.612094
7771.000000;0.612027
7770.000000;0.612057
7769.000000;0.612191
7768.000000;0.612391
7767.000000;0.612554
7766.000000;0.612577
7765.000000;0.612439
7764.000000;0.612218
7763.000000;0.612029
7762.000000;0.611948
7761.000000;0.611969
7760.000000;0.612005
7759.000000;0.611960
7758.000000;0.611819
7757.000000;0.611652
7756.000000;0.611529
7755.000000;0.611456
7754.000000;0.611417
7753.000000;0.611424
7752.000000;0.611488
7751.000000;0.611548
7750.000000;0.611490
7749.000000;0.611261
7748.000000;0.610946
7747.000000;0.610705
7746.000000;0.610643
7745.000000;0.610728
7744.000000;0.610834
7743.000000;0.610844
7742.000000;0.610740
7741.000000;0.610596
7740.000000;0.610500
7739.000000;0.610479
7738.000000;0.610494
7737.000000;0.610496
7736.000000;0.610465
7735.000000;0.610404
7734.000000;0.610321
7733.000000;0.610233
7732.000000;0.610178
7731.000000;0.610174
7730.000000;0.610182
7729.000000;0.610127
7728.000000;0.609984
7727.000000;0.609831
7726.000000;0.609780
7725.000000;0.609852
7724.000000;0.609955
7723.000000;0.609973
7722.000000;0.609877
7721.000000;0.609720
7720.000000;0.609564
7719.000000;0.609430
7718.000000;0.609318
7717.000000;0.609227
7716.000000;0.609154
7715.000000;0.609087
7714.000000;0.609009
7713.000000;0.608909
7712.000000;0.608799
7711.000000;0.608716
7710.000000;0.608712
7709.000000;0.608794
7708.000000;0.608905
7707.000000;0.608958
7706.000000;0.608918
7705.000000;0.608819
7704.000000;0.608713
7703.000000;0.608613
7702.000000;0.608510
7701.000000;0.608412
7700.000000;0.608346
7699.000000;0.608328
7698.000000;0.608340
7697.000000;0.608346
7696.000000;0.608324
7695.000000;0.608286
7694.000000;0.608250
7693.000000;0.608217
7692.000000;0.608179
7691.000000;0.608149
7690.000000;0.608147
7689.000000;0.608151
7688.000000;0.608081
7687.000000;0.607886
7686.000000;0.607618
7685.000000;0.607400
7684.000000;0.607307
7683.000000;0.607319
7682.000000;0.607357
7681.000000;0.607357
7680.000000;0.607301
7679.000000;0.607223
7678.000000;0.607174
7677.000000;0.607170
7676.000000;0.607167
7675.000000;0.607123
7674.000000;0.607064
7673.000000;0.607049
7672.000000;0.607071
7671.000000;0.607045
7670.000000;0.606905
7669.000000;0.606679
7668.000000;0.606449
7667.000000;0.606280
7666.000000;0.606202
7665.000000;0.606220
7664.000000;0.606304
7663.000000;0.606390
7662.000000;0.606429
7661.000000;0.606420
7660.000000;0.606389
7659.000000;0.606358
7658.000000;0.606342
7657.000000;0.606354
7656.000000;0.606374
7655.000000;0.606352
7654.000000;0.606256
7653.000000;0.606117
7652.000000;0.605995
7651.000000;0.605918
7650.000000;0.605872
7649.000000;0.605841
7648.000000;0.605826
7647.000000;0.605826
7646.000000;0.605827
7645.000000;0.605816
7644.000000;0.605779
7643.000000;0.605697
7642.000000;0.605564
7641.000000;0.605403
7640.000000;0.605263
7639.000000;0.605185
7638.000000;0.605181
7637.000000;0.605230
7636.000000;0.605288
7635.000000;0.605303
7634.000000;0.605239
7633.000000;0.605105
7632.000000;0.604953
7631.000000;0.604830
7630.000000;0.604741
7629.000000;0.604653
7628.000000;0.604542
7627.000000;0.604433
7626.000000;0.604384
7625.000000;0.604422
7624.000000;0.604528
7623.000000;0.604662
7622.000000;0.604798
7621.000000;0.604897
7620.000000;0.604905
7619.000000;0.604800
7618.000000;0.604636
7617.000000;0.604503
7616.000000;0.604432
7615.000000;0.604381
7614.000000;0.604315
7613.000000;0.604243
7612.000000;0.604185
7611.000000;0.604136
7610.000000;0.604103
7609.000000;0.604109
7608.000000;0.604151
7607.000000;0.604174
7606.000000;0.604131
7605.000000;0.604044
7604.000000;0.603967
7603.000000;0.603919
7602.000000;0.603866
7601.000000;0.603771
7600.000000;0.603618
7599.000000;0.603404
7598.000000;0.603147
7597.000000;0.602911
7596.000000;0.602787
7595.000000;0.602823
7594.000000;0.602975
7593.000000;0.603145
7592.000000;0.603256
7591.000000;0.603304
7590.000000;0.603327
7589.000000;0.603351
7588.000000;0.603370
7587.000000;0.603374
7586.000000;0.603376
7585.000000;0.603388
7584.000000;0.603386
7583.000000;0.603327
7582.000000;0.603199
7581.000000;0.603040
7580.000000;0.602894
7579.000000;0.602774
7578.000000;0.602689
7577.000000;0.602649
7576.000000;0.602636
7575.000000;0.602609
7574.000000;0.602555
7573.000000;0.602512
7572.000000;0.602508
7571.000000;0.602508
7570.000000;0.602470
7569.000000;0.602409
7568.000000;0.602373
7567.000000;0.602373
7566.000000;0.602380
7565.000000;0.602384
7564.000000;0.602403
7563.000000;0.602427
7562.000000;0.602403
7561.000000;0.602290
7560.000000;0.602111
7559.000000;0.601930
7558.000000;0.601797
7557.000000;0.601728
7556.000000;0.601709
7555.000000;0.601718
7554.000000;0.601736
7553.000000;0.601771
7552.000000;0.601838
7551.000000;0.601928
7550.000000;0.602000
7549.000000;0.602010
7548.000000;0.601951
7547.000000;0.601867
7546.000000;0.601815
7545.000000;0.601831
7544.000000;0.601888
7543.000000;0.601921
7542.000000;0.601881
7541.000000;0.601789
7540.000000;0.601702
7539.000000;0.601645
7538.000000;0.601596
7537.000000;0.601530
7536.000000;0.601449
7535.000000;0.601366
7534.000000;0.601284
7533.000000;0.601206
7532.000000;0.601152
7531.000000;0.601143
7530.000000;0.601175
7529.000000;0.601221
7528.000000;0.601253
7527.000000;0.601256
7526.000000;0.601241
7525.000000;0.601239
7524.000000;0.601272
7523.000000;0.601319
7522.000000;0.601335
7521.000000;0.601298
7520.000000;0.601240
7519.000000;0.601213
7518.000000;0.601233
7517.000000;0.601275
7516.000000;0.601306
7515.000000;0.601314
7514.000000;0.601295
7513.000000;0.601243
7512.000000;0.601153
7511.000000;0.601042
7510.000000;0.600953
7509.000000;0.600918
7508.000000;0.600933
7507.000000;0.600958
7506.000000;0.600955
7505.000000;0.600917
7504.000000;0.600858
7503.000000;0.600792
7502.000000;0.600726
7501.000000;0.600679
7500.000000;0.600669
7499.000000;0.600685
7498.000000;0.600698
7497.000000;0.600687
7496.000000;0.600666
7495.000000;0.600649
7494.000000;0.600647
7493.000000;0.600668
7492.000000;0.600709
7491.000000;0.600740
7490.000000;0.600726
7489.000000;0.600682
7488.000000;0.600676
7487.000000;0.600745
7486.000000;0.600830
7485.000000;0.600840
7484.000000;0.600764
7483.000000;0.600680
7482.000000;0.600657
7481.000000;0.600694
7480.000000;0.600752
7479.000000;0.600806
7478.000000;0.600832
7477.000000;0.600793
7476.000000;0.600673
7475.000000;0.600516
7474.000000;0.600402
7473.000000;0.600366
7472.000000;0.600374
7471.000000;0.600371
7470.000000;0.600349
7469.000000;0.600347
7468.000000;0.600396
7467.000000;0.600478
7466.000000;0.600540
7465.000000;0.600558
7464.000000;0.600566
7463.000000;0.600609
7462.000000;0.600668
7461.000000;0.600679
7460.000000;0.600602
7459.000000;0.600476
7458.000000;0.600377
7457.000000;0.600360
7456.000000;0.600437
7455.000000;0.600582
7454.000000;0.600731
7453.000000;0.600809
7452.000000;0.600792
7451.000000;0.600728
7450.000000;0.600669
7449.000000;0.600619
7448.000000;0.600563
7447.000000;0.600527
7446.000000;0.600554
7445.000000;0.600628
7444.000000;0.600682
7443.000000;0.600682
7442.000000;0.600665
7441.000000;0.600671
7440.000000;0.600689
7439.000000;0.600687
7438.000000;0.600672
7437.000000;0.600685
7436.000000;0.600750
7435.000000;0.600850
7434.000000;0.600951
7433.000000;0.601022
7432.000000;0.601050
7431.000000;0.601039
7430.000000;0.601002
7429.000000;0.600955
7428.000000;0.600910
7427.000000;0.600894
7426.000000;0.600928
7425.000000;0.600999
7424.000000;0.601061
7423.000000;0.601077
7422.000000;0.601057
7421.000000;0.601037
7420.000000;0.601027
7419.000000;0.601006
7418.000000;0.600958
7417.000000;0.600906
7416.000000;0.600888
7415.000000;0.600922
7414.000000;0.600986
7413.000000;0.601043
7412.000000;0.601072
7411.000000;0.601075
7410.000000;0.601060
7409.000000;0.601038
7408.000000;0.601045
7407.000000;0.601124
7406.000000;0.601281
7405.000000;0.601446
7404.000000;0.601533
7403.000000;0.601524
7402.000000;0.601473
7401.000000;0.601433
7400.000000;0.601405
7399.000000;0.601376
7398.000000;0.601363
7397.000000;0.601406
7396.000000;0.601510
7395.000000;0.601626
7394.000000;0.601695
7393.000000;0.601691
7392.000000;0.601643
7391.000000;0.601588
7390.000000;0.601533
7389.000000;0.601465
7388.000000;0.601402
7387.000000;0.601396
7386.000000;0.601476
7385.000000;0.601605
7384.000000;0.601726
7383.000000;0.601807
7382.000000;0.601843
7381.000000;0.601835
7380.000000;0.601811
7379.000000;0.601840
7378.000000;0.601951
7377.000000;0.602061
7376.000000;0.602050
7375.000000;0.601911
7374.000000;0.601785
7373.000000;0.601813
7372.000000;0.602004
7371.000000;0.602242
7370.000000;0.602400
7369.000000;0.602427
7368.000000;0.602379
7367.000000;0.602377
7366.000000;0.602495
7365.000000;0.602682
7364.000000;0.602819
7363.000000;0.602833
7362.000000;0.602725
7361.000000;0.602548
7360.000000;0.602402
7359.000000;0.602409
7358.000000;0.602599
7357.000000;0.602841
7356.000000;0.602952
7355.000000;0.602893
7354.000000;0.602798
7353.000000;0.602790
7352.000000;0.602857
7351.000000;0.602915
7350.000000;0.602910
7349.000000;0.602846
7348.000000;0.602771
7347.000000;0.602758
7346.000000;0.602832
7345.000000;0.602935
7344.000000;0.603030
7343.000000;0.603193
7342.000000;0.603498
7341.000000;0.603823
7340.000000;0.603943
7339.000000;0.603841
7338.000000;0.603763
7337.000000;0.603882
7336.000000;0.604081
7335.000000;0.604160
7334.000000;0.604091
7333.000000;0.604004
7332.000000;0.604001
7331.000000;0.604106
7330.000000;0.604288
7329.000000;0.604439
7328.000000;0.604423
7327.000000;0.604255
7326.000000;0.604145
7325.000000;0.604244
7324.000000;0.604448
7323.000000;0.604590
7322.000000;0.604695
7321.000000;0.604896
7320.000000;0.605176
7319.000000;0.605374
7318.000000;0.605410
7317.000000;0.605368
7316.000000;0.605358
7315.000000;0.605433
7314.000000;0.605607
7313.000000;0.605839
7312.000000;0.606018
7311.000000;0.606095
7310.000000;0.606187
7309.000000;0.606413
7308.000000;0.606668
7307.000000;0.606715
7306.000000;0.606516
7305.000000;0.606296
7304.000000;0.606260
7303.000000;0.606419
7302.000000;0.606714
7301.000000;0.607083
7300.000000;0.607385
7299.000000;0.607459
7298.000000;0.607375
7297.000000;0.607436
7296.000000;0.607802
7295.000000;0.608252
7294.000000;0.608464
7293.000000;0.608445
7292.000000;0.608485
7291.000000;0.608747
7290.000000;0.609099
7289.000000;0.609344
7288.000000;0.609461
7287.000000;0.609567
7286.000000;0.609762
7285.000000;0.610043
7284.000000;0.610335
7283.000000;0.610559
7282.000000;0.610695
7281.000000;0.610800
7280.000000;0.610946
7279.000000;0.611150
7278.000000;0.611373
7277.000000;0.611571
7276.000000;0.611727
7275.000000;0.611835
7274.000000;0.611899
7273.000000;0.611950
7272.000000;0.612043
7271.000000;0.612227
7270.000000;0.612500
7269.000000;0.612798
7268.000000;0.613042
7267.000000;0.613224
7266.000000;0.613427
7265.000000;0.613717
7264.000000;0.614050
7263.000000;0.614318
7262.000000;0.614499
7261.000000;0.614691
7260.000000;0.614975
7259.000000;0.615332
7258.000000;0.615701
7257.000000;0.616053
7256.000000;0.616376
7255.000000;0.616624
7254.000000;0.616766
7253.000000;0.616840
7252.000000;0.616936
7251.000000;0.617121
7250.000000;0.617399
7249.000000;0.617736
7248.000000;0.618108
7247.000000;0.618527
7246.000000;0.619007
7245.000000;0.619498
7244.000000;0.619870
7243.000000;0.620045
7242.000000;0.620144
7241.000000;0.620412
7240.000000;0.620957
7239.000000;0.621624
7238.000000;0.622177
7237.000000;0.622529
7236.000000;0.622761
7235.000000;0.622987
7234.000000;0.623234
7233.000000;0.623451
7232.000000;0.623614
7231.000000;0.623822
7230.000000;0.624236
7229.000000;0.624884
7228.000000;0.625582
7227.000000;0.626094
7226.000000;0.626380
7225.000000;0.626612
7224.000000;0.626965
7223.000000;0.627449
7222.000000;0.627947
7221.000000;0.628362
7220.000000;0.628678
7219.000000;0.628968
7218.000000;0.629350
7217.000000;0.629875
7216.000000;0.630455
7215.000000;0.630952
7214.000000;0.631337
7213.000000;0.631690
7212.000000;0.632069
7211.000000;0.632454
7210.000000;0.632849
7209.000000;0.633313
7208.000000;0.633842
7207.000000;0.634331
7206.000000;0.634703
7205.000000;0.635020
7204.000000;0.635396
7203.000000;0.635893
7202.000000;0.636506
7201.000000;0.637198
7200.000000;0.637866
7199.000000;0.638390
7198.000000;0.638769
7197.000000;0.639135
7196.000000;0.639582
7195.000000;0.640078
7194.000000;0.640594
7193.000000;0.641206
7192.000000;0.641953
7191.000000;0.642698
7190.000000;0.643263
7189.000000;0.643621
7188.000000;0.643866
7187.000000;0.644082
7186.000000;0.644364
7185.000000;0.644859
7184.000000;0.645621
7183.000000;0.646453
7182.000000;0.647072
7181.000000;0.647436
7180.000000;0.647792
7179.000000;0.648359
7178.000000;0.649099
7177.000000;0.649832
7176.000000;0.650453
7175.000000;0.650993
7174.000000;0.651572
7173.000000;0.652300
7172.000000;0.653176
7171.000000;0.654061
7170.000000;0.654818
7169.000000;0.655426
7168.000000;0.655921
7167.000000;0.656284
7166.000000;0.656489
7165.000000;0.656623
7164.000000;0.656838
7163.000000;0.657189
7162.000000;0.657636
7161.000000;0.658188
7160.000000;0.658911
7159.000000;0.659793
7158.000000;0.660698
7157.000000;0.661513
7156.000000;0.662260
7155.000000;0.663034
7154.000000;0.663908
7153.000000;0.664861
7152.000000;0.665780
7151.000000;0.666538
7150.000000;0.667131
7149.000000;0.667679
7148.000000;0.668259
7147.000000;0.668814
7146.000000;0.669274
7145.000000;0.669696
7144.000000;0.670149
7143.000000;0.670558
7142.000000;0.670801
7141.000000;0.670938
7140.000000;0.671207
7139.000000;0.671807
7138.000000;0.672735
7137.000000;0.673808
7136.000000;0.674760
7135.000000;0.675383
7134.000000;0.675673
7133.000000;0.675828
7132.000000;0.676005
7131.000000;0.676164
7130.000000;0.676238
7129.000000;0.676352
7128.000000;0.676726
7127.000000;0.677386
7126.000000;0.678105
7125.000000;0.678594
7124.000000;0.678698
7123.000000;0.678480
7122.000000;0.678227
7121.000000;0.678244
7120.000000;0.678562
7119.000000;0.678930
7118.000000;0.679210
7117.000000;0.679592
7116.000000;0.680240
7115.000000;0.680910
7114.000000;0.681218
7113.000000;0.681142
7112.000000;0.680967
7111.000000;0.680820
7110.000000;0.680567
7109.000000;0.680145
7108.000000;0.679702
7107.000000;0.679345
7106.000000;0.678990
7105.000000;0.678537
7104.000000;0.678028
7103.000000;0.677556
7102.000000;0.677180
7101.000000;0.676962
7100.000000;0.676935
7099.000000;0.676995
7098.000000;0.676947
7097.000000;0.676700
7096.000000;0.676320
7095.000000;0.675921
7094.000000;0.675602
7093.000000;0.675473
7092.000000;0.675557
7091.000000;0.675625
7090.000000;0.675230
7089.000000;0.674013
7088.000000;0.672061
7087.000000;0.670019
7086.000000;0.668703
7085.000000;0.668371
7084.000000;0.668344
7083.000000;0.667619
7082.000000;0.665943
7081.000000;0.664028
7080.000000;0.662632
7079.000000;0.661772
7078.000000;0.661030
7077.000000;0.660253
7076.000000;0.659554
7075.000000;0.658854
7074.000000;0.657894
7073.000000;0.656625
7072.000000;0.655251
7071.000000;0.653891
7070.000000;0.652464
7069.000000;0.650852
7068.000000;0.648932
7067.000000;0.646546
7066.000000;0.643753
7065.000000;0.641055
7064.000000;0.639117
7063.000000;0.638209
7062.000000;0.638016
7061.000000;0.637920
7060.000000;0.637416
7059.000000;0.636428
7058.000000;0.635350
7057.000000;0.634591
7056.000000;0.633925
7055.000000;0.632530
7054.000000;0.629908
7053.000000;0.626574
7052.000000;0.623599
7051.000000;0.621626
7050.000000;0.620506
7049.000000;0.619598
7048.000000;0.618157
7047.000000;0.615741
7046.000000;0.612637
7045.000000;0.609724
7044.000000;0.607591
7043.000000;0.606008
7042.000000;0.604514
7041.000000;0.603147
7040.000000;0.602101
7039.000000;0.600921
7038.000000;0.598741
7037.000000;0.595396
7036.000000;0.591798
7035.000000;0.589062
7034.000000;0.587515
7033.000000;0.586508
7032.000000;0.584887
7031.000000;0.581779
7030.000000;0.577336
7029.000000;0.572768
7028.000000;0.569332
7027.000000;0.567262
7026.000000;0.565865
7025.000000;0.564461
7024.000000;0.562874
7023.000000;0.561151
7022.000000;0.559311
7021.000000;0.557453
7020.000000;0.555667
7019.000000;0.553686
7018.000000;0.551050
7017.000000;0.547792
7016.000000;0.544613
7015.000000;0.542114
7014.000000;0.540078
7013.000000;0.537783
7012.000000;0.534951
7011.000000;0.532109
7010.000000;0.529982
7009.000000;0.528680
7008.000000;0.527559
7007.000000;0.525839
7006.000000;0.523305
7005.000000;0.520389
7004.000000;0.517642
7003.000000;0.515226
7002.000000;0.512894
7001.000000;0.510262
7000.000000;0.507053
6999.000000;0.503267
6998.000000;0.499289
6997.000000;0.495707
6996.000000;0.492861
6995.000000;0.490592
6994.000000;0.488519
6993.000000;0.486461
6992.000000;0.484499
6991.000000;0.482663
6990.000000;0.480673
6989.000000;0.478056
6988.000000;0.474600
6987.000000;0.470730
6986.000000;0.467283
6985.000000;0.464701
6984.000000;0.462505
6983.000000;0.459827
6982.000000;0.456466
6981.000000;0.453121
6980.000000;0.450472
6979.000000;0.448338
6978.000000;0.445958
6977.000000;0.442899
6976.000000;0.439461
6975.000000;0.436295
6974.000000;0.433793
6973.000000;0.431815
6972.000000;0.429845
6971.000000;0.427395
6970.000000;0.424346
6969.000000;0.420935
6968.000000;0.417517
6967.000000;0.414383
6966.000000;0.411678
6965.000000;0.409301
6964.000000;0.406974
6963.000000;0.404573
6962.000000;0.402298
6961.000000;0.400331
6960.000000;0.398467
6959.000000;0.396354
6958.000000;0.394037
6957.000000;0.391949
6956.000000;0.390293
6955.000000;0.388683
6954.000000;0.386522
6953.000000;0.383614
6952.000000;0.380322
6951.000000;0.377253
6950.000000;0.374840
6949.000000;0.373113
6948.000000;0.371748
6947.000000;0.370289
6946.000000;0.368301
6945.000000;0.365428
6944.000000;0.361628
6943.000000;0.357430
6942.000000;0.353622
6941.000000;0.350519
6940.000000;0.347805
6939.000000;0.345182
6938.000000;0.342846
6937.000000;0.341099
6936.000000;0.339800
6935.000000;0.338592
6934.000000;0.337386
6933.000000;0.336236
6932.000000;0.334990
6931.000000;0.333438
6930.000000;0.331609
6929.000000;0.329546
6928.000000;0.327013
6927.000000;0.323854
6926.000000;0.320466
6925.000000;0.317520
6924.000000;0.315329
6923.000000;0.313824
6922.000000;0.312887
6921.000000;0.312249
6920.000000;0.311285
6919.000000;0.309440
6918.000000;0.306855
6917.000000;0.304197
6916.000000;0.301959
6915.000000;0.300227
6914.000000;0.298926
6913.000000;0.297831
6912.000000;0.296489
6911.000000;0.294649
6910.000000;0.292663
6909.000000;0.291031
6908.000000;0.289637
6907.000000;0.287915
6906.000000;0.285681
6905.000000;0.283325
6904.000000;0.281234
6903.000000;0.279525
6902.000000;0.278329
6901.000000;0.277788
6900.000000;0.277633
6899.000000;0.277155
6898.000000;0.275742
6897.000000;0.273319
6896.000000;0.270351
6895.000000;0.267666
6894.000000;0.266096
6893.000000;0.265858
6892.000000;0.266186
6891.000000;0.265901
6890.000000;0.264368
6889.000000;0.261865
6888.000000;0.259228
6887.000000;0.257368
6886.000000;0.256810
6885.000000;0.257308
6884.000000;0.257970
6883.000000;0.258050
6882.000000;0.257391
6881.000000;0.256006
6880.000000;0.253719
6879.000000;0.250681
6878.000000;0.247835
6877.000000;0.246224
6876.000000;0.245955
6875.000000;0.246280
6874.000000;0.246477
6873.000000;0.246267
6872.000000;0.245603
6871.000000;0.244589
6870.000000;0.243493
6869.000000;0.242431
6868.000000;0.241174
6867.000000;0.239665
6866.000000;0.238437
6865.000000;0.238024
6864.000000;0.238186
6863.000000;0.238259
6862.000000;0.238064
6861.000000;0.237905
6860.000000;0.237792
6859.000000;0.237268
6858.000000;0.236034
6857.000000;0.234325
6856.000000;0.232664
6855.000000;0.231548
6854.000000;0.231223
6853.000000;0.231379
6852.000000;0.231240
6851.000000;0.230379
6850.000000;0.229295
6849.000000;0.228824
6848.000000;0.229174
6847.000000;0.229970
6846.000000;0.230928
6845.000000;0.231885
6844.000000;0.232381
6843.000000;0.231938
6842.000000;0.230787
6841.000000;0.229798
6840.000000;0.229570
6839.000000;0.229962
6838.000000;0.230452
6837.000000;0.230550
6836.000000;0.229966
6835.000000;0.228884
6834.000000;0.228008
6833.000000;0.227877
6832.000000;0.228219
6831.000000;0.228430
6830.000000;0.228492
6829.000000;0.228859
6828.000000;0.229587
6827.000000;0.230234
6826.000000;0.230604
6825.000000;0.230903
6824.000000;0.231071
6823.000000;0.230625
6822.000000;0.229428
6821.000000;0.228128
6820.000000;0.227594
6819.000000;0.228181
6818.000000;0.229642
6817.000000;0.231424
6816.000000;0.232963
6815.000000;0.234021
6814.000000;0.234822
6813.000000;0.235645
6812.000000;0.236308
6811.000000;0.236371
6810.000000;0.235856
6809.000000;0.235392
6808.000000;0.235547
6807.000000;0.236298
6806.000000;0.237198
6805.000000;0.237815
6804.000000;0.237987
6803.000000;0.237908
6802.000000;0.237959
6801.000000;0.238252
6800.000000;0.238481
6799.000000;0.238466
6798.000000;0.238646
6797.000000;0.239571
6796.000000;0.241024
6795.000000;0.242193
6794.000000;0.242726
6793.000000;0.243111
6792.000000;0.243926
6791.000000;0.245178
6790.000000;0.246578
6789.000000;0.248010
6788.000000;0.249372
6787.000000;0.250313
6786.000000;0.250527
6785.000000;0.250232
6784.000000;0.250055
6783.000000;0.250428
6782.000000;0.251230
6781.000000;0.252016
6780.000000;0.252495
6779.000000;0.252760
6778.000000;0.253089
6777.000000;0.253597
6776.000000;0.254176
6775.000000;0.254771
6774.000000;0.255514
6773.000000;0.256427
6772.000000;0.257186
6771.000000;0.257431
6770.000000;0.257250
6769.000000;0.257131
6768.000000;0.257472
6767.000000;0.258330
6766.000000;0.259576
6765.000000;0.261020
6764.000000;0.262407
6763.000000;0.263523
6762.000000;0.264352
6761.000000;0.265007
6760.000000;0.265544
6759.000000;0.266018
6758.000000;0.266642
6757.000000;0.267599
6756.000000;0.268697
6755.000000;0.269515
6754.000000;0.269986
6753.000000;0.270575
6752.000000;0.271702
6751.000000;0.273144
6750.000000;0.274210
6749.000000;0.274463
6748.000000;0.274182
6747.000000;0.274083
6746.000000;0.274638
6745.000000;0.275692
6744.000000;0.276726
6743.000000;0.277449
6742.000000;0.277999
6741.000000;0.278574
6740.000000;0.279117
6739.000000;0.279507
6738.000000;0.279887
6737.000000;0.280548
6736.000000;0.281516
6735.000000;0.282486
6734.000000;0.283180
6733.000000;0.283618
6732.000000;0.284035
6731.000000;0.284658
6730.000000;0.285599
6729.000000;0.286797
6728.000000;0.288018
6727.000000;0.288993
6726.000000;0.289641
6725.000000;0.290119
6724.000000;0.290677
6723.000000;0.291433
6722.000000;0.292257
6721.000000;0.292870
6720.000000;0.293133
6719.000000;0.293243
6718.000000;0.293537
6717.000000;0.294116
6716.000000;0.294823
6715.000000;0.295616
6714.000000;0.296689
6713.000000;0.298089
6712.000000;0.299444
6711.000000;0.300318
6710.000000;0.300722
6709.000000;0.301042
6708.000000;0.301537
6707.000000;0.302135
6706.000000;0.302673
6705.000000;0.303122
6704.000000;0.303558
6703.000000;0.304064
6702.000000;0.304668
6701.000000;0.305267
6700.000000;0.305723
6699.000000;0.306069
6698.000000;0.306529
6697.000000;0.307207
6696.000000;0.307892
6695.000000;0.308348
6694.000000;0.308671
6693.000000;0.309170
6692.000000;0.309983
6691.000000;0.311004
6690.000000;0.312104
6689.000000;0.313175
6688.000000;0.314039
6687.000000;0.314562
6686.000000;0.314867
6685.000000;0.315219
6684.000000;0.315718
6683.000000;0.316289
6682.000000;0.316929
6681.000000;0.317709
6680.000000;0.318567
6679.000000;0.319338
6678.000000;0.320033
6677.000000;0.320836
6676.000000;0.321775
6675.000000;0.322621
6674.000000;0.323199
6673.000000;0.323602
6672.000000;0.324005
6671.000000;0.324453
6670.000000;0.324948
6669.000000;0.325560
6668.000000;0.326316
6667.000000;0.327084
6666.000000;0.327714
6665.000000;0.328229
6664.000000;0.328778
6663.000000;0.329452
6662.000000;0.330199
6661.000000;0.330894
6660.000000;0.331441
6659.000000;0.331871
6658.000000;0.332323
6657.000000;0.332879
6656.000000;0.333411
6655.000000;0.333730
6654.000000;0.333889
6653.000000;0.334206
6652.000000;0.334919
6651.000000;0.335911
6650.000000;0.336856
6649.000000;0.337543
6648.000000;0.337999
6647.000000;0.338384
6646.000000;0.338856
6645.000000;0.339479
6644.000000;0.340188
6643.000000;0.340849
6642.000000;0.341391
6641.000000;0.341870
6640.000000;0.342386
6639.000000;0.342975
6638.000000;0.343616
6637.000000;0.344271
6636.000000;0.344898
6635.000000;0.345468
6634.000000;0.346009
6633.000000;0.346597
6632.000000;0.347270
6631.000000;0.347976
6630.000000;0.348618
6629.000000;0.349142
6628.000000;0.349567
6627.000000;0.349949
6626.000000;0.350325
6625.000000;0.350701
6624.000000;0.351081
6623.000000;0.351511
6622.000000;0.352044
6621.000000;0.352673
6620.000000;0.353352
6619.000000;0.354110
6618.000000;0.355029
6617.000000;0.356051
6616.000000;0.356900
6615.000000;0.357328
6614.000000;0.357396
6613.000000;0.357422
6612.000000;0.357658
6611.000000;0.358127
6610.000000;0.358727
6609.000000;0.359378
6608.000000;0.360031
6607.000000;0.360663
6606.000000;0.361269
6605.000000;0.361825
6604.000000;0.362243
6603.000000;0.362477
6602.000000;0.362645
6601.000000;0.362953
6600.000000;0.363480
6599.000000;0.364112
6598.000000;0.364700
6597.000000;0.365205
6596.000000;0.365654
6595.000000;0.366074
6594.000000;0.366485
6593.000000;0.366920
6592.000000;0.367380
6591.000000;0.367834
6590.000000;0.368283
6589.000000;0.368768
6588.000000;0.369307
6587.000000;0.369864
6586.000000;0.370411
6585.000000;0.370954
6584.000000;0.371503
6583.000000;0.372042
6582.000000;0.372563
6581.000000;0.373082
6580.000000;0.373599
6579.000000;0.374091
6578.000000;0.374538
6577.000000;0.374948
6576.000000;0.375346
6575.000000;0.375771
6574.000000;0.376248
6573.000000;0.376741
6572.000000;0.377166
6571.000000;0.377501
6570.000000;0.377837
6569.000000;0.378267
6568.000000;0.378780
6567.000000;0.379298
6566.000000;0.379804
6565.000000;0.380318
6564.000000;0.380825
6563.000000;0.381301
6562.000000;0.381789
6561.000000;0.382341
6560.000000;0.382884
6559.000000;0.383277
6558.000000;0.383502
6557.000000;0.383721
6556.000000;0.384090
6555.000000;0.384628
6554.000000;0.385254
6553.000000;0.385874
6552.000000;0.386388
6551.000000;0.386736
6550.000000;0.386973
6549.000000;0.387238
6548.000000;0.387612
6547.000000;0.388065
6546.000000;0.388544
6545.000000;0.389039
6544.000000;0.389535
6543.000000;0.389981
6542.000000;0.390351
6541.000000;0.390686
6540.000000;0.391030
6539.000000;0.391394
6538.000000;0.391801
6537.000000;0.392297
6536.000000;0.392879
6535.000000;0.393463
6534.000000;0.393951
6533.000000;0.394293
6532.000000;0.394490
6531.000000;0.394593
6530.000000;0.394746
6529.000000;0.395112
6528.000000;0.395716
6527.000000;0.396399
6526.000000;0.396976
6525.000000;0.397398
6524.000000;0.397712
6523.000000;0.397959
6522.000000;0.398160
6521.000000;0.398372
6520.000000;0.398674
6519.000000;0.399102
6518.000000;0.399608
6517.000000;0.400090
6516.000000;0.400447
6515.000000;0.400662
6514.000000;0.400843
6513.000000;0.401139
6512.000000;0.401585
6511.000000;0.402071
6510.000000;0.402472
6509.000000;0.402784
6508.000000;0.403096
6507.000000;0.403486
6506.000000;0.403968
6505.000000;0.404495
6504.000000;0.404998
6503.000000;0.405419
6502.000000;0.405753
6501.000000;0.406033
6500.000000;0.406292
6499.000000;0.406561
6498.000000;0.406895
6497.000000;0.407325
6496.000000;0.407788
6495.000000;0.408169
6494.000000;0.408432
6493.000000;0.408658
6492.000000;0.408931
6491.000000;0.409249
6490.000000;0.409570
6489.000000;0.409885
6488.000000;0.410207
6487.000000;0.410533
6486.000000;0.410862
6485.000000;0.411208
6484.000000;0.411574
6483.000000;0.411933
6482.000000;0.412263
6481.000000;0.412568
6480.000000;0.412848
6479.000000;0.413093
6478.000000;0.413329
6477.000000;0.413609
6476.000000;0.413947
6475.000000;0.414298
6474.000000;0.414629
6473.000000;0.414958
6472.000000;0.415302
6471.000000;0.415626
6470.000000;0.415904
6469.000000;0.416159
6468.000000;0.416431
6467.000000;0.416723
6466.000000;0.417026
6465.000000;0.417340
6464.000000;0.417657
6463.000000;0.417948
6462.000000;0.418219
6461.000000;0.418517
6460.000000;0.418863
6459.000000;0.419209
6458.000000;0.419503
6457.000000;0.419768
6456.000000;0.420056
6455.000000;0.420379
6454.000000;0.420700
6453.000000;0.420989
6452.000000;0.421242
6451.000000;0.421467
6450.000000;0.421697
6449.000000;0.421973
6448.000000;0.422301
6447.000000;0.422628
6446.000000;0.422895
6445.000000;0.423106
6444.000000;0.423322
6443.000000;0.423600
6442.000000;0.423952
6441.000000;0.424332
6440.000000;0.424656
6439.000000;0.424875
6438.000000;0.425030
6437.000000;0.425216
6436.000000;0.425482
6435.000000;0.425795
6434.000000;0.426104
6433.000000;0.426373
6432.000000;0.426566
6431.000000;0.426660
6430.000000;0.426717
6429.000000;0.426868
6428.000000;0.427178
6427.000000;0.427570
6426.000000;0.427921
6425.000000;0.428191
6424.000000;0.428410
6423.000000;0.428609
6422.000000;0.428805
6421.000000;0.429013
6420.000000;0.429230
6419.000000;0.429432
6418.000000;0.429633
6417.000000;0.429900
6416.000000;0.430253
6415.000000;0.430602
6414.000000;0.430847
6413.000000;0.430996
6412.000000;0.431135
6411.000000;0.431307
6410.000000;0.431492
6409.000000;0.431684
6408.000000;0.431901
6407.000000;0.432136
6406.000000;0.432359
6405.000000;0.432580
6404.000000;0.432840
6403.000000;0.433144
6402.000000;0.433451
6401.000000;0.433741
6400.000000;0.434019
6399.000000;0.434268
6398.000000;0.434453
6397.000000;0.434585
6396.000000;0.434729
6395.000000;0.434923
6394.000000;0.435128
6393.000000;0.435287
6392.000000;0.435398
6391.000000;0.435510
6390.000000;0.435674
6389.000000;0.435909
6388.000000;0.436188
6387.000000;0.436458
6386.000000;0.436685
6385.000000;0.436889
6384.000000;0.437114
6383.000000;0.437361
6382.000000;0.437584
6381.000000;0.437741
6380.000000;0.437849
6379.000000;0.437952
6378.000000;0.438074
6377.000000;0.438217
6376.000000;0.438384
6375.000000;0.438595
6374.000000;0.438856
6373.000000;0.439125
6372.000000;0.439325
6371.000000;0.439422
6370.000000;0.439483
6369.000000;0.439616
6368.000000;0.439849
6367.000000;0.440096
6366.000000;0.440261
6365.000000;0.440349
6364.000000;0.440438
6363.000000;0.440569
6362.000000;0.440714
6361.000000;0.440834
6360.000000;0.440935
6359.000000;0.441052
6358.000000;0.441210
6357.000000;0.441408
6356.000000;0.441615
6355.000000;0.441797
6354.000000;0.441942
6353.000000;0.442080
6352.000000;0.442233
6351.000000;0.442391
6350.000000;0.442528
6349.000000;0.442648
6348.000000;0.442775
6347.000000;0.442912
6346.000000;0.443037
6345.000000;0.443145
6344.000000;0.443267
6343.000000;0.443428
6342.000000;0.443609
6341.000000;0.443764
6340.000000;0.443872
6339.000000;0.443962
6338.000000;0.444083
6337.000000;0.444258
6336.000000;0.444455
6335.000000;0.444631
6334.000000;0.444779
6333.000000;0.444921
6332.000000;0.445061
6331.000000;0.445173
6330.000000;0.445249
6329.000000;0.445320
6328.000000;0.445397
6327.000000;0.445448
6326.000000;0.445451
6325.000000;0.445447
6324.000000;0.445501
6323.000000;0.445625
6322.000000;0.445792
6321.000000;0.445986
6320.000000;0.446193
6319.000000;0.446368
6318.000000;0.446468
6317.000000;0.446527
6316.000000;0.446624
6315.000000;0.446781
6314.000000;0.446944
6313.000000;0.447072
6312.000000;0.447200
6311.000000;0.447363
6310.000000;0.447522
6309.000000;0.447610
6308.000000;0.447627
6307.000000;0.447644
6306.000000;0.447716
6305.000000;0.447831
6304.000000;0.447951
6303.000000;0.448057
6302.000000;0.448157
6301.000000;0.448253
6300.000000;0.448332
6299.000000;0.448385
6298.000000;0.448419
6297.000000;0.448457
6296.000000;0.448515
6295.000000;0.448601
6294.000000;0.448708
6293.000000;0.448810
6292.000000;0.448874
6291.000000;0.448887
6290.000000;0.448882
6289.000000;0.448924
6288.000000;0.449043
6287.000000;0.449201
6286.000000;0.449326
6285.000000;0.449385
6284.000000;0.449401
6283.000000;0.449421
6282.000000;0.449475
6281.000000;0.449566
6280.000000;0.449673
6279.000000;0.449778
6278.000000;0.449879
6277.000000;0.449992
6276.000000;0.450119
6275.000000;0.450230
6274.000000;0.450301
6273.000000;0.450340
6272.000000;0.450381
6271.000000;0.450434
6270.000000;0.450485
6269.000000;0.450530
6268.000000;0.450582
6267.000000;0.450652
6266.000000;0.450734
6265.000000;0.450811
6264.000000;0.450870
6263.000000;0.450903
6262.000000;0.450914
6261.000000;0.450929
6260.000000;0.450977
6259.000000;0.451047
6258.000000;0.451100
6257.000000;0.451121
6256.000000;0.451144
6255.000000;0.451201
6254.000000;0.451281
6253.000000;0.451350
6252.000000;0.451397
6251.000000;0.451449
6250.000000;0.451518
6249.000000;0.451590
6248.000000;0.451639
6247.000000;0.451662
6246.000000;0.451681
6245.000000;0.451715
6244.000000;0.451768
6243.000000;0.451821
6242.000000;0.451866
6241.000000;0.451912
6240.000000;0.451973
6239.000000;0.452044
6238.000000;0.452099
6237.000000;0.452127
6236.000000;0.452151
6235.000000;0.452190
6234.000000;0.452235
6233.000000;0.452263
6232.000000;0.452279
6231.000000;0.452314
6230.000000;0.452385
6229.000000;0.452471
6228.000000;0.452549
6227.000000;0.452619
6226.000000;0.452698
6225.000000;0.452776
6224.000000;0.452821
6223.000000;0.452812
6222.000000;0.452766
6221.000000;0.452720
6220.000000;0.452694
6219.000000;0.452681
6218.000000;0.452672
6217.000000;0.452672
6216.000000;0.452698
6215.000000;0.452750
6214.000000;0.452799
6213.000000;0.452813
6212.000000;0.452784
6211.000000;0.452748
6210.000000;0.452762
6209.000000;0.452868
6208.000000;0.453063
6207.000000;0.453296
6206.000000;0.453493
6205.000000;0.453592
6204.000000;0.453583
6203.000000;0.453510
6202.000000;0.453436
6201.000000;0.453396
6200.000000;0.453385
6199.000000;0.453387
6198.000000;0.453397
6197.000000;0.453416
6196.000000;0.453436
6195.000000;0.453448
6194.000000;0.453451
6193.000000;0.453444
6192.000000;0.453427
6191.000000;0.453406
6190.000000;0.453395
6189.000000;0.453403
6188.000000;0.453417
6187.000000;0.453431
6186.000000;0.453459
6185.000000;0.453519
6184.000000;0.453598
6183.000000;0.453654
6182.000000;0.453662
6181.000000;0.453634
6180.000000;0.453591
6179.000000;0.453527
6178.000000;0.453426
6177.000000;0.453301
6176.000000;0.453202
6175.000000;0.453178
6174.000000;0.453227
6173.000000;0.453307
6172.000000;0.453375
6171.000000;0.453423
6170.000000;0.453471
6169.000000;0.453521
6168.000000;0.453549
6167.000000;0.453547
6166.000000;0.453543
6165.000000;0.453578
6164.000000;0.453653
6163.000000;0.453728
6162.000000;0.453759
6161.000000;0.453732
6160.000000;0.453674
6159.000000;0.453630
6158.000000;0.453633
6157.000000;0.453673
6156.000000;0.453704
6155.000000;0.453694
6154.000000;0.453660
6153.000000;0.453645
6152.000000;0.453663
6151.000000;0.453688
6150.000000;0.453694
6149.000000;0.453685
6148.000000;0.453684
6147.000000;0.453700
6146.000000;0.453719
6145.000000;0.453719
6144.000000;0.453683
6143.000000;0.453620
6142.000000;0.453563
6141.000000;0.453538
6140.000000;0.453542
6139.000000;0.453554
6138.000000;0.453560
6137.000000;0.453558
6136.000000;0.453541
6135.000000;0.453511
6134.000000;0.453502
6133.000000;0.453545
6132.000000;0.453618
6131.000000;0.453660
6130.000000;0.453639
6129.000000;0.453584
6128.000000;0.453541
6127.000000;0.453526
6126.000000;0.453537
6125.000000;0.453573
6124.000000;0.453628
6123.000000;0.453673
6122.000000;0.453688
6121.000000;0.453681
6120.000000;0.453675
6119.000000;0.453679
6118.000000;0.453689
6117.000000;0.453713
6116.000000;0.453755
6115.000000;0.453794
6114.000000;0.453794
6113.000000;0.453747
6112.000000;0.453685
6111.000000;0.453651
6110.000000;0.453663
6109.000000;0.453704
6108.000000;0.453736
6107.000000;0.453732
6106.000000;0.453693
6105.000000;0.453647
6104.000000;0.453621
6103.000000;0.453618
6102.000000;0.453625
6101.000000;0.453628
6100.000000;0.453630
6099.000000;0.453637
6098.000000;0.453653
6097.000000;0.453679
6096.000000;0.453705
6095.000000;0.453723
6094.000000;0.453733
6093.000000;0.453730
6092.000000;0.453706
6091.000000;0.453665
6090.000000;0.453635
6089.000000;0.453654
6088.000000;0.453721
6087.000000;0.453789
6086.000000;0.453808
6085.000000;0.453773
6084.000000;0.453719
6083.000000;0.453685
6082.000000;0.453688
6081.000000;0.453733
6080.000000;0.453813
6079.000000;0.453902
6078.000000;0.453960
6077.000000;0.453950
6076.000000;0.453860
6075.000000;0.453722
6074.000000;0.453600
6073.000000;0.453538
6072.000000;0.453529
6071.000000;0.453533
6070.000000;0.453525
6069.000000;0.453519
6068.000000;0.453532
6067.000000;0.453559
6066.000000;0.453589
6065.000000;0.453618
6064.000000;0.453637
6063.000000;0.453627
6062.000000;0.453578
6061.000000;0.453516
6060.000000;0.453480
6059.000000;0.453489
6058.000000;0.453529
6057.000000;0.453578
6056.000000;0.453624
6055.000000;0.453661
6054.000000;0.453684
6053.000000;0.453689
6052.000000;0.453668
6051.000000;0.453623
6050.000000;0.453576
6049.000000;0.453569
6048.000000;0.453620
6047.000000;0.453701
6046.000000;0.453763
6045.000000;0.453778
6044.000000;0.453764
6043.000000;0.453758
6042.000000;0.453777
6041.000000;0.453811
6040.000000;0.453830
6039.000000;0.453821
6038.000000;0.453797
6037.000000;0.453786
6036.000000;0.453797
6035.000000;0.453812
6034.000000;0.453813
6033.000000;0.453806
6032.000000;0.453806
6031.000000;0.453810
6030.000000;0.453806
6029.000000;0.453802
6028.000000;0.453821
6027.000000;0.453865
6026.000000;0.453913
6025.000000;0.453933
6024.000000;0.453913
6023.000000;0.453860
6022.000000;0.453798
6021.000000;0.453752
6020.000000;0.453749
6019.000000;0.453798
6018.000000;0.453887
6017.000000;0.453984
6016.000000;0.454051
6015.000000;0.454070
6014.000000;0.454051
6013.000000;0.454031
6012.000000;0.454044
6011.000000;0.454098
6010.000000;0.454178
6009.000000;0.454259
6008.000000;0.454320
6007.000000;0.454352
6006.000000;0.454353
6005.000000;0.454325
6004.000000;0.454271
6003.000000;0.454200
6002.000000;0.454126
6001.000000;0.454072
6000.000000;0.454054
5999.000000;0.454078
5998.000000;0.454140
5997.000000;0.454223
5996.000000;0.454300
5995.000000;0.454342
5994.000000;0.454333
5993.000000;0.454276
5992.000000;0.454193
5991.000000;0.454114
5990.000000;0.454068
5989.000000;0.454062
5988.000000;0.454078
5987.000000;0.454084
5986.000000;0.454064
5985.000000;0.454038
5984.000000;0.454047
5983.000000;0.454106
5982.000000;0.454193
5981.000000;0.454264
5980.000000;0.454301
5979.000000;0.454328
5978.000000;0.454372
5977.000000;0.454420
5976.000000;0.454439
5975.000000;0.454432
5974.000000;0.454446
5973.000000;0.454522
5972.000000;0.454633
5971.000000;0.454714
5970.000000;0.454726
5969.000000;0.454684
5968.000000;0.454631
5967.000000;0.454608
5966.000000;0.454636
5965.000000;0.454711
5964.000000;0.454794
5963.000000;0.454851
5962.000000;0.454885
5961.000000;0.454918
5960.000000;0.454947
5959.000000;0.454938
5958.000000;0.454881
5957.000000;0.454815
5956.000000;0.454787
5955.000000;0.454803
5954.000000;0.454848
5953.000000;0.454905
5952.000000;0.454954
5951.000000;0.454961
5950.000000;0.454912
5949.000000;0.454850
5948.000000;0.454840
5947.000000;0.454911
5946.000000;0.455027
5945.000000;0.455131
5944.000000;0.455188
5943.000000;0.455204
5942.000000;0.455204
5941.000000;0.455207
5940.000000;0.455221
5939.000000;0.455257
5938.000000;0.455326
5937.000000;0.455425
5936.000000;0.455523
5935.000000;0.455583
5934.000000;0.455595
5933.000000;0.455589
5932.000000;0.455601
5931.000000;0.455643
5930.000000;0.455702
5929.000000;0.455762
5928.000000;0.455813
5927.000000;0.455856
5926.000000;0.455902
5925.000000;0.455966
5924.000000;0.456044
5923.000000;0.456107
5922.000000;0.456135
5921.000000;0.456134
5920.000000;0.456127
5919.000000;0.456121
5918.000000;0.456105
5917.000000;0.456071
5916.000000;0.456017
5915.000000;0.455957
5914.000000;0.455910
5913.000000;0.455895
5912.000000;0.455909
5911.000000;0.455930
5910.000000;0.455938
5909.000000;0.455933
5908.000000;0.455925
5907.000000;0.455932
5906.000000;0.455971
5905.000000;0.456047
5904.000000;0.456142
5903.000000;0.456223
5902.000000;0.456277
5901.000000;0.456320
5900.000000;0.456364
5899.000000;0.456394
5898.000000;0.456402
5897.000000;0.456414
5896.000000;0.456463
5895.000000;0.456536
5894.000000;0.456584
5893.000000;0.456581
5892.000000;0.456549
5891.000000;0.456516
5890.000000;0.456487
5889.000000;0.456458
5888.000000;0.456448
5887.000000;0.456476
5886.000000;0.456531
5885.000000;0.456580
5884.000000;0.456602
5883.000000;0.456613
5882.000000;0.456640
5881.000000;0.456693
5880.000000;0.456764
5879.000000;0.456839
5878.000000;0.456898
5877.000000;0.456918
5876.000000;0.456902
5875.000000;0.456882
5874.000000;0.456899
5873.000000;0.456957
5872.000000;0.457012
5871.000000;0.457021
5870.000000;0.456987
5869.000000;0.456949
5868.000000;0.456934
5867.000000;0.456947
5866.000000;0.456978
5865.000000;0.457015
5864.000000;0.457046
5863.000000;0.457066
5862.000000;0.457093
5861.000000;0.457139
5860.000000;0.457184
5859.000000;0.457185
5858.000000;0.457131
5857.000000;0.457072
5856.000000;0.457062
5855.000000;0.457110
5854.000000;0.457178
5853.000000;0.457237
5852.000000;0.457283
5851.000000;0.457323
5850.000000;0.457359
5849.000000;0.457392
5848.000000;0.457432
5847.000000;0.457480
5846.000000;0.457524
5845.000000;0.457551
5844.000000;0.457558
5843.000000;0.457557
5842.000000;0.457557
5841.000000;0.457554
5840.000000;0.457535
5839.000000;0.457493
5838.000000;0.457447
5837.000000;0.457427
5836.000000;0.457452
5835.000000;0.457515
5834.000000;0.457584
5833.000000;0.457637
5832.000000;0.457677
5831.000000;0.457729
5830.000000;0.457806
5829.000000;0.457884
5828.000000;0.457917
5827.000000;0.457889
5826.000000;0.457835
5825.000000;0.457804
5824.000000;0.457811
5823.000000;0.457840
5822.000000;0.457886
5821.000000;0.457960
5820.000000;0.458051
5819.000000;0.458118
5818.000000;0.458135
5817.000000;0.458125
5816.000000;0.458130
5815.000000;0.458157
5814.000000;0.458190
5813.000000;0.458220
5812.000000;0.458257
5811.000000;0.458297
5810.000000;0.458314
5809.000000;0.458295
5808.000000;0.458272
5807.000000;0.458295
5806.000000;0.458391
5805.000000;0.458531
5804.000000;0.458648
5803.000000;0.458683
5802.000000;0.458632
5801.000000;0.458548
5800.000000;0.458496
5799.000000;0.458502
5798.000000;0.458536
5797.000000;0.458562
5796.000000;0.458571
5795.000000;0.458581
5794.000000;0.458608
5793.000000;0.458642
5792.000000;0.458666
5791.000000;0.458676
5790.000000;0.458686
5789.000000;0.458710
5788.000000;0.458756
5787.000000;0.458825
5786.000000;0.458917
5785.000000;0.459019
5784.000000;0.459110
5783.000000;0.459172
5782.000000;0.459194
5781.000000;0.459179
5780.000000;0.459143
5779.000000;0.459113
5778.000000;0.459110
5777.000000;0.459123
5776.000000;0.459128
5775.000000;0.459127
5774.000000;0.459145
5773.000000;0.459184
5772.000000;0.459206
5771.000000;0.459180
5770.000000;0.459129
5769.000000;0.459106
5768.000000;0.459129
5767.000000;0.459176
5766.000000;0.459229
5765.000000;0.459287
5764.000000;0.459343
5763.000000;0.459375
5762.000000;0.459381
5761.000000;0.459382
5760.000000;0.459385
5759.000000;0.459369
5758.000000;0.459324
5757.000000;0.459277
5756.000000;0.459255
5755.000000;0.459257
5754.000000;0.459261
5753.000000;0.459261
5752.000000;0.459268
5751.000000;0.459284
5750.000000;0.459301
5749.000000;0.459315
5748.000000;0.459325
5747.000000;0.459326
5746.000000;0.459318
5745.000000;0.459313
5744.000000;0.459320
5743.000000;0.459337
5742.000000;0.459358
5741.000000;0.459392
5740.000000;0.459442
5739.000000;0.459487
5738.000000;0.459488
5737.000000;0.459439
5736.000000;0.459371
5735.000000;0.459321
5734.000000;0.459303
5733.000000;0.459312
5732.000000;0.459348
5731.000000;0.459404
5730.000000;0.459457
5729.000000;0.459473
5728.000000;0.459447
5727.000000;0.459412
5726.000000;0.459408
5725.000000;0.459426
5724.000000;0.459419
5723.000000;0.459358
5722.000000;0.459268
5721.000000;0.459199
5720.000000;0.459168
5719.000000;0.459154
5718.000000;0.459142
5717.000000;0.459140
5716.000000;0.459158
5715.000000;0.459178
5714.000000;0.459173
5713.000000;0.459138
5712.000000;0.459087
5711.000000;0.459033
5710.000000;0.458984
5709.000000;0.458955
5708.000000;0.458965
5707.000000;0.459004
5706.000000;0.459029
5705.000000;0.458993
5704.000000;0.458906
5703.000000;0.458836
5702.000000;0.458847
5701.000000;0.458934
5700.000000;0.459027
5699.000000;0.459072
5698.000000;0.459080
5697.000000;0.459095
5696.000000;0.459135
5695.000000;0.459184
5694.000000;0.459218
5693.000000;0.459221
5692.000000;0.459184
5691.000000;0.459121
5690.000000;0.459078
5689.000000;0.459101
5688.000000;0.459184
5687.000000;0.459281
5686.000000;0.459356
5685.000000;0.459409
5684.000000;0.459445
5683.000000;0.459458
5682.000000;0.459437
5681.000000;0.459385
5680.000000;0.459305
5679.000000;0.459209
5678.000000;0.459132
5677.000000;0.459119
5676.000000;0.459175
5675.000000;0.459250
5674.000000;0.459287
5673.000000;0.459273
5672.000000;0.459241
5671.000000;0.459227
5670.000000;0.459246
5669.000000;0.459290
5668.000000;0.459343
5667.000000;0.459403
5666.000000;0.459485
5665.000000;0.459591
5664.000000;0.459685
5663.000000;0.459730
5662.000000;0.459738
5661.000000;0.459765
5660.000000;0.459845
5659.000000;0.459952
5658.000000;0.460050
5657.000000;0.460129
5656.000000;0.460196
5655.000000;0.460252
5654.000000;0.460302
5653.000000;0.460354
5652.000000;0.460402
5651.000000;0.460421
5650.000000;0.460412
5649.000000;0.460425
5648.000000;0.460503
5647.000000;0.460629
5646.000000;0.460751
5645.000000;0.460842
5644.000000;0.460922
5643.000000;0.461020
5642.000000;0.461144
5641.000000;0.461278
5640.000000;0.461396
5639.000000;0.461478
5638.000000;0.461519
5637.000000;0.461545
5636.000000;0.461580
5635.000000;0.461622
5634.000000;0.461655
5633.000000;0.461685
5632.000000;0.461748
5631.000000;0.461878
5630.000000;0.462069
5629.000000;0.462281
5628.000000;0.462458
5627.000000;0.462568
5626.000000;0.462614
5625.000000;0.462629
5624.000000;0.462655
5623.000000;0.462739
5622.000000;0.462913
5621.000000;0.463159
5620.000000;0.463404
5619.000000;0.463575
5618.000000;0.463674
5617.000000;0.463773
5616.000000;0.463930
5615.000000;0.464132
5614.000000;0.464331
5613.000000;0.464494
5612.000000;0.464617
5611.000000;0.464712
5610.000000;0.464800
5609.000000;0.464906
5608.000000;0.465026
5607.000000;0.465128
5606.000000;0.465197
5605.000000;0.465265
5604.000000;0.465365
5603.000000;0.465490
5602.000000;0.465616
5601.000000;0.465759
5600.000000;0.465958
5599.000000;0.466212
5598.000000;0.466464
5597.000000;0.466658
5596.000000;0.466781
5595.000000;0.466859
5594.000000;0.466922
5593.000000;0.466997
5592.000000;0.467104
5591.000000;0.467252
5590.000000;0.467440
5589.000000;0.467650
5588.000000;0.467856
5587.000000;0.468027
5586.000000;0.468155
5585.000000;0.468260
5584.000000;0.468369
5583.000000;0.468490
5582.000000;0.468619
5581.000000;0.468765
5580.000000;0.468937
5579.000000;0.469125
5578.000000;0.469298
5577.000000;0.469441
5576.000000;0.469571
5575.000000;0.469717
5574.000000;0.469890
5573.000000;0.470079
5572.000000;0.470261
5571.000000;0.470408
5570.000000;0.470507
5569.000000;0.470581
5568.000000;0.470679
5567.000000;0.470841
5566.000000;0.471059
5565.000000;0.471284
5564.000000;0.471461
5563.000000;0.471564
5562.000000;0.471605
5561.000000;0.471629
5560.000000;0.471699
5559.000000;0.471853
5558.000000;0.472078
5557.000000;0.472318
5556.000000;0.472526
5555.000000;0.472699
5554.000000;0.472859
5553.000000;0.473002
5552.000000;0.473099
5551.000000;0.473144
5550.000000;0.473173
5549.000000;0.473225
5548.000000;0.473298
5547.000000;0.473375
5546.000000;0.473476
5545.000000;0.473637
5544.000000;0.473848
5543.000000;0.474041
5542.000000;0.474165
5541.000000;0.474240
5540.000000;0.474318
5539.000000;0.474422
5538.000000;0.474534
5537.000000;0.474647
5536.000000;0.474775
5535.000000;0.474927
5534.000000;0.475090
5533.000000;0.475236
5532.000000;0.475349
5531.000000;0.475432
5530.000000;0.475511
5529.000000;0.475610
5528.000000;0.475734
5527.000000;0.475859
5526.000000;0.475966
5525.000000;0.476065
5524.000000;0.476179
5523.000000;0.476307
5522.000000;0.476415
5521.000000;0.476482
5520.000000;0.476535
5519.000000;0.476626
5518.000000;0.476776
5517.000000;0.476955
5516.000000;0.477122
5515.000000;0.477261
5514.000000;0.477379
5513.000000;0.477475
5512.000000;0.477556
5511.000000;0.477657
5510.000000;0.477826
5509.000000;0.478055
5508.000000;0.478260
5507.000000;0.478370
5506.000000;0.478417
5505.000000;0.478494
5504.000000;0.478628
5503.000000;0.478755
5502.000000;0.478812
5501.000000;0.478816
5500.000000;0.478825
5499.000000;0.478854
5498.000000;0.478885
5497.000000;0.478941
5496.000000;0.479092
5495.000000;0.479347
5494.000000;0.479613
5493.000000;0.479786
5492.000000;0.479870
5491.000000;0.479963
5490.000000;0.480101
5489.000000;0.480205
5488.000000;0.480193
5487.000000;0.480105
5486.000000;0.480070
5485.000000;0.480155
5484.000000;0.480317
5483.000000;0.480486
5482.000000;0.480632
5481.000000;0.480756
5480.000000;0.480857
5479.000000;0.480971
5478.000000;0.481158
5477.000000;0.481414
5476.000000;0.481638
5475.000000;0.481735
5474.000000;0.481742
5473.000000;0.481773
5472.000000;0.481856
5471.000000;0.481921
5470.000000;0.481922
5469.000000;0.481919
5468.000000;0.481992
5467.000000;0.482142
5466.000000;0.482305
5465.000000;0.482452
5464.000000;0.482623
5463.000000;0.482866
5462.000000;0.483154
5461.000000;0.483393
5460.000000;0.483515
5459.000000;0.483548
5458.000000;0.483580
5457.000000;0.483665
5456.000000;0.483777
5455.000000;0.483881
5454.000000;0.483995
5453.000000;0.484168
5452.000000;0.484391
5451.000000;0.484589
5450.000000;0.484714
5449.000000;0.484812
5448.000000;0.484963
5447.000000;0.485160
5446.000000;0.485323
5445.000000;0.485428
5444.000000;0.485554
5443.000000;0.485767
5442.000000;0.486016
5441.000000;0.486180
5440.000000;0.486228
5439.000000;0.486273
5438.000000;0.486435
5437.000000;0.486702
5436.000000;0.486944
5435.000000;0.487067
5434.000000;0.487135
5433.000000;0.487306
5432.000000;0.487650
5431.000000;0.488078
5430.000000;0.488448
5429.000000;0.488704
5428.000000;0.488898
5427.000000;0.489108
5426.000000;0.489346
5425.000000;0.489569
5424.000000;0.489729
5423.000000;0.489830
5422.000000;0.489946
5421.000000;0.490153
5420.000000;0.490427
5419.000000;0.490677
5418.000000;0.490872
5417.000000;0.491082
5416.000000;0.491361
5415.000000;0.491657
5414.000000;0.491900
5413.000000;0.492119
5412.000000;0.492385
5411.000000;0.492693
5410.000000;0.492987
5409.000000;0.493277
5408.000000;0.493639
5407.000000;0.494095
5406.000000;0.494583
5405.000000;0.495044
5404.000000;0.495478
5403.000000;0.495893
5402.000000;0.496289
5401.000000;0.496684
5400.000000;0.497088
5399.000000;0.497466
5398.000000;0.497792
5397.000000;0.498121
5396.000000;0.498531
5395.000000;0.498992
5394.000000;0.499399
5393.000000;0.499731
5392.000000;0.500109
5391.000000;0.500627
5390.000000;0.501244
5389.000000;0.501866
5388.000000;0.502451
5387.000000;0.502992
5386.000000;0.503474
5385.000000;0.503906
5384.000000;0.504359
5383.000000;0.504885
5382.000000;0.505452
5381.000000;0.506020
5380.000000;0.506616
5379.000000;0.507276
5378.000000;0.507973
5377.000000;0.508664
5376.000000;0.509368
5375.000000;0.510140
5374.000000;0.510974
5373.000000;0.511799
5372.000000;0.512577
5371.000000;0.513344
5370.000000;0.514156
5369.000000;0.515045
5368.000000;0.516020
5367.000000;0.517058
5366.000000;0.518098
5365.000000;0.519085
5364.000000;0.520026
5363.000000;0.520963
5362.000000;0.521911
5361.000000;0.522855
5360.000000;0.523810
5359.000000;0.524822
5358.000000;0.525918
5357.000000;0.527084
5356.000000;0.528304
5355.000000;0.529577
5354.000000;0.530900
5353.000000;0.532263
5352.000000;0.533678
5351.000000;0.535119
5350.000000;0.536459
5349.000000;0.537566
5348.000000;0.538484
5347.000000;0.539449
5346.000000;0.540685
5345.000000;0.542241
5344.000000;0.544032
5343.000000;0.545949
5342.000000;0.547822
5341.000000;0.549407
5340.000000;0.550561
5339.000000;0.551469
5338.000000;0.552562
5337.000000;0.554112
5336.000000;0.555974
5335.000000;0.557830
5334.000000;0.559469
5333.000000;0.560812
5332.000000;0.561864
5331.000000;0.562771
5330.000000;0.563754
5329.000000;0.564847
5328.000000;0.565823
5327.000000;0.566480
5326.000000;0.566877
5325.000000;0.567159
5324.000000;0.567306
5323.000000;0.567237
5322.000000;0.566957
5321.000000;0.566409
5320.000000;0.565357
5319.000000;0.563623
5318.000000;0.561328
5317.000000;0.558655
5316.000000;0.555516
5315.000000;0.551637
5314.000000;0.546822
5313.000000;0.540960
5312.000000;0.533998
5311.000000;0.526046
5310.000000;0.517203
5309.000000;0.507162
5308.000000;0.495364
5307.000000;0.481635
5306.000000;0.466143
5305.000000;0.448676
5304.000000;0.428862
5303.000000;0.407278
5302.000000;0.385592
5301.000000;0.365663
5300.000000;0.349297
5299.000000;0.338651
5298.000000;0.336201
5297.000000;0.343661
5296.000000;0.359898
5295.000000;0.382207
5294.000000;0.411326
5293.000000;0.449565
5292.000000;0.493184
5291.000000;0.533777
5290.000000;0.567661
5289.000000;0.597164
5288.000000;0.624567
5287.000000;0.651392
5286.000000;0.680013
5285.000000;0.709424
5284.000000;0.733263
5283.000000;0.748524
5282.000000;0.761161
5281.000000;0.776538
5280.000000;0.791263
5279.000000;0.800984
5278.000000;0.809194
5277.000000;0.820634
5276.000000;0.832841
5275.000000;0.842006
5274.000000;0.850567
5273.000000;0.860422
5272.000000;0.865662
5271.000000;0.861917
5270.000000;0.856147
5269.000000;0.856873
5268.000000;0.861869
5267.000000;0.864171
5266.000000;0.864629
5265.000000;0.869068
5264.000000;0.877339
5263.000000;0.884343
5262.000000;0.888397
5261.000000;0.890148
5260.000000;0.886861
5259.000000;0.877128
5258.000000;0.867593
5257.000000;0.866256
5256.000000;0.872491
5255.000000;0.879430
5254.000000;0.883156
5253.000000;0.884628
5252.000000;0.885602
5251.000000;0.888272
5250.000000;0.895532
5249.000000;0.906021
5248.000000;0.912680
5247.000000;0.911962
5246.000000;0.909646
5245.000000;0.911447
5244.000000;0.914367
5243.000000;0.913599
5242.000000;0.911814
5241.000000;0.913622
5240.000000;0.916290
5239.000000;0.913781
5238.000000;0.906371
5237.000000;0.899215
5236.000000;0.894831
5235.000000;0.893318
5234.000000;0.895777
5233.000000;0.901300
5232.000000;0.904070
5231.000000;0.899957
5230.000000;0.893048
5229.000000;0.889810
5228.000000;0.890981
5227.000000;0.894173
5226.000000;0.899379
5225.000000;0.906161
5224.000000;0.910021
5223.000000;0.908159
5222.000000;0.904713
5221.000000;0.904009
5220.000000;0.903459
5219.000000;0.898958
5218.000000;0.892690
5217.000000;0.889215
5216.000000;0.888588
5215.000000;0.888975
5214.000000;0.891760
5213.000000;0.898359
5212.000000;0.905730
5211.000000;0.910625
5210.000000;0.914521
5209.000000;0.918712
5208.000000;0.919182
5207.000000;0.913304
5206.000000;0.906234
5205.000000;0.903507
5204.000000;0.903357
5203.000000;0.902483
5202.000000;0.904116
5201.000000;0.912943
5200.000000;0.926182
5199.000000;0.936824
5198.000000;0.943314
5197.000000;0.948227
5196.000000;0.949488
5195.000000;0.942401
5194.000000;0.929064
5193.000000;0.916708
5192.000000;0.908331
5191.000000;0.902297
5190.000000;0.898424
5189.000000;0.897884
5188.000000;0.898913
5187.000000;0.898600
5186.000000;0.898104
5185.000000;0.900723
5184.000000;0.905818
5183.000000;0.909674
5182.000000;0.911079
5181.000000;0.911007
5180.000000;0.908581
5179.000000;0.902615
5178.000000;0.895484
5177.000000;0.890661
5176.000000;0.887956
5175.000000;0.885090
5174.000000;0.882535
5173.000000;0.882562
5172.000000;0.884878
5171.000000;0.887813
5170.000000;0.892314
5169.000000;0.900521
5168.000000;0.911057
5167.000000;0.919562
5166.000000;0.923697
5165.000000;0.924051
5164.000000;0.921011
5163.000000;0.915016
5162.000000;0.908987
5161.000000;0.906298
5160.000000;0.907276
5159.000000;0.910124
5158.000000;0.913566
5157.000000;0.916490
5156.000000;0.917355
5155.000000;0.916466
5154.000000;0.915940
5153.000000;0.915078
5152.000000;0.910170
5151.000000;0.902226
5150.000000;0.899369
5149.000000;0.907055
5148.000000;0.919955
5147.000000;0.927630
5146.000000;0.926454
5145.000000;0.920149
5144.000000;0.911826
5143.000000;0.903281
5142.000000;0.898136
5141.000000;0.899283
5140.000000;0.904230
5139.000000;0.907402
5138.000000;0.906868
5137.000000;0.904827
5136.000000;0.902703
5135.000000;0.900390
5134.000000;0.898776
5133.000000;0.898431
5132.000000;0.897311
5131.000000;0.894053
5130.000000;0.891970
5129.000000;0.895239
5128.000000;0.902557
5127.000000;0.909042
5126.000000;0.913307
5125.000000;0.917712
5124.000000;0.922090
5123.000000;0.922712
5122.000000;0.918368
5121.000000;0.913127
5120.000000;0.911318
5119.000000;0.913044
5118.000000;0.915741
5117.000000;0.917347
5116.000000;0.917465
5115.000000;0.917759
5114.000000;0.920800
5113.000000;0.926595
5112.000000;0.931541
5111.000000;0.932865
5110.000000;0.932253
5109.000000;0.932928
5108.000000;0.935047
5107.000000;0.936182
5106.000000;0.934474
5105.000000;0.928942
5104.000000;0.919008
5103.000000;0.906571
5102.000000;0.896391
5101.000000;0.892011
5100.000000;0.892953
5099.000000;0.897006
5098.000000;0.902711
5097.000000;0.907932
5096.000000;0.908996
5095.000000;0.904340
5094.000000;0.897293
5093.000000;0.892239
5092.000000;0.889955
5091.000000;0.889153
5090.000000;0.889671
5089.000000;0.891457
5088.000000;0.893211
5087.000000;0.894880
5086.000000;0.898748
5085.000000;0.905177
5084.000000;0.910044
5083.000000;0.909968
5082.000000;0.907707
5081.000000;0.908135
5080.000000;0.911457
5079.000000;0.913834
5078.000000;0.912224
5077.000000;0.905965
5076.000000;0.896240
5075.000000;0.886706
5074.000000;0.882478
5073.000000;0.885402
5072.000000;0.891389
5071.000000;0.895337
5070.000000;0.896811
5069.000000;0.897597
5068.000000;0.896658
5067.000000;0.891956
5066.000000;0.885032
5065.000000;0.879112
5064.000000;0.874374
5063.000000;0.869307
5062.000000;0.865336
5061.000000;0.865818
5060.000000;0.870807
5059.000000;0.876009
5058.000000;0.877081
5057.000000;0.873226
5056.000000;0.867092
5055.000000;0.862976
5054.000000;0.864026
5053.000000;0.869082
5052.000000;0.873502
5051.000000;0.874720
5050.000000;0.874451
5049.000000;0.874150
5048.000000;0.872440
5047.000000;0.869268
5046.000000;0.868690
5045.000000;0.873874
5044.000000;0.882070
5043.000000;0.888010
5042.000000;0.889949
5041.000000;0.888473
5040.000000;0.882432
5039.000000;0.871511
5038.000000;0.860273
5037.000000;0.854220
5036.000000;0.853402
5035.000000;0.853871
5034.000000;0.853928
5033.000000;0.854723
5032.000000;0.855817
5031.000000;0.854842
5030.000000;0.851389
5029.000000;0.847373
5028.000000;0.843413
5027.000000;0.838753
5026.000000;0.834668
5025.000000;0.833672
5024.000000;0.835437
5023.000000;0.837028
5022.000000;0.837134
5021.000000;0.836760
5020.000000;0.835428
5019.000000;0.830459
5018.000000;0.820843
5017.000000;0.808786
5016.000000;0.797484
5015.000000;0.789006
5014.000000;0.783874
5013.000000;0.781171
5012.000000;0.778790
5011.000000;0.775413
5010.000000;0.772376
5009.000000;0.771809
5008.000000;0.773362
5007.000000;0.774307
5006.000000;0.772256
5005.000000;0.766609
5004.000000;0.758308
5003.000000;0.749536
5002.000000;0.742726
5001.000000;0.738501
5000.000000;0.735196
4999.000000;0.731414
4998.000000;0.727791
4997.000000;0.724947
4996.000000;0.721458
4995.000000;0.715838
4994.000000;0.709129
4993.000000;0.703452
4992.000000;0.699142
4991.000000;0.695189
4990.000000;0.691430
4989.000000;0.688368
4988.000000;0.685549
4987.000000;0.681877
4986.000000;0.677045
4985.000000;0.671317
4984.000000;0.664843
4983.000000;0.658492
4982.000000;0.653945
4981.000000;0.651156
4980.000000;0.647077
4979.000000;0.639320
4978.000000;0.629661
4977.000000;0.621351
4976.000000;0.614766
4975.000000;0.608460
4974.000000;0.602946
4973.000000;0.600071
4972.000000;0.599234
4971.000000;0.597273
4970.000000;0.592506
4969.000000;0.586409
4968.000000;0.580451
4967.000000;0.573566
4966.000000;0.563951
4965.000000;0.552212
4964.000000;0.541268
4963.000000;0.533565
4962.000000;0.529107
4961.000000;0.525907
4960.000000;0.522072
4959.000000;0.517549
4958.000000;0.513304
4957.000000;0.508914
4956.000000;0.502401
4955.000000;0.493147
4954.000000;0.483380
4953.000000;0.475559
4952.000000;0.469616
4951.000000;0.463836
4950.000000;0.457342
4949.000000;0.450484
4948.000000;0.443424
4947.000000;0.435904
4946.000000;0.428075
4945.000000;0.420320
4944.000000;0.412381
4943.000000;0.403830
4942.000000;0.395207
4941.000000;0.387751
4940.000000;0.381925
4939.000000;0.376944
4938.000000;0.371693
4937.000000;0.365609
4936.000000;0.358835
4935.000000;0.351905
4934.000000;0.344996
4933.000000;0.337433
4932.000000;0.328429
4931.000000;0.318538
4930.000000;0.309647
4929.000000;0.303207
4928.000000;0.298839
4927.000000;0.294733
4926.000000;0.288783
4925.000000;0.279543
4924.000000;0.267454
4923.000000;0.255491
4922.000000;0.247218
4921.000000;0.243297
4920.000000;0.240737
4919.000000;0.236065
4918.000000;0.228390
4917.000000;0.219043
4916.000000;0.209518
4915.000000;0.200634
4914.000000;0.192675
4913.000000;0.185233
4912.000000;0.177359
4911.000000;0.168614
4910.000000;0.159640
4909.000000;0.151299
4908.000000;0.143798
4907.000000;0.137006
4906.000000;0.130870
4905.000000;0.124916
4904.000000;0.118194
4903.000000;0.110332
4902.000000;0.101873
4901.000000;0.093183
4900.000000;0.083931
4899.000000;0.074229
4898.000000;0.065415
4897.000000;0.058851
4896.000000;0.054394
4895.000000;0.050651
4894.000000;0.046324
4893.000000;0.040777
4892.000000;0.033931
4891.000000;0.026466
4890.000000;0.019755
4889.000000;0.014875
4888.000000;0.011718
4887.000000;0.009296
4886.000000;0.006554
4885.000000;0.002668
4884.000000;-0.002808
4883.000000;-0.009446
4882.000000;-0.015901
4881.000000;-0.020933
4880.000000;-0.024407
4879.000000;-0.027082
4878.000000;-0.029664
4877.000000;-0.032402
4876.000000;-0.035441
4875.000000;-0.039024
4874.000000;-0.043122
4873.000000;-0.047142
4872.000000;-0.050295
4871.000000;-0.052210
4870.000000;-0.052953
4869.000000;-0.052546
4868.000000;-0.050919
4867.000000;-0.048566
4866.000000;-0.046693
4865.000000;-0.046176
4864.000000;-0.046653
4863.000000;-0.047089
4862.000000;-0.047131
4861.000000;-0.047338
4860.000000;-0.048003
4859.000000;-0.048553
4858.000000;-0.048416
4857.000000;-0.047785
4856.000000;-0.046974
4855.000000;-0.045507
4854.000000;-0.042613
4853.000000;-0.038514
4852.000000;-0.034419
4851.000000;-0.031071
4850.000000;-0.027943
4849.000000;-0.024278
4848.000000;-0.020402
4847.000000;-0.017340
4846.000000;-0.015403
4845.000000;-0.013847
4844.000000;-0.011917
4843.000000;-0.009524
4842.000000;-0.006760
4841.000000;-0.003487
4840.000000;0.000259
4839.000000;0.003964
4838.000000;0.007206
4837.000000;0.010113
4836.000000;0.012901
4835.000000;0.015431
4834.000000;0.017676
4833.000000;0.020188
4832.000000;0.023487
4831.000000;0.027210
4830.000000;0.030563
4829.000000;0.033469
4828.000000;0.036601
4827.000000;0.040291
4826.000000;0.044017
4825.000000;0.047160
4824.000000;0.049723
4823.000000;0.052114
4822.000000;0.054665
4821.000000;0.057628
4820.000000;0.061283
4819.000000;0.065659
4818.000000;0.070301
4817.000000;0.074549
4816.000000;0.078028
4815.000000;0.080823
4814.000000;0.083326
4813.000000;0.085941
4812.000000;0.088836
4811.000000;0.091929
4810.000000;0.095078
4809.000000;0.098322
4808.000000;0.101716
4807.000000;0.105143
4806.000000;0.108347
4805.000000;0.111216
4804.000000;0.113848
4803.000000;0.116378
4802.000000;0.118932
4801.000000;0.121702
4800.000000;0.124847
4799.000000;0.128230
4798.000000;0.131408
4797.000000;0.133949
4796.000000;0.135755
4795.000000;0.137178
4794.000000;0.138884
4793.000000;0.141455
4792.000000;0.144871
4791.000000;0.148427
4790.000000;0.151365
4789.000000;0.153594
4788.000000;0.155652
4787.000000;0.158028
4786.000000;0.160715
4785.000000;0.163452
4784.000000;0.166144
4783.000000;0.168911
4782.000000;0.171761
4781.000000;0.174422
4780.000000;0.176588
4779.000000;0.178347
4778.000000;0.180230
4777.000000;0.182690
4776.000000;0.185577
4775.000000;0.188292
4774.000000;0.190489
4773.000000;0.192428
4772.000000;0.194582
4771.000000;0.197071
4770.000000;0.199609
4769.000000;0.201869
4768.000000;0.203723
4767.000000;0.205267
4766.000000;0.206759
4765.000000;0.208451
4764.000000;0.210363
4763.000000;0.212276
4762.000000;0.214059
4761.000000;0.215901
4760.000000;0.218079
4759.000000;0.220613
4758.000000;0.223249
4757.000000;0.225700
4756.000000;0.227785
4755.000000;0.229480
4754.000000;0.230993
4753.000000;0.232696
4752.000000;0.234775
4751.000000;0.237005
4750.000000;0.239005
4749.000000;0.240647
4748.000000;0.242110
4747.000000;0.243608
4746.000000;0.245220
4745.000000;0.246894
4744.000000;0.248459
4743.000000;0.249739
4742.000000;0.250840
4741.000000;0.252197
4740.000000;0.254107
4739.000000;0.256293
4738.000000;0.258206
4737.000000;0.259728
4736.000000;0.261271
4735.000000;0.263160
4734.000000;0.265227
4733.000000;0.267140
4732.000000;0.268842
4731.000000;0.270486
4730.000000;0.272080
4729.000000;0.273464
4728.000000;0.274554
4727.000000;0.275458
4726.000000;0.276346
4725.000000;0.277342
4724.000000;0.278513
4723.000000;0.279837
4722.000000;0.281185
4721.000000;0.282411
4720.000000;0.283488
4719.000000;0.284506
4718.000000;0.285534
4717.000000;0.286570
4716.000000;0.287638
4715.000000;0.288862
4714.000000;0.290360
4713.000000;0.292096
4712.000000;0.293854
4711.000000;0.295389
4710.000000;0.296582
4709.000000;0.297496
4708.000000;0.298323
4707.000000;0.299273
4706.000000;0.300420
4705.000000;0.301608
4704.000000;0.302607
4703.000000;0.303408
4702.000000;0.304307
4701.000000;0.305585
4700.000000;0.307164
4699.000000;0.308706
4698.000000;0.310007
4697.000000;0.311151
4696.000000;0.312270
4695.000000;0.313343
4694.000000;0.314322
4693.000000;0.315270
4692.000000;0.316268
4691.000000;0.317269
4690.000000;0.318174
4689.000000;0.318998
4688.000000;0.319872
4687.000000;0.320898
4686.000000;0.322071
4685.000000;0.323269
4684.000000;0.324293
4683.000000;0.325009
4682.000000;0.325532
4681.000000;0.326160
4680.000000;0.327046
4679.000000;0.328039
4678.000000;0.328950
4677.000000;0.329851
4676.000000;0.330938
4675.000000;0.332191
4674.000000;0.333376
4673.000000;0.334360
4672.000000;0.335243
4671.000000;0.336159
4670.000000;0.337128
4669.000000;0.338106
4668.000000;0.339039
4667.000000;0.339832
4666.000000;0.340398
4665.000000;0.340826
4664.000000;0.341352
4663.000000;0.342111
4662.000000;0.343003
4661.000000;0.343857
4660.000000;0.344619
4659.000000;0.345331
4658.000000;0.346029
4657.000000;0.346741
4656.000000;0.347505
4655.000000;0.348277
4654.000000;0.348919
4653.000000;0.349398
4652.000000;0.349921
4651.000000;0.350756
4650.000000;0.351903
4649.000000;0.353059
4648.000000;0.353934
4647.000000;0.354506
4646.000000;0.354950
4645.000000;0.355432
4644.000000;0.356003
4643.000000;0.356637
4642.000000;0.357273
4641.000000;0.357860
4640.000000;0.358420
4639.000000;0.359072
4638.000000;0.359924
4637.000000;0.360927
4636.000000;0.361871
4635.000000;0.362566
4634.000000;0.362999
4633.000000;0.363323
4632.000000;0.363689
4631.000000;0.364122
4630.000000;0.364567
4629.000000;0.365022
4628.000000;0.365579
4627.000000;0.366301
4626.000000;0.367066
4625.000000;0.367620
4624.000000;0.367849
4623.000000;0.367973
4622.000000;0.368375
4621.000000;0.369201
4620.000000;0.370211
4619.000000;0.371035
4618.000000;0.371508
4617.000000;0.371704
4616.000000;0.371747
4615.000000;0.371748
4614.000000;0.371875
4613.000000;0.372289
4612.000000;0.372953
4611.000000;0.373621
4610.000000;0.374094
4609.000000;0.374431
4608.000000;0.374827
4607.000000;0.375359
4606.000000;0.375944
4605.000000;0.376501
4604.000000;0.377045
4603.000000;0.377620
4602.000000;0.378219
4601.000000;0.378809
4600.000000;0.379382
4599.000000;0.379965
4598.000000;0.380564
4597.000000;0.381121
4596.000000;0.381526
4595.000000;0.381712
4594.000000;0.381779
4593.000000;0.381964
4592.000000;0.382429
4591.000000;0.383087
4590.000000;0.383693
4589.000000;0.384103
4588.000000;0.384404
4587.000000;0.384756
4586.000000;0.385186
4585.000000;0.385575
4584.000000;0.385839
4583.000000;0.386045
4582.000000;0.386349
4581.000000;0.386830
4580.000000;0.387408
4579.000000;0.387902
4578.000000;0.388168
4577.000000;0.388188
4576.000000;0.388076
4575.000000;0.388011
4574.000000;0.388139
4573.000000;0.388493
4572.000000;0.388981
4571.000000;0.389463
4570.000000;0.389838
4569.000000;0.390084
4568.000000;0.390246
4567.000000;0.390406
4566.000000;0.390619
4565.000000;0.390854
4564.000000;0.391013
4563.000000;0.391050
4562.000000;0.391053
4561.000000;0.391174
4560.000000;0.391464
4559.000000;0.391846
4558.000000;0.392213
4557.000000;0.392510
4556.000000;0.392725
4555.000000;0.392888
4554.000000;0.393081
4553.000000;0.393384
4552.000000;0.393765
4551.000000;0.394067
4550.000000;0.394156
4549.000000;0.394052
4548.000000;0.393887
4547.000000;0.393784
4546.000000;0.393818
4545.000000;0.394022
4544.000000;0.394359
4543.000000;0.394697
4542.000000;0.394900
4541.000000;0.394950
4540.000000;0.394950
4539.000000;0.394999
4538.000000;0.395116
4537.000000;0.395292
4536.000000;0.395540
4535.000000;0.395845
4534.000000;0.396097
4533.000000;0.396157
4532.000000;0.396010
4531.000000;0.395832
4530.000000;0.395849
4529.000000;0.396135
4528.000000;0.396553
4527.000000;0.396902
4526.000000;0.397060
4525.000000;0.397018
4524.000000;0.396827
4523.000000;0.396578
4522.000000;0.396386
4521.000000;0.396353
4520.000000;0.396515
4519.000000;0.396850
4518.000000;0.397306
4517.000000;0.397796
4516.000000;0.398199
4515.000000;0.398439
4514.000000;0.398555
4513.000000;0.398657
4512.000000;0.398817
4511.000000;0.399028
4510.000000;0.399264
4509.000000;0.399520
4508.000000;0.399768
4507.000000;0.399925
4506.000000;0.399901
4505.000000;0.399707
4504.000000;0.399485
4503.000000;0.399415
4502.000000;0.399548
4501.000000;0.399729
4500.000000;0.399756
4499.000000;0.399624
4498.000000;0.399565
4497.000000;0.399800
4496.000000;0.400302
4495.000000;0.400868
4494.000000;0.401333
4493.000000;0.401653
4492.000000;0.401820
4491.000000;0.401837
4490.000000;0.401767
4489.000000;0.401682
4488.000000;0.401581
4487.000000;0.401442
4486.000000;0.401350
4485.000000;0.401433
4484.000000;0.401665
4483.000000;0.401864
4482.000000;0.401917
4481.000000;0.401887
4480.000000;0.401853
4479.000000;0.401785
4478.000000;0.401655
4477.000000;0.401556
4476.000000;0.401582
4475.000000;0.401685
4474.000000;0.401761
4473.000000;0.401811
4472.000000;0.401904
4471.000000;0.402022
4470.000000;0.402090
4469.000000;0.402147
4468.000000;0.402346
4467.000000;0.402743
4466.000000;0.403152
4465.000000;0.403268
4464.000000;0.402919
4463.000000;0.402224
4462.000000;0.401540
4461.000000;0.401250
4460.000000;0.401492
4459.000000;0.402042
4458.000000;0.402494
4457.000000;0.402596
4456.000000;0.402434
4455.000000;0.402281
4454.000000;0.402284
4453.000000;0.402341
4452.000000;0.402277
4451.000000;0.402068
4450.000000;0.401851
4449.000000;0.401730
4448.000000;0.401681
4447.000000;0.401652
4446.000000;0.401673
4445.000000;0.401790
4444.000000;0.401990
4443.000000;0.402252
4442.000000;0.402581
4441.000000;0.402878
4440.000000;0.402880
4439.000000;0.402413
4438.000000;0.401695
4437.000000;0.401203
4436.000000;0.401190
4435.000000;0.401484
4434.000000;0.401772
4433.000000;0.401909
4432.000000;0.401900
4431.000000;0.401771
4430.000000;0.401592
4429.000000;0.401468
4428.000000;0.401371
4427.000000;0.401097
4426.000000;0.400567
4425.000000;0.400080
4424.000000;0.400067
4423.000000;0.400586
4422.000000;0.401213
4421.000000;0.401452
4420.000000;0.401161
4419.000000;0.400593
4418.000000;0.400121
4417.000000;0.399968
4416.000000;0.400096
4415.000000;0.400279
4414.000000;0.400268
4413.000000;0.399952
4412.000000;0.399405
4411.000000;0.398821
4410.000000;0.398393
4409.000000;0.398169
4408.000000;0.398009
4407.000000;0.397760
4406.000000;0.397490
4405.000000;0.397451
4404.000000;0.397729
4403.000000;0.398045
4402.000000;0.398004
4401.000000;0.397492
4400.000000;0.396715
4399.000000;0.395907
4398.000000;0.395143
4397.000000;0.394440
4396.000000;0.393887
4395.000000;0.393572
4394.000000;0.393452
4393.000000;0.393354
4392.000000;0.393122
4391.000000;0.392731
4390.000000;0.392244
4389.000000;0.391674
4388.000000;0.390937
4387.000000;0.389994
4386.000000;0.388957
4385.000000;0.387996
4384.000000;0.387132
4383.000000;0.386265
4382.000000;0.385399
4381.000000;0.384673
4380.000000;0.384127
4379.000000;0.383585
4378.000000;0.382902
4377.000000;0.382197
4376.000000;0.381658
4375.000000;0.381215
4374.000000;0.380619
4373.000000;0.379834
4372.000000;0.379117
4371.000000;0.378589
4370.000000;0.377894
4369.000000;0.376464
4368.000000;0.374165
4367.000000;0.371568
4366.000000;0.369487
4365.000000;0.368227
4364.000000;0.367364
4363.000000;0.366332
4362.000000;0.365168
4361.000000;0.364477
4360.000000;0.364621
4359.000000;0.365134
4358.000000;0.365143
4357.000000;0.364220
4356.000000;0.362620
4355.000000;0.360790
4354.000000;0.359005
4353.000000;0.357461
4352.000000;0.356358
4351.000000;0.355678
4350.000000;0.355143
4349.000000;0.354611
4348.000000;0.354296
4347.000000;0.354293
4346.000000;0.354036
4345.000000;0.352693
4344.000000;0.350209
4343.000000;0.347562
4342.000000;0.345744
4341.000000;0.344737
4340.000000;0.343747
4339.000000;0.342300
4338.000000;0.340736
4337.000000;0.339607
4336.000000;0.338891
4335.000000;0.337960
4334.000000;0.336159
4333.000000;0.333357
4332.000000;0.330035
4331.000000;0.326976
4330.000000;0.324780
4329.000000;0.323565
4328.000000;0.323075
4327.000000;0.322994
4326.000000;0.323019
4325.000000;0.322726
4324.000000;0.321731
4323.000000;0.320159
4322.000000;0.318669
4321.000000;0.317737
4320.000000;0.317100
4319.000000;0.316201
4318.000000;0.315017
4317.000000;0.313938
4316.000000;0.312856
4315.000000;0.311004
4314.000000;0.308099
4313.000000;0.305221
4312.000000;0.303948
4311.000000;0.304577
4310.000000;0.305642
4309.000000;0.305402
4308.000000;0.303602
4307.000000;0.301478
4306.000000;0.300195
4305.000000;0.299783
4304.000000;0.299600
4303.000000;0.299225
4302.000000;0.298489
4301.000000;0.297101
4300.000000;0.295039
4299.000000;0.293223
4298.000000;0.292949
4297.000000;0.294275
4296.000000;0.295561
4295.000000;0.295122
4294.000000;0.293016
4293.000000;0.290731
4292.000000;0.289531
4291.000000;0.289527
4290.000000;0.290083
4289.000000;0.290547
4288.000000;0.290684
4287.000000;0.290890
4286.000000;0.291985
4285.000000;0.294398
4284.000000;0.297589
4283.000000;0.300567
4282.000000;0.302901
4281.000000;0.304968
4280.000000;0.307263
4279.000000;0.309819
4278.000000;0.312303
4277.000000;0.314445
4276.000000;0.316420
4275.000000;0.318847
4274.000000;0.322132
4273.000000;0.325930
4272.000000;0.329793
4271.000000;0.334079
4270.000000;0.339182
4269.000000;0.344011
4268.000000;0.346851
4267.000000;0.348325
4266.000000;0.351729
4265.000000;0.359204
4264.000000;0.369082
4263.000000;0.378354
4262.000000;0.386311
4261.000000;0.393783
4260.000000;0.400063
4259.000000;0.403661
4258.000000;0.405730
4257.000000;0.409646
4256.000000;0.416763
4255.000000;0.425031
4254.000000;0.432350
4253.000000;0.439006
4252.000000;0.446077
4251.000000;0.453745
4250.000000;0.462116
4249.000000;0.471866
4248.000000;0.483091
4247.000000;0.494418
4246.000000;0.504570
4245.000000;0.513768
4244.000000;0.522761
4243.000000;0.531519
4242.000000;0.539989
4241.000000;0.548940
4240.000000;0.559060
4239.000000;0.570003
4238.000000;0.581197
4237.000000;0.592988
4236.000000;0.606120
4235.000000;0.620400
4234.000000;0.634227
4233.000000;0.645323
4232.000000;0.652375
4231.000000;0.656550
4230.000000;0.660935
4229.000000;0.667931
4228.000000;0.677703
4227.000000;0.689512
4226.000000;0.703202
4225.000000;0.717891
4224.000000;0.730664
4223.000000;0.739309
4222.000000;0.745850
4221.000000;0.754127
4220.000000;0.764338
4219.000000;0.773370
4218.000000;0.780522
4217.000000;0.789406
4216.000000;0.802869
4215.000000;0.819293
4214.000000;0.835357
4213.000000;0.850120
4212.000000;0.864165
4211.000000;0.875959
4210.000000;0.882584
4209.000000;0.884584
4208.000000;0.887147
4207.000000;0.895917
4206.000000;0.912969
4205.000000;0.935639
4204.000000;0.957571
4203.000000;0.972498
4202.000000;0.979353
4201.000000;0.983337
4200.000000;0.991565
4199.000000;1.008537
4198.000000;1.033813
4197.000000;1.060054
4196.000000;1.075394
4195.000000;1.075133
4194.000000;1.068219
4193.000000;1.066078
4192.000000;1.071165
4191.000000;1.077815
4190.000000;1.080133
4189.000000;1.077302
4188.000000;1.072626
4187.000000;1.070540
4186.000000;1.073428
4185.000000;1.079226
4184.000000;1.084526
4183.000000;1.090346
4182.000000;1.101424
4181.000000;1.120359
4180.000000;1.143347
4179.000000;1.162103
4178.000000;1.172244
4177.000000;1.177827
4176.000000;1.185755
4175.000000;1.200157
4174.000000;1.221904
4173.000000;1.248165
4172.000000;1.271957
4171.000000;1.287408
4170.000000;1.296356
4169.000000;1.304409
4168.000000;1.312279
4167.000000;1.317438
4166.000000;1.321437
4165.000000;1.328142
4164.000000;1.337014
4163.000000;1.343993
4162.000000;1.347386
4161.000000;1.347358
4160.000000;1.341905
4159.000000;1.331132
4158.000000;1.323313
4157.000000;1.328213
4156.000000;1.345725
4155.000000;1.367543
4154.000000;1.390435
4153.000000;1.419520
4152.000000;1.454522
4151.000000;1.483198
4150.000000;1.498651
4149.000000;1.515162
4148.000000;1.552605
4147.000000;1.613948
4146.000000;1.681473
4145.000000;1.729134
4144.000000;1.739564
4143.000000;1.711868
4142.000000;1.660854
4141.000000;1.605309
4140.000000;1.555036
4139.000000;1.513727
4138.000000;1.486444
4137.000000;1.478939
4136.000000;1.491453
4135.000000;1.515025
4134.000000;1.535051
4133.000000;1.542312
4132.000000;1.543001
4131.000000;1.555063
4130.000000;1.593263
4129.000000;1.656718
4128.000000;1.723116
4127.000000;1.766214
4126.000000;1.779131
4125.000000;1.763035
4124.000000;1.723665
4123.000000;1.676324
4122.000000;1.642552
4121.000000;1.629321
4120.000000;1.630612
4119.000000;1.646543
4118.000000;1.682083
4117.000000;1.743530
4116.000000;1.833333
4115.000000;1.936498
4114.000000;2.018915
4113.000000;2.045550
4112.000000;2.006996
4111.000000;1.922787
4110.000000;1.835030
4109.000000;1.779691
4108.000000;1.760171
4107.000000;1.766177
4106.000000;1.798933
4105.000000;1.871729
4104.000000;1.980690
4103.000000;2.059388
4102.000000;2.052219
4101.000000;2.029769
4100.000000;2.047198
4099.000000;2.069414
4098.000000;2.023078
4097.000000;1.921300
4096.000000;1.835706
4095.000000;1.796186
4094.000000;1.795270
4093.000000;1.813207
4092.000000;1.832263
4091.000000;1.850009
4090.000000;1.883263
4089.000000;1.946436
4088.000000;2.017815
4087.000000;2.052502
4086.000000;2.045858
4085.000000;2.040382
4084.000000;2.082307
4083.000000;2.183207
4082.000000;2.255933
4081.000000;2.190590
4080.000000;2.091584
4079.000000;2.034073
4078.000000;2.024789
4077.000000;2.057781
4076.000000;2.131225
4075.000000;2.249968
4074.000000;2.351589
4073.000000;2.260516
4072.000000;2.069042
4071.000000;1.931010
4070.000000;1.889504
4069.000000;1.948888
4068.000000;2.062034
4067.000000;2.149284
4066.000000;2.209505
4065.000000;2.236976
4064.000000;2.220512
4063.000000;2.208598
4062.000000;2.222436
4061.000000;2.200281
4060.000000;2.104277
4059.000000;2.025802
4058.000000;2.015873
4057.000000;2.076265
4056.000000;2.173263
4055.000000;2.234433
4054.000000;2.180448
4053.000000;2.065986
4052.000000;1.994084
4051.000000;1.970531
4050.000000;1.966495
4049.000000;1.949167
4048.000000;1.960375
4047.000000;2.044965
4046.000000;2.427153
4045.000000;2.765487
4044.000000;2.348108
4043.000000;2.215204
4042.000000;2.197471
4041.000000;2.289127
4040.000000;2.382786
4039.000000;2.256207
4038.000000;2.083611
4037.000000;2.017747
4036.000000;2.073167
4035.000000;2.176821
4034.000000;2.189229
4033.000000;2.079237
4032.000000;1.979170
4031.000000;1.943481
4030.000000;1.966661
4029.000000;2.045212
4028.000000;2.161954
4027.000000;2.240132
4026.000000;2.210458
4025.000000;2.124806
4024.000000;2.054989
4023.000000;2.030343
4022.000000;2.050499
4021.000000;2.077154
4020.000000;2.084823
4019.000000;2.101671
4018.000000;2.139920
4017.000000;2.192582
4016.000000;2.231670
4015.000000;2.217040
4014.000000;2.167679
4013.000000;2.114812
4012.000000;2.050199
4011.000000;1.989239
4010.000000;1.982714
4009.000000;2.087748
4008.000000;2.376397
4007.000000;2.660233
4006.000000;2.362594
4005.000000;2.211249
4004.000000;2.130182
4003.000000;2.126223
4002.000000;2.213370
4001.000000;2.469974
4000.000000;2.683475
3999.000000;2.406904
3998.000000;2.267253
3997.000000;2.323569
3996.000000;2.457345
3995.000000;2.250889
3994.000000;2.071974
3993.000000;2.026340
3992.000000;2.037922
3991.000000;2.068649
3990.000000;2.072168
3989.000000;2.028139
3988.000000;1.979556
3987.000000;1.969874
3986.000000;1.994222
3985.000000;2.032026
3984.000000;2.085799
3983.000000;2.173995
3982.000000;2.293272
3981.000000;2.404099
3980.000000;2.477574
3979.000000;2.573262
3978.000000;2.909677
3977.000000;4.292087
3976.000000;3.231720
3975.000000;2.779282
3974.000000;2.284284
3973.000000;2.133457
3972.000000;2.125716
3971.000000;2.185667
3970.000000;2.161602
3969.000000;2.084854
3968.000000;2.047487
3967.000000;2.065641
3966.000000;2.141108
3965.000000;2.291116
3964.000000;2.538752
3963.000000;2.927589
3962.000000;2.874426
3961.000000;2.566228
3960.000000;2.402669
3959.000000;2.342167
3958.000000;2.348955
3957.000000;2.397271
3956.000000;2.487167
3955.000000;2.477710
3954.000000;2.305234
3953.000000;2.164920
3952.000000;2.088608
3951.000000;2.063490
3950.000000;2.073457
3949.000000;2.104164
3948.000000;2.129119
3947.000000;2.110944
3946.000000;2.084392
3945.000000;2.119763
3944.000000;2.170047
3943.000000;2.182274
3942.000000;2.206891
3941.000000;2.239572
3940.000000;2.249265
3939.000000;2.260968
3938.000000;2.305761
3937.000000;2.364680
3936.000000;2.397369
3935.000000;2.407720
3934.000000;2.501445
3933.000000;2.454016
3932.000000;2.354750
3931.000000;2.424932
3930.000000;2.809014
3929.000000;2.942745
3928.000000;2.415912
3927.000000;2.211366
3926.000000;2.151640
3925.000000;2.192691
3924.000000;2.255628
3923.000000;2.272502
3922.000000;2.268502
3921.000000;2.290509
3920.000000;2.307516
3919.000000;2.256169
3918.000000;2.208537
3917.000000;2.221562
3916.000000;2.247734
3915.000000;2.269915
3914.000000;2.338872
3913.000000;2.484645
3912.000000;2.437005
3911.000000;2.250941
3910.000000;2.135484
3909.000000;2.081618
3908.000000;2.098735
3907.000000;2.222709
3906.000000;2.515996
3905.000000;3.022682
3904.000000;2.595711
3903.000000;2.467263
3902.000000;2.571854
3901.000000;2.665384
3900.000000;2.558220
3899.000000;2.425311
3898.000000;2.403251
3897.000000;2.562948
3896.000000;2.848539
3895.000000;2.662205
3894.000000;2.541439
3893.000000;2.789956
3892.000000;3.282840
3891.000000;2.697014
3890.000000;2.452216
3889.000000;2.395793
3888.000000;2.423398
3887.000000;2.194883
3886.000000;2.069900
3885.000000;2.053389
3884.000000;2.039570
3883.000000;2.036391
3882.000000;2.080885
3881.000000;2.203401
3880.000000;2.382221
3879.000000;2.667492
3878.000000;2.495360
3877.000000;2.246736
3876.000000;2.232234
3875.000000;2.372707
3874.000000;2.528398
3873.000000;2.580820
3872.000000;2.462352
3871.000000;2.335126
3870.000000;2.296670
3869.000000;2.281353
3868.000000;2.368118
3867.000000;2.580521
3866.000000;2.391542
3865.000000;2.378703
3864.000000;2.514423
3863.000000;2.544191
3862.000000;2.438671
3861.000000;2.369324
3860.000000;2.357337
3859.000000;2.416109
3858.000000;2.481443
3857.000000;2.503907
3856.000000;2.579810
3855.000000;2.662274
3854.000000;2.700786
3853.000000;2.782142
3852.000000;2.848383
3851.000000;2.886639
3850.000000;2.872678
3849.000000;2.898918
3848.000000;2.870748
3847.000000;2.682109
3846.000000;2.555788
3845.000000;2.600881
3844.000000;2.631480
3843.000000;2.330572
3842.000000;2.198837
3841.000000;2.269496
3840.000000;2.489179
3839.000000;2.690568
3838.000000;2.842710
3837.000000;2.948488
3836.000000;2.796059
3835.000000;2.523829
3834.000000;2.408938
3833.000000;2.403664
3832.000000;2.382625
3831.000000;2.382202
3830.000000;2.503777
3829.000000;2.763971
3828.000000;2.812843
3827.000000;2.981418
3826.000000;3.307157
3825.000000;2.784242
3824.000000;2.539816
3823.000000;2.442847
3822.000000;2.392589
3821.000000;2.372228
3820.000000;2.368643
3819.000000;2.469574
3818.000000;2.727109
3817.000000;2.655669
3816.000000;2.603748
3815.000000;2.573965
3814.000000;2.489093
3813.000000;2.355106
3812.000000;2.275895
3811.000000;2.293701
3810.000000;2.418515
3809.000000;2.582314
3808.000000;2.568750
3807.000000;2.541697
3806.000000;2.495814
3805.000000;2.349795
3804.000000;2.209724
3803.000000;2.206841
3802.000000;2.319151
3801.000000;2.401614
3800.000000;2.385469
3799.000000;2.351928
3798.000000;2.372845
3797.000000;2.444011
3796.000000;2.489499
3795.000000;2.383838
3794.000000;2.210716
3793.000000;2.123236
3792.000000;2.144311
3791.000000;2.230340
3790.000000;2.284187
3789.000000;2.281463
3788.000000;2.374313
3787.000000;2.801192
3786.000000;2.717515
3785.000000;2.255317
3784.000000;2.088624
3783.000000;1.968323
3782.000000;1.921795
3781.000000;1.958542
3780.000000;2.091158
3779.000000;2.295223
3778.000000;2.619384
3777.000000;2.698401
3776.000000;2.466223
3775.000000;2.331040
3774.000000;2.283979
3773.000000;2.323361
3772.000000;2.851567
3771.000000;2.651351
3770.000000;2.413150
3769.000000;2.468828
3768.000000;2.538003
3767.000000;2.657898
3766.000000;3.613752
3765.000000;2.728890
3764.000000;2.512916
3763.000000;2.474870
3762.000000;2.553982
3761.000000;2.573143
3760.000000;2.444852
3759.000000;2.304579
3758.000000;2.226545
3757.000000;2.217408
3756.000000;2.288214
3755.000000;2.460526
3754.000000;2.522299
3753.000000;2.409191
3752.000000;2.421326
3751.000000;2.543429
3750.000000;2.706647
3749.000000;2.840427
3748.000000;3.285197
3747.000000;2.725686
3746.000000;2.404949
3745.000000;2.543213
3744.000000;2.921670
3743.000000;2.521737
3742.000000;2.268786
3741.000000;2.204374
3740.000000;2.263740
3739.000000;2.375971
3738.000000;2.458018
3737.000000;2.542018
3736.000000;2.586649
3735.000000;2.444342
3734.000000;2.233570
3733.000000;2.131841
3732.000000;2.167546
3731.000000;2.402729
3730.000000;2.699084
3729.000000;2.236012
3728.000000;1.993699
3727.000000;1.951002
3726.000000;2.012272
3725.000000;2.139659
3724.000000;2.333999
3723.000000;2.665827
3722.000000;2.650453
3721.000000;2.547006
3720.000000;2.489739
3719.000000;2.173781
3718.000000;1.990632
3717.000000;1.943073
3716.000000;1.973363
3715.000000;2.034245
3714.000000;2.083832
3713.000000;2.176453
3712.000000;2.314836
3711.000000;2.438856
3710.000000;2.549091
3709.000000;2.666678
3708.000000;2.732920
3707.000000;2.714537
3706.000000;2.681340
3705.000000;2.577149
3704.000000;2.386320
3703.000000;2.235836
3702.000000;2.200694
3701.000000;2.269994
3700.000000;2.537988
3699.000000;2.834945
3698.000000;2.422575
3697.000000;2.207720
3696.000000;2.151200
3695.000000;2.176986
3694.000000;2.255962
3693.000000;2.310503
3692.000000;2.330198
3691.000000;2.365507
3690.000000;2.458488
3689.000000;2.594395
3688.000000;2.732823
3687.000000;2.895982
3686.000000;2.958411
3685.000000;2.759722
3684.000000;2.692529
3683.000000;2.625691
3682.000000;2.513972
3681.000000;2.505661
3680.000000;2.476713
3679.000000;2.265885
3678.000000;2.089411
3677.000000;2.065064
3676.000000;2.174506
3675.000000;2.284659
3674.000000;2.318950
3673.000000;2.296184
3672.000000;2.245148
3671.000000;2.254117
3670.000000;2.320336
3669.000000;2.397910
3668.000000;2.514355
3667.000000;2.671412
3666.000000;2.837881
3665.000000;2.817386
3664.000000;2.531216
3663.000000;2.337173
3662.000000;2.310741
3661.000000;2.483650
3660.000000;2.829579
3659.000000;2.622974
3658.000000;2.651278
3657.000000;2.685854
3656.000000;2.467919
3655.000000;2.238098
3654.000000;2.049018
3653.000000;2.031319
3652.000000;2.194209
3651.000000;2.128890
3650.000000;2.189941
3649.000000;2.321329
3648.000000;2.398059
3647.000000;2.557899
3646.000000;2.883097
3645.000000;2.747529
3644.000000;2.524909
3643.000000;2.473866
3642.000000;2.371313
3641.000000;2.304479
3640.000000;2.398064
3639.000000;2.578313
3638.000000;2.535231
3637.000000;2.288090
3636.000000;2.102643
3635.000000;2.031550
3634.000000;1.987965
3633.000000;1.884605
3632.000000;1.761015
3631.000000;1.724158
3630.000000;1.795240
3629.000000;1.865186
3628.000000;1.923652
3627.000000;2.006273
3626.000000;2.130845
3625.000000;2.215077
3624.000000;2.191845
3623.000000;2.133063
3622.000000;2.174941
3621.000000;2.275726
3620.000000;2.156096
3619.000000;2.063725
3618.000000;2.074001
3617.000000;2.123115
3616.000000;2.189179
3615.000000;2.286879
3614.000000;2.452921
3613.000000;2.642579
3612.000000;2.862159
3611.000000;2.664056
3610.000000;2.386371
3609.000000;2.262103
3608.000000;2.224501
3607.000000;2.267198
3606.000000;2.386154
3605.000000;2.457823
3604.000000;2.492932
3603.000000;2.638916
3602.000000;2.920702
3601.000000;3.692725
3600.000000;3.738374
3599.000000;2.997927
3598.000000;2.659367
3597.000000;2.891323
3596.000000;2.848062
3595.000000;2.363309
3594.000000;2.258283
3593.000000;2.160571
3592.000000;2.036497
3591.000000;1.913227
3590.000000;1.878199
3589.000000;1.952366
3588.000000;2.053249
3587.000000;2.137148
3586.000000;2.252343
3585.000000;2.455583
3584.000000;2.273728
3583.000000;2.065718
3582.000000;2.024526
3581.000000;2.115400
3580.000000;2.327518
3579.000000;2.589736
3578.000000;2.851773
3577.000000;3.492433
3576.000000;2.563221
3575.000000;2.294991
3574.000000;2.212842
3573.000000;2.310496
3572.000000;2.591324
3571.000000;2.989171
3570.000000;2.883664
3569.000000;2.705815
3568.000000;3.060517
3567.000000;3.102335
3566.000000;3.057616
3565.000000;3.319927
3564.000000;2.707998
3563.000000;2.376812
3562.000000;2.257505
3561.000000;2.262612
3560.000000;2.420166
3559.000000;2.435842
3558.000000;2.243785
3557.000000;2.143314
3556.000000;2.098112
3555.000000;2.079291
3554.000000;2.140092
3553.000000;2.312325
3552.000000;2.589474
3551.000000;2.692738
3550.000000;2.506082
3549.000000;2.482489
3548.000000;2.719590
3547.000000;3.346409
3546.000000;2.862310
3545.000000;2.605509
3544.000000;2.383823
3543.000000;2.240698
3542.000000;2.176839
3541.000000;2.101638
3540.000000;1.987549
3539.000000;1.952717
3538.000000;2.035890
3537.000000;2.201441
3536.000000;2.306788
3535.000000;2.191942
3534.000000;2.083505
3533.000000;2.127920
3532.000000;2.382644
3531.000000;2.366775
3530.000000;2.184599
3529.000000;2.119257
3528.000000;2.103602
3527.000000;2.137443
3526.000000;2.245669
3525.000000;2.432840
3524.000000;2.666356
3523.000000;2.869872
3522.000000;2.722006
3521.000000;2.541646
3520.000000;2.518251
3519.000000;2.761053
3518.000000;2.630842
3517.000000;2.186004
3516.000000;2.064024
3515.000000;2.118698
3514.000000;2.253749
3513.000000;2.198255
3512.000000;2.102157
3511.000000;2.074218
3510.000000;2.093262
3509.000000;2.158235
3508.000000;2.170110
3507.000000;2.088295
3506.000000;2.064924
3505.000000;2.080901
3504.000000;2.022829
3503.000000;1.955294
3502.000000;1.934857
3501.000000;1.979720
3500.000000;2.102051
3499.000000;2.305192
3498.000000;2.627587
3497.000000;3.245012
3496.000000;2.451684
3495.000000;2.223650
3494.000000;2.120919
3493.000000;2.045895
3492.000000;1.963029
3491.000000;1.927558
3490.000000;1.929360
3489.000000;1.944172
3488.000000;1.990211
3487.000000;1.972350
3486.000000;1.848881
3485.000000;1.770357
3484.000000;1.770805
3483.000000;1.811356
3482.000000;1.836655
3481.000000;1.817948
3480.000000;1.798696
3479.000000;1.814718
3478.000000;1.903038
3477.000000;2.071088
3476.000000;2.492418
3475.000000;2.549708
3474.000000;2.061111
3473.000000;1.874794
3472.000000;1.823636
3471.000000;1.858725
3470.000000;1.884038
3469.000000;1.885665
3468.000000;1.955461
3467.000000;2.066967
3466.000000;2.026863
3465.000000;1.843805
3464.000000;1.736410
3463.000000;1.713073
3462.000000;1.739371
3461.000000;1.781194
3460.000000;1.818486
3459.000000;1.833483
3458.000000;1.821023
3457.000000;1.802601
3456.000000;1.805595
3455.000000;1.854983
3454.000000;1.944414
3453.000000;1.933546
3452.000000;1.869103
3451.000000;1.906314
3450.000000;2.065440
3449.000000;2.330050
3448.000000;2.641000
3447.000000;3.034281
3446.000000;2.570210
3445.000000;2.153069
3444.000000;1.931556
3443.000000;1.855093
3442.000000;1.885327
3441.000000;2.010648
3440.000000;2.281336
3439.000000;2.318887
3438.000000;2.111500
3437.000000;2.145510
3436.000000;2.280101
3435.000000;2.291848
3434.000000;2.257872
3433.000000;2.327723
3432.000000;2.459260
3431.000000;2.452769
3430.000000;2.167238
3429.000000;1.966274
3428.000000;1.905833
3427.000000;1.936685
3426.000000;1.962628
3425.000000;1.954803
3424.000000;1.988281
3423.000000;2.089299
3422.000000;2.234514
3421.000000;2.387970
3420.000000;2.519882
3419.000000;2.347283
3418.000000;2.155149
3417.000000;2.066933
3416.000000;2.038973
3415.000000;2.046746
3414.000000;2.065794
3413.000000;1.986153
3412.000000;1.852362
3411.000000;1.796788
3410.000000;1.827457
3409.000000;1.907775
3408.000000;2.009624
3407.000000;2.109710
3406.000000;2.091604
3405.000000;2.052381
3404.000000;2.136383
3403.000000;2.539330
3402.000000;2.686273
3401.000000;2.368092
3400.000000;2.352703
3399.000000;2.346260
3398.000000;2.338759
3397.000000;2.342618
3396.000000;2.348355
3395.000000;2.305117
3394.000000;2.247615
3393.000000;2.232470
3392.000000;2.201803
3391.000000;2.089637
3390.000000;1.978269
3389.000000;1.948523
3388.000000;2.040161
3387.000000;2.259402
3386.000000;2.451134
3385.000000;2.362960
3384.000000;2.274372
3383.000000;2.238375
3382.000000;2.232052
3381.000000;2.319473
3380.000000;2.680680
3379.000000;2.587771
3378.000000;2.278960
3377.000000;2.316708
3376.000000;2.319069
3375.000000;2.249588
3374.000000;2.200794
3373.000000;2.513341
3372.000000;2.618813
3371.000000;2.136022
3370.000000;1.986245
3369.000000;1.962138
3368.000000;1.988148
3367.000000;2.079820
3366.000000;2.216413
3365.000000;2.315999
3364.000000;2.347423
3363.000000;2.356619
3362.000000;2.330486
3361.000000;2.269425
3360.000000;2.248714
3359.000000;2.242507
3358.000000;2.183237
3357.000000;2.111286
3356.000000;2.106034
3355.000000;2.169087
3354.000000;2.097399
3353.000000;1.913286
3352.000000;1.851584
3351.000000;1.923276
3350.000000;2.247068
3349.000000;2.678807
3348.000000;2.227406
3347.000000;2.021346
3346.000000;1.982101
3345.000000;1.939818
3344.000000;1.822745
3343.000000;1.731698
3342.000000;1.711787
3341.000000;1.742168
3340.000000;1.804521
3339.000000;1.881373
3338.000000;1.926187
3337.000000;1.921913
3336.000000;1.938750
3335.000000;2.042043
3334.000000;2.301875
3333.000000;2.546699
3332.000000;2.154769
3331.000000;1.977794
3330.000000;1.910118
3329.000000;1.936266
3328.000000;2.045396
3327.000000;2.292869
3326.000000;2.397485
3325.000000;2.187580
3324.000000;2.167023
3323.000000;2.263494
3322.000000;2.283901
3321.000000;2.046511
3320.000000;1.846039
3319.000000;1.769915
3318.000000;1.818398
3317.000000;1.972518
3316.000000;2.368315
3315.000000;2.318637
3314.000000;1.985072
3313.000000;1.827133
3312.000000;1.722579
3311.000000;1.666315
3310.000000;1.693334
3309.000000;1.810512
3308.000000;1.992945
3307.000000;2.274249
3306.000000;2.777720
3305.000000;2.216504
3304.000000;1.959472
3303.000000;1.876193
3302.000000;1.893980
3301.000000;1.845588
3300.000000;1.708542
3299.000000;1.627768
3298.000000;1.654657
3297.000000;1.803742
3296.000000;1.961641
3295.000000;1.956346
3294.000000;1.943863
3293.000000;2.004289
3292.000000;2.096635
3291.000000;2.315352
3290.000000;2.267302
3289.000000;2.089298
3288.000000;2.265485
3287.000000;2.470857
3286.000000;1.897246
3285.000000;1.644850
3284.000000;1.544721
3283.000000;1.536456
3282.000000;1.591221
3281.000000;1.665295
3280.000000;1.732484
3279.000000;1.826180
3278.000000;2.010389
3277.000000;2.016913
3276.000000;2.132732
3275.000000;2.399294
3274.000000;1.762499
3273.000000;1.618841
3272.000000;1.644033
3271.000000;1.797462
3270.000000;2.045574
3269.000000;2.522177
3268.000000;2.355684
3267.000000;2.039390
3266.000000;2.294026
3265.000000;2.037262
3264.000000;1.711075
3263.000000;1.659742
3262.000000;1.953921
3261.000000;1.927696
3260.000000;1.609456
3259.000000;1.562739
3258.000000;1.712849
3257.000000;1.900957
3256.000000;1.620957
3255.000000;1.413786
3254.000000;1.325214
3253.000000;1.309854
3252.000000;1.338723
3251.000000;1.410042
3250.000000;1.626198
3249.000000;2.154082
3248.000000;1.746700
3247.000000;1.499875
3246.000000;1.497133
3245.000000;1.588849
3244.000000;1.610298
3243.000000;1.544514
3242.000000;1.494014
3241.000000;1.472291
3240.000000;1.504421
3239.000000;1.593747
3238.000000;1.667100
3237.000000;1.618370
3236.000000;1.534411
3235.000000;1.505113
3234.000000;1.541112
3233.000000;1.618434
3232.000000;1.666081
3231.000000;1.645456
3230.000000;1.626041
3229.000000;1.706392
3228.000000;1.986314
3227.000000;3.326779
3226.000000;2.028507
3225.000000;1.869217
3224.000000;1.770630
3223.000000;1.709470
3222.000000;1.711068
3221.000000;1.827256
3220.000000;1.859993
3219.000000;1.732668
3218.000000;1.706267
3217.000000;1.830707
3216.000000;2.089464
3215.000000;2.057721
3214.000000;1.907314
3213.000000;1.904000
3212.000000;1.972410
3211.000000;2.060363
3210.000000;2.090982
3209.000000;2.070946
3208.000000;2.074699
3207.000000;2.231140
3206.000000;2.652954
3205.000000;2.143024
3204.000000;1.898943
3203.000000;1.775125
3202.000000;1.692576
3201.000000;1.660124
3200.000000;1.677510
3199.000000;1.718987
3198.000000;1.756522
3197.000000;1.800748
3196.000000;1.893275
3195.000000;2.099495
3194.000000;2.640400
3193.000000;2.893080
3192.000000;2.889398
3191.000000;3.384940
3190.000000;2.510932
3189.000000;2.256001
3188.000000;2.039975
3187.000000;2.034505
3186.000000;2.147841
3185.000000;2.264817
3184.000000;2.192572
3183.000000;2.026528
3182.000000;1.912239
3181.000000;1.892382
3180.000000;1.952528
3179.000000;2.032144
3178.000000;2.091483
3177.000000;2.111122
3176.000000;2.142565
3175.000000;2.139190
3174.000000;2.018624
3173.000000;1.992627
3172.000000;2.118685
3171.000000;2.365218
3170.000000;2.665742
3169.000000;2.818466
3168.000000;2.516835
3167.000000;2.319050
3166.000000;2.183751
3165.000000;2.057310
3164.000000;2.024402
3163.000000;2.135586
3162.000000;2.317925
3161.000000;2.501581
3160.000000;2.621454
3159.000000;2.314029
3158.000000;2.149856
3157.000000;2.264331
3156.000000;2.488063
3155.000000;2.249664
3154.000000;2.116555
3153.000000;2.116244
3152.000000;2.054154
3151.000000;1.998084
3150.000000;2.045205
3149.000000;2.230920
3148.000000;2.340808
3147.000000;2.193690
3146.000000;2.127275
3145.000000;2.097326
3144.000000;2.024742
3143.000000;1.954480
3142.000000;1.940571
3141.000000;1.970283
3140.000000;2.011658
3139.000000;2.057399
3138.000000;2.104258
3137.000000;2.245888
3136.000000;2.463712
3135.000000;2.280009
3134.000000;2.118709
3133.000000;2.112595
3132.000000;2.142821
3131.000000;2.151018
3130.000000;2.128286
3129.000000;2.149046
3128.000000;2.274490
3127.000000;2.559394
3126.000000;2.515765
3125.000000;2.433977
3124.000000;2.759860
3123.000000;2.714017
3122.000000;2.396416
3121.000000;2.233486
3120.000000;2.162948
3119.000000;2.173406
3118.000000;2.065281
3117.000000;1.911095
3116.000000;1.861251
3115.000000;1.897302
3114.000000;1.940619
3113.000000;1.920836
3112.000000;1.894446
3111.000000;1.944174
3110.000000;2.175411
3109.000000;2.339253
3108.000000;2.134704
3107.000000;2.060591
3106.000000;2.070348
3105.000000;2.133441
3104.000000;2.207756
3103.000000;2.232704
3102.000000;2.256307
3101.000000;2.365002
3100.000000;2.423502
3099.000000;2.271155
3098.000000;2.138682
3097.000000;2.115020
3096.000000;2.202283
3095.000000;2.331721
3094.000000;2.328594
3093.000000;2.312771
3092.000000;2.425741
3091.000000;2.478205
3090.000000;2.278318
3089.000000;2.214447
3088.000000;2.279974
3087.000000;2.492262
3086.000000;2.579041
3085.000000;2.230013
3084.000000;2.039374
3083.000000;1.986491
3082.000000;2.037895
3081.000000;2.156085
3080.000000;2.304094
3079.000000;2.347805
3078.000000;2.264613
3077.000000;2.212783
3076.000000;2.185654
3075.000000;2.149831
3074.000000;2.191243
3073.000000;2.387349
3072.000000;2.767733
3071.000000;2.384271
3070.000000;2.190858
3069.000000;2.224315
3068.000000;2.396860
3067.000000;2.204507
3066.000000;2.020785
3065.000000;1.983113
3064.000000;2.023287
3063.000000;2.069844
3062.000000;2.152247
3061.000000;2.276336
3060.000000;2.327255
3059.000000;2.374694
3058.000000;2.416046
3057.000000;2.374240
3056.000000;2.344039
3055.000000;2.341588
3054.000000;2.326390
3053.000000;2.268006
3052.000000;2.120270
3051.000000;1.990295
3050.000000;1.909579
3049.000000;1.843170
3048.000000;1.802917
3047.000000;1.821880
3046.000000;1.905971
3045.000000;2.000581
3044.000000;2.036893
3043.000000;2.013977
3042.000000;1.954667
3041.000000;1.906949
3040.000000;1.916428
3039.000000;2.002138
3038.000000;2.123075
3037.000000;2.159803
3036.000000;2.132910
3035.000000;2.072590
3034.000000;1.981458
3033.000000;1.935222
3032.000000;2.004269
3031.000000;2.251120
3030.000000;2.800722
3029.000000;2.660314
3028.000000;2.228905
3027.000000;2.061548
3026.000000;2.029669
3025.000000;2.146788
3024.000000;2.322154
3023.000000;2.296702
3022.000000;2.188324
3021.000000;2.150973
3020.000000;2.192585
3019.000000;2.298747
3018.000000;2.266808
3017.000000;2.110382
3016.000000;1.986052
3015.000000;1.900554
3014.000000;1.826538
3013.000000;1.760650
3012.000000;1.731802
3011.000000;1.775287
3010.000000;1.926379
3009.000000;2.163759
3008.000000;2.079678
3007.000000;1.865185
3006.000000;1.769534
3005.000000;1.773155
3004.000000;1.885942
3003.000000;2.091633
3002.000000;2.479906
3001.000000;2.599799
3000.000000;2.250332
2999.000000;2.246883
2998.000000;2.269575
2997.000000;2.104212
2996.000000;2.012916
2995.000000;2.074690
2994.000000;2.200929
2993.000000;2.185598
2992.000000;2.058410
2991.000000;1.978664
2990.000000;1.990316
2989.000000;2.104363
2988.000000;2.244284
2987.000000;2.224987
2986.000000;2.158125
2985.000000;2.153413
2984.000000;2.222812
2983.000000;2.262884
2982.000000;2.194730
2981.000000;2.127726
2980.000000;2.085915
2979.000000;2.088729
2978.000000;2.219215
2977.000000;2.672655
2976.000000;2.700151
2975.000000;2.529741
2974.000000;3.042298
2973.000000;2.797795
2972.000000;2.690147
2971.000000;2.563881
2970.000000;3.011942
2969.000000;2.696280
2968.000000;2.213877
2967.000000;2.141832
2966.000000;2.173201
2965.000000;2.238980
2964.000000;2.345594
2963.000000;2.564306
2962.000000;3.348829
2961.000000;2.935224
2960.000000;2.338921
2959.000000;2.009349
2958.000000;1.922481
2957.000000;2.010912
2956.000000;2.218091
2955.000000;2.394497
2954.000000;2.321685
2953.000000;2.150393
2952.000000;2.061510
2951.000000;2.050855
2950.000000;2.064190
2949.000000;2.123835
2948.000000;2.272923
2947.000000;2.372262
2946.000000;2.247568
2945.000000;2.140126
2944.000000;2.157110
2943.000000;2.239296
2942.000000;2.203256
2941.000000;2.008443
2940.000000;1.838858
2939.000000;1.752341
2938.000000;1.719022
2937.000000;1.688380
2936.000000;1.641242
2935.000000;1.609879
2934.000000;1.631171
2933.000000;1.706528
2932.000000;1.788746
2931.000000;1.820111
2930.000000;1.813515
2929.000000;1.808427
2928.000000;1.798646
2927.000000;1.768497
2926.000000;1.736528
2925.000000;1.724410
2924.000000;1.737960
2923.000000;1.776282
2922.000000;1.859637
2921.000000;2.028282
2920.000000;2.319268
2919.000000;2.547650
2918.000000;2.579122
2917.000000;2.574610
2916.000000;2.365444
2915.000000;2.201716
2914.000000;2.186465
2913.000000;2.284792
2912.000000;2.335681
2911.000000;2.178666
2910.000000;1.999353
2909.000000;1.926433
2908.000000;1.971074
2907.000000;2.110035
2906.000000;2.327073
2905.000000;2.661290
2904.000000;3.808362
2903.000000;2.652860
2902.000000;2.359890
2901.000000;2.244990
2900.000000;2.385985
2899.000000;2.831927
2898.000000;2.448765
2897.000000;2.235595
2896.000000;2.109326
2895.000000;1.966351
2894.000000;1.907904
2893.000000;1.963847
2892.000000;2.100629
2891.000000;2.289915
2890.000000;2.422948
2889.000000;2.597041
2888.000000;2.588625
2887.000000;2.143584
2886.000000;1.912821
2885.000000;1.825858
2884.000000;1.811764
2883.000000;1.862393
2882.000000;2.009692
2881.000000;2.296178
2880.000000;2.450543
2879.000000;2.492635
2878.000000;2.195755
2877.000000;1.995985
2876.000000;1.938889
2875.000000;1.973281
2874.000000;2.093291
2873.000000;2.458024
2872.000000;2.932205
2871.000000;2.242903
2870.000000;2.041929
2869.000000;1.931370
2868.000000;1.938186
2867.000000;2.064053
2866.000000;2.268483
2865.000000;2.147113
2864.000000;1.951619
2863.000000;1.892058
2862.000000;1.942705
2861.000000;2.175232
2860.000000;2.661487
2859.000000;2.233306
2858.000000;2.062410
2857.000000;2.197414
2856.000000;2.331916
2855.000000;2.038205
2854.000000;1.807567
2853.000000;1.692892
2852.000000;1.703826
2851.000000;1.864227
2850.000000;2.201295
2849.000000;2.661914
2848.000000;2.481945
2847.000000;2.491892
2846.000000;2.083849
2845.000000;1.780357
2844.000000;1.678993
2843.000000;1.730694
2842.000000;1.939446
2841.000000;2.448857
2840.000000;3.083986
2839.000000;2.341290
2838.000000;2.008423
2837.000000;1.842878
2836.000000;1.799383
2835.000000;1.813909
2834.000000;1.880744
2833.000000;2.026078
2832.000000;2.358811
2831.000000;2.179211
2830.000000;1.954944
2829.000000;1.895130
2828.000000;1.879139
2827.000000;1.903599
2826.000000;2.018439
2825.000000;2.342441
2824.000000;2.267205
2823.000000;1.940557
2822.000000;1.852512
2821.000000;2.014698
2820.000000;2.463402
2819.000000;1.973918
2818.000000;1.806917
2817.000000;1.810963
2816.000000;2.077121
2815.000000;2.250274
2814.000000;1.942474
2813.000000;1.983258
2812.000000;2.165118
2811.000000;2.006589
2810.000000;1.736440
2809.000000;1.613162
2808.000000;1.574441
2807.000000;1.599478
2806.000000;1.679540
2805.000000;1.825468
2804.000000;1.946347
2803.000000;1.903707
2802.000000;1.832305
2801.000000;1.787535
2800.000000;1.723073
2799.000000;1.678652
2798.000000;1.758680
2797.000000;2.129869
2796.000000;2.365205
2795.000000;1.879654
2794.000000;1.775544
2793.000000;1.702458
2792.000000;1.621341
2791.000000;1.553103
2790.000000;1.553233
2789.000000;1.651036
2788.000000;1.828365
2787.000000;1.951397
2786.000000;1.995838
2785.000000;2.109680
2784.000000;2.038481
2783.000000;1.817299
2782.000000;1.721284
2781.000000;1.738959
2780.000000;1.813810
2779.000000;1.870501
2778.000000;1.916300
2777.000000;1.983033
2776.000000;2.029596
2775.000000;2.052761
2774.000000;2.131546
2773.000000;2.371938
2772.000000;2.698185
2771.000000;2.446308
2770.000000;2.500480
2769.000000;2.686010
2768.000000;2.370310
2767.000000;2.143278
2766.000000;2.010820
2765.000000;1.937150
2764.000000;1.887863
2763.000000;1.877149
2762.000000;1.927628
2761.000000;2.213749
2760.000000;2.399096
2759.000000;2.038729
2758.000000;1.993699
2757.000000;2.107594
2756.000000;2.312355
2755.000000;2.276702
2754.000000;2.059780
2753.000000;1.902632
2752.000000;1.865223
2751.000000;1.947135
2750.000000;2.150362
2749.000000;2.012275
2748.000000;1.846995
2747.000000;1.867335
2746.000000;2.022384
2745.000000;2.442539
2744.000000;2.458455
2743.000000;2.017638
2742.000000;1.921496
2741.000000;1.909841
2740.000000;1.815333
2739.000000;1.715127
2738.000000;1.705897
2737.000000;1.773080
2736.000000;1.891864
2735.000000;2.033569
2734.000000;2.033962
2733.000000;1.918826
2732.000000;1.885587
2731.000000;1.886253
2730.000000;1.852965
2729.000000;1.833683
2728.000000;1.913316
2727.000000;2.019902
2726.000000;1.978572
2725.000000;1.928703
2724.000000;1.989453
2723.000000;2.090254
2722.000000;2.695981
2721.000000;2.157565
2720.000000;1.750481
2719.000000;1.613775
2718.000000;1.629404
2717.000000;1.773171
2716.000000;2.039107
2715.000000;2.415040
2714.000000;2.307345
2713.000000;2.091719
2712.000000;2.024153
2711.000000;2.021715
2710.000000;2.034330
2709.000000;2.016669
2708.000000;1.984830
2707.000000;1.953052
2706.000000;1.907883
2705.000000;1.875223
2704.000000;1.824246
2703.000000;1.789184
2702.000000;1.812545
2701.000000;1.876437
2700.000000;1.965810
2699.000000;2.066891
2698.000000;2.116068
2697.000000;2.164349
2696.000000;2.284034
2695.000000;2.217705
2694.000000;2.054058
2693.000000;1.901302
2692.000000;1.831584
2691.000000;1.911502
2690.000000;2.154589
2689.000000;2.320531
2688.000000;2.179742
2687.000000;2.082099
2686.000000;2.100362
2685.000000;2.227386
2684.000000;2.380129
2683.000000;2.809603
2682.000000;3.056391
2681.000000;2.339753
2680.000000;2.210530
2679.000000;2.439411
2678.000000;2.517051
2677.000000;1.917218
2676.000000;1.688448
2675.000000;1.640673
2674.000000;1.762520
2673.000000;2.115528
2672.000000;2.730114
2671.000000;2.452198
2670.000000;2.299663
2669.000000;2.312987
2668.000000;2.338455
2667.000000;2.338951
2666.000000;2.247457
2665.000000;2.042235
2664.000000;1.855497
2663.000000;1.782251
2662.000000;1.848266
2661.000000;2.078237
2660.000000;2.569990
2659.000000;2.811617
2658.000000;2.314149
2657.000000;2.358811
2656.000000;2.510691
2655.000000;2.140512
2654.000000;1.998747
2653.000000;2.143192
2652.000000;2.526002
2651.000000;2.193333
2650.000000;1.851375
2649.000000;1.660668
2648.000000;1.554461
2647.000000;1.558938
2646.000000;1.664300
2645.000000;1.785612
2644.000000;1.770843
2643.000000;1.685625
2642.000000;1.648738
2641.000000;1.620308
2640.000000;1.585276
2639.000000;1.600805
2638.000000;1.629666
2637.000000;1.676692
2636.000000;1.826052
2635.000000;2.083816
2634.000000;2.191982
2633.000000;2.013401
2632.000000;1.776688
2631.000000;1.631378
2630.000000;1.588762
2629.000000;1.602763
2628.000000;1.618979
2627.000000;1.626015
2626.000000;1.657675
2625.000000;1.734143
2624.000000;1.787510
2623.000000;1.768820
2622.000000;1.767986
2621.000000;1.805527
2620.000000;1.841200
2619.000000;1.854570
2618.000000;1.807523
2617.000000;1.808443
2616.000000;1.913534
2615.000000;2.754901
2614.000000;2.084139
2613.000000;1.826901
2612.000000;1.842479
2611.000000;1.932852
2610.000000;2.013288
2609.000000;2.009308
2608.000000;1.886466
2607.000000;1.755826
2606.000000;1.709602
2605.000000;1.702072
2604.000000;1.649485
2603.000000;1.583423
2602.000000;1.585726
2601.000000;1.709008
2600.000000;1.902696
2599.000000;1.924434
2598.000000;1.869744
2597.000000;1.871253
2596.000000;1.922937
2595.000000;1.977448
2594.000000;1.971746
2593.000000;1.983238
2592.000000;2.005802
2591.000000;1.966225
2590.000000;1.907308
2589.000000;1.921513
2588.000000;1.890352
2587.000000;1.770918
2586.000000;1.713091
2585.000000;1.750833
2584.000000;1.884299
2583.000000;2.063254
2582.000000;1.927761
2581.000000;1.780195
2580.000000;1.769273
2579.000000;1.868709
2578.000000;2.045765
2577.000000;2.248700
2576.000000;2.279708
2575.000000;2.125165
2574.000000;2.036744
2573.000000;2.065591
2572.000000;2.131987
2571.000000;2.092292
2570.000000;2.025376
2569.000000;2.022791
2568.000000;2.014321
2567.000000;1.844811
2566.000000;1.646201
2565.000000;1.535229
2564.000000;1.519298
2563.000000;1.592495
2562.000000;1.732978
2561.000000;1.857121
2560.000000;1.916327
2559.000000;2.030845
2558.000000;2.337081
2557.000000;2.580666
2556.000000;2.209965
2555.000000;2.037407
2554.000000;2.002832
2553.000000;2.094462
2552.000000;2.367368
2551.000000;2.590088
2550.000000;2.077624
2549.000000;1.880347
2548.000000;1.816540
2547.000000;1.866709
2546.000000;1.960274
2545.000000;1.979354
2544.000000;1.932672
2543.000000;1.904165
2542.000000;1.907656
2541.000000;1.952326
2540.000000;2.011296
2539.000000;2.242189
2538.000000;2.525748
2537.000000;1.968603
2536.000000;1.722230
2535.000000;1.680599
2534.000000;1.749726
2533.000000;1.899982
2532.000000;2.076920
2531.000000;2.224077
2530.000000;2.160626
2529.000000;1.964112
2528.000000;1.836171
2527.000000;1.786501
2526.000000;1.804981
2525.000000;1.895876
2524.000000;2.054718
2523.000000;2.226290
2522.000000;2.067151
2521.000000;1.830667
2520.000000;1.749374
2519.000000;1.789567
2518.000000;1.994267
2517.000000;2.519307
2516.000000;2.253865
2515.000000;1.948175
2514.000000;1.949800
2513.000000;1.989702
2512.000000;1.956275
2511.000000;1.897776
2510.000000;1.925779
2509.000000;2.012195
2508.000000;2.100411
2507.000000;2.199650
2506.000000;2.396550
2505.000000;2.691606
2504.000000;2.634507
2503.000000;2.378712
2502.000000;2.194220
2501.000000;2.188385
2500.000000;2.467864
2499.000000;2.758197
2498.000000;2.265947
2497.000000;2.090424
2496.000000;1.856649
2495.000000;1.669058
2494.000000;1.607725
2493.000000;1.673882
2492.000000;1.794352
2491.000000;1.880544
2490.000000;1.952849
2489.000000;2.005265
2488.000000;2.026215
2487.000000;2.079675
2486.000000;2.212668
2485.000000;2.435039
2484.000000;2.509267
2483.000000;2.259089
2482.000000;2.133602
2481.000000;2.139959
2480.000000;2.144363
2479.000000;2.142291
2478.000000;2.223050
2477.000000;2.360922
2476.000000;2.280016
2475.000000;2.254789
2474.000000;2.435651
2473.000000;2.904407
2472.000000;2.459915
2471.000000;2.186242
2470.000000;2.155755
2469.000000;2.336840
2468.000000;2.716965
2467.000000;2.932278
2466.000000;2.663639
2465.000000;2.279580
2464.000000;1.919133
2463.000000;1.719837
2462.000000;1.647487
2461.000000;1.649063
2460.000000;1.690632
2459.000000;1.778431
2458.000000;1.908890
2457.000000;1.915745
2456.000000;1.812869
2455.000000;1.820946
2454.000000;1.969649
2453.000000;2.656874
2452.000000;2.021460
2451.000000;1.722262
2450.000000;1.642063
2449.000000;1.689293
2448.000000;1.869393
2447.000000;2.174057
2446.000000;2.455273
2445.000000;2.421406
2444.000000;2.176749
2443.000000;1.970816
2442.000000;1.831636
2441.000000;1.777101
2440.000000;1.841505
2439.000000;1.979544
2438.000000;1.985273
2437.000000;1.975466
2436.000000;2.193793
2435.000000;2.291627
2434.000000;2.059985
2433.000000;1.942377
2432.000000;1.860214
2431.000000;1.849981
2430.000000;1.993427
2429.000000;2.421514
2428.000000;1.912504
2427.000000;1.616037
2426.000000;1.521772
2425.000000;1.539730
2424.000000;1.676605
2423.000000;1.899824
2422.000000;2.041859
2421.000000;2.046284
2420.000000;2.053009
2419.000000;2.030609
2418.000000;1.838303
2417.000000;1.687883
2416.000000;1.616421
2415.000000;1.574237
2414.000000;1.556017
2413.000000;1.589809
2412.000000;1.697514
2411.000000;1.886215
2410.000000;2.115685
2409.000000;2.042944
2408.000000;1.846065
2407.000000;1.826950
2406.000000;2.008027
2405.000000;2.232063
2404.000000;2.224721
2403.000000;2.273619
2402.000000;2.394441
2401.000000;2.184788
2400.000000;1.886115
2399.000000;1.727950
2398.000000;1.678431
2397.000000;1.668926
2396.000000;1.699038
2395.000000;1.799644
2394.000000;1.909262
2393.000000;2.056585
2392.000000;2.128052
2391.000000;1.945361
2390.000000;1.867640
2389.000000;1.843047
2388.000000;1.787687
2387.000000;1.725618
2386.000000;1.769957
2385.000000;1.881096
2384.000000;1.806128
2383.000000;1.708539
2382.000000;1.718868
2381.000000;1.744372
2380.000000;1.754322
2379.000000;1.926599
2378.000000;2.196012
2377.000000;1.961206
2376.000000;1.863059
2375.000000;1.928500
2374.000000;1.895508
2373.000000;1.817481
2372.000000;1.883400
2371.000000;2.131971
2370.000000;1.780143
2369.000000;1.548278
2368.000000;1.463101
2367.000000;1.469931
2366.000000;1.572048
2365.000000;1.783611
2364.000000;2.051465
2363.000000;2.234989
2362.000000;2.011036
2361.000000;1.726721
2360.000000;1.609027
2359.000000;1.603714
2358.000000;1.668681
2357.000000;1.700186
2356.000000;1.643665
2355.000000;1.623189
2354.000000;1.661840
2353.000000;1.711067
2352.000000;1.717392
2351.000000;1.684368
2350.000000;1.717536
2349.000000;1.693241
2348.000000;1.555937
2347.000000;1.570980
2346.000000;1.656084
2345.000000;1.707743
2344.000000;1.702054
2343.000000;1.741985
2342.000000;1.876358
2341.000000;1.999446
2340.000000;1.909363
2339.000000;1.747497
2338.000000;1.672918
2337.000000;1.647502
2336.000000;1.664123
2335.000000;1.757112
2334.000000;1.916517
2333.000000;2.011682
2332.000000;2.045255
2331.000000;2.185849
2330.000000;2.425410
2329.000000;2.289236
2328.000000;2.108621
2327.000000;1.880482
2326.000000;1.633288
2325.000000;1.493335
2324.000000;1.501599
2323.000000;1.669886
2322.000000;2.078821
2321.000000;2.449631
2320.000000;2.071280
2319.000000;1.765781
2318.000000;1.549230
2317.000000;1.418148
2316.000000;1.395169
2315.000000;1.437217
2314.000000;1.523613
2313.000000;1.627219
2312.000000;1.747462
2311.000000;1.774979
2310.000000;1.631373
2309.000000;1.503727
2308.000000;1.473779
2307.000000;1.482953
2306.000000;1.462261
2305.000000;1.428147
2304.000000;1.465544
2303.000000;1.634992
2302.000000;1.760251
2301.000000;1.631600
2300.000000;1.617964
2299.000000;1.720944
2298.000000;1.781943
2297.000000;1.690268
2296.000000;1.571488
2295.000000;1.502564
2294.000000;1.517925
2293.000000;1.621147
2292.000000;1.792420
2291.000000;1.668778
2290.000000;1.438861
2289.000000;1.358252
2288.000000;1.439021
2287.000000;1.663267
2286.000000;1.635635
2285.000000;1.576765
2284.000000;1.757443
2283.000000;2.361294
2282.000000;1.951531
2281.000000;1.681797
2280.000000;1.648102
2279.000000;1.728621
2278.000000;1.833897
2277.000000;1.871906
2276.000000;1.763865
2275.000000;1.572304
2274.000000;1.407471
2273.000000;1.319112
2272.000000;1.293780
2271.000000;1.362575
2270.000000;1.524956
2269.000000;2.255403
2268.000000;1.959368
2267.000000;1.527918
2266.000000;1.428986
2265.000000;1.456850
2264.000000;1.840401
2263.000000;1.905006
2262.000000;1.577522
2261.000000;1.547229
2260.000000;1.618220
2259.000000;1.646203
2258.000000;1.702609
2257.000000;1.882011
2256.000000;1.845828
2255.000000;1.791130
2254.000000;1.825500
2253.000000;1.548632
2252.000000;1.324903
2251.000000;1.239194
2250.000000;1.264443
2249.000000;1.384361
2248.000000;1.622123
2247.000000;1.726210
2246.000000;1.580741
2245.000000;1.603959
2244.000000;1.864928
2243.000000;2.062258
2242.000000;2.089947
2241.000000;2.202766
2240.000000;1.892426
2239.000000;1.672752
2238.000000;1.614996
2237.000000;1.690870
2236.000000;1.777484
2235.000000;1.723406
2234.000000;1.717646
2233.000000;1.795262
2232.000000;1.834813
2231.000000;1.758189
2230.000000;1.661585
2229.000000;1.585883
2228.000000;1.517648
2227.000000;1.458448
2226.000000;1.443248
2225.000000;1.499589
2224.000000;1.673040
2223.000000;2.008431
2222.000000;1.866646
2221.000000;1.609770
2220.000000;1.580089
2219.000000;1.650856
2218.000000;1.785935
2217.000000;1.876455
2216.000000;1.869002
2215.000000;1.795018
2214.000000;1.706534
2213.000000;1.651901
2212.000000;1.655739
2211.000000;1.677859
2210.000000;1.639996
2209.000000;1.547902
2208.000000;1.485349
2207.000000;1.505497
2206.000000;1.627995
2205.000000;1.881018
2204.000000;2.539328
2203.000000;2.089417
2202.000000;1.835991
2201.000000;1.794334
2200.000000;1.836762
2199.000000;1.890184
2198.000000;1.925155
2197.000000;1.915456
2196.000000;1.901191
2195.000000;1.949000
2194.000000;1.832226
2193.000000;1.646859
2192.000000;1.594516
2191.000000;1.651565
2190.000000;1.785271
2189.000000;2.094400
2188.000000;2.230227
2187.000000;1.879956
2186.000000;1.701207
2185.000000;1.641275
2184.000000;1.639344
2183.000000;1.657418
2182.000000;1.691074
2181.000000;1.766616
2180.000000;1.897393
2179.000000;2.072758
2178.000000;2.209806
2177.000000;2.192343
2176.000000;2.107473
2175.000000;1.918080
2174.000000;1.761602
2173.000000;1.707501
2172.000000;1.699931
2171.000000;1.733881
2170.000000;1.826814
2169.000000;2.274795
2168.000000;2.725123
2167.000000;2.107383
2166.000000;2.585946
2165.000000;2.271502
2164.000000;1.939496
2163.000000;1.964902
2162.000000;2.078051
2161.000000;2.236101
2160.000000;2.514070
2159.000000;2.690059
2158.000000;2.232704
2157.000000;2.052394
2156.000000;2.052475
2155.000000;1.905849
2154.000000;1.699067
2153.000000;1.592400
2152.000000;1.559543
2151.000000;1.566608
2150.000000;1.618496
2149.000000;1.721508
2148.000000;1.786876
2147.000000;1.771465
2146.000000;1.793746
2145.000000;1.866409
2144.000000;1.907868
2143.000000;1.866808
2142.000000;1.780283
2141.000000;1.689270
2140.000000;1.636497
2139.000000;1.659364
2138.000000;1.786469
2137.000000;1.975753
2136.000000;1.975868
2135.000000;1.899023
2134.000000;1.895155
2133.000000;1.940330
2132.000000;2.065499
2131.000000;2.491081
2130.000000;2.442478
2129.000000;2.155545
2128.000000;2.013074
2127.000000;1.884143
2126.000000;1.783773
2125.000000;1.764949
2124.000000;1.896117
2123.000000;2.381640
2122.000000;2.256694
2121.000000;1.925639
2120.000000;1.855966
2119.000000;1.765750
2118.000000;1.633774
2117.000000;1.550567
2116.000000;1.570114
2115.000000;1.716179
2114.000000;2.055393
2113.000000;2.409955
2112.000000;2.284865
2111.000000;2.214253
2110.000000;2.171988
2109.000000;1.959544
2108.000000;1.698906
2107.000000;1.554116
2106.000000;1.522659
2105.000000;1.578738
2104.000000;1.671346
2103.000000;1.704514
2102.000000;1.691259
2101.000000;1.739581
2100.000000;1.881967
2099.000000;2.028034
2098.000000;2.123589
2097.000000;2.260695
2096.000000;2.318558
2095.000000;2.223420
2094.000000;2.115545
2093.000000;1.964124
2092.000000;1.809950
2091.000000;1.710752
2090.000000;1.673685
2089.000000;1.711058
2088.000000;1.846971
2087.000000;2.126534
2086.000000;2.172260
2085.000000;2.634493
2084.000000;2.349889
2083.000000;1.794983
2082.000000;1.688317
2081.000000;1.690972
2080.000000;1.748981
2079.000000;1.787177
2078.000000;1.868125
2077.000000;2.228435
2076.000000;2.325912
2075.000000;1.846725
2074.000000;1.586084
2073.000000;1.433740
2072.000000;1.371274
2071.000000;1.383538
2070.000000;1.429903
2069.000000;1.465143
2068.000000;1.492715
2067.000000;1.541445
2066.000000;1.627316
2065.000000;1.748291
2064.000000;1.972592
2063.000000;2.294288
2062.000000;2.056999
2061.000000;1.893944
2060.000000;1.802419
2059.000000;1.682577
2058.000000;1.651383
2057.000000;1.752793
2056.000000;1.837773
2055.000000;1.675839
2054.000000;1.524407
2053.000000;1.467073
2052.000000;1.485816
2051.000000;1.588092
2050.000000;1.783354
2049.000000;1.979507
2048.000000;1.941329
2047.000000;1.871063
2046.000000;1.874976
2045.000000;1.939609
2044.000000;2.128021
2043.000000;2.157383
2042.000000;1.906862
2041.000000;1.785494
2040.000000;1.718405
2039.000000;1.730866
2038.000000;1.942461
2037.000000;2.427333
2036.000000;1.928251
2035.000000;1.605257
2034.000000;1.475445
2033.000000;1.445470
2032.000000;1.489712
2031.000000;1.588298
2030.000000;1.725797
2029.000000;1.890220
2028.000000;2.062680
2027.000000;1.973978
2026.000000;1.831136
2025.000000;1.839697
2024.000000;1.962702
2023.000000;1.968184
2022.000000;1.802232
2021.000000;1.663949
2020.000000;1.595351
2019.000000;1.598330
2018.000000;1.643114
2017.000000;1.667048
2016.000000;1.671323
2015.000000;1.725791
2014.000000;1.908555
2013.000000;2.378612
2012.000000;2.192710
2011.000000;1.799547
2010.000000;1.662273
2009.000000;1.598434
2008.000000;1.565148
2007.000000;1.529186
2006.000000;1.501054
2005.000000;1.492443
2004.000000;1.507546
2003.000000;1.568947
2002.000000;1.712412
2001.000000;2.076705
2000.000000;2.585656
1999.000000;2.245441
1998.000000;2.343114
1997.000000;2.143861
1996.000000;1.763444
1995.000000;1.587628
1994.000000;1.560443
1993.000000;1.661906
1992.000000;1.867589
1991.000000;2.174124
1990.000000;2.679943
1989.000000;2.133329
1988.000000;1.796802
1987.000000;1.616948
1986.000000;1.556691
1985.000000;1.608428
1984.000000;1.737771
1983.000000;1.735017
1982.000000;1.621292
1981.000000;1.569740
1980.000000;1.570246
1979.000000;1.608332
1978.000000;1.678390
1977.000000;1.791991
1976.000000;1.961814
1975.000000;2.184256
1974.000000;2.383016
1973.000000;2.455772
1972.000000;2.220682
1971.000000;1.927680
1970.000000;1.766809
1969.000000;1.720279
1968.000000;1.725955
1967.000000;1.726256
1966.000000;1.728799
1965.000000;1.782756
1964.000000;1.915477
1963.000000;1.871314
1962.000000;1.665769
1961.000000;1.532162
1960.000000;1.491487
1959.000000;1.561451
1958.000000;1.835963
1957.000000;2.464833
1956.000000;2.071457
1955.000000;2.019950
1954.000000;2.175236
1953.000000;1.966476
1952.000000;1.778109
1951.000000;1.716466
1950.000000;1.665843
1949.000000;1.615125
1948.000000;1.598857
1947.000000;1.642764
1946.000000;1.721765
1945.000000;1.761532
1944.000000;1.784646
1943.000000;1.885371
1942.000000;1.809669
1941.000000;1.664798
1940.000000;1.661073
1939.000000;1.785577
1938.000000;1.939247
1937.000000;2.060850
1936.000000;2.085204
1935.000000;1.845222
1934.000000;1.726872
1933.000000;1.777756
1932.000000;1.938952
1931.000000;1.941537
1930.000000;1.886941
1929.000000;1.964892
1928.000000;2.184962
1927.000000;2.502788
1926.000000;2.185445
1925.000000;1.802691
1924.000000;1.612637
1923.000000;1.509588
1922.000000;1.431520
1921.000000;1.373264
1920.000000;1.372115
1919.000000;1.443281
1918.000000;1.541455
1917.000000;1.588423
1916.000000;1.586097
1915.000000;1.593908
1914.000000;1.616204
1913.000000;1.618574
1912.000000;1.638926
1911.000000;1.733680
1910.000000;1.787244
1909.000000;1.663585
1908.000000;1.574053
1907.000000;1.530999
1906.000000;1.516433
1905.000000;1.557917
1904.000000;1.630311
1903.000000;1.617865
1902.000000;1.562689
1901.000000;1.568822
1900.000000;1.637379
1899.000000;1.738928
1898.000000;1.828341
1897.000000;1.856794
1896.000000;1.839958
1895.000000;1.815600
1894.000000;1.757525
1893.000000;1.743605
1892.000000;1.875106
1891.000000;2.388909
1890.000000;1.950337
1889.000000;1.701348
1888.000000;1.632167
1887.000000;1.558008
1886.000000;1.503687
1885.000000;1.481217
1884.000000;1.499464
1883.000000;1.567076
1882.000000;1.700701
1881.000000;1.962459
1880.000000;2.455618
1879.000000;2.098912
1878.000000;1.956228
1877.000000;1.990099
1876.000000;2.096212
1875.000000;2.041056
1874.000000;1.817059
1873.000000;1.625987
1872.000000;1.536793
1871.000000;1.553645
1870.000000;1.642452
1869.000000;1.674782
1868.000000;1.600020
1867.000000;1.553302
1866.000000;1.588898
1865.000000;1.710942
1864.000000;1.907871
1863.000000;2.179271
1862.000000;2.076216
1861.000000;1.768239
1860.000000;1.584950
1859.000000;1.510954
1858.000000;1.539971
1857.000000;1.694640
1856.000000;2.139610
1855.000000;2.266513
1854.000000;1.881503
1853.000000;1.891796
1852.000000;1.926522
1851.000000;1.719720
1850.000000;1.557271
1849.000000;1.483218
1848.000000;1.458615
1847.000000;1.462856
1846.000000;1.467596
1845.000000;1.449464
1844.000000;1.430006
1843.000000;1.445127
1842.000000;1.520805
1841.000000;1.714001
1840.000000;1.793149
1839.000000;1.590916
1838.000000;1.457884
1837.000000;1.432026
1836.000000;1.499127
1835.000000;1.628852
1834.000000;1.715783
1833.000000;1.704843
1832.000000;1.657705
1831.000000;1.566997
1830.000000;1.461790
1829.000000;1.405782
1828.000000;1.457432
1827.000000;1.670099
1826.000000;1.689879
1825.000000;1.507692
1824.000000;1.494589
1823.000000;1.641104
1822.000000;1.894798
1821.000000;1.703259
1820.000000;1.451185
1819.000000;1.348427
1818.000000;1.348581
1817.000000;1.438119
1816.000000;1.599772
1815.000000;1.805217
1814.000000;1.921712
1813.000000;1.829450
1812.000000;1.641334
1811.000000;1.479349
1810.000000;1.379539
1809.000000;1.338388
1808.000000;1.380151
1807.000000;1.537279
1806.000000;1.955454
1805.000000;2.028619
1804.000000;1.805468
1803.000000;1.814689
1802.000000;1.942397
1801.000000;2.006443
1800.000000;1.957941
1799.000000;1.910798
1798.000000;1.816336
1797.000000;1.663587
1796.000000;1.490193
1795.000000;1.387969
1794.000000;1.385187
1793.000000;1.469083
1792.000000;1.596017
1791.000000;1.709758
1790.000000;1.812321
1789.000000;1.937451
1788.000000;1.980700
1787.000000;1.912920
1786.000000;1.857503
1785.000000;1.832148
1784.000000;1.831254
1783.000000;1.869830
1782.000000;1.973442
1781.000000;2.148674
1780.000000;2.209989
1779.000000;1.802264
1778.000000;1.547045
1777.000000;1.443972
1776.000000;1.417154
1775.000000;1.383947
1774.000000;1.336292
1773.000000;1.315690
1772.000000;1.302428
1771.000000;1.302234
1770.000000;1.397335
1769.000000;1.616918
1768.000000;1.717351
1767.000000;1.707312
1766.000000;1.761580
1765.000000;2.174575
1764.000000;2.345119
1763.000000;1.682742
1762.000000;1.504354
1761.000000;1.429574
1760.000000;1.470360
1759.000000;1.585301
1758.000000;1.535905
1757.000000;1.388714
1756.000000;1.331109
1755.000000;1.372331
1754.000000;1.510593
1753.000000;1.645771
1752.000000;1.709229
1751.000000;1.773741
1750.000000;1.778349
1749.000000;1.607859
1748.000000;1.406352
1747.000000;1.330817
1746.000000;1.407082
1745.000000;1.536704
1744.000000;1.468551
1743.000000;1.339452
1742.000000;1.279002
1741.000000;1.323466
1740.000000;1.524687
1739.000000;2.067054
1738.000000;2.028547
1737.000000;1.605188
1736.000000;1.542619
1735.000000;1.517791
1734.000000;1.542568
1733.000000;1.585232
1732.000000;1.730542
1731.000000;1.864705
1730.000000;1.658926
1729.000000;1.523263
1728.000000;1.501815
1727.000000;1.540098
1726.000000;1.589701
1725.000000;1.603732
1724.000000;1.652792
1723.000000;1.789646
1722.000000;1.902348
1721.000000;1.843981
1720.000000;1.880984
1719.000000;1.991691
1718.000000;1.794785
1717.000000;1.677752
1716.000000;1.707150
1715.000000;1.748024
1714.000000;1.698213
1713.000000;1.756591
1712.000000;1.818025
1711.000000;1.721585
1710.000000;1.609198
1709.000000;1.588321
1708.000000;1.697144
1707.000000;2.052249
1706.000000;1.988643
1705.000000;1.677895
1704.000000;1.539594
1703.000000;1.488038
1702.000000;1.508027
1701.000000;1.553022
1700.000000;1.639998
1699.000000;1.888227
1698.000000;1.777103
1697.000000;1.626357
1696.000000;1.648467
1695.000000;1.696456
1694.000000;1.738804
1693.000000;1.765800
1692.000000;1.747970
1691.000000;1.735829
1690.000000;1.738085
1689.000000;1.725469
1688.000000;1.580401
1687.000000;1.445403
1686.000000;1.420208
1685.000000;1.453631
1684.000000;1.506315
1683.000000;1.584190
1682.000000;1.732843
1681.000000;2.042985
1680.000000;2.333587
1679.000000;2.081677
1678.000000;1.820560
1677.000000;1.672069
1676.000000;1.515750
1675.000000;1.354056
1674.000000;1.260732
1673.000000;1.253310
1672.000000;1.322225
1671.000000;1.361112
1670.000000;1.279923
1669.000000;1.198060
1668.000000;1.178829
1667.000000;1.232423
1666.000000;1.378124
1665.000000;1.607661
1664.000000;1.539915
1663.000000;1.305187
1662.000000;1.178704
1661.000000;1.140785
1660.000000;1.183144
1659.000000;1.302040
1658.000000;1.486865
1657.000000;1.543633
1656.000000;1.441282
1655.000000;1.439893
1654.000000;1.473225
1653.000000;1.476611
1652.000000;1.462524
1651.000000;1.459259
1650.000000;1.508309
1649.000000;1.292901
1648.000000;1.141066
1647.000000;1.176060
1646.000000;1.253801
1645.000000;1.271011
1644.000000;1.249076
1643.000000;1.267113
1642.000000;1.393274
1641.000000;1.713326
1640.000000;1.986878
1639.000000;1.533771
1638.000000;1.429363
1637.000000;1.511907
1636.000000;1.877846
1635.000000;2.113157
1634.000000;1.590151
1633.000000;1.438593
1632.000000;1.296122
1631.000000;1.159666
1630.000000;1.068682
1629.000000;1.070268
1628.000000;1.179391
1627.000000;1.239254
1626.000000;1.147109
1625.000000;1.096525
1624.000000;1.142784
1623.000000;1.294684
1622.000000;1.586690
1621.000000;1.475551
1620.000000;1.304919
1619.000000;1.313074
1618.000000;1.398467
1617.000000;1.481391
1616.000000;1.501881
1615.000000;1.485344
1614.000000;1.474831
1613.000000;1.401567
1612.000000;1.262059
1611.000000;1.163186
1610.000000;1.125820
1609.000000;1.158161
1608.000000;1.275260
1607.000000;1.458410
1606.000000;1.469390
1605.000000;1.317044
1604.000000;1.249256
1603.000000;1.274006
1602.000000;1.383545
1601.000000;1.486638
1600.000000;1.524595
1599.000000;1.556081
1598.000000;1.577322
1597.000000;1.597218
1596.000000;1.805551
1595.000000;1.980573
1594.000000;1.571278
1593.000000;1.392713
1592.000000;1.370807
1591.000000;1.351682
1590.000000;1.257721
1589.000000;1.174617
1588.000000;1.164546
1587.000000;1.213411
1586.000000;1.274552
1585.000000;1.334037
1584.000000;1.403749
1583.000000;1.486287
1582.000000;1.600194
1581.000000;1.670780
1580.000000;1.514695
1579.000000;1.397636
1578.000000;1.440634
1577.000000;1.553295
1576.000000;1.536617
1575.000000;1.396865
1574.000000;1.261125
1573.000000;1.188984
1572.000000;1.212023
1571.000000;1.281823
1570.000000;1.302198
1569.000000;1.304831
1568.000000;1.354685
1567.000000;1.424598
1566.000000;1.436028
1565.000000;1.389049
1564.000000;1.376223
1563.000000;1.449087
1562.000000;1.565540
1561.000000;1.588461
1560.000000;1.533486
1559.000000;1.588144
1558.000000;2.006759
1557.000000;1.598953
1556.000000;1.381444
1555.000000;1.369142
1554.000000;1.437826
1553.000000;1.519684
1552.000000;1.581474
1551.000000;1.603106
1550.000000;1.694048
1549.000000;1.900860
1548.000000;2.324609
1547.000000;2.442372
1546.000000;2.030829
1545.000000;1.877855
1544.000000;1.817100
1543.000000;1.923317
1542.000000;2.140886
1541.000000;1.909593
1540.000000;1.877628
1539.000000;2.265880
1538.000000;2.534258
1537.000000;1.901814
1536.000000;1.556067
1535.000000;1.395956
1534.000000;1.328391
1533.000000;1.279203
1532.000000;1.249594
1531.000000;1.278808
1530.000000;1.364336
1529.000000;1.420729
1528.000000;1.403873
1527.000000;1.436890
1526.000000;1.587019
1525.000000;1.811337
1524.000000;1.716742
1523.000000;1.460882
1522.000000;1.427508
1521.000000;1.590484
1520.000000;1.854014
1519.000000;1.799152
1518.000000;1.420949
1517.000000;1.190189
1516.000000;1.140221
1515.000000;1.227590
1514.000000;1.412557
1513.000000;1.474751
1512.000000;1.300684
1511.000000;1.096571
1510.000000;0.983363
1509.000000;0.987953
1508.000000;1.091327
1507.000000;1.272985
1506.000000;1.519127
1505.000000;1.450840
1504.000000;1.303785
1503.000000;1.333423
1502.000000;1.633460
1501.000000;1.641462
1500.000000;1.340475
1499.000000;1.342652
1498.000000;1.283626
1497.000000;1.122270
1496.000000;1.092775
1495.000000;1.163409
1494.000000;1.233896
1493.000000;1.176398
1492.000000;1.123751
1491.000000;1.245329
1490.000000;1.516491
1489.000000;1.267058
1488.000000;1.048564
1487.000000;1.006838
1486.000000;1.061695
1485.000000;1.302019
1484.000000;1.438520
1483.000000;1.160705
1482.000000;1.075288
1481.000000;1.137209
1480.000000;1.256887
1479.000000;1.493756
1478.000000;1.720227
1477.000000;1.422500
1476.000000;1.461656
1475.000000;1.718932
1474.000000;1.934834
1473.000000;1.554831
1472.000000;1.350955
1471.000000;1.313257
1470.000000;1.334061
1469.000000;1.294427
1468.000000;1.235741
1467.000000;1.175469
1466.000000;1.094612
1465.000000;1.045449
1464.000000;1.081235
1463.000000;1.190971
1462.000000;1.301874
1461.000000;1.414216
1460.000000;1.473246
1459.000000;1.426280
1458.000000;1.545158
1457.000000;1.619293
1456.000000;1.372634
1455.000000;1.263543
1454.000000;1.319963
1453.000000;1.592435
1452.000000;1.455573
1451.000000;1.192259
1450.000000;1.162305
1449.000000;1.340862
1448.000000;1.266862
1447.000000;0.980383
1446.000000;0.875762
1445.000000;0.891461
1444.000000;0.999304
1443.000000;1.098422
1442.000000;1.140395
1441.000000;1.210944
1440.000000;1.341889
1439.000000;1.510977
1438.000000;1.600821
1437.000000;1.585651
1436.000000;1.497278
1435.000000;1.306026
1434.000000;1.131528
1433.000000;1.052108
1432.000000;1.051951
1431.000000;1.079130
1430.000000;1.084211
1429.000000;1.051835
1428.000000;1.012800
1427.000000;1.030382
1426.000000;1.175727
1425.000000;1.336704
1424.000000;1.134909
1423.000000;1.020257
1422.000000;1.040235
1421.000000;1.155364
1420.000000;1.296141
1419.000000;1.417520
1418.000000;1.485387
1417.000000;1.461387
1416.000000;1.525760
1415.000000;1.784129
1414.000000;1.514057
1413.000000;1.278197
1412.000000;1.296117
1411.000000;1.466198
1410.000000;2.104097
1409.000000;1.731726
1408.000000;1.429700
1407.000000;1.448312
1406.000000;1.527465
1405.000000;1.683979
1404.000000;1.804091
1403.000000;1.795375
1402.000000;1.746051
1401.000000;1.644914
1400.000000;1.410887
1399.000000;1.213522
1398.000000;1.147038
1397.000000;1.228174
1396.000000;1.469627
1395.000000;1.751030
1394.000000;1.611570
1393.000000;1.420353
1392.000000;1.282987
1391.000000;1.212210
1390.000000;1.245763
1389.000000;1.416529
1388.000000;1.957910
1387.000000;2.037928
1386.000000;1.674349
1385.000000;1.700938
1384.000000;1.547864
1383.000000;1.428160
1382.000000;1.333041
1381.000000;1.224700
1380.000000;1.112891
1379.000000;1.050149
1378.000000;1.047958
1377.000000;1.083507
1376.000000;1.105111
1375.000000;1.067234
1374.000000;1.013433
1373.000000;0.990644
1372.000000;1.014930
1371.000000;1.104745
1370.000000;1.277150
1369.000000;1.509107
1368.000000;1.853533
1367.000000;1.747483
1366.000000;1.406523
1365.000000;1.386582
1364.000000;1.438849
1363.000000;1.357669
1362.000000;1.237194
1361.000000;1.163210
1360.000000;1.149908
1359.000000;1.234706
1358.000000;1.389267
1357.000000;1.365740
1356.000000;1.232056
1355.000000;1.168062
1354.000000;1.162379
1353.000000;1.241344
1352.000000;1.428626
1351.000000;1.831971
1350.000000;1.573629
1349.000000;1.311319
1348.000000;1.226199
1347.000000;1.214875
1346.000000;1.216474
1345.000000;1.208705
1344.000000;1.218130
1343.000000;1.249006
1342.000000;1.284934
1341.000000;1.325128
1340.000000;1.345150
1339.000000;1.291963
1338.000000;1.205115
1337.000000;1.156228
1336.000000;1.199048
1335.000000;1.391968
1334.000000;1.767559
1333.000000;2.385105
1332.000000;2.114288
1331.000000;1.714986
1330.000000;1.498393
1329.000000;1.360331
1328.000000;1.344403
1327.000000;1.384842
1326.000000;1.439460
1325.000000;1.555332
1324.000000;1.587737
1323.000000;1.321695
1322.000000;1.147550
1321.000000;1.091518
1320.000000;1.086611
1319.000000;1.079275
1318.000000;1.094391
1317.000000;1.201625
1316.000000;1.411945
1315.000000;1.405456
1314.000000;1.240813
1313.000000;1.152839
1312.000000;1.105837
1311.000000;1.084132
1310.000000;1.080899
1309.000000;1.092292
1308.000000;1.117480
1307.000000;1.165388
1306.000000;1.240995
1305.000000;1.329299
1304.000000;1.403674
1303.000000;1.464726
1302.000000;1.471585
1301.000000;1.395627
1300.000000;1.318916
1299.000000;1.262842
1298.000000;1.248271
1297.000000;1.317781
1296.000000;1.436381
1295.000000;1.325420
1294.000000;1.149633
1293.000000;1.072422
1292.000000;1.125353
1291.000000;1.361442
1290.000000;2.191333
1289.000000;1.450378
1288.000000;1.260909
1287.000000;1.254845
1286.000000;1.416025
1285.000000;1.515225
1284.000000;1.379563
1283.000000;1.353759
1282.000000;1.491074
1281.000000;1.745942
1280.000000;1.725568
1279.000000;1.616738
1278.000000;1.565999
1277.000000;1.525427
1276.000000;1.532246
1275.000000;1.404918
1274.000000;1.258556
1273.000000;1.203527
1272.000000;1.201744
1271.000000;1.212153
1270.000000;1.223940
1269.000000;1.289277
1268.000000;1.453580
1267.000000;1.587197
1266.000000;1.453494
1265.000000;1.308481
1264.000000;1.248685
1263.000000;1.244044
1262.000000;1.220142
1261.000000;1.156905
1260.000000;1.113773
1259.000000;1.134518
1258.000000;1.228738
1257.000000;1.398476
1256.000000;1.475765
1255.000000;1.273291
1254.000000;1.094203
1253.000000;1.035116
1252.000000;1.112323
1251.000000;1.307421
1250.000000;1.300162
1249.000000;1.122697
1248.000000;1.014153
1247.000000;0.939886
1246.000000;0.894530
1245.000000;0.893629
1244.000000;0.949062
1243.000000;1.040349
1242.000000;1.129196
1241.000000;1.205171
1240.000000;1.312561
1239.000000;1.507719
1238.000000;1.771331
1237.000000;1.708372
1236.000000;1.676253
1235.000000;1.636772
1234.000000;1.287218
1233.000000;1.089498
1232.000000;1.018935
1231.000000;1.029455
1230.000000;1.070649
1229.000000;1.093795
1228.000000;1.080275
1227.000000;1.034893
1226.000000;0.986905
1225.000000;0.974954
1224.000000;1.013802
1223.000000;1.102341
1222.000000;1.218635
1221.000000;1.312042
1220.000000;1.262375
1219.000000;1.067115
1218.000000;0.906118
1217.000000;0.849060
1216.000000;0.894193
1215.000000;1.031495
1214.000000;1.232272
1213.000000;1.604843
1212.000000;1.620351
1211.000000;1.350462
1210.000000;1.512857
1209.000000;1.918392
1208.000000;1.242839
1207.000000;1.145352
1206.000000;1.168209
1205.000000;1.247124
1204.000000;1.306158
1203.000000;1.238553
1202.000000;1.092086
1201.000000;1.048977
1200.000000;1.155458
