Criado como novo conjunto de dados;"2706_e01_daniel.spp","38703.6 Secs"
cm-1;Abs
10000.000000;0.679922
9999.000000;0.679463
9998.000000;0.679327
9997.000000;0.679366
9996.000000;0.679522
9995.000000;0.679941
9994.000000;0.680528
9993.000000;0.681027
9992.000000;0.681257
9991.000000;0.681259
9990.000000;0.681058
9989.000000;0.680621
9988.000000;0.680044
9987.000000;0.679553
9986.000000;0.679252
9985.000000;0.679029
9984.000000;0.678792
9983.000000;0.678634
9982.000000;0.678642
9981.000000;0.678653
9980.000000;0.678362
9979.000000;0.677678
9978.000000;0.676903
9977.000000;0.676511
9976.000000;0.676719
9975.000000;0.677254
9974.000000;0.677599
9973.000000;0.677493
9972.000000;0.677155
9971.000000;0.677001
9970.000000;0.677261
9969.000000;0.677890
9968.000000;0.678699
9967.000000;0.679414
9966.000000;0.679739
9965.000000;0.679575
9964.000000;0.679133
9963.000000;0.678726
9962.000000;0.678452
9961.000000;0.678224
9960.000000;0.678006
9959.000000;0.677830
9958.000000;0.677641
9957.000000;0.677374
9956.000000;0.677177
9955.000000;0.677313
9954.000000;0.677740
9953.000000;0.678012
9952.000000;0.677736
9951.000000;0.677024
9950.000000;0.676321
9949.000000;0.675861
9948.000000;0.675451
9947.000000;0.674847
9946.000000;0.674179
9945.000000;0.673890
9944.000000;0.674216
9943.000000;0.674857
9942.000000;0.675261
9941.000000;0.675206
9940.000000;0.674972
9939.000000;0.674898
9938.000000;0.674977
9937.000000;0.674996
9936.000000;0.674914
9935.000000;0.674864
9934.000000;0.674820
9933.000000;0.674548
9932.000000;0.673972
9931.000000;0.673403
9930.000000;0.673264
9929.000000;0.673616
9928.000000;0.674072
9927.000000;0.674141
9926.000000;0.673655
9925.000000;0.672884
9924.000000;0.672271
9923.000000;0.672071
9922.000000;0.672209
9921.000000;0.672492
9920.000000;0.672831
9919.000000;0.673205
9918.000000;0.673487
9917.000000;0.673468
9916.000000;0.673086
9915.000000;0.672526
9914.000000;0.672088
9913.000000;0.671993
9912.000000;0.672306
9911.000000;0.672873
9910.000000;0.673340
9909.000000;0.673374
9908.000000;0.672976
9907.000000;0.672485
9906.000000;0.672217
9905.000000;0.672174
9904.000000;0.672129
9903.000000;0.671886
9902.000000;0.671435
9901.000000;0.670932
9900.000000;0.670611
9899.000000;0.670588
9898.000000;0.670704
9897.000000;0.670658
9896.000000;0.670410
9895.000000;0.670308
9894.000000;0.670673
9893.000000;0.671324
9892.000000;0.671719
9891.000000;0.671596
9890.000000;0.671270
9889.000000;0.671203
9888.000000;0.671415
9887.000000;0.671495
9886.000000;0.671162
9885.000000;0.670656
9884.000000;0.670486
9883.000000;0.670823
9882.000000;0.671255
9881.000000;0.671200
9880.000000;0.670541
9879.000000;0.669768
9878.000000;0.669464
9877.000000;0.669713
9876.000000;0.670044
9875.000000;0.669933
9874.000000;0.669328
9873.000000;0.668688
9872.000000;0.668538
9871.000000;0.668963
9870.000000;0.669503
9869.000000;0.669569
9868.000000;0.669003
9867.000000;0.668209
9866.000000;0.667709
9865.000000;0.667652
9864.000000;0.667806
9863.000000;0.667939
9862.000000;0.668085
9861.000000;0.668411
9860.000000;0.668962
9859.000000;0.669551
9858.000000;0.669879
9857.000000;0.669738
9856.000000;0.669187
9855.000000;0.668524
9854.000000;0.668051
9853.000000;0.667838
9852.000000;0.667774
9851.000000;0.667776
9850.000000;0.667838
9849.000000;0.667881
9848.000000;0.667727
9847.000000;0.667320
9846.000000;0.666844
9845.000000;0.666536
9844.000000;0.666458
9843.000000;0.666517
9842.000000;0.666608
9841.000000;0.666647
9840.000000;0.666545
9839.000000;0.666299
9838.000000;0.666047
9837.000000;0.665925
9836.000000;0.665878
9835.000000;0.665761
9834.000000;0.665577
9833.000000;0.665447
9832.000000;0.665355
9831.000000;0.665130
9830.000000;0.664735
9829.000000;0.664399
9828.000000;0.664322
9827.000000;0.664367
9826.000000;0.664221
9825.000000;0.663848
9824.000000;0.663608
9823.000000;0.663880
9822.000000;0.664627
9821.000000;0.665411
9820.000000;0.665787
9819.000000;0.665633
9818.000000;0.665101
9817.000000;0.664405
9816.000000;0.663732
9815.000000;0.663291
9814.000000;0.663245
9813.000000;0.663535
9812.000000;0.663891
9811.000000;0.664099
9810.000000;0.664157
9809.000000;0.664109
9808.000000;0.663890
9807.000000;0.663490
9806.000000;0.663142
9805.000000;0.663122
9804.000000;0.663382
9803.000000;0.663577
9802.000000;0.663477
9801.000000;0.663198
9800.000000;0.663010
9799.000000;0.663063
9798.000000;0.663328
9797.000000;0.663627
9796.000000;0.663690
9795.000000;0.663337
9794.000000;0.662701
9793.000000;0.662144
9792.000000;0.661887
9791.000000;0.661809
9790.000000;0.661672
9789.000000;0.661433
9788.000000;0.661291
9787.000000;0.661529
9786.000000;0.662303
9785.000000;0.663436
9784.000000;0.664381
9783.000000;0.664572
9782.000000;0.663953
9781.000000;0.663013
9780.000000;0.662252
9779.000000;0.661760
9778.000000;0.661401
9777.000000;0.661168
9776.000000;0.661162
9775.000000;0.661343
9774.000000;0.661520
9773.000000;0.661540
9772.000000;0.661367
9771.000000;0.661053
9770.000000;0.660746
9769.000000;0.660635
9768.000000;0.660749
9767.000000;0.660874
9766.000000;0.660822
9765.000000;0.660672
9764.000000;0.660629
9763.000000;0.660729
9762.000000;0.660864
9761.000000;0.660996
9760.000000;0.661121
9759.000000;0.661096
9758.000000;0.660738
9757.000000;0.660119
9756.000000;0.659548
9755.000000;0.659215
9754.000000;0.659054
9753.000000;0.658954
9752.000000;0.658918
9751.000000;0.658937
9750.000000;0.658893
9749.000000;0.658713
9748.000000;0.658500
9747.000000;0.658403
9746.000000;0.658457
9745.000000;0.658614
9744.000000;0.658840
9743.000000;0.659070
9742.000000;0.659174
9741.000000;0.659077
9740.000000;0.658889
9739.000000;0.658790
9738.000000;0.658800
9737.000000;0.658748
9736.000000;0.658462
9735.000000;0.657975
9734.000000;0.657523
9733.000000;0.657365
9732.000000;0.657581
9731.000000;0.658024
9730.000000;0.658438
9729.000000;0.658644
9728.000000;0.658614
9727.000000;0.658404
9726.000000;0.658057
9725.000000;0.657596
9724.000000;0.657074
9723.000000;0.656600
9722.000000;0.656302
9721.000000;0.656256
9720.000000;0.656430
9719.000000;0.656699
9718.000000;0.656894
9717.000000;0.656876
9716.000000;0.656593
9715.000000;0.656124
9714.000000;0.655649
9713.000000;0.655331
9712.000000;0.655216
9711.000000;0.655262
9710.000000;0.655427
9709.000000;0.655665
9708.000000;0.655884
9707.000000;0.656002
9706.000000;0.656060
9705.000000;0.656157
9704.000000;0.656253
9703.000000;0.656148
9702.000000;0.655719
9701.000000;0.655085
9700.000000;0.654511
9699.000000;0.654225
9698.000000;0.654348
9697.000000;0.654831
9696.000000;0.655372
9695.000000;0.655555
9694.000000;0.655246
9693.000000;0.654764
9692.000000;0.654526
9691.000000;0.654597
9690.000000;0.654732
9689.000000;0.654736
9688.000000;0.654614
9687.000000;0.654404
9686.000000;0.654090
9685.000000;0.653712
9684.000000;0.653390
9683.000000;0.653185
9682.000000;0.653052
9681.000000;0.652942
9680.000000;0.652861
9679.000000;0.652803
9678.000000;0.652734
9677.000000;0.652707
9676.000000;0.652874
9675.000000;0.653327
9674.000000;0.653976
9673.000000;0.654625
9672.000000;0.655111
9671.000000;0.655350
9670.000000;0.655282
9669.000000;0.654863
9668.000000;0.654114
9667.000000;0.653181
9666.000000;0.652338
9665.000000;0.651862
9664.000000;0.651854
9663.000000;0.652183
9662.000000;0.652618
9661.000000;0.652981
9660.000000;0.653146
9659.000000;0.653026
9658.000000;0.652687
9657.000000;0.652404
9656.000000;0.652457
9655.000000;0.652815
9654.000000;0.653148
9653.000000;0.653166
9652.000000;0.652866
9651.000000;0.652421
9650.000000;0.651949
9649.000000;0.651477
9648.000000;0.651074
9647.000000;0.650882
9646.000000;0.650969
9645.000000;0.651194
9644.000000;0.651301
9643.000000;0.651200
9642.000000;0.651069
9641.000000;0.651135
9640.000000;0.651364
9639.000000;0.651496
9638.000000;0.651369
9637.000000;0.651088
9636.000000;0.650822
9635.000000;0.650587
9634.000000;0.650340
9633.000000;0.650178
9632.000000;0.650295
9631.000000;0.650730
9630.000000;0.651268
9629.000000;0.651558
9628.000000;0.651335
9627.000000;0.650622
9626.000000;0.649806
9625.000000;0.649413
9624.000000;0.649663
9623.000000;0.650240
9622.000000;0.650604
9621.000000;0.650490
9620.000000;0.650044
9619.000000;0.649559
9618.000000;0.649233
9617.000000;0.649121
9616.000000;0.649150
9615.000000;0.649134
9614.000000;0.648915
9613.000000;0.648523
9612.000000;0.648128
9611.000000;0.647849
9610.000000;0.647688
9609.000000;0.647626
9608.000000;0.647685
9607.000000;0.647891
9606.000000;0.648246
9605.000000;0.648713
9604.000000;0.649171
9603.000000;0.649439
9602.000000;0.649443
9601.000000;0.649310
9600.000000;0.649182
9599.000000;0.649019
9598.000000;0.648719
9597.000000;0.648367
9596.000000;0.648165
9595.000000;0.648113
9594.000000;0.647969
9593.000000;0.647585
9592.000000;0.647148
9591.000000;0.647018
9590.000000;0.647405
9589.000000;0.648194
9588.000000;0.648989
9587.000000;0.649344
9586.000000;0.649099
9585.000000;0.648531
9584.000000;0.648043
9583.000000;0.647738
9582.000000;0.647428
9581.000000;0.647038
9580.000000;0.646755
9579.000000;0.646718
9578.000000;0.646771
9577.000000;0.646696
9576.000000;0.646533
9575.000000;0.646490
9574.000000;0.646625
9573.000000;0.646772
9572.000000;0.646765
9571.000000;0.646602
9570.000000;0.646386
9569.000000;0.646190
9568.000000;0.645998
9567.000000;0.645751
9566.000000;0.645450
9565.000000;0.645215
9564.000000;0.645187
9563.000000;0.645359
9562.000000;0.645555
9561.000000;0.645620
9560.000000;0.645585
9559.000000;0.645607
9558.000000;0.645774
9557.000000;0.646002
9556.000000;0.646083
9555.000000;0.645858
9554.000000;0.645379
9553.000000;0.644900
9552.000000;0.644659
9551.000000;0.644658
9550.000000;0.644721
9549.000000;0.644730
9548.000000;0.644717
9547.000000;0.644742
9546.000000;0.644812
9545.000000;0.644936
9544.000000;0.645114
9543.000000;0.645231
9542.000000;0.645095
9541.000000;0.644649
9540.000000;0.644079
9539.000000;0.643623
9538.000000;0.643380
9537.000000;0.643341
9536.000000;0.643492
9535.000000;0.643759
9534.000000;0.643952
9533.000000;0.643911
9532.000000;0.643706
9531.000000;0.643571
9530.000000;0.643642
9529.000000;0.643833
9528.000000;0.643951
9527.000000;0.643868
9526.000000;0.643599
9525.000000;0.643276
9524.000000;0.643055
9523.000000;0.642991
9522.000000;0.642975
9521.000000;0.642843
9520.000000;0.642517
9519.000000;0.642055
9518.000000;0.641591
9517.000000;0.641272
9516.000000;0.641211
9515.000000;0.641415
9514.000000;0.641760
9513.000000;0.642078
9512.000000;0.642294
9511.000000;0.642429
9510.000000;0.642492
9509.000000;0.642425
9508.000000;0.642183
9507.000000;0.641832
9506.000000;0.641523
9505.000000;0.641380
9504.000000;0.641436
9503.000000;0.641661
9502.000000;0.642005
9501.000000;0.642393
9500.000000;0.642705
9499.000000;0.642820
9498.000000;0.642716
9497.000000;0.642494
9496.000000;0.642259
9495.000000;0.642025
9494.000000;0.641749
9493.000000;0.641440
9492.000000;0.641167
9491.000000;0.640978
9490.000000;0.640879
9489.000000;0.640881
9488.000000;0.640990
9487.000000;0.641132
9486.000000;0.641154
9485.000000;0.640953
9484.000000;0.640583
9483.000000;0.640201
9482.000000;0.639912
9481.000000;0.639703
9480.000000;0.639504
9479.000000;0.639291
9478.000000;0.639125
9477.000000;0.639094
9476.000000;0.639228
9475.000000;0.639466
9474.000000;0.639704
9473.000000;0.639853
9472.000000;0.639858
9471.000000;0.639708
9470.000000;0.639456
9469.000000;0.639221
9468.000000;0.639118
9467.000000;0.639167
9466.000000;0.639277
9465.000000;0.639290
9464.000000;0.639089
9463.000000;0.638712
9462.000000;0.638360
9461.000000;0.638208
9460.000000;0.638201
9459.000000;0.638132
9458.000000;0.637936
9457.000000;0.637764
9456.000000;0.637726
9455.000000;0.637708
9454.000000;0.637598
9453.000000;0.637533
9452.000000;0.637712
9451.000000;0.638043
9450.000000;0.638220
9449.000000;0.638140
9448.000000;0.638026
9447.000000;0.638081
9446.000000;0.638232
9445.000000;0.638296
9444.000000;0.638198
9443.000000;0.637930
9442.000000;0.637480
9441.000000;0.636962
9440.000000;0.636649
9439.000000;0.636701
9438.000000;0.636944
9437.000000;0.637070
9436.000000;0.637005
9435.000000;0.636908
9434.000000;0.636892
9433.000000;0.636895
9432.000000;0.636835
9431.000000;0.636700
9430.000000;0.636490
9429.000000;0.636197
9428.000000;0.635898
9427.000000;0.635742
9426.000000;0.635790
9425.000000;0.635956
9424.000000;0.636121
9423.000000;0.636235
9422.000000;0.636260
9421.000000;0.636138
9420.000000;0.635884
9419.000000;0.635631
9418.000000;0.635492
9417.000000;0.635443
9416.000000;0.635418
9415.000000;0.635445
9414.000000;0.635574
9413.000000;0.635712
9412.000000;0.635664
9411.000000;0.635379
9410.000000;0.635044
9409.000000;0.634889
9408.000000;0.634966
9407.000000;0.635164
9406.000000;0.635363
9405.000000;0.635483
9404.000000;0.635434
9403.000000;0.635143
9402.000000;0.634667
9401.000000;0.634196
9400.000000;0.633896
9399.000000;0.633772
9398.000000;0.633724
9397.000000;0.633689
9396.000000;0.633677
9395.000000;0.633691
9394.000000;0.633660
9393.000000;0.633502
9392.000000;0.633251
9391.000000;0.633088
9390.000000;0.633197
9389.000000;0.633573
9388.000000;0.633993
9387.000000;0.634204
9386.000000;0.634126
9385.000000;0.633852
9384.000000;0.633491
9383.000000;0.633095
9382.000000;0.632710
9381.000000;0.632418
9380.000000;0.632278
9379.000000;0.632298
9378.000000;0.632460
9377.000000;0.632729
9376.000000;0.633006
9375.000000;0.633162
9374.000000;0.633173
9373.000000;0.633152
9372.000000;0.633199
9371.000000;0.633271
9370.000000;0.633269
9369.000000;0.633190
9368.000000;0.633089
9367.000000;0.632933
9366.000000;0.632616
9365.000000;0.632108
9364.000000;0.631532
9363.000000;0.631076
9362.000000;0.630886
9361.000000;0.631001
9360.000000;0.631294
9359.000000;0.631495
9358.000000;0.631402
9357.000000;0.631107
9356.000000;0.630940
9355.000000;0.631115
9354.000000;0.631505
9353.000000;0.631795
9352.000000;0.631805
9351.000000;0.631603
9350.000000;0.631353
9349.000000;0.631148
9348.000000;0.630998
9347.000000;0.630899
9346.000000;0.630831
9345.000000;0.630720
9344.000000;0.630490
9343.000000;0.630194
9342.000000;0.630051
9341.000000;0.630260
9340.000000;0.630751
9339.000000;0.631198
9338.000000;0.631325
9337.000000;0.631148
9336.000000;0.630875
9335.000000;0.630629
9334.000000;0.630373
9333.000000;0.630046
9332.000000;0.629686
9331.000000;0.629373
9330.000000;0.629159
9329.000000;0.629065
9328.000000;0.629094
9327.000000;0.629210
9326.000000;0.629350
9325.000000;0.629479
9324.000000;0.629603
9323.000000;0.629698
9322.000000;0.629689
9321.000000;0.629528
9320.000000;0.629272
9319.000000;0.629037
9318.000000;0.628880
9317.000000;0.628755
9316.000000;0.628608
9315.000000;0.628461
9314.000000;0.628398
9313.000000;0.628445
9312.000000;0.628531
9311.000000;0.628552
9310.000000;0.628473
9309.000000;0.628343
9308.000000;0.628238
9307.000000;0.628223
9306.000000;0.628323
9305.000000;0.628458
9304.000000;0.628436
9303.000000;0.628127
9302.000000;0.627656
9301.000000;0.627338
9300.000000;0.627344
9299.000000;0.627531
9298.000000;0.627644
9297.000000;0.627614
9296.000000;0.627558
9295.000000;0.627553
9294.000000;0.627530
9293.000000;0.627378
9292.000000;0.627084
9291.000000;0.626754
9290.000000;0.626544
9289.000000;0.626540
9288.000000;0.626661
9287.000000;0.626725
9286.000000;0.626650
9285.000000;0.626553
9284.000000;0.626558
9283.000000;0.626592
9282.000000;0.626490
9281.000000;0.626251
9280.000000;0.626041
9279.000000;0.625957
9278.000000;0.625923
9277.000000;0.625849
9276.000000;0.625767
9275.000000;0.625741
9274.000000;0.625756
9273.000000;0.625741
9272.000000;0.625642
9271.000000;0.625424
9270.000000;0.625110
9269.000000;0.624851
9268.000000;0.624843
9267.000000;0.625082
9266.000000;0.625299
9265.000000;0.625238
9264.000000;0.624954
9263.000000;0.624732
9262.000000;0.624747
9261.000000;0.624924
9260.000000;0.625089
9259.000000;0.625164
9258.000000;0.625154
9257.000000;0.625061
9256.000000;0.624879
9255.000000;0.624671
9254.000000;0.624541
9253.000000;0.624521
9252.000000;0.624512
9251.000000;0.624372
9250.000000;0.624059
9249.000000;0.623663
9248.000000;0.623324
9247.000000;0.623149
9246.000000;0.623198
9245.000000;0.623466
9244.000000;0.623836
9243.000000;0.624106
9242.000000;0.624144
9241.000000;0.623990
9240.000000;0.623786
9239.000000;0.623630
9238.000000;0.623543
9237.000000;0.623518
9236.000000;0.623522
9235.000000;0.623488
9234.000000;0.623376
9233.000000;0.623258
9232.000000;0.623239
9231.000000;0.623323
9230.000000;0.623411
9229.000000;0.623427
9228.000000;0.623359
9227.000000;0.623186
9226.000000;0.622883
9225.000000;0.622505
9224.000000;0.622177
9223.000000;0.621961
9222.000000;0.621816
9221.000000;0.621708
9220.000000;0.621652
9219.000000;0.621609
9218.000000;0.621464
9217.000000;0.621195
9216.000000;0.620977
9215.000000;0.621025
9214.000000;0.621328
9213.000000;0.621648
9212.000000;0.621754
9211.000000;0.621631
9210.000000;0.621451
9209.000000;0.621378
9208.000000;0.621408
9207.000000;0.621391
9206.000000;0.621247
9205.000000;0.621108
9204.000000;0.621181
9203.000000;0.621455
9202.000000;0.621659
9201.000000;0.621581
9200.000000;0.621337
9199.000000;0.621236
9198.000000;0.621426
9197.000000;0.621768
9196.000000;0.622011
9195.000000;0.621993
9194.000000;0.621692
9193.000000;0.621201
9192.000000;0.620686
9191.000000;0.620312
9190.000000;0.620138
9189.000000;0.620098
9188.000000;0.620062
9187.000000;0.619933
9186.000000;0.619721
9185.000000;0.619554
9184.000000;0.619579
9183.000000;0.619788
9182.000000;0.619988
9181.000000;0.620009
9180.000000;0.619900
9179.000000;0.619852
9178.000000;0.619958
9177.000000;0.620143
9176.000000;0.620291
9175.000000;0.620340
9174.000000;0.620235
9173.000000;0.619933
9172.000000;0.619513
9171.000000;0.619175
9170.000000;0.619043
9169.000000;0.619023
9168.000000;0.618948
9167.000000;0.618811
9166.000000;0.618744
9165.000000;0.618798
9164.000000;0.618851
9163.000000;0.618775
9162.000000;0.618596
9161.000000;0.618430
9160.000000;0.618322
9159.000000;0.618229
9158.000000;0.618138
9157.000000;0.618113
9156.000000;0.618189
9155.000000;0.618294
9154.000000;0.618307
9153.000000;0.618178
9152.000000;0.617962
9151.000000;0.617753
9150.000000;0.617626
9149.000000;0.617597
9148.000000;0.617593
9147.000000;0.617471
9146.000000;0.617151
9145.000000;0.616739
9144.000000;0.616475
9143.000000;0.616510
9142.000000;0.616767
9141.000000;0.617037
9140.000000;0.617179
9139.000000;0.617195
9138.000000;0.617151
9137.000000;0.617080
9136.000000;0.616960
9135.000000;0.616746
9134.000000;0.616433
9133.000000;0.616128
9132.000000;0.616035
9131.000000;0.616271
9130.000000;0.616668
9129.000000;0.616833
9128.000000;0.616505
9127.000000;0.615861
9126.000000;0.615390
9125.000000;0.615421
9124.000000;0.615818
9123.000000;0.616142
9122.000000;0.616101
9121.000000;0.615786
9120.000000;0.615496
9119.000000;0.615409
9118.000000;0.615483
9117.000000;0.615600
9116.000000;0.615701
9115.000000;0.615778
9114.000000;0.615816
9113.000000;0.615796
9112.000000;0.615731
9111.000000;0.615649
9110.000000;0.615560
9109.000000;0.615460
9108.000000;0.615356
9107.000000;0.615270
9106.000000;0.615203
9105.000000;0.615115
9104.000000;0.614952
9103.000000;0.614707
9102.000000;0.614447
9101.000000;0.614280
9100.000000;0.614250
9099.000000;0.614285
9098.000000;0.614260
9097.000000;0.614134
9096.000000;0.613979
9095.000000;0.613879
9094.000000;0.613839
9093.000000;0.613817
9092.000000;0.613784
9091.000000;0.613741
9090.000000;0.613708
9089.000000;0.613727
9088.000000;0.613838
9087.000000;0.614018
9086.000000;0.614182
9085.000000;0.614271
9084.000000;0.614279
9083.000000;0.614161
9082.000000;0.613790
9081.000000;0.613129
9080.000000;0.612407
9079.000000;0.611971
9078.000000;0.611946
9077.000000;0.612143
9076.000000;0.612305
9075.000000;0.612351
9074.000000;0.612351
9073.000000;0.612374
9072.000000;0.612440
9071.000000;0.612534
9070.000000;0.612562
9069.000000;0.612367
9068.000000;0.611912
9067.000000;0.611423
9066.000000;0.611228
9065.000000;0.611428
9064.000000;0.611813
9063.000000;0.612109
9062.000000;0.612222
9061.000000;0.612223
9060.000000;0.612182
9059.000000;0.612107
9058.000000;0.611984
9057.000000;0.611822
9056.000000;0.611650
9055.000000;0.611509
9054.000000;0.611443
9053.000000;0.611448
9052.000000;0.611445
9051.000000;0.611334
9050.000000;0.611104
9049.000000;0.610879
9048.000000;0.610809
9047.000000;0.610902
9046.000000;0.610998
9045.000000;0.610929
9044.000000;0.610706
9043.000000;0.610510
9042.000000;0.610476
9041.000000;0.610542
9040.000000;0.610546
9039.000000;0.610410
9038.000000;0.610187
9037.000000;0.609944
9036.000000;0.609703
9035.000000;0.609502
9034.000000;0.609428
9033.000000;0.609534
9032.000000;0.609748
9031.000000;0.609922
9030.000000;0.609975
9029.000000;0.609954
9028.000000;0.609978
9027.000000;0.610107
9026.000000;0.610264
9025.000000;0.610292
9024.000000;0.610096
9023.000000;0.609746
9022.000000;0.609406
9021.000000;0.609196
9020.000000;0.609121
9019.000000;0.609122
9018.000000;0.609120
9017.000000;0.609034
9016.000000;0.608837
9015.000000;0.608625
9014.000000;0.608566
9013.000000;0.608716
9012.000000;0.608943
9011.000000;0.609060
9010.000000;0.609004
9009.000000;0.608843
9008.000000;0.608669
9007.000000;0.608527
9006.000000;0.608431
9005.000000;0.608362
9004.000000;0.608301
9003.000000;0.608276
9002.000000;0.608346
9001.000000;0.608477
9000.000000;0.608495
8999.000000;0.608271
8998.000000;0.607911
8997.000000;0.607667
8996.000000;0.607652
8995.000000;0.607755
8994.000000;0.607827
8993.000000;0.607860
8992.000000;0.607912
8991.000000;0.607969
8990.000000;0.607957
8989.000000;0.607833
8988.000000;0.607609
8987.000000;0.607331
8986.000000;0.607080
8985.000000;0.606948
8984.000000;0.606927
8983.000000;0.606867
8982.000000;0.606629
8981.000000;0.606261
8980.000000;0.605945
8979.000000;0.605788
8978.000000;0.605762
8977.000000;0.605825
8976.000000;0.606007
8975.000000;0.606305
8974.000000;0.606598
8973.000000;0.606730
8972.000000;0.606654
8971.000000;0.606428
8970.000000;0.606125
8969.000000;0.605820
8968.000000;0.605621
8967.000000;0.605607
8966.000000;0.605738
8965.000000;0.605894
8964.000000;0.605993
8963.000000;0.606021
8962.000000;0.605969
8961.000000;0.605831
8960.000000;0.605694
8959.000000;0.605696
8958.000000;0.605845
8957.000000;0.605962
8956.000000;0.605897
8955.000000;0.605709
8954.000000;0.605561
8953.000000;0.605487
8952.000000;0.605405
8951.000000;0.605303
8950.000000;0.605271
8949.000000;0.605325
8948.000000;0.605357
8947.000000;0.605295
8946.000000;0.605206
8945.000000;0.605159
8944.000000;0.605092
8943.000000;0.604892
8942.000000;0.604564
8941.000000;0.604229
8940.000000;0.603993
8939.000000;0.603886
8938.000000;0.603899
8937.000000;0.604009
8936.000000;0.604176
8935.000000;0.604348
8934.000000;0.604476
8933.000000;0.604508
8932.000000;0.604410
8931.000000;0.604220
8930.000000;0.604031
8929.000000;0.603907
8928.000000;0.603830
8927.000000;0.603760
8926.000000;0.603678
8925.000000;0.603550
8924.000000;0.603332
8923.000000;0.603078
8922.000000;0.602951
8921.000000;0.603026
8920.000000;0.603141
8919.000000;0.603069
8918.000000;0.602811
8917.000000;0.602585
8916.000000;0.602527
8915.000000;0.602538
8914.000000;0.602468
8913.000000;0.602335
8912.000000;0.602270
8911.000000;0.602336
8910.000000;0.602482
8909.000000;0.602639
8908.000000;0.602777
8907.000000;0.602868
8906.000000;0.602853
8905.000000;0.602695
8904.000000;0.602443
8903.000000;0.602242
8902.000000;0.602239
8901.000000;0.602444
8900.000000;0.602682
8899.000000;0.602732
8898.000000;0.602522
8897.000000;0.602167
8896.000000;0.601837
8895.000000;0.601623
8894.000000;0.601551
8893.000000;0.601639
8892.000000;0.601851
8891.000000;0.602046
8890.000000;0.602054
8889.000000;0.601852
8888.000000;0.601609
8887.000000;0.601527
8886.000000;0.601627
8885.000000;0.601735
8884.000000;0.601679
8883.000000;0.601475
8882.000000;0.601272
8881.000000;0.601147
8880.000000;0.601013
8879.000000;0.600774
8878.000000;0.600480
8877.000000;0.600289
8876.000000;0.600290
8875.000000;0.600447
8874.000000;0.600667
8873.000000;0.600862
8872.000000;0.600925
8871.000000;0.600768
8870.000000;0.600444
8869.000000;0.600185
8868.000000;0.600203
8867.000000;0.600475
8866.000000;0.600758
8865.000000;0.600834
8864.000000;0.600691
8863.000000;0.600452
8862.000000;0.600215
8861.000000;0.600013
8860.000000;0.599891
8859.000000;0.599897
8858.000000;0.599983
8857.000000;0.599982
8856.000000;0.599765
8855.000000;0.599398
8854.000000;0.599088
8853.000000;0.598985
8852.000000;0.599070
8851.000000;0.599234
8850.000000;0.599388
8849.000000;0.599496
8848.000000;0.599567
8847.000000;0.599650
8846.000000;0.599783
8845.000000;0.599928
8844.000000;0.599979
8843.000000;0.599877
8842.000000;0.599676
8841.000000;0.599486
8840.000000;0.599409
8839.000000;0.599501
8838.000000;0.599720
8837.000000;0.599882
8836.000000;0.599772
8835.000000;0.599371
8834.000000;0.598902
8833.000000;0.598584
8832.000000;0.598437
8831.000000;0.598374
8830.000000;0.598392
8829.000000;0.598524
8828.000000;0.598668
8827.000000;0.598642
8826.000000;0.598434
8825.000000;0.598256
8824.000000;0.598312
8823.000000;0.598574
8822.000000;0.598845
8821.000000;0.598950
8820.000000;0.598836
8819.000000;0.598567
8818.000000;0.598283
8817.000000;0.598102
8816.000000;0.598032
8815.000000;0.597980
8814.000000;0.597882
8813.000000;0.597782
8812.000000;0.597759
8811.000000;0.597803
8810.000000;0.597803
8809.000000;0.597629
8808.000000;0.597256
8807.000000;0.596823
8806.000000;0.596562
8805.000000;0.596627
8804.000000;0.596964
8803.000000;0.597351
8802.000000;0.597570
8801.000000;0.597526
8800.000000;0.597268
8799.000000;0.596953
8798.000000;0.596779
8797.000000;0.596857
8796.000000;0.597123
8795.000000;0.597398
8794.000000;0.597539
8793.000000;0.597516
8792.000000;0.597368
8791.000000;0.597178
8790.000000;0.597053
8789.000000;0.597056
8788.000000;0.597129
8787.000000;0.597133
8786.000000;0.597013
8785.000000;0.596838
8784.000000;0.596701
8783.000000;0.596616
8782.000000;0.596541
8781.000000;0.596435
8780.000000;0.596263
8779.000000;0.596019
8778.000000;0.595776
8777.000000;0.595662
8776.000000;0.595742
8775.000000;0.595946
8774.000000;0.596134
8773.000000;0.596211
8772.000000;0.596181
8771.000000;0.596118
8770.000000;0.596097
8769.000000;0.596112
8768.000000;0.596076
8767.000000;0.595955
8766.000000;0.595856
8765.000000;0.595915
8764.000000;0.596090
8763.000000;0.596207
8762.000000;0.596206
8761.000000;0.596242
8760.000000;0.596447
8759.000000;0.596704
8758.000000;0.596768
8757.000000;0.596548
8756.000000;0.596193
8755.000000;0.595903
8754.000000;0.595757
8753.000000;0.595717
8752.000000;0.595714
8751.000000;0.595714
8750.000000;0.595713
8749.000000;0.595723
8748.000000;0.595751
8747.000000;0.595815
8746.000000;0.595949
8745.000000;0.596155
8744.000000;0.596336
8743.000000;0.596346
8742.000000;0.596143
8741.000000;0.595877
8740.000000;0.595768
8739.000000;0.595906
8738.000000;0.596173
8737.000000;0.596350
8736.000000;0.596290
8735.000000;0.596021
8734.000000;0.595708
8733.000000;0.595491
8732.000000;0.595381
8731.000000;0.595309
8730.000000;0.595258
8729.000000;0.595263
8728.000000;0.595299
8727.000000;0.595273
8726.000000;0.595176
8725.000000;0.595143
8724.000000;0.595279
8723.000000;0.595501
8722.000000;0.595627
8721.000000;0.595579
8720.000000;0.595417
8719.000000;0.595196
8718.000000;0.594928
8717.000000;0.594674
8716.000000;0.594569
8715.000000;0.594693
8714.000000;0.594956
8713.000000;0.595175
8712.000000;0.595219
8711.000000;0.595078
8710.000000;0.594834
8709.000000;0.594601
8708.000000;0.594475
8707.000000;0.594485
8706.000000;0.594575
8705.000000;0.594641
8704.000000;0.594597
8703.000000;0.594414
8702.000000;0.594130
8701.000000;0.593856
8700.000000;0.593735
8699.000000;0.593863
8698.000000;0.594191
8697.000000;0.594539
8696.000000;0.594722
8695.000000;0.594701
8694.000000;0.594593
8693.000000;0.594539
8692.000000;0.594566
8691.000000;0.594581
8690.000000;0.594491
8689.000000;0.594295
8688.000000;0.594089
8687.000000;0.593976
8686.000000;0.593977
8685.000000;0.594009
8684.000000;0.593957
8683.000000;0.593785
8682.000000;0.593567
8681.000000;0.593414
8680.000000;0.593400
8679.000000;0.593521
8678.000000;0.593705
8677.000000;0.593834
8676.000000;0.593819
8675.000000;0.593683
8674.000000;0.593539
8673.000000;0.593453
8672.000000;0.593380
8671.000000;0.593270
8670.000000;0.593169
8669.000000;0.593157
8668.000000;0.593217
8667.000000;0.593260
8666.000000;0.593245
8665.000000;0.593188
8664.000000;0.593079
8663.000000;0.592885
8662.000000;0.592646
8661.000000;0.592476
8660.000000;0.592427
8659.000000;0.592431
8658.000000;0.592398
8657.000000;0.592298
8656.000000;0.592150
8655.000000;0.591991
8654.000000;0.591882
8653.000000;0.591880
8652.000000;0.591949
8651.000000;0.591977
8650.000000;0.591910
8649.000000;0.591814
8648.000000;0.591742
8647.000000;0.591630
8646.000000;0.591393
8645.000000;0.591087
8644.000000;0.590877
8643.000000;0.590849
8642.000000;0.590924
8641.000000;0.590953
8640.000000;0.590867
8639.000000;0.590717
8638.000000;0.590601
8637.000000;0.590562
8636.000000;0.590562
8635.000000;0.590534
8634.000000;0.590447
8633.000000;0.590308
8632.000000;0.590128
8631.000000;0.589923
8630.000000;0.589735
8629.000000;0.589592
8628.000000;0.589452
8627.000000;0.589235
8626.000000;0.588953
8625.000000;0.588733
8624.000000;0.588693
8623.000000;0.588820
8622.000000;0.588987
8621.000000;0.589049
8620.000000;0.588913
8619.000000;0.588582
8618.000000;0.588187
8617.000000;0.587917
8616.000000;0.587864
8615.000000;0.587935
8614.000000;0.587966
8613.000000;0.587891
8612.000000;0.587789
8611.000000;0.587787
8610.000000;0.587947
8609.000000;0.588209
8608.000000;0.588420
8607.000000;0.588426
8606.000000;0.588188
8605.000000;0.587809
8604.000000;0.587435
8603.000000;0.587146
8602.000000;0.586948
8601.000000;0.586823
8600.000000;0.586751
8599.000000;0.586690
8598.000000;0.586600
8597.000000;0.586463
8596.000000;0.586277
8595.000000;0.586054
8594.000000;0.585831
8593.000000;0.585678
8592.000000;0.585633
8591.000000;0.585667
8590.000000;0.585715
8589.000000;0.585728
8588.000000;0.585670
8587.000000;0.585510
8586.000000;0.585247
8585.000000;0.584961
8584.000000;0.584780
8583.000000;0.584783
8582.000000;0.584927
8581.000000;0.585071
8580.000000;0.585063
8579.000000;0.584856
8578.000000;0.584556
8577.000000;0.584348
8576.000000;0.584334
8575.000000;0.584433
8574.000000;0.584448
8573.000000;0.584241
8572.000000;0.583850
8571.000000;0.583446
8570.000000;0.583182
8569.000000;0.583082
8568.000000;0.583072
8567.000000;0.583092
8566.000000;0.583136
8565.000000;0.583169
8564.000000;0.583079
8563.000000;0.582794
8562.000000;0.582409
8561.000000;0.582117
8560.000000;0.582014
8559.000000;0.582036
8558.000000;0.582083
8557.000000;0.582127
8556.000000;0.582147
8555.000000;0.582091
8554.000000;0.581943
8553.000000;0.581786
8552.000000;0.581692
8551.000000;0.581606
8550.000000;0.581414
8549.000000;0.581121
8548.000000;0.580868
8547.000000;0.580763
8546.000000;0.580760
8545.000000;0.580734
8544.000000;0.580632
8543.000000;0.580502
8542.000000;0.580407
8541.000000;0.580348
8540.000000;0.580284
8539.000000;0.580200
8538.000000;0.580126
8537.000000;0.580092
8536.000000;0.580085
8535.000000;0.580074
8534.000000;0.580045
8533.000000;0.580001
8532.000000;0.579925
8531.000000;0.579793
8530.000000;0.579611
8529.000000;0.579407
8528.000000;0.579183
8527.000000;0.578927
8526.000000;0.578676
8525.000000;0.578512
8524.000000;0.578466
8523.000000;0.578482
8522.000000;0.578486
8521.000000;0.578471
8520.000000;0.578468
8519.000000;0.578477
8518.000000;0.578465
8517.000000;0.578412
8516.000000;0.578330
8515.000000;0.578234
8514.000000;0.578142
8513.000000;0.578064
8512.000000;0.577982
8511.000000;0.577835
8510.000000;0.577574
8509.000000;0.577246
8508.000000;0.576998
8507.000000;0.576967
8506.000000;0.577154
8505.000000;0.577399
8504.000000;0.577506
8503.000000;0.577402
8502.000000;0.577176
8501.000000;0.576945
8500.000000;0.576725
8499.000000;0.576475
8498.000000;0.576216
8497.000000;0.576030
8496.000000;0.575931
8495.000000;0.575826
8494.000000;0.575639
8493.000000;0.575416
8492.000000;0.575265
8491.000000;0.575224
8490.000000;0.575223
8489.000000;0.575164
8488.000000;0.574997
8487.000000;0.574772
8486.000000;0.574613
8485.000000;0.574605
8484.000000;0.574694
8483.000000;0.574710
8482.000000;0.574559
8481.000000;0.574327
8480.000000;0.574165
8479.000000;0.574116
8478.000000;0.574105
8477.000000;0.574054
8476.000000;0.573945
8475.000000;0.573796
8474.000000;0.573635
8473.000000;0.573501
8472.000000;0.573409
8471.000000;0.573308
8470.000000;0.573127
8469.000000;0.572888
8468.000000;0.572715
8467.000000;0.572710
8466.000000;0.572854
8465.000000;0.573035
8464.000000;0.573149
8463.000000;0.573159
8462.000000;0.573083
8461.000000;0.572961
8460.000000;0.572823
8459.000000;0.572670
8458.000000;0.572486
8457.000000;0.572273
8456.000000;0.572066
8455.000000;0.571907
8454.000000;0.571808
8453.000000;0.571741
8452.000000;0.571671
8451.000000;0.571583
8450.000000;0.571463
8449.000000;0.571279
8448.000000;0.570998
8447.000000;0.570657
8446.000000;0.570379
8445.000000;0.570299
8444.000000;0.570440
8443.000000;0.570691
8442.000000;0.570898
8441.000000;0.570966
8440.000000;0.570888
8439.000000;0.570728
8438.000000;0.570584
8437.000000;0.570519
8436.000000;0.570505
8435.000000;0.570450
8434.000000;0.570303
8433.000000;0.570114
8432.000000;0.569959
8431.000000;0.569855
8430.000000;0.569766
8429.000000;0.569682
8428.000000;0.569625
8427.000000;0.569589
8426.000000;0.569520
8425.000000;0.569374
8424.000000;0.569179
8423.000000;0.569001
8422.000000;0.568888
8421.000000;0.568833
8420.000000;0.568790
8419.000000;0.568703
8418.000000;0.568541
8417.000000;0.568330
8416.000000;0.568143
8415.000000;0.568049
8414.000000;0.568054
8413.000000;0.568095
8412.000000;0.568110
8411.000000;0.568092
8410.000000;0.568079
8409.000000;0.568092
8408.000000;0.568114
8407.000000;0.568104
8406.000000;0.568033
8405.000000;0.567878
8404.000000;0.567652
8403.000000;0.567423
8402.000000;0.567291
8401.000000;0.567294
8400.000000;0.567360
8399.000000;0.567369
8398.000000;0.567254
8397.000000;0.567035
8396.000000;0.566767
8395.000000;0.566520
8394.000000;0.566382
8393.000000;0.566417
8392.000000;0.566591
8391.000000;0.566781
8390.000000;0.566855
8389.000000;0.566744
8388.000000;0.566449
8387.000000;0.566030
8386.000000;0.565613
8385.000000;0.565340
8384.000000;0.565265
8383.000000;0.565318
8382.000000;0.565368
8381.000000;0.565330
8380.000000;0.565206
8379.000000;0.565043
8378.000000;0.564896
8377.000000;0.564780
8376.000000;0.564677
8375.000000;0.564569
8374.000000;0.564491
8373.000000;0.564515
8372.000000;0.564660
8371.000000;0.564851
8370.000000;0.564984
8369.000000;0.565014
8368.000000;0.564969
8367.000000;0.564884
8366.000000;0.564763
8365.000000;0.564604
8364.000000;0.564420
8363.000000;0.564228
8362.000000;0.564026
8361.000000;0.563800
8360.000000;0.563547
8359.000000;0.563296
8358.000000;0.563091
8357.000000;0.562972
8356.000000;0.562971
8355.000000;0.563099
8354.000000;0.563319
8353.000000;0.563536
8352.000000;0.563649
8351.000000;0.563614
8350.000000;0.563452
8349.000000;0.563199
8348.000000;0.562882
8347.000000;0.562542
8346.000000;0.562231
8345.000000;0.561978
8344.000000;0.561807
8343.000000;0.561771
8342.000000;0.561907
8341.000000;0.562118
8340.000000;0.562174
8339.000000;0.561934
8338.000000;0.561529
8337.000000;0.561245
8336.000000;0.561230
8335.000000;0.561374
8334.000000;0.561482
8333.000000;0.561463
8332.000000;0.561349
8331.000000;0.561204
8330.000000;0.561068
8329.000000;0.560939
8328.000000;0.560791
8327.000000;0.560607
8326.000000;0.560428
8325.000000;0.560334
8324.000000;0.560349
8323.000000;0.560420
8322.000000;0.560481
8321.000000;0.560512
8320.000000;0.560525
8319.000000;0.560530
8318.000000;0.560524
8317.000000;0.560496
8316.000000;0.560409
8315.000000;0.560219
8314.000000;0.559935
8313.000000;0.559639
8312.000000;0.559429
8311.000000;0.559341
8310.000000;0.559328
8309.000000;0.559304
8308.000000;0.559227
8307.000000;0.559137
8306.000000;0.559091
8305.000000;0.559058
8304.000000;0.558911
8303.000000;0.558591
8302.000000;0.558231
8301.000000;0.558039
8300.000000;0.558075
8299.000000;0.558201
8298.000000;0.558266
8297.000000;0.558247
8296.000000;0.558199
8295.000000;0.558149
8294.000000;0.558110
8293.000000;0.558101
8292.000000;0.558105
8291.000000;0.558057
8290.000000;0.557927
8289.000000;0.557776
8288.000000;0.557673
8287.000000;0.557590
8286.000000;0.557465
8285.000000;0.557318
8284.000000;0.557242
8283.000000;0.557286
8282.000000;0.557392
8281.000000;0.557472
8280.000000;0.557475
8279.000000;0.557393
8278.000000;0.557243
8277.000000;0.557062
8276.000000;0.556887
8275.000000;0.556730
8274.000000;0.556584
8273.000000;0.556461
8272.000000;0.556394
8271.000000;0.556395
8270.000000;0.556429
8269.000000;0.556445
8268.000000;0.556413
8267.000000;0.556333
8266.000000;0.556211
8265.000000;0.556046
8264.000000;0.555851
8263.000000;0.555676
8262.000000;0.555589
8261.000000;0.555609
8260.000000;0.555669
8259.000000;0.555675
8258.000000;0.555599
8257.000000;0.555483
8256.000000;0.555370
8255.000000;0.555264
8254.000000;0.555157
8253.000000;0.555050
8252.000000;0.554938
8251.000000;0.554813
8250.000000;0.554697
8249.000000;0.554648
8248.000000;0.554684
8247.000000;0.554735
8246.000000;0.554707
8245.000000;0.554580
8244.000000;0.554426
8243.000000;0.554326
8242.000000;0.554311
8241.000000;0.554345
8240.000000;0.554354
8239.000000;0.554281
8238.000000;0.554130
8237.000000;0.553952
8236.000000;0.553785
8235.000000;0.553621
8234.000000;0.553448
8233.000000;0.553301
8232.000000;0.553228
8231.000000;0.553231
8230.000000;0.553265
8229.000000;0.553289
8228.000000;0.553290
8227.000000;0.553253
8226.000000;0.553143
8225.000000;0.552941
8224.000000;0.552682
8223.000000;0.552452
8222.000000;0.552343
8221.000000;0.552391
8220.000000;0.552549
8219.000000;0.552714
8218.000000;0.552795
8217.000000;0.552754
8216.000000;0.552601
8215.000000;0.552373
8214.000000;0.552139
8213.000000;0.551983
8212.000000;0.551956
8211.000000;0.552035
8210.000000;0.552138
8209.000000;0.552184
8208.000000;0.552132
8207.000000;0.551990
8206.000000;0.551802
8205.000000;0.551627
8204.000000;0.551508
8203.000000;0.551444
8202.000000;0.551405
8201.000000;0.551370
8200.000000;0.551340
8199.000000;0.551316
8198.000000;0.551279
8197.000000;0.551201
8196.000000;0.551077
8195.000000;0.550936
8194.000000;0.550810
8193.000000;0.550716
8192.000000;0.550648
8191.000000;0.550584
8190.000000;0.550496
8189.000000;0.550363
8188.000000;0.550206
8187.000000;0.550087
8186.000000;0.550047
8185.000000;0.550044
8184.000000;0.549997
8183.000000;0.549886
8182.000000;0.549792
8181.000000;0.549803
8180.000000;0.549904
8179.000000;0.549987
8178.000000;0.549955
8177.000000;0.549788
8176.000000;0.549551
8175.000000;0.549340
8174.000000;0.549219
8173.000000;0.549181
8172.000000;0.549163
8171.000000;0.549130
8170.000000;0.549108
8169.000000;0.549124
8168.000000;0.549146
8167.000000;0.549120
8166.000000;0.549045
8165.000000;0.548959
8164.000000;0.548872
8163.000000;0.548769
8162.000000;0.548662
8161.000000;0.548598
8160.000000;0.548598
8159.000000;0.548635
8158.000000;0.548658
8157.000000;0.548609
8156.000000;0.548441
8155.000000;0.548160
8154.000000;0.547863
8153.000000;0.547670
8152.000000;0.547602
8151.000000;0.547572
8150.000000;0.547510
8149.000000;0.547440
8148.000000;0.547414
8147.000000;0.547428
8146.000000;0.547435
8145.000000;0.547403
8144.000000;0.547340
8143.000000;0.547283
8142.000000;0.547265
8141.000000;0.547273
8140.000000;0.547227
8139.000000;0.547049
8138.000000;0.546757
8137.000000;0.546453
8136.000000;0.546214
8135.000000;0.546057
8134.000000;0.545995
8133.000000;0.546054
8132.000000;0.546199
8131.000000;0.546318
8130.000000;0.546355
8129.000000;0.546375
8128.000000;0.546444
8127.000000;0.546507
8126.000000;0.546451
8125.000000;0.546281
8124.000000;0.546109
8123.000000;0.546010
8122.000000;0.545956
8121.000000;0.545905
8120.000000;0.545863
8119.000000;0.545843
8118.000000;0.545828
8117.000000;0.545797
8116.000000;0.545751
8115.000000;0.545676
8114.000000;0.545535
8113.000000;0.545311
8112.000000;0.545052
8111.000000;0.544838
8110.000000;0.544728
8109.000000;0.544735
8108.000000;0.544821
8107.000000;0.544887
8106.000000;0.544835
8105.000000;0.544657
8104.000000;0.544462
8103.000000;0.544365
8102.000000;0.544385
8101.000000;0.544456
8100.000000;0.544506
8099.000000;0.544494
8098.000000;0.544392
8097.000000;0.544207
8096.000000;0.544011
8095.000000;0.543897
8094.000000;0.543878
8093.000000;0.543872
8092.000000;0.543801
8091.000000;0.543700
8090.000000;0.543669
8089.000000;0.543751
8088.000000;0.543886
8087.000000;0.543988
8086.000000;0.544009
8085.000000;0.543949
8084.000000;0.543835
8083.000000;0.543719
8082.000000;0.543661
8081.000000;0.543664
8080.000000;0.543654
8079.000000;0.543554
8078.000000;0.543378
8077.000000;0.543219
8076.000000;0.543139
8075.000000;0.543105
8074.000000;0.543034
8073.000000;0.542886
8072.000000;0.542709
8071.000000;0.542590
8070.000000;0.542579
8069.000000;0.542646
8068.000000;0.542708
8067.000000;0.542707
8066.000000;0.542663
8065.000000;0.542647
8064.000000;0.542701
8063.000000;0.542776
8062.000000;0.542771
8061.000000;0.542617
8060.000000;0.542352
8059.000000;0.542106
8058.000000;0.542000
8057.000000;0.542038
8056.000000;0.542101
8055.000000;0.542057
8054.000000;0.541874
8053.000000;0.541630
8052.000000;0.541424
8051.000000;0.541306
8050.000000;0.541268
8049.000000;0.541278
8048.000000;0.541309
8047.000000;0.541361
8046.000000;0.541453
8045.000000;0.541588
8044.000000;0.541701
8043.000000;0.541693
8042.000000;0.541515
8041.000000;0.541235
8040.000000;0.540981
8039.000000;0.540844
8038.000000;0.540816
8037.000000;0.540821
8036.000000;0.540788
8035.000000;0.540690
8034.000000;0.540532
8033.000000;0.540341
8032.000000;0.540167
8031.000000;0.540087
8030.000000;0.540142
8029.000000;0.540284
8028.000000;0.540395
8027.000000;0.540403
8026.000000;0.540343
8025.000000;0.540298
8024.000000;0.540298
8023.000000;0.540302
8022.000000;0.540255
8021.000000;0.540141
8020.000000;0.539975
8019.000000;0.539806
8018.000000;0.539692
8017.000000;0.539665
8016.000000;0.539697
8015.000000;0.539730
8014.000000;0.539726
8013.000000;0.539677
8012.000000;0.539583
8011.000000;0.539458
8010.000000;0.539341
8009.000000;0.539256
8008.000000;0.539180
8007.000000;0.539072
8006.000000;0.538951
8005.000000;0.538893
8004.000000;0.538933
8003.000000;0.539013
8002.000000;0.539040
8001.000000;0.538971
8000.000000;0.538840
7999.000000;0.538718
7998.000000;0.538652
7997.000000;0.538631
7996.000000;0.538604
7995.000000;0.538543
7994.000000;0.538488
7993.000000;0.538488
7992.000000;0.538515
7991.000000;0.538462
7990.000000;0.538265
7989.000000;0.537983
7988.000000;0.537743
7987.000000;0.537634
7986.000000;0.537666
7985.000000;0.537778
7984.000000;0.537869
7983.000000;0.537850
7982.000000;0.537703
7981.000000;0.537494
7980.000000;0.537310
7979.000000;0.537178
7978.000000;0.537075
7977.000000;0.536994
7976.000000;0.536967
7975.000000;0.537020
7974.000000;0.537127
7973.000000;0.537216
7972.000000;0.537212
7971.000000;0.537100
7970.000000;0.536945
7969.000000;0.536861
7968.000000;0.536910
7967.000000;0.537041
7966.000000;0.537139
7965.000000;0.537123
7964.000000;0.537000
7963.000000;0.536842
7962.000000;0.536714
7961.000000;0.536636
7960.000000;0.536583
7959.000000;0.536513
7958.000000;0.536421
7957.000000;0.536349
7956.000000;0.536333
7955.000000;0.536347
7954.000000;0.536315
7953.000000;0.536201
7952.000000;0.536055
7951.000000;0.535954
7950.000000;0.535912
7949.000000;0.535874
7948.000000;0.535798
7947.000000;0.535695
7946.000000;0.535600
7945.000000;0.535517
7944.000000;0.535428
7943.000000;0.535345
7942.000000;0.535313
7941.000000;0.535352
7940.000000;0.535421
7939.000000;0.535462
7938.000000;0.535455
7937.000000;0.535425
7936.000000;0.535395
7935.000000;0.535352
7934.000000;0.535265
7933.000000;0.535141
7932.000000;0.535029
7931.000000;0.534974
7930.000000;0.534955
7929.000000;0.534897
7928.000000;0.534759
7927.000000;0.534584
7926.000000;0.534453
7925.000000;0.534402
7924.000000;0.534416
7923.000000;0.534472
7922.000000;0.534543
7921.000000;0.534583
7920.000000;0.534545
7919.000000;0.534429
7918.000000;0.534277
7917.000000;0.534127
7916.000000;0.533995
7915.000000;0.533894
7914.000000;0.533835
7913.000000;0.533790
7912.000000;0.533709
7911.000000;0.533595
7910.000000;0.533507
7909.000000;0.533482
7908.000000;0.533504
7907.000000;0.533551
7906.000000;0.533636
7905.000000;0.533744
7904.000000;0.533808
7903.000000;0.533779
7902.000000;0.533684
7901.000000;0.533573
7900.000000;0.533440
7899.000000;0.533265
7898.000000;0.533092
7897.000000;0.533000
7896.000000;0.533004
7895.000000;0.533043
7894.000000;0.533063
7893.000000;0.533067
7892.000000;0.533056
7891.000000;0.533001
7890.000000;0.532870
7889.000000;0.532680
7888.000000;0.532501
7887.000000;0.532427
7886.000000;0.532501
7885.000000;0.532650
7884.000000;0.532729
7883.000000;0.532672
7882.000000;0.532564
7881.000000;0.532525
7880.000000;0.532544
7879.000000;0.532514
7878.000000;0.532395
7877.000000;0.532265
7876.000000;0.532196
7875.000000;0.532174
7874.000000;0.532147
7873.000000;0.532091
7872.000000;0.531994
7871.000000;0.531842
7870.000000;0.531657
7869.000000;0.531499
7868.000000;0.531398
7867.000000;0.531322
7866.000000;0.531236
7865.000000;0.531150
7864.000000;0.531089
7863.000000;0.531058
7862.000000;0.531062
7861.000000;0.531119
7860.000000;0.531213
7859.000000;0.531277
7858.000000;0.531267
7857.000000;0.531213
7856.000000;0.531161
7855.000000;0.531094
7854.000000;0.530970
7853.000000;0.530819
7852.000000;0.530729
7851.000000;0.530738
7850.000000;0.530773
7849.000000;0.530739
7848.000000;0.530619
7847.000000;0.530483
7846.000000;0.530394
7845.000000;0.530350
7844.000000;0.530307
7843.000000;0.530250
7842.000000;0.530199
7841.000000;0.530165
7840.000000;0.530126
7839.000000;0.530067
7838.000000;0.530003
7837.000000;0.529957
7836.000000;0.529934
7835.000000;0.529927
7834.000000;0.529945
7833.000000;0.529985
7832.000000;0.529992
7831.000000;0.529909
7830.000000;0.529748
7829.000000;0.529588
7828.000000;0.529480
7827.000000;0.529405
7826.000000;0.529335
7825.000000;0.529288
7824.000000;0.529289
7823.000000;0.529309
7822.000000;0.529283
7821.000000;0.529186
7820.000000;0.529062
7819.000000;0.528979
7818.000000;0.528955
7817.000000;0.528945
7816.000000;0.528891
7815.000000;0.528784
7814.000000;0.528670
7813.000000;0.528583
7812.000000;0.528506
7811.000000;0.528401
7810.000000;0.528294
7809.000000;0.528256
7808.000000;0.528317
7807.000000;0.528426
7806.000000;0.528500
7805.000000;0.528500
7804.000000;0.528430
7803.000000;0.528313
7802.000000;0.528178
7801.000000;0.528055
7800.000000;0.527953
7799.000000;0.527863
7798.000000;0.527782
7797.000000;0.527723
7796.000000;0.527686
7795.000000;0.527654
7794.000000;0.527617
7793.000000;0.527596
7792.000000;0.527609
7791.000000;0.527640
7790.000000;0.527657
7789.000000;0.527638
7788.000000;0.527580
7787.000000;0.527489
7786.000000;0.527384
7785.000000;0.527290
7784.000000;0.527210
7783.000000;0.527135
7782.000000;0.527072
7781.000000;0.527045
7780.000000;0.527053
7779.000000;0.527066
7778.000000;0.527060
7777.000000;0.527036
7776.000000;0.526990
7775.000000;0.526898
7774.000000;0.526762
7773.000000;0.526629
7772.000000;0.526550
7771.000000;0.526521
7770.000000;0.526510
7769.000000;0.526519
7768.000000;0.526568
7767.000000;0.526649
7766.000000;0.526700
7765.000000;0.526676
7764.000000;0.526582
7763.000000;0.526464
7762.000000;0.526347
7761.000000;0.526225
7760.000000;0.526081
7759.000000;0.525929
7758.000000;0.525812
7757.000000;0.525768
7756.000000;0.525775
7755.000000;0.525766
7754.000000;0.525688
7753.000000;0.525562
7752.000000;0.525463
7751.000000;0.525445
7750.000000;0.525492
7749.000000;0.525524
7748.000000;0.525473
7747.000000;0.525343
7746.000000;0.525202
7745.000000;0.525098
7744.000000;0.525025
7743.000000;0.524965
7742.000000;0.524945
7741.000000;0.525000
7740.000000;0.525092
7739.000000;0.525125
7738.000000;0.525059
7737.000000;0.524957
7736.000000;0.524897
7735.000000;0.524876
7734.000000;0.524841
7733.000000;0.524781
7732.000000;0.524736
7731.000000;0.524726
7730.000000;0.524709
7729.000000;0.524638
7728.000000;0.524514
7727.000000;0.524392
7726.000000;0.524333
7725.000000;0.524360
7724.000000;0.524431
7723.000000;0.524470
7722.000000;0.524432
7721.000000;0.524334
7720.000000;0.524224
7719.000000;0.524136
7718.000000;0.524074
7717.000000;0.524026
7716.000000;0.523979
7715.000000;0.523919
7714.000000;0.523860
7713.000000;0.523846
7712.000000;0.523896
7711.000000;0.523962
7710.000000;0.523957
7709.000000;0.523841
7708.000000;0.523655
7707.000000;0.523471
7706.000000;0.523328
7705.000000;0.523220
7704.000000;0.523120
7703.000000;0.523019
7702.000000;0.522934
7701.000000;0.522892
7700.000000;0.522893
7699.000000;0.522902
7698.000000;0.522882
7697.000000;0.522824
7696.000000;0.522742
7695.000000;0.522657
7694.000000;0.522596
7693.000000;0.522598
7692.000000;0.522667
7691.000000;0.522735
7690.000000;0.522694
7689.000000;0.522513
7688.000000;0.522283
7687.000000;0.522128
7686.000000;0.522085
7685.000000;0.522097
7684.000000;0.522104
7683.000000;0.522110
7682.000000;0.522149
7681.000000;0.522212
7680.000000;0.522237
7679.000000;0.522170
7678.000000;0.522019
7677.000000;0.521856
7676.000000;0.521756
7675.000000;0.521727
7674.000000;0.521709
7673.000000;0.521648
7672.000000;0.521554
7671.000000;0.521479
7670.000000;0.521450
7669.000000;0.521443
7668.000000;0.521432
7667.000000;0.521420
7666.000000;0.521413
7665.000000;0.521384
7664.000000;0.521309
7663.000000;0.521199
7662.000000;0.521085
7661.000000;0.520975
7660.000000;0.520876
7659.000000;0.520824
7658.000000;0.520868
7657.000000;0.520988
7656.000000;0.521086
7655.000000;0.521077
7654.000000;0.520969
7653.000000;0.520840
7652.000000;0.520758
7651.000000;0.520733
7650.000000;0.520738
7649.000000;0.520736
7648.000000;0.520699
7647.000000;0.520638
7646.000000;0.520590
7645.000000;0.520581
7644.000000;0.520584
7643.000000;0.520552
7642.000000;0.520479
7641.000000;0.520412
7640.000000;0.520400
7639.000000;0.520435
7638.000000;0.520451
7637.000000;0.520376
7636.000000;0.520198
7635.000000;0.519976
7634.000000;0.519786
7633.000000;0.519662
7632.000000;0.519598
7631.000000;0.519590
7630.000000;0.519643
7629.000000;0.519739
7628.000000;0.519822
7627.000000;0.519861
7626.000000;0.519867
7625.000000;0.519864
7624.000000;0.519845
7623.000000;0.519793
7622.000000;0.519710
7621.000000;0.519606
7620.000000;0.519484
7619.000000;0.519357
7618.000000;0.519273
7617.000000;0.519253
7616.000000;0.519247
7615.000000;0.519191
7614.000000;0.519102
7613.000000;0.519054
7612.000000;0.519072
7611.000000;0.519096
7610.000000;0.519070
7609.000000;0.519003
7608.000000;0.518936
7607.000000;0.518880
7606.000000;0.518843
7605.000000;0.518850
7604.000000;0.518901
7603.000000;0.518925
7602.000000;0.518841
7601.000000;0.518654
7600.000000;0.518459
7599.000000;0.518333
7598.000000;0.518263
7597.000000;0.518193
7596.000000;0.518119
7595.000000;0.518083
7594.000000;0.518092
7593.000000;0.518086
7592.000000;0.518004
7591.000000;0.517874
7590.000000;0.517794
7589.000000;0.517826
7588.000000;0.517935
7587.000000;0.518040
7586.000000;0.518105
7585.000000;0.518141
7584.000000;0.518152
7583.000000;0.518118
7582.000000;0.518033
7581.000000;0.517923
7580.000000;0.517831
7579.000000;0.517786
7578.000000;0.517805
7577.000000;0.517881
7576.000000;0.517969
7575.000000;0.518009
7574.000000;0.517987
7573.000000;0.517949
7572.000000;0.517937
7571.000000;0.517927
7570.000000;0.517862
7569.000000;0.517719
7568.000000;0.517536
7567.000000;0.517367
7566.000000;0.517252
7565.000000;0.517215
7564.000000;0.517267
7563.000000;0.517384
7562.000000;0.517496
7561.000000;0.517524
7560.000000;0.517434
7559.000000;0.517258
7558.000000;0.517068
7557.000000;0.516922
7556.000000;0.516845
7555.000000;0.516830
7554.000000;0.516855
7553.000000;0.516897
7552.000000;0.516942
7551.000000;0.516982
7550.000000;0.517014
7549.000000;0.517025
7548.000000;0.517003
7547.000000;0.516952
7546.000000;0.516900
7545.000000;0.516868
7544.000000;0.516843
7543.000000;0.516788
7542.000000;0.516695
7541.000000;0.516613
7540.000000;0.516603
7539.000000;0.516680
7538.000000;0.516799
7537.000000;0.516888
7536.000000;0.516900
7535.000000;0.516834
7534.000000;0.516727
7533.000000;0.516625
7532.000000;0.516549
7531.000000;0.516492
7530.000000;0.516448
7529.000000;0.516428
7528.000000;0.516457
7527.000000;0.516526
7526.000000;0.516585
7525.000000;0.516578
7524.000000;0.516498
7523.000000;0.516398
7522.000000;0.516340
7521.000000;0.516345
7520.000000;0.516376
7519.000000;0.516381
7518.000000;0.516340
7517.000000;0.516284
7516.000000;0.516261
7515.000000;0.516291
7514.000000;0.516349
7513.000000;0.516401
7512.000000;0.516431
7511.000000;0.516438
7510.000000;0.516421
7509.000000;0.516384
7508.000000;0.516343
7507.000000;0.516318
7506.000000;0.516297
7505.000000;0.516263
7504.000000;0.516224
7503.000000;0.516209
7502.000000;0.516212
7501.000000;0.516199
7500.000000;0.516159
7499.000000;0.516142
7498.000000;0.516187
7497.000000;0.516272
7496.000000;0.516354
7495.000000;0.516425
7494.000000;0.516501
7493.000000;0.516548
7492.000000;0.516505
7491.000000;0.516356
7490.000000;0.516169
7489.000000;0.516026
7488.000000;0.515966
7487.000000;0.515985
7486.000000;0.516055
7485.000000;0.516131
7484.000000;0.516168
7483.000000;0.516163
7482.000000;0.516145
7481.000000;0.516138
7480.000000;0.516140
7479.000000;0.516154
7478.000000;0.516194
7477.000000;0.516249
7476.000000;0.516282
7475.000000;0.516272
7474.000000;0.516238
7473.000000;0.516208
7472.000000;0.516186
7471.000000;0.516174
7470.000000;0.516199
7469.000000;0.516281
7468.000000;0.516395
7467.000000;0.516485
7466.000000;0.516505
7465.000000;0.516446
7464.000000;0.516342
7463.000000;0.516256
7462.000000;0.516231
7461.000000;0.516241
7460.000000;0.516225
7459.000000;0.516171
7458.000000;0.516142
7457.000000;0.516191
7456.000000;0.516290
7455.000000;0.516365
7454.000000;0.516380
7453.000000;0.516352
7452.000000;0.516321
7451.000000;0.516311
7450.000000;0.516331
7449.000000;0.516352
7448.000000;0.516326
7447.000000;0.516247
7446.000000;0.516173
7445.000000;0.516164
7444.000000;0.516213
7443.000000;0.516274
7442.000000;0.516344
7441.000000;0.516458
7440.000000;0.516619
7439.000000;0.516764
7438.000000;0.516824
7437.000000;0.516798
7436.000000;0.516745
7435.000000;0.516731
7434.000000;0.516779
7433.000000;0.516863
7432.000000;0.516927
7431.000000;0.516924
7430.000000;0.516839
7429.000000;0.516707
7428.000000;0.516606
7427.000000;0.516607
7426.000000;0.516715
7425.000000;0.516846
7424.000000;0.516903
7423.000000;0.516873
7422.000000;0.516824
7421.000000;0.516807
7420.000000;0.516806
7419.000000;0.516801
7418.000000;0.516822
7417.000000;0.516908
7416.000000;0.517038
7415.000000;0.517148
7414.000000;0.517216
7413.000000;0.517266
7412.000000;0.517312
7411.000000;0.517329
7410.000000;0.517294
7409.000000;0.517229
7408.000000;0.517178
7407.000000;0.517171
7406.000000;0.517198
7405.000000;0.517228
7404.000000;0.517234
7403.000000;0.517221
7402.000000;0.517224
7401.000000;0.517261
7400.000000;0.517313
7399.000000;0.517352
7398.000000;0.517383
7397.000000;0.517437
7396.000000;0.517516
7395.000000;0.517589
7394.000000;0.517633
7393.000000;0.517666
7392.000000;0.517722
7391.000000;0.517812
7390.000000;0.517900
7389.000000;0.517938
7388.000000;0.517915
7387.000000;0.517866
7386.000000;0.517844
7385.000000;0.517876
7384.000000;0.517951
7383.000000;0.518039
7382.000000;0.518098
7381.000000;0.518106
7380.000000;0.518091
7379.000000;0.518110
7378.000000;0.518180
7377.000000;0.518248
7376.000000;0.518253
7375.000000;0.518213
7374.000000;0.518195
7373.000000;0.518237
7372.000000;0.518325
7371.000000;0.518446
7370.000000;0.518589
7369.000000;0.518716
7368.000000;0.518778
7367.000000;0.518775
7366.000000;0.518768
7365.000000;0.518793
7364.000000;0.518830
7363.000000;0.518852
7362.000000;0.518863
7361.000000;0.518873
7360.000000;0.518884
7359.000000;0.518905
7358.000000;0.518943
7357.000000;0.518994
7356.000000;0.519050
7355.000000;0.519116
7354.000000;0.519187
7353.000000;0.519228
7352.000000;0.519214
7351.000000;0.519190
7350.000000;0.519230
7349.000000;0.519336
7348.000000;0.519426
7347.000000;0.519443
7346.000000;0.519422
7345.000000;0.519440
7344.000000;0.519544
7343.000000;0.519717
7342.000000;0.519878
7341.000000;0.519919
7340.000000;0.519823
7339.000000;0.519742
7338.000000;0.519861
7337.000000;0.520171
7336.000000;0.520478
7335.000000;0.520625
7334.000000;0.520634
7333.000000;0.520612
7332.000000;0.520625
7331.000000;0.520681
7330.000000;0.520779
7329.000000;0.520900
7328.000000;0.521001
7327.000000;0.521069
7326.000000;0.521136
7325.000000;0.521218
7324.000000;0.521305
7323.000000;0.521421
7322.000000;0.521614
7321.000000;0.521849
7320.000000;0.521992
7319.000000;0.521986
7318.000000;0.521937
7317.000000;0.521973
7316.000000;0.522078
7315.000000;0.522155
7314.000000;0.522192
7313.000000;0.522249
7312.000000;0.522359
7311.000000;0.522520
7310.000000;0.522745
7309.000000;0.523011
7308.000000;0.523216
7307.000000;0.523289
7306.000000;0.523309
7305.000000;0.523403
7304.000000;0.523555
7303.000000;0.523633
7302.000000;0.523599
7301.000000;0.523567
7300.000000;0.523641
7299.000000;0.523811
7298.000000;0.524038
7297.000000;0.524305
7296.000000;0.524582
7295.000000;0.524820
7294.000000;0.525021
7293.000000;0.525245
7292.000000;0.525504
7291.000000;0.525718
7290.000000;0.525825
7289.000000;0.525873
7288.000000;0.525956
7287.000000;0.526122
7286.000000;0.526364
7285.000000;0.526661
7284.000000;0.526979
7283.000000;0.527264
7282.000000;0.527486
7281.000000;0.527654
7280.000000;0.527783
7279.000000;0.527869
7278.000000;0.527927
7277.000000;0.528007
7276.000000;0.528158
7275.000000;0.528386
7274.000000;0.528660
7273.000000;0.528939
7272.000000;0.529196
7271.000000;0.529436
7270.000000;0.529692
7269.000000;0.529984
7268.000000;0.530281
7267.000000;0.530541
7266.000000;0.530769
7265.000000;0.530978
7264.000000;0.531145
7263.000000;0.531265
7262.000000;0.531421
7261.000000;0.531725
7260.000000;0.532170
7259.000000;0.532624
7258.000000;0.532981
7257.000000;0.533240
7256.000000;0.533435
7255.000000;0.533561
7254.000000;0.533636
7253.000000;0.533747
7252.000000;0.533978
7251.000000;0.534318
7250.000000;0.534685
7249.000000;0.535007
7248.000000;0.535287
7247.000000;0.535585
7246.000000;0.535961
7245.000000;0.536419
7244.000000;0.536909
7243.000000;0.537410
7242.000000;0.537964
7241.000000;0.538586
7240.000000;0.539169
7239.000000;0.539563
7238.000000;0.539759
7237.000000;0.539903
7236.000000;0.540127
7235.000000;0.540433
7234.000000;0.540771
7233.000000;0.541148
7232.000000;0.541592
7231.000000;0.542091
7230.000000;0.542593
7229.000000;0.543047
7228.000000;0.543418
7227.000000;0.543698
7226.000000;0.543936
7225.000000;0.544216
7224.000000;0.544576
7223.000000;0.544984
7222.000000;0.545412
7221.000000;0.545873
7220.000000;0.546388
7219.000000;0.546931
7218.000000;0.547461
7217.000000;0.547960
7216.000000;0.548425
7215.000000;0.548848
7214.000000;0.549244
7213.000000;0.549638
7212.000000;0.550029
7211.000000;0.550414
7210.000000;0.550835
7209.000000;0.551340
7208.000000;0.551891
7207.000000;0.552391
7206.000000;0.552815
7205.000000;0.553260
7204.000000;0.553828
7203.000000;0.554522
7202.000000;0.555292
7201.000000;0.556081
7200.000000;0.556806
7199.000000;0.557373
7198.000000;0.557787
7197.000000;0.558172
7196.000000;0.558626
7195.000000;0.559136
7194.000000;0.559657
7193.000000;0.560208
7192.000000;0.560806
7191.000000;0.561400
7190.000000;0.561934
7189.000000;0.562423
7188.000000;0.562906
7187.000000;0.563369
7186.000000;0.563803
7185.000000;0.564247
7184.000000;0.564727
7183.000000;0.565221
7182.000000;0.565729
7181.000000;0.566325
7180.000000;0.567041
7179.000000;0.567792
7178.000000;0.568480
7177.000000;0.569123
7176.000000;0.569782
7175.000000;0.570450
7174.000000;0.571100
7173.000000;0.571786
7172.000000;0.572557
7171.000000;0.573329
7170.000000;0.573971
7169.000000;0.574491
7168.000000;0.575030
7167.000000;0.575680
7166.000000;0.576421
7165.000000;0.577199
7164.000000;0.577968
7163.000000;0.578648
7162.000000;0.579181
7161.000000;0.579643
7160.000000;0.580218
7159.000000;0.580985
7158.000000;0.581805
7157.000000;0.582481
7156.000000;0.583003
7155.000000;0.583586
7154.000000;0.584461
7153.000000;0.585630
7152.000000;0.586822
7151.000000;0.587715
7150.000000;0.588224
7149.000000;0.588546
7148.000000;0.588930
7147.000000;0.589444
7146.000000;0.589977
7145.000000;0.590422
7144.000000;0.590829
7143.000000;0.591356
7142.000000;0.592074
7141.000000;0.592824
7140.000000;0.593353
7139.000000;0.593622
7138.000000;0.593888
7137.000000;0.594366
7136.000000;0.594936
7135.000000;0.595354
7134.000000;0.595660
7133.000000;0.596126
7132.000000;0.596796
7131.000000;0.597377
7130.000000;0.597659
7129.000000;0.597836
7128.000000;0.598246
7127.000000;0.598967
7126.000000;0.599783
7125.000000;0.600422
7124.000000;0.600720
7123.000000;0.600717
7122.000000;0.600690
7121.000000;0.600945
7120.000000;0.601425
7119.000000;0.601722
7118.000000;0.601624
7117.000000;0.601507
7116.000000;0.601914
7115.000000;0.602838
7114.000000;0.603706
7113.000000;0.604029
7112.000000;0.603828
7111.000000;0.603466
7110.000000;0.603251
7109.000000;0.603238
7108.000000;0.603276
7107.000000;0.603162
7106.000000;0.602828
7105.000000;0.602406
7104.000000;0.602076
7103.000000;0.601882
7102.000000;0.601733
7101.000000;0.601534
7100.000000;0.601274
7099.000000;0.601013
7098.000000;0.600828
7097.000000;0.600722
7096.000000;0.600546
7095.000000;0.600062
7094.000000;0.599123
7093.000000;0.597798
7092.000000;0.596318
7091.000000;0.594977
7090.000000;0.594007
7089.000000;0.593438
7088.000000;0.593103
7087.000000;0.592856
7086.000000;0.592732
7085.000000;0.592732
7084.000000;0.592582
7083.000000;0.591923
7082.000000;0.590715
7081.000000;0.589236
7080.000000;0.587745
7079.000000;0.586401
7078.000000;0.585409
7077.000000;0.584895
7076.000000;0.584601
7075.000000;0.584052
7074.000000;0.583085
7073.000000;0.581913
7072.000000;0.580631
7071.000000;0.579050
7070.000000;0.577148
7069.000000;0.575284
7068.000000;0.573763
7067.000000;0.572512
7066.000000;0.571361
7065.000000;0.570308
7064.000000;0.569304
7063.000000;0.568093
7062.000000;0.566517
7061.000000;0.564763
7060.000000;0.563075
7059.000000;0.561485
7058.000000;0.559983
7057.000000;0.558674
7056.000000;0.557491
7055.000000;0.556017
7054.000000;0.553918
7053.000000;0.551463
7052.000000;0.549343
7051.000000;0.547992
7050.000000;0.547203
7049.000000;0.546321
7048.000000;0.544757
7047.000000;0.542523
7046.000000;0.540331
7045.000000;0.538874
7044.000000;0.537932
7043.000000;0.536461
7042.000000;0.533749
7041.000000;0.530243
7040.000000;0.527010
7039.000000;0.524629
7038.000000;0.522793
7037.000000;0.520808
7036.000000;0.518286
7035.000000;0.515446
7034.000000;0.512801
7033.000000;0.510484
7032.000000;0.508011
7031.000000;0.504942
7030.000000;0.501675
7029.000000;0.499133
7028.000000;0.497645
7027.000000;0.496559
7026.000000;0.495085
7025.000000;0.493075
7024.000000;0.490799
7023.000000;0.488448
7022.000000;0.486213
7021.000000;0.484420
7020.000000;0.483156
7019.000000;0.481946
7018.000000;0.480185
7017.000000;0.477801
7016.000000;0.475202
7015.000000;0.472683
7014.000000;0.470097
7013.000000;0.467092
7012.000000;0.463545
7011.000000;0.459807
7010.000000;0.456528
7009.000000;0.454082
7008.000000;0.452154
7007.000000;0.450080
7006.000000;0.447628
7005.000000;0.445193
7004.000000;0.443165
7003.000000;0.441370
7002.000000;0.439242
7001.000000;0.436326
7000.000000;0.432561
6999.000000;0.428368
6998.000000;0.424574
6997.000000;0.421904
6996.000000;0.420317
6995.000000;0.418977
6994.000000;0.417011
6993.000000;0.414217
6992.000000;0.411043
6991.000000;0.408090
6990.000000;0.405684
6989.000000;0.403720
6988.000000;0.401821
6987.000000;0.399727
6986.000000;0.397430
6985.000000;0.394857
6984.000000;0.391687
6983.000000;0.387799
6982.000000;0.383709
6981.000000;0.380121
6980.000000;0.377168
6979.000000;0.374500
6978.000000;0.372025
6977.000000;0.369984
6976.000000;0.368320
6975.000000;0.366538
6974.000000;0.364315
6973.000000;0.361769
6972.000000;0.359007
6971.000000;0.355884
6970.000000;0.352449
6969.000000;0.349195
6968.000000;0.346549
6967.000000;0.344381
6966.000000;0.342227
6965.000000;0.339807
6964.000000;0.337166
6963.000000;0.334552
6962.000000;0.332257
6961.000000;0.330368
6960.000000;0.328532
6959.000000;0.326170
6958.000000;0.323057
6957.000000;0.319593
6956.000000;0.316432
6955.000000;0.313961
6954.000000;0.312123
6953.000000;0.310554
6952.000000;0.308859
6951.000000;0.306889
6950.000000;0.304770
6949.000000;0.302641
6948.000000;0.300422
6947.000000;0.297942
6946.000000;0.295157
6945.000000;0.292098
6944.000000;0.288786
6943.000000;0.285411
6942.000000;0.282408
6941.000000;0.280084
6940.000000;0.278297
6939.000000;0.276696
6938.000000;0.275126
6937.000000;0.273587
6936.000000;0.271995
6935.000000;0.270179
6934.000000;0.267997
6933.000000;0.265346
6932.000000;0.262288
6931.000000;0.259238
6930.000000;0.256695
6929.000000;0.254660
6928.000000;0.252720
6927.000000;0.250776
6926.000000;0.249109
6925.000000;0.247561
6924.000000;0.245427
6923.000000;0.242600
6922.000000;0.240033
6921.000000;0.238376
6920.000000;0.236852
6919.000000;0.234325
6918.000000;0.231030
6917.000000;0.228327
6916.000000;0.226965
6915.000000;0.226452
6914.000000;0.225993
6913.000000;0.225197
6912.000000;0.223921
6911.000000;0.222243
6910.000000;0.220677
6909.000000;0.219711
6908.000000;0.218990
6907.000000;0.217495
6906.000000;0.214718
6905.000000;0.211302
6904.000000;0.208467
6903.000000;0.207080
6902.000000;0.207093
6901.000000;0.207461
6900.000000;0.206763
6899.000000;0.204379
6898.000000;0.201005
6897.000000;0.197745
6896.000000;0.195022
6895.000000;0.192791
6894.000000;0.191347
6893.000000;0.191106
6892.000000;0.191692
6891.000000;0.191995
6890.000000;0.191210
6889.000000;0.189354
6888.000000;0.186873
6887.000000;0.184336
6886.000000;0.182511
6885.000000;0.182047
6884.000000;0.182796
6883.000000;0.183769
6882.000000;0.183903
6881.000000;0.182773
6880.000000;0.180702
6879.000000;0.178452
6878.000000;0.176716
6877.000000;0.175640
6876.000000;0.174904
6875.000000;0.174359
6874.000000;0.174255
6873.000000;0.174623
6872.000000;0.174849
6871.000000;0.174249
6870.000000;0.172758
6869.000000;0.170722
6868.000000;0.168452
6867.000000;0.166428
6866.000000;0.165406
6865.000000;0.165617
6864.000000;0.166181
6863.000000;0.166013
6862.000000;0.165080
6861.000000;0.164201
6860.000000;0.163852
6859.000000;0.163785
6858.000000;0.163603
6857.000000;0.163107
6856.000000;0.162201
6855.000000;0.161031
6854.000000;0.160047
6853.000000;0.159464
6852.000000;0.158847
6851.000000;0.157768
6850.000000;0.156640
6849.000000;0.156318
6848.000000;0.156995
6847.000000;0.158080
6846.000000;0.159001
6845.000000;0.159519
6844.000000;0.159392
6843.000000;0.158456
6842.000000;0.157126
6841.000000;0.156259
6840.000000;0.156262
6839.000000;0.156653
6838.000000;0.156619
6837.000000;0.155802
6836.000000;0.154618
6835.000000;0.153986
6834.000000;0.154514
6833.000000;0.155745
6832.000000;0.156531
6831.000000;0.156416
6830.000000;0.156193
6829.000000;0.156696
6828.000000;0.157548
6827.000000;0.157733
6826.000000;0.157053
6825.000000;0.156258
6824.000000;0.155928
6823.000000;0.155953
6822.000000;0.156035
6821.000000;0.156109
6820.000000;0.156256
6819.000000;0.156670
6818.000000;0.157614
6817.000000;0.159027
6816.000000;0.160319
6815.000000;0.161003
6814.000000;0.161322
6813.000000;0.161759
6812.000000;0.162209
6811.000000;0.162256
6810.000000;0.162098
6809.000000;0.162452
6808.000000;0.163490
6807.000000;0.164500
6806.000000;0.164783
6805.000000;0.164428
6804.000000;0.164089
6803.000000;0.164325
6802.000000;0.165218
6801.000000;0.166304
6800.000000;0.166921
6799.000000;0.166915
6798.000000;0.166893
6797.000000;0.167469
6796.000000;0.168452
6795.000000;0.169193
6794.000000;0.169523
6793.000000;0.169823
6792.000000;0.170350
6791.000000;0.171071
6790.000000;0.172101
6789.000000;0.173618
6788.000000;0.175237
6787.000000;0.176086
6786.000000;0.175823
6785.000000;0.175165
6784.000000;0.175132
6783.000000;0.176001
6782.000000;0.177204
6781.000000;0.178023
6780.000000;0.178220
6779.000000;0.178125
6778.000000;0.178270
6777.000000;0.178876
6776.000000;0.179671
6775.000000;0.180260
6774.000000;0.180585
6773.000000;0.180847
6772.000000;0.181134
6771.000000;0.181371
6770.000000;0.181599
6769.000000;0.182048
6768.000000;0.182917
6767.000000;0.184200
6766.000000;0.185658
6765.000000;0.186863
6764.000000;0.187461
6763.000000;0.187629
6762.000000;0.188062
6761.000000;0.189227
6760.000000;0.190763
6759.000000;0.191905
6758.000000;0.192350
6757.000000;0.192409
6756.000000;0.192436
6755.000000;0.192553
6754.000000;0.192885
6753.000000;0.193634
6752.000000;0.194783
6751.000000;0.196005
6750.000000;0.196959
6749.000000;0.197525
6748.000000;0.197780
6747.000000;0.197954
6746.000000;0.198375
6745.000000;0.199190
6744.000000;0.200153
6743.000000;0.200898
6742.000000;0.201360
6741.000000;0.201742
6740.000000;0.202144
6739.000000;0.202539
6738.000000;0.203055
6737.000000;0.203928
6736.000000;0.205103
6735.000000;0.206166
6734.000000;0.206798
6733.000000;0.207096
6732.000000;0.207389
6731.000000;0.207928
6730.000000;0.208805
6729.000000;0.209965
6728.000000;0.211206
6727.000000;0.212289
6726.000000;0.213121
6725.000000;0.213789
6724.000000;0.214401
6723.000000;0.214995
6722.000000;0.215568
6721.000000;0.216085
6720.000000;0.216493
6719.000000;0.216795
6718.000000;0.217088
6717.000000;0.217428
6716.000000;0.217796
6715.000000;0.218286
6714.000000;0.219162
6713.000000;0.220505
6712.000000;0.221922
6711.000000;0.222892
6710.000000;0.223334
6709.000000;0.223635
6708.000000;0.224118
6707.000000;0.224750
6706.000000;0.225359
6705.000000;0.225888
6704.000000;0.226401
6703.000000;0.226988
6702.000000;0.227715
6701.000000;0.228554
6700.000000;0.229329
6699.000000;0.229892
6698.000000;0.230312
6697.000000;0.230775
6696.000000;0.231329
6695.000000;0.231894
6694.000000;0.232451
6693.000000;0.233060
6692.000000;0.233713
6691.000000;0.234358
6690.000000;0.235022
6689.000000;0.235731
6688.000000;0.236363
6687.000000;0.236806
6686.000000;0.237207
6685.000000;0.237831
6684.000000;0.238663
6683.000000;0.239394
6682.000000;0.239851
6681.000000;0.240214
6680.000000;0.240762
6679.000000;0.241590
6678.000000;0.242624
6677.000000;0.243716
6676.000000;0.244635
6675.000000;0.245185
6674.000000;0.245444
6673.000000;0.245734
6672.000000;0.246262
6671.000000;0.246906
6670.000000;0.247451
6669.000000;0.247875
6668.000000;0.248318
6667.000000;0.248884
6666.000000;0.249591
6665.000000;0.250403
6664.000000;0.251198
6663.000000;0.251789
6662.000000;0.252097
6661.000000;0.252289
6660.000000;0.252648
6659.000000;0.253313
6658.000000;0.254166
6657.000000;0.254939
6656.000000;0.255433
6655.000000;0.255695
6654.000000;0.255988
6653.000000;0.256562
6652.000000;0.257412
6651.000000;0.258310
6650.000000;0.259047
6649.000000;0.259595
6648.000000;0.260048
6647.000000;0.260524
6646.000000;0.261113
6645.000000;0.261824
6644.000000;0.262555
6643.000000;0.263176
6642.000000;0.263663
6641.000000;0.264093
6640.000000;0.264524
6639.000000;0.264969
6638.000000;0.265474
6637.000000;0.266092
6636.000000;0.266777
6635.000000;0.267398
6634.000000;0.267918
6633.000000;0.268436
6632.000000;0.269021
6631.000000;0.269603
6630.000000;0.270105
6629.000000;0.270567
6628.000000;0.271085
6627.000000;0.271660
6626.000000;0.272197
6625.000000;0.272625
6624.000000;0.272973
6623.000000;0.273327
6622.000000;0.273773
6621.000000;0.274353
6620.000000;0.275050
6619.000000;0.275801
6618.000000;0.276543
6617.000000;0.277217
6616.000000;0.277753
6615.000000;0.278109
6614.000000;0.278340
6613.000000;0.278582
6612.000000;0.278944
6611.000000;0.279431
6610.000000;0.279984
6609.000000;0.280570
6608.000000;0.281196
6607.000000;0.281866
6606.000000;0.282533
6605.000000;0.283116
6604.000000;0.283573
6603.000000;0.283946
6602.000000;0.284321
6601.000000;0.284730
6600.000000;0.285124
6599.000000;0.285457
6598.000000;0.285765
6597.000000;0.286129
6596.000000;0.286595
6595.000000;0.287149
6594.000000;0.287732
6593.000000;0.288262
6592.000000;0.288674
6591.000000;0.288988
6590.000000;0.289311
6589.000000;0.289727
6588.000000;0.290227
6587.000000;0.290752
6586.000000;0.291274
6585.000000;0.291788
6584.000000;0.292287
6583.000000;0.292785
6582.000000;0.293320
6581.000000;0.293886
6580.000000;0.294401
6579.000000;0.294824
6578.000000;0.295238
6577.000000;0.295747
6576.000000;0.296341
6575.000000;0.296919
6574.000000;0.297416
6573.000000;0.297831
6572.000000;0.298175
6571.000000;0.298486
6570.000000;0.298863
6569.000000;0.299370
6568.000000;0.299927
6567.000000;0.300388
6566.000000;0.300725
6565.000000;0.301060
6564.000000;0.301482
6563.000000;0.301955
6562.000000;0.302409
6561.000000;0.302858
6560.000000;0.303374
6559.000000;0.303977
6558.000000;0.304601
6557.000000;0.305131
6556.000000;0.305498
6555.000000;0.305753
6554.000000;0.306046
6553.000000;0.306498
6552.000000;0.307084
6551.000000;0.307674
6550.000000;0.308159
6549.000000;0.308503
6548.000000;0.308732
6547.000000;0.308922
6546.000000;0.309171
6545.000000;0.309529
6544.000000;0.309941
6543.000000;0.310332
6542.000000;0.310707
6541.000000;0.311122
6540.000000;0.311568
6539.000000;0.311979
6538.000000;0.312343
6537.000000;0.312725
6536.000000;0.313162
6535.000000;0.313607
6534.000000;0.314009
6533.000000;0.314378
6532.000000;0.314757
6531.000000;0.315169
6530.000000;0.315602
6529.000000;0.316030
6528.000000;0.316426
6527.000000;0.316795
6526.000000;0.317183
6525.000000;0.317622
6524.000000;0.318064
6523.000000;0.318418
6522.000000;0.318665
6521.000000;0.318887
6520.000000;0.319187
6519.000000;0.319599
6518.000000;0.320077
6517.000000;0.320544
6516.000000;0.320933
6515.000000;0.321247
6514.000000;0.321555
6513.000000;0.321921
6512.000000;0.322328
6511.000000;0.322713
6510.000000;0.323050
6509.000000;0.323367
6508.000000;0.323684
6507.000000;0.323995
6506.000000;0.324305
6505.000000;0.324639
6504.000000;0.325011
6503.000000;0.325412
6502.000000;0.325816
6501.000000;0.326190
6500.000000;0.326508
6499.000000;0.326798
6498.000000;0.327144
6497.000000;0.327588
6496.000000;0.328047
6495.000000;0.328395
6494.000000;0.328611
6493.000000;0.328809
6492.000000;0.329108
6491.000000;0.329530
6490.000000;0.330008
6489.000000;0.330450
6488.000000;0.330796
6487.000000;0.331061
6486.000000;0.331326
6485.000000;0.331638
6484.000000;0.331959
6483.000000;0.332228
6482.000000;0.332470
6481.000000;0.332756
6480.000000;0.333089
6479.000000;0.333407
6478.000000;0.333696
6477.000000;0.334009
6476.000000;0.334367
6475.000000;0.334711
6474.000000;0.334993
6473.000000;0.335251
6472.000000;0.335547
6471.000000;0.335887
6470.000000;0.336224
6469.000000;0.336524
6468.000000;0.336781
6467.000000;0.337020
6466.000000;0.337283
6465.000000;0.337600
6464.000000;0.337949
6463.000000;0.338277
6462.000000;0.338569
6461.000000;0.338866
6460.000000;0.339194
6459.000000;0.339514
6458.000000;0.339775
6457.000000;0.339987
6456.000000;0.340212
6455.000000;0.340489
6454.000000;0.340802
6453.000000;0.341101
6452.000000;0.341373
6451.000000;0.341657
6450.000000;0.342003
6449.000000;0.342389
6448.000000;0.342723
6447.000000;0.342943
6446.000000;0.343087
6445.000000;0.343245
6444.000000;0.343457
6443.000000;0.343702
6442.000000;0.343959
6441.000000;0.344234
6440.000000;0.344521
6439.000000;0.344801
6438.000000;0.345070
6437.000000;0.345338
6436.000000;0.345597
6435.000000;0.345830
6434.000000;0.346046
6433.000000;0.346268
6432.000000;0.346483
6431.000000;0.346666
6430.000000;0.346844
6429.000000;0.347070
6428.000000;0.347355
6427.000000;0.347646
6426.000000;0.347909
6425.000000;0.348159
6424.000000;0.348413
6423.000000;0.348643
6422.000000;0.348833
6421.000000;0.349009
6420.000000;0.349215
6419.000000;0.349462
6418.000000;0.349737
6417.000000;0.350020
6416.000000;0.350287
6415.000000;0.350521
6414.000000;0.350734
6413.000000;0.350960
6412.000000;0.351196
6411.000000;0.351406
6410.000000;0.351573
6409.000000;0.351741
6408.000000;0.351963
6407.000000;0.352248
6406.000000;0.352556
6405.000000;0.352842
6404.000000;0.353085
6403.000000;0.353301
6402.000000;0.353527
6401.000000;0.353789
6400.000000;0.354064
6399.000000;0.354305
6398.000000;0.354506
6397.000000;0.354711
6396.000000;0.354956
6395.000000;0.355221
6394.000000;0.355446
6393.000000;0.355585
6392.000000;0.355642
6391.000000;0.355678
6390.000000;0.355773
6389.000000;0.355965
6388.000000;0.356211
6387.000000;0.356442
6386.000000;0.356636
6385.000000;0.356830
6384.000000;0.357058
6383.000000;0.357307
6382.000000;0.357544
6381.000000;0.357746
6380.000000;0.357914
6379.000000;0.358066
6378.000000;0.358225
6377.000000;0.358387
6376.000000;0.358521
6375.000000;0.358611
6374.000000;0.358701
6373.000000;0.358849
6372.000000;0.359052
6371.000000;0.359256
6370.000000;0.359430
6369.000000;0.359594
6368.000000;0.359765
6367.000000;0.359942
6366.000000;0.360128
6365.000000;0.360342
6364.000000;0.360574
6363.000000;0.360777
6362.000000;0.360921
6361.000000;0.361021
6360.000000;0.361099
6359.000000;0.361158
6358.000000;0.361216
6357.000000;0.361314
6356.000000;0.361468
6355.000000;0.361639
6354.000000;0.361782
6353.000000;0.361907
6352.000000;0.362061
6351.000000;0.362268
6350.000000;0.362502
6349.000000;0.362713
6348.000000;0.362871
6347.000000;0.362988
6346.000000;0.363108
6345.000000;0.363265
6344.000000;0.363447
6343.000000;0.363607
6342.000000;0.363718
6341.000000;0.363797
6340.000000;0.363875
6339.000000;0.363971
6338.000000;0.364089
6337.000000;0.364225
6336.000000;0.364355
6335.000000;0.364462
6334.000000;0.364565
6333.000000;0.364702
6332.000000;0.364876
6331.000000;0.365044
6330.000000;0.365166
6329.000000;0.365250
6328.000000;0.365325
6327.000000;0.365407
6326.000000;0.365498
6325.000000;0.365605
6324.000000;0.365730
6323.000000;0.365866
6322.000000;0.366004
6321.000000;0.366137
6320.000000;0.366252
6319.000000;0.366339
6318.000000;0.366417
6317.000000;0.366525
6316.000000;0.366665
6315.000000;0.366795
6314.000000;0.366889
6313.000000;0.366974
6312.000000;0.367096
6311.000000;0.367252
6310.000000;0.367399
6309.000000;0.367505
6308.000000;0.367574
6307.000000;0.367632
6306.000000;0.367706
6305.000000;0.367814
6304.000000;0.367943
6303.000000;0.368057
6302.000000;0.368132
6301.000000;0.368174
6300.000000;0.368206
6299.000000;0.368239
6298.000000;0.368271
6297.000000;0.368298
6296.000000;0.368324
6295.000000;0.368363
6294.000000;0.368430
6293.000000;0.368538
6292.000000;0.368670
6291.000000;0.368790
6290.000000;0.368873
6289.000000;0.368924
6288.000000;0.368969
6287.000000;0.369034
6286.000000;0.369136
6285.000000;0.369274
6284.000000;0.369425
6283.000000;0.369556
6282.000000;0.369650
6281.000000;0.369721
6280.000000;0.369785
6279.000000;0.369852
6278.000000;0.369934
6277.000000;0.370049
6276.000000;0.370201
6275.000000;0.370355
6274.000000;0.370464
6273.000000;0.370502
6272.000000;0.370484
6271.000000;0.370454
6270.000000;0.370455
6269.000000;0.370506
6268.000000;0.370599
6267.000000;0.370709
6266.000000;0.370818
6265.000000;0.370912
6264.000000;0.370974
6263.000000;0.370996
6262.000000;0.370996
6261.000000;0.371008
6260.000000;0.371048
6259.000000;0.371101
6258.000000;0.371137
6257.000000;0.371141
6256.000000;0.371133
6255.000000;0.371152
6254.000000;0.371233
6253.000000;0.371370
6252.000000;0.371507
6251.000000;0.371581
6250.000000;0.371582
6249.000000;0.371557
6248.000000;0.371554
6247.000000;0.371585
6246.000000;0.371637
6245.000000;0.371710
6244.000000;0.371802
6243.000000;0.371892
6242.000000;0.371950
6241.000000;0.371973
6240.000000;0.371990
6239.000000;0.372024
6238.000000;0.372069
6237.000000;0.372109
6236.000000;0.372148
6235.000000;0.372209
6234.000000;0.372297
6233.000000;0.372389
6232.000000;0.372461
6231.000000;0.372513
6230.000000;0.372553
6229.000000;0.372577
6228.000000;0.372587
6227.000000;0.372613
6226.000000;0.372685
6225.000000;0.372779
6224.000000;0.372820
6223.000000;0.372773
6222.000000;0.372690
6221.000000;0.372659
6220.000000;0.372711
6219.000000;0.372797
6218.000000;0.372855
6217.000000;0.372861
6216.000000;0.372838
6215.000000;0.372820
6214.000000;0.372829
6213.000000;0.372857
6212.000000;0.372884
6211.000000;0.372918
6210.000000;0.372989
6209.000000;0.373113
6208.000000;0.373264
6207.000000;0.373394
6206.000000;0.373473
6205.000000;0.373494
6204.000000;0.373469
6203.000000;0.373428
6202.000000;0.373414
6201.000000;0.373456
6200.000000;0.373539
6199.000000;0.373629
6198.000000;0.373694
6197.000000;0.373708
6196.000000;0.373661
6195.000000;0.373586
6194.000000;0.373546
6193.000000;0.373570
6192.000000;0.373619
6191.000000;0.373631
6190.000000;0.373594
6189.000000;0.373537
6188.000000;0.373475
6187.000000;0.373419
6186.000000;0.373401
6185.000000;0.373456
6184.000000;0.373563
6183.000000;0.373658
6182.000000;0.373704
6181.000000;0.373715
6180.000000;0.373706
6179.000000;0.373666
6178.000000;0.373591
6177.000000;0.373507
6176.000000;0.373451
6175.000000;0.373433
6174.000000;0.373457
6173.000000;0.373520
6172.000000;0.373607
6171.000000;0.373682
6170.000000;0.373722
6169.000000;0.373743
6168.000000;0.373771
6167.000000;0.373811
6166.000000;0.373843
6165.000000;0.373855
6164.000000;0.373861
6163.000000;0.373880
6162.000000;0.373911
6161.000000;0.373923
6160.000000;0.373896
6159.000000;0.373847
6158.000000;0.373825
6157.000000;0.373857
6156.000000;0.373920
6155.000000;0.373976
6154.000000;0.374018
6153.000000;0.374054
6152.000000;0.374067
6151.000000;0.374030
6150.000000;0.373949
6149.000000;0.373876
6148.000000;0.373855
6147.000000;0.373889
6146.000000;0.373948
6145.000000;0.374001
6144.000000;0.374027
6143.000000;0.374013
6142.000000;0.373969
6141.000000;0.373915
6140.000000;0.373868
6139.000000;0.373842
6138.000000;0.373852
6137.000000;0.373906
6136.000000;0.373980
6135.000000;0.374035
6134.000000;0.374051
6133.000000;0.374040
6132.000000;0.374022
6131.000000;0.374007
6130.000000;0.374006
6129.000000;0.374030
6128.000000;0.374076
6127.000000;0.374119
6126.000000;0.374139
6125.000000;0.374134
6124.000000;0.374116
6123.000000;0.374100
6122.000000;0.374091
6121.000000;0.374082
6120.000000;0.374057
6119.000000;0.374021
6118.000000;0.373992
6117.000000;0.373984
6116.000000;0.373984
6115.000000;0.373981
6114.000000;0.373992
6113.000000;0.374034
6112.000000;0.374085
6111.000000;0.374103
6110.000000;0.374084
6109.000000;0.374064
6108.000000;0.374065
6107.000000;0.374066
6106.000000;0.374043
6105.000000;0.374010
6104.000000;0.373993
6103.000000;0.373997
6102.000000;0.374009
6101.000000;0.374019
6100.000000;0.374031
6099.000000;0.374053
6098.000000;0.374087
6097.000000;0.374132
6096.000000;0.374174
6095.000000;0.374190
6094.000000;0.374165
6093.000000;0.374111
6092.000000;0.374069
6091.000000;0.374076
6090.000000;0.374132
6089.000000;0.374192
6088.000000;0.374213
6087.000000;0.374193
6086.000000;0.374170
6085.000000;0.374171
6084.000000;0.374182
6083.000000;0.374175
6082.000000;0.374151
6081.000000;0.374137
6080.000000;0.374150
6079.000000;0.374183
6078.000000;0.374215
6077.000000;0.374224
6076.000000;0.374202
6075.000000;0.374158
6074.000000;0.374115
6073.000000;0.374087
6072.000000;0.374067
6071.000000;0.374053
6070.000000;0.374057
6069.000000;0.374080
6068.000000;0.374102
6067.000000;0.374106
6066.000000;0.374099
6065.000000;0.374092
6064.000000;0.374075
6063.000000;0.374049
6062.000000;0.374043
6061.000000;0.374089
6060.000000;0.374168
6059.000000;0.374233
6058.000000;0.374263
6057.000000;0.374268
6056.000000;0.374258
6055.000000;0.374229
6054.000000;0.374189
6053.000000;0.374160
6052.000000;0.374147
6051.000000;0.374142
6050.000000;0.374151
6049.000000;0.374196
6048.000000;0.374278
6047.000000;0.374365
6046.000000;0.374427
6045.000000;0.374453
6044.000000;0.374454
6043.000000;0.374449
6042.000000;0.374463
6041.000000;0.374497
6040.000000;0.374514
6039.000000;0.374481
6038.000000;0.374418
6037.000000;0.374376
6036.000000;0.374371
6035.000000;0.374367
6034.000000;0.374340
6033.000000;0.374317
6032.000000;0.374332
6031.000000;0.374379
6030.000000;0.374425
6029.000000;0.374461
6028.000000;0.374499
6027.000000;0.374552
6026.000000;0.374601
6025.000000;0.374606
6024.000000;0.374540
6023.000000;0.374432
6022.000000;0.374361
6021.000000;0.374393
6020.000000;0.374511
6019.000000;0.374636
6018.000000;0.374708
6017.000000;0.374732
6016.000000;0.374735
6015.000000;0.374731
6014.000000;0.374724
6013.000000;0.374731
6012.000000;0.374763
6011.000000;0.374807
6010.000000;0.374845
6009.000000;0.374870
6008.000000;0.374890
6007.000000;0.374914
6006.000000;0.374940
6005.000000;0.374958
6004.000000;0.374951
6003.000000;0.374911
6002.000000;0.374856
6001.000000;0.374814
6000.000000;0.374797
5999.000000;0.374796
5998.000000;0.374804
5997.000000;0.374822
5996.000000;0.374838
5995.000000;0.374834
5994.000000;0.374815
5993.000000;0.374813
5992.000000;0.374849
5991.000000;0.374907
5990.000000;0.374957
5989.000000;0.374984
5988.000000;0.374985
5987.000000;0.374957
5986.000000;0.374907
5985.000000;0.374863
5984.000000;0.374860
5983.000000;0.374910
5982.000000;0.374996
5981.000000;0.375083
5980.000000;0.375146
5979.000000;0.375182
5978.000000;0.375204
5977.000000;0.375221
5976.000000;0.375230
5975.000000;0.375233
5974.000000;0.375250
5973.000000;0.375303
5972.000000;0.375385
5971.000000;0.375462
5970.000000;0.375508
5969.000000;0.375533
5968.000000;0.375555
5967.000000;0.375582
5966.000000;0.375603
5965.000000;0.375607
5964.000000;0.375600
5963.000000;0.375603
5962.000000;0.375644
5961.000000;0.375718
5960.000000;0.375783
5959.000000;0.375794
5958.000000;0.375752
5957.000000;0.375694
5956.000000;0.375654
5955.000000;0.375641
5954.000000;0.375651
5953.000000;0.375675
5952.000000;0.375692
5951.000000;0.375683
5950.000000;0.375653
5949.000000;0.375636
5948.000000;0.375662
5947.000000;0.375726
5946.000000;0.375810
5945.000000;0.375893
5944.000000;0.375967
5943.000000;0.376026
5942.000000;0.376068
5941.000000;0.376097
5940.000000;0.376113
5939.000000;0.376125
5938.000000;0.376150
5937.000000;0.376199
5936.000000;0.376259
5935.000000;0.376317
5934.000000;0.376383
5933.000000;0.376474
5932.000000;0.376582
5931.000000;0.376665
5930.000000;0.376698
5929.000000;0.376694
5928.000000;0.376690
5927.000000;0.376717
5926.000000;0.376783
5925.000000;0.376865
5924.000000;0.376922
5923.000000;0.376923
5922.000000;0.376881
5921.000000;0.376838
5920.000000;0.376825
5919.000000;0.376843
5918.000000;0.376883
5917.000000;0.376936
5916.000000;0.376987
5915.000000;0.377010
5914.000000;0.376993
5913.000000;0.376954
5912.000000;0.376923
5911.000000;0.376916
5910.000000;0.376929
5909.000000;0.376953
5908.000000;0.376980
5907.000000;0.377000
5906.000000;0.377006
5905.000000;0.377003
5904.000000;0.377006
5903.000000;0.377041
5902.000000;0.377132
5901.000000;0.377256
5900.000000;0.377344
5899.000000;0.377337
5898.000000;0.377259
5897.000000;0.377202
5896.000000;0.377237
5895.000000;0.377346
5894.000000;0.377460
5893.000000;0.377529
5892.000000;0.377551
5891.000000;0.377551
5890.000000;0.377545
5889.000000;0.377530
5888.000000;0.377503
5887.000000;0.377474
5886.000000;0.377463
5885.000000;0.377479
5884.000000;0.377504
5883.000000;0.377516
5882.000000;0.377519
5881.000000;0.377536
5880.000000;0.377579
5879.000000;0.377639
5878.000000;0.377696
5877.000000;0.377743
5876.000000;0.377782
5875.000000;0.377827
5874.000000;0.377888
5873.000000;0.377963
5872.000000;0.378025
5871.000000;0.378051
5870.000000;0.378041
5869.000000;0.378019
5868.000000;0.378004
5867.000000;0.377998
5866.000000;0.377998
5865.000000;0.378004
5864.000000;0.378014
5863.000000;0.378028
5862.000000;0.378061
5861.000000;0.378123
5860.000000;0.378196
5859.000000;0.378243
5858.000000;0.378244
5857.000000;0.378223
5856.000000;0.378215
5855.000000;0.378234
5854.000000;0.378272
5853.000000;0.378313
5852.000000;0.378350
5851.000000;0.378382
5850.000000;0.378409
5849.000000;0.378435
5848.000000;0.378463
5847.000000;0.378500
5846.000000;0.378553
5845.000000;0.378623
5844.000000;0.378699
5843.000000;0.378770
5842.000000;0.378834
5841.000000;0.378876
5840.000000;0.378879
5839.000000;0.378838
5838.000000;0.378779
5837.000000;0.378738
5836.000000;0.378728
5835.000000;0.378740
5834.000000;0.378759
5833.000000;0.378776
5832.000000;0.378789
5831.000000;0.378806
5830.000000;0.378842
5829.000000;0.378903
5828.000000;0.378981
5827.000000;0.379065
5826.000000;0.379148
5825.000000;0.379209
5824.000000;0.379221
5823.000000;0.379197
5822.000000;0.379202
5821.000000;0.379291
5820.000000;0.379441
5819.000000;0.379571
5818.000000;0.379626
5817.000000;0.379619
5816.000000;0.379597
5815.000000;0.379597
5814.000000;0.379625
5813.000000;0.379661
5812.000000;0.379682
5811.000000;0.379686
5810.000000;0.379693
5809.000000;0.379717
5808.000000;0.379750
5807.000000;0.379785
5806.000000;0.379833
5805.000000;0.379897
5804.000000;0.379947
5803.000000;0.379940
5802.000000;0.379883
5801.000000;0.379825
5800.000000;0.379808
5799.000000;0.379837
5798.000000;0.379902
5797.000000;0.379989
5796.000000;0.380081
5795.000000;0.380164
5794.000000;0.380235
5793.000000;0.380287
5792.000000;0.380296
5791.000000;0.380253
5790.000000;0.380188
5789.000000;0.380152
5788.000000;0.380164
5787.000000;0.380212
5786.000000;0.380286
5785.000000;0.380385
5784.000000;0.380488
5783.000000;0.380558
5782.000000;0.380576
5781.000000;0.380564
5780.000000;0.380555
5779.000000;0.380571
5778.000000;0.380617
5777.000000;0.380677
5776.000000;0.380718
5775.000000;0.380720
5774.000000;0.380706
5773.000000;0.380710
5772.000000;0.380726
5771.000000;0.380714
5770.000000;0.380672
5769.000000;0.380645
5768.000000;0.380673
5767.000000;0.380742
5766.000000;0.380815
5765.000000;0.380868
5764.000000;0.380900
5763.000000;0.380911
5762.000000;0.380905
5761.000000;0.380891
5760.000000;0.380873
5759.000000;0.380851
5758.000000;0.380826
5757.000000;0.380810
5756.000000;0.380808
5755.000000;0.380825
5754.000000;0.380874
5753.000000;0.380960
5752.000000;0.381052
5751.000000;0.381103
5750.000000;0.381098
5749.000000;0.381067
5748.000000;0.381044
5747.000000;0.381042
5746.000000;0.381053
5745.000000;0.381067
5744.000000;0.381074
5743.000000;0.381070
5742.000000;0.381064
5741.000000;0.381071
5740.000000;0.381087
5739.000000;0.381095
5738.000000;0.381082
5737.000000;0.381060
5736.000000;0.381038
5735.000000;0.381019
5734.000000;0.381010
5733.000000;0.381021
5732.000000;0.381055
5731.000000;0.381096
5730.000000;0.381121
5729.000000;0.381114
5728.000000;0.381070
5727.000000;0.381023
5726.000000;0.381021
5725.000000;0.381072
5724.000000;0.381123
5723.000000;0.381112
5722.000000;0.381055
5721.000000;0.381021
5720.000000;0.381046
5719.000000;0.381095
5718.000000;0.381118
5717.000000;0.381103
5716.000000;0.381062
5715.000000;0.381013
5714.000000;0.380979
5713.000000;0.380991
5712.000000;0.381047
5711.000000;0.381104
5710.000000;0.381126
5709.000000;0.381110
5708.000000;0.381075
5707.000000;0.381034
5706.000000;0.380988
5705.000000;0.380944
5704.000000;0.380919
5703.000000;0.380931
5702.000000;0.380991
5701.000000;0.381077
5700.000000;0.381151
5699.000000;0.381190
5698.000000;0.381213
5697.000000;0.381250
5696.000000;0.381293
5695.000000;0.381321
5694.000000;0.381340
5693.000000;0.381379
5692.000000;0.381441
5691.000000;0.381488
5690.000000;0.381502
5689.000000;0.381505
5688.000000;0.381519
5687.000000;0.381531
5686.000000;0.381526
5685.000000;0.381513
5684.000000;0.381517
5683.000000;0.381548
5682.000000;0.381590
5681.000000;0.381609
5680.000000;0.381578
5679.000000;0.381510
5678.000000;0.381457
5677.000000;0.381463
5676.000000;0.381511
5675.000000;0.381547
5674.000000;0.381556
5673.000000;0.381575
5672.000000;0.381638
5671.000000;0.381728
5670.000000;0.381797
5669.000000;0.381821
5668.000000;0.381827
5667.000000;0.381874
5666.000000;0.382002
5665.000000;0.382181
5664.000000;0.382320
5663.000000;0.382360
5662.000000;0.382331
5661.000000;0.382313
5660.000000;0.382343
5659.000000;0.382394
5658.000000;0.382449
5657.000000;0.382519
5656.000000;0.382606
5655.000000;0.382688
5654.000000;0.382759
5653.000000;0.382828
5652.000000;0.382887
5651.000000;0.382909
5650.000000;0.382907
5649.000000;0.382940
5648.000000;0.383044
5647.000000;0.383189
5646.000000;0.383326
5645.000000;0.383445
5644.000000;0.383562
5643.000000;0.383683
5642.000000;0.383806
5641.000000;0.383925
5640.000000;0.384017
5639.000000;0.384057
5638.000000;0.384070
5637.000000;0.384122
5636.000000;0.384240
5635.000000;0.384371
5634.000000;0.384455
5633.000000;0.384507
5632.000000;0.384587
5631.000000;0.384725
5630.000000;0.384896
5629.000000;0.385061
5628.000000;0.385200
5627.000000;0.385308
5626.000000;0.385398
5625.000000;0.385497
5624.000000;0.385617
5623.000000;0.385742
5622.000000;0.385851
5621.000000;0.385949
5620.000000;0.386055
5619.000000;0.386185
5618.000000;0.386351
5617.000000;0.386552
5616.000000;0.386756
5615.000000;0.386917
5614.000000;0.387021
5613.000000;0.387103
5612.000000;0.387207
5611.000000;0.387342
5610.000000;0.387513
5609.000000;0.387733
5608.000000;0.387984
5607.000000;0.388199
5606.000000;0.388308
5605.000000;0.388325
5604.000000;0.388331
5603.000000;0.388393
5602.000000;0.388514
5601.000000;0.388656
5600.000000;0.388801
5599.000000;0.388957
5598.000000;0.389140
5597.000000;0.389353
5596.000000;0.389568
5595.000000;0.389752
5594.000000;0.389894
5593.000000;0.390010
5592.000000;0.390127
5591.000000;0.390256
5590.000000;0.390406
5589.000000;0.390590
5588.000000;0.390805
5587.000000;0.391017
5586.000000;0.391197
5585.000000;0.391350
5584.000000;0.391493
5583.000000;0.391619
5582.000000;0.391710
5581.000000;0.391787
5580.000000;0.391908
5579.000000;0.392104
5578.000000;0.392340
5577.000000;0.392553
5576.000000;0.392714
5575.000000;0.392845
5574.000000;0.392971
5573.000000;0.393092
5572.000000;0.393200
5571.000000;0.393305
5570.000000;0.393429
5569.000000;0.393576
5568.000000;0.393734
5567.000000;0.393898
5566.000000;0.394078
5565.000000;0.394272
5564.000000;0.394453
5563.000000;0.394590
5562.000000;0.394687
5561.000000;0.394773
5560.000000;0.394873
5559.000000;0.395001
5558.000000;0.395164
5557.000000;0.395358
5556.000000;0.395571
5555.000000;0.395786
5554.000000;0.395983
5553.000000;0.396135
5552.000000;0.396219
5551.000000;0.396249
5550.000000;0.396275
5549.000000;0.396337
5548.000000;0.396432
5547.000000;0.396541
5546.000000;0.396667
5545.000000;0.396813
5544.000000;0.396958
5543.000000;0.397080
5542.000000;0.397198
5541.000000;0.397348
5540.000000;0.397516
5539.000000;0.397649
5538.000000;0.397735
5537.000000;0.397826
5536.000000;0.397965
5535.000000;0.398131
5534.000000;0.398277
5533.000000;0.398390
5532.000000;0.398485
5531.000000;0.398567
5530.000000;0.398644
5529.000000;0.398736
5528.000000;0.398862
5527.000000;0.399013
5526.000000;0.399163
5525.000000;0.399297
5524.000000;0.399428
5523.000000;0.399566
5522.000000;0.399700
5521.000000;0.399807
5520.000000;0.399879
5519.000000;0.399936
5518.000000;0.400024
5517.000000;0.400162
5516.000000;0.400318
5515.000000;0.400437
5514.000000;0.400493
5513.000000;0.400517
5512.000000;0.400563
5511.000000;0.400675
5510.000000;0.400868
5509.000000;0.401113
5508.000000;0.401348
5507.000000;0.401510
5506.000000;0.401578
5505.000000;0.401583
5504.000000;0.401571
5503.000000;0.401579
5502.000000;0.401636
5501.000000;0.401756
5500.000000;0.401917
5499.000000;0.402069
5498.000000;0.402181
5497.000000;0.402262
5496.000000;0.402350
5495.000000;0.402476
5494.000000;0.402647
5493.000000;0.402841
5492.000000;0.403018
5491.000000;0.403148
5490.000000;0.403240
5489.000000;0.403317
5488.000000;0.403387
5487.000000;0.403455
5486.000000;0.403541
5485.000000;0.403666
5484.000000;0.403830
5483.000000;0.404003
5482.000000;0.404156
5481.000000;0.404268
5480.000000;0.404334
5479.000000;0.404383
5478.000000;0.404479
5477.000000;0.404669
5476.000000;0.404909
5475.000000;0.405094
5474.000000;0.405162
5473.000000;0.405148
5472.000000;0.405122
5471.000000;0.405129
5470.000000;0.405187
5469.000000;0.405310
5468.000000;0.405486
5467.000000;0.405677
5466.000000;0.405849
5465.000000;0.405999
5464.000000;0.406144
5463.000000;0.406298
5462.000000;0.406469
5461.000000;0.406657
5460.000000;0.406834
5459.000000;0.406975
5458.000000;0.407099
5457.000000;0.407264
5456.000000;0.407479
5455.000000;0.407687
5454.000000;0.407833
5453.000000;0.407926
5452.000000;0.408019
5451.000000;0.408158
5450.000000;0.408351
5449.000000;0.408560
5448.000000;0.408708
5447.000000;0.408763
5446.000000;0.408803
5445.000000;0.408956
5444.000000;0.409250
5443.000000;0.409583
5442.000000;0.409844
5441.000000;0.410002
5440.000000;0.410102
5439.000000;0.410196
5438.000000;0.410313
5437.000000;0.410465
5436.000000;0.410635
5435.000000;0.410790
5434.000000;0.410927
5433.000000;0.411071
5432.000000;0.411245
5431.000000;0.411467
5430.000000;0.411764
5429.000000;0.412125
5428.000000;0.412482
5427.000000;0.412769
5426.000000;0.413003
5425.000000;0.413243
5424.000000;0.413505
5423.000000;0.413757
5422.000000;0.413982
5421.000000;0.414200
5420.000000;0.414421
5419.000000;0.414630
5418.000000;0.414831
5417.000000;0.415045
5416.000000;0.415286
5415.000000;0.415552
5414.000000;0.415849
5413.000000;0.416189
5412.000000;0.416556
5411.000000;0.416929
5410.000000;0.417332
5409.000000;0.417817
5408.000000;0.418369
5407.000000;0.418893
5406.000000;0.419318
5405.000000;0.419662
5404.000000;0.419989
5403.000000;0.420333
5402.000000;0.420706
5401.000000;0.421110
5400.000000;0.421504
5399.000000;0.421838
5398.000000;0.422124
5397.000000;0.422445
5396.000000;0.422856
5395.000000;0.423315
5394.000000;0.423755
5393.000000;0.424182
5392.000000;0.424658
5391.000000;0.425209
5390.000000;0.425797
5389.000000;0.426392
5388.000000;0.426999
5387.000000;0.427623
5386.000000;0.428239
5385.000000;0.428810
5384.000000;0.429320
5383.000000;0.429799
5382.000000;0.430324
5381.000000;0.430963
5380.000000;0.431691
5379.000000;0.432417
5378.000000;0.433088
5377.000000;0.433760
5376.000000;0.434531
5375.000000;0.435428
5374.000000;0.436383
5373.000000;0.437308
5372.000000;0.438161
5371.000000;0.438949
5370.000000;0.439710
5369.000000;0.440518
5368.000000;0.441456
5367.000000;0.442550
5366.000000;0.443726
5365.000000;0.444868
5364.000000;0.445910
5363.000000;0.446893
5362.000000;0.447921
5361.000000;0.449056
5360.000000;0.450274
5359.000000;0.451517
5358.000000;0.452753
5357.000000;0.453992
5356.000000;0.455266
5355.000000;0.456595
5354.000000;0.457962
5353.000000;0.459301
5352.000000;0.460557
5351.000000;0.461775
5350.000000;0.463095
5349.000000;0.464595
5348.000000;0.466191
5347.000000;0.467733
5346.000000;0.469201
5345.000000;0.470735
5344.000000;0.472492
5343.000000;0.474479
5342.000000;0.476526
5341.000000;0.478405
5340.000000;0.480006
5339.000000;0.481432
5338.000000;0.482946
5337.000000;0.484723
5336.000000;0.486669
5335.000000;0.488575
5334.000000;0.490381
5333.000000;0.492164
5332.000000;0.493918
5331.000000;0.495526
5330.000000;0.496948
5329.000000;0.498303
5328.000000;0.499760
5327.000000;0.501405
5326.000000;0.503143
5325.000000;0.504666
5324.000000;0.505660
5323.000000;0.506146
5322.000000;0.506469
5321.000000;0.506804
5320.000000;0.506857
5319.000000;0.506276
5318.000000;0.505122
5317.000000;0.503580
5316.000000;0.501432
5315.000000;0.498290
5314.000000;0.494199
5313.000000;0.489527
5312.000000;0.484367
5311.000000;0.478449
5310.000000;0.471436
5309.000000;0.462893
5308.000000;0.452268
5307.000000;0.439445
5306.000000;0.424989
5305.000000;0.409370
5304.000000;0.392636
5303.000000;0.375438
5302.000000;0.359407
5301.000000;0.345739
5300.000000;0.334387
5299.000000;0.326076
5298.000000;0.324834
5297.000000;0.335760
5296.000000;0.358795
5295.000000;0.388790
5294.000000;0.423994
5293.000000;0.467228
5292.000000;0.516644
5291.000000;0.564775
5290.000000;0.607789
5289.000000;0.646167
5288.000000;0.678265
5287.000000;0.703279
5286.000000;0.726818
5285.000000;0.753777
5284.000000;0.779031
5283.000000;0.794703
5282.000000;0.803634
5281.000000;0.814404
5280.000000;0.828288
5279.000000;0.841637
5278.000000;0.855029
5277.000000;0.869816
5276.000000;0.880988
5275.000000;0.884246
5274.000000;0.885066
5273.000000;0.890409
5272.000000;0.897722
5271.000000;0.900648
5270.000000;0.899875
5269.000000;0.899404
5268.000000;0.898395
5267.000000;0.896142
5266.000000;0.898147
5265.000000;0.907538
5264.000000;0.916815
5263.000000;0.917761
5262.000000;0.914451
5261.000000;0.915527
5260.000000;0.920276
5259.000000;0.922489
5258.000000;0.922394
5257.000000;0.924672
5256.000000;0.929123
5255.000000;0.932592
5254.000000;0.936156
5253.000000;0.941066
5252.000000;0.941675
5251.000000;0.933931
5250.000000;0.925406
5249.000000;0.924888
5248.000000;0.929817
5247.000000;0.932393
5246.000000;0.931869
5245.000000;0.931846
5244.000000;0.930982
5243.000000;0.927028
5242.000000;0.924499
5241.000000;0.927791
5240.000000;0.932130
5239.000000;0.930339
5238.000000;0.924430
5237.000000;0.921063
5236.000000;0.920642
5235.000000;0.920271
5234.000000;0.922059
5233.000000;0.928739
5232.000000;0.934937
5231.000000;0.933165
5230.000000;0.926402
5229.000000;0.924131
5228.000000;0.929281
5227.000000;0.937890
5226.000000;0.946570
5225.000000;0.952157
5224.000000;0.949662
5223.000000;0.939450
5222.000000;0.931442
5221.000000;0.934204
5220.000000;0.943890
5219.000000;0.949706
5218.000000;0.947297
5217.000000;0.939644
5216.000000;0.929439
5215.000000;0.919888
5214.000000;0.917216
5213.000000;0.923352
5212.000000;0.930382
5211.000000;0.930401
5210.000000;0.927490
5209.000000;0.930131
5208.000000;0.937151
5207.000000;0.940722
5206.000000;0.939677
5205.000000;0.939801
5204.000000;0.942078
5203.000000;0.941514
5202.000000;0.937571
5201.000000;0.935499
5200.000000;0.937515
5199.000000;0.941254
5198.000000;0.945323
5197.000000;0.949013
5196.000000;0.948778
5195.000000;0.942388
5194.000000;0.934569
5193.000000;0.932150
5192.000000;0.935663
5191.000000;0.940699
5190.000000;0.944479
5189.000000;0.945985
5188.000000;0.944099
5187.000000;0.941528
5186.000000;0.945580
5185.000000;0.958710
5184.000000;0.971730
5183.000000;0.973068
5182.000000;0.963425
5181.000000;0.952304
5180.000000;0.944416
5179.000000;0.938828
5178.000000;0.936172
5177.000000;0.937877
5176.000000;0.940876
5175.000000;0.940705
5174.000000;0.938468
5173.000000;0.938168
5172.000000;0.939363
5171.000000;0.939002
5170.000000;0.937930
5169.000000;0.938506
5168.000000;0.938079
5167.000000;0.932478
5166.000000;0.924869
5165.000000;0.922976
5164.000000;0.928584
5163.000000;0.935949
5162.000000;0.939646
5161.000000;0.939700
5160.000000;0.938820
5159.000000;0.938809
5158.000000;0.939936
5157.000000;0.940956
5156.000000;0.940491
5155.000000;0.940096
5154.000000;0.943415
5153.000000;0.950225
5152.000000;0.954712
5151.000000;0.953473
5150.000000;0.951481
5149.000000;0.954556
5148.000000;0.960882
5147.000000;0.964373
5146.000000;0.961989
5145.000000;0.954141
5144.000000;0.942827
5143.000000;0.933418
5142.000000;0.933120
5141.000000;0.943038
5140.000000;0.954646
5139.000000;0.959051
5138.000000;0.956660
5137.000000;0.952402
5136.000000;0.948223
5135.000000;0.945918
5134.000000;0.949794
5133.000000;0.959216
5132.000000;0.964391
5131.000000;0.958548
5130.000000;0.949363
5129.000000;0.948021
5128.000000;0.953511
5127.000000;0.955971
5126.000000;0.951722
5125.000000;0.945909
5124.000000;0.941623
5123.000000;0.936953
5122.000000;0.932256
5121.000000;0.931113
5120.000000;0.933035
5119.000000;0.932653
5118.000000;0.927864
5117.000000;0.922691
5116.000000;0.921053
5115.000000;0.923370
5114.000000;0.928754
5113.000000;0.935579
5112.000000;0.940948
5111.000000;0.943439
5110.000000;0.945349
5109.000000;0.949369
5108.000000;0.954323
5107.000000;0.956748
5106.000000;0.954674
5105.000000;0.947254
5104.000000;0.934920
5103.000000;0.922873
5102.000000;0.918641
5101.000000;0.923611
5100.000000;0.930677
5099.000000;0.933046
5098.000000;0.932126
5097.000000;0.931354
5096.000000;0.928104
5095.000000;0.919422
5094.000000;0.910694
5093.000000;0.909473
5092.000000;0.914334
5091.000000;0.917291
5090.000000;0.915367
5089.000000;0.912701
5088.000000;0.912293
5087.000000;0.913639
5086.000000;0.917232
5085.000000;0.923818
5084.000000;0.929553
5083.000000;0.929089
5082.000000;0.924004
5081.000000;0.921117
5080.000000;0.923237
5079.000000;0.927711
5078.000000;0.932445
5077.000000;0.937504
5076.000000;0.941225
5075.000000;0.941099
5074.000000;0.939038
5073.000000;0.939886
5072.000000;0.944209
5071.000000;0.946339
5070.000000;0.940332
5069.000000;0.926409
5068.000000;0.909795
5067.000000;0.896281
5066.000000;0.891146
5065.000000;0.896491
5064.000000;0.907441
5063.000000;0.915172
5062.000000;0.915319
5061.000000;0.911376
5060.000000;0.909705
5059.000000;0.913591
5058.000000;0.920864
5057.000000;0.924902
5056.000000;0.920463
5055.000000;0.910732
5054.000000;0.904925
5053.000000;0.907485
5052.000000;0.913415
5051.000000;0.915780
5050.000000;0.914229
5049.000000;0.912311
5048.000000;0.910184
5047.000000;0.905523
5046.000000;0.899286
5045.000000;0.894596
5044.000000;0.891647
5043.000000;0.888676
5042.000000;0.886020
5041.000000;0.884785
5040.000000;0.883404
5039.000000;0.880146
5038.000000;0.877372
5037.000000;0.878406
5036.000000;0.881350
5035.000000;0.880633
5034.000000;0.874600
5033.000000;0.866947
5032.000000;0.860809
5031.000000;0.856619
5030.000000;0.855029
5029.000000;0.856809
5028.000000;0.859659
5027.000000;0.858995
5026.000000;0.852793
5025.000000;0.843777
5024.000000;0.836896
5023.000000;0.835795
5022.000000;0.840285
5021.000000;0.845461
5020.000000;0.845252
5019.000000;0.838984
5018.000000;0.831551
5017.000000;0.826701
5016.000000;0.823775
5015.000000;0.820747
5014.000000;0.817553
5013.000000;0.814717
5012.000000;0.811214
5011.000000;0.806439
5010.000000;0.801442
5009.000000;0.796164
5008.000000;0.788793
5007.000000;0.779758
5006.000000;0.772763
5005.000000;0.769824
5004.000000;0.768748
5003.000000;0.767386
5002.000000;0.766758
5001.000000;0.767155
5000.000000;0.765087
4999.000000;0.758305
4998.000000;0.750476
4997.000000;0.745938
4996.000000;0.743073
4995.000000;0.737227
4994.000000;0.727919
4993.000000;0.718801
4992.000000;0.711518
4991.000000;0.704079
4990.000000;0.694994
4989.000000;0.685722
4988.000000;0.678934
4987.000000;0.676328
4986.000000;0.677565
4985.000000;0.679628
4984.000000;0.678321
4983.000000;0.672278
4982.000000;0.664130
4981.000000;0.656268
4980.000000;0.647790
4979.000000;0.637303
4978.000000;0.626002
4977.000000;0.615826
4976.000000;0.606786
4975.000000;0.598059
4974.000000;0.590163
4973.000000;0.584242
4972.000000;0.580330
4971.000000;0.577870
4970.000000;0.576550
4969.000000;0.575090
4968.000000;0.570933
4967.000000;0.563266
4966.000000;0.554584
4965.000000;0.547402
4964.000000;0.541352
4963.000000;0.534899
4962.000000;0.527667
4961.000000;0.519581
4960.000000;0.510006
4959.000000;0.499639
4958.000000;0.491073
4957.000000;0.485509
4956.000000;0.480819
4955.000000;0.474485
4954.000000;0.466493
4953.000000;0.457535
4952.000000;0.446889
4951.000000;0.434592
4950.000000;0.423367
4949.000000;0.415647
4948.000000;0.410226
4947.000000;0.404192
4946.000000;0.396999
4945.000000;0.390215
4944.000000;0.384368
4943.000000;0.378594
4942.000000;0.372507
4941.000000;0.366356
4940.000000;0.359914
4939.000000;0.352921
4938.000000;0.345898
4937.000000;0.339044
4936.000000;0.331200
4935.000000;0.321400
4934.000000;0.310586
4933.000000;0.300328
4932.000000;0.291018
4931.000000;0.282705
4930.000000;0.276291
4929.000000;0.272261
4928.000000;0.269005
4927.000000;0.263893
4926.000000;0.255694
4925.000000;0.245010
4924.000000;0.233364
4923.000000;0.222946
4922.000000;0.215734
4921.000000;0.211251
4920.000000;0.206327
4919.000000;0.198568
4918.000000;0.189064
4917.000000;0.180380
4916.000000;0.173074
4915.000000;0.165608
4914.000000;0.156728
4913.000000;0.146501
4912.000000;0.135693
4911.000000;0.125412
4910.000000;0.116711
4909.000000;0.109376
4908.000000;0.101828
4907.000000;0.093292
4906.000000;0.085104
4905.000000;0.078604
4904.000000;0.072916
4903.000000;0.066164
4902.000000;0.057947
4901.000000;0.049154
4900.000000;0.040188
4899.000000;0.031020
4898.000000;0.022478
4897.000000;0.015754
4896.000000;0.010653
4895.000000;0.005643
4894.000000;-0.000389
4893.000000;-0.007459
4892.000000;-0.015226
4891.000000;-0.023212
4890.000000;-0.030414
4889.000000;-0.035826
4888.000000;-0.039528
4887.000000;-0.042565
4886.000000;-0.045778
4885.000000;-0.049389
4884.000000;-0.053522
4883.000000;-0.058317
4882.000000;-0.063445
4881.000000;-0.068185
4880.000000;-0.072199
4879.000000;-0.075806
4878.000000;-0.079397
4877.000000;-0.083008
4876.000000;-0.086627
4875.000000;-0.090497
4874.000000;-0.094749
4873.000000;-0.098970
4872.000000;-0.102449
4871.000000;-0.104837
4870.000000;-0.106299
4869.000000;-0.107061
4868.000000;-0.107125
4867.000000;-0.106536
4866.000000;-0.105604
4865.000000;-0.104664
4864.000000;-0.103899
4863.000000;-0.103530
4862.000000;-0.103882
4861.000000;-0.104866
4860.000000;-0.105561
4859.000000;-0.104905
4858.000000;-0.102883
4857.000000;-0.100516
4856.000000;-0.098555
4855.000000;-0.096623
4854.000000;-0.094002
4853.000000;-0.090870
4852.000000;-0.088103
4851.000000;-0.085921
4850.000000;-0.083516
4849.000000;-0.080317
4848.000000;-0.077077
4847.000000;-0.075105
4846.000000;-0.074623
4845.000000;-0.074437
4844.000000;-0.073209
4843.000000;-0.070637
4842.000000;-0.067353
4841.000000;-0.064078
4840.000000;-0.061027
4839.000000;-0.057913
4838.000000;-0.054413
4837.000000;-0.050768
4836.000000;-0.047817
4835.000000;-0.046038
4834.000000;-0.044657
4833.000000;-0.042254
4832.000000;-0.038352
4831.000000;-0.033933
4830.000000;-0.030187
4829.000000;-0.027244
4828.000000;-0.024482
4827.000000;-0.021548
4826.000000;-0.018547
4825.000000;-0.015507
4824.000000;-0.012269
4823.000000;-0.008872
4822.000000;-0.005576
4821.000000;-0.002465
4820.000000;0.000659
4819.000000;0.003956
4818.000000;0.007379
4817.000000;0.010852
4816.000000;0.014359
4815.000000;0.017820
4814.000000;0.021074
4813.000000;0.024049
4812.000000;0.026831
4811.000000;0.029561
4810.000000;0.032330
4809.000000;0.035235
4808.000000;0.038368
4807.000000;0.041662
4806.000000;0.044780
4805.000000;0.047309
4804.000000;0.049211
4803.000000;0.051035
4802.000000;0.053487
4801.000000;0.056708
4800.000000;0.060120
4799.000000;0.063121
4798.000000;0.065737
4797.000000;0.068376
4796.000000;0.071154
4795.000000;0.073845
4794.000000;0.076412
4793.000000;0.079105
4792.000000;0.081953
4791.000000;0.084571
4790.000000;0.086671
4789.000000;0.088470
4788.000000;0.090382
4787.000000;0.092557
4786.000000;0.094894
4785.000000;0.097317
4784.000000;0.099822
4783.000000;0.102357
4782.000000;0.104827
4781.000000;0.107193
4780.000000;0.109507
4779.000000;0.111928
4778.000000;0.114656
4777.000000;0.117671
4776.000000;0.120528
4775.000000;0.122683
4774.000000;0.124162
4773.000000;0.125653
4772.000000;0.127810
4771.000000;0.130582
4770.000000;0.133344
4769.000000;0.135525
4768.000000;0.137050
4767.000000;0.138301
4766.000000;0.139793
4765.000000;0.141730
4764.000000;0.143825
4763.000000;0.145630
4762.000000;0.147100
4761.000000;0.148649
4760.000000;0.150641
4759.000000;0.153007
4758.000000;0.155402
4757.000000;0.157512
4756.000000;0.159184
4755.000000;0.160508
4754.000000;0.161874
4753.000000;0.163715
4752.000000;0.166012
4751.000000;0.168236
4750.000000;0.169904
4749.000000;0.171061
4748.000000;0.172131
4747.000000;0.173512
4746.000000;0.175388
4745.000000;0.177672
4744.000000;0.179965
4743.000000;0.181773
4742.000000;0.183009
4741.000000;0.184124
4740.000000;0.185584
4739.000000;0.187385
4738.000000;0.189268
4737.000000;0.191167
4736.000000;0.193168
4735.000000;0.195140
4734.000000;0.196752
4733.000000;0.197844
4732.000000;0.198587
4731.000000;0.199286
4730.000000;0.200185
4729.000000;0.201437
4728.000000;0.203033
4727.000000;0.204770
4726.000000;0.206400
4725.000000;0.207840
4724.000000;0.209136
4723.000000;0.210273
4722.000000;0.211198
4721.000000;0.212027
4720.000000;0.213034
4719.000000;0.214388
4718.000000;0.215989
4717.000000;0.217611
4716.000000;0.219118
4715.000000;0.220529
4714.000000;0.221927
4713.000000;0.223347
4712.000000;0.224694
4711.000000;0.225805
4710.000000;0.226618
4709.000000;0.227300
4708.000000;0.228134
4707.000000;0.229276
4706.000000;0.230628
4705.000000;0.231928
4704.000000;0.232944
4703.000000;0.233647
4702.000000;0.234275
4701.000000;0.235172
4700.000000;0.236482
4699.000000;0.237994
4698.000000;0.239347
4697.000000;0.240382
4696.000000;0.241246
4695.000000;0.242182
4694.000000;0.243288
4693.000000;0.244476
4692.000000;0.245605
4691.000000;0.246616
4690.000000;0.247549
4689.000000;0.248469
4688.000000;0.249397
4687.000000;0.250334
4686.000000;0.251330
4685.000000;0.252445
4684.000000;0.253618
4683.000000;0.254663
4682.000000;0.255452
4681.000000;0.256062
4680.000000;0.256690
4679.000000;0.257450
4678.000000;0.258301
4677.000000;0.259143
4676.000000;0.259925
4675.000000;0.260673
4674.000000;0.261469
4673.000000;0.262390
4672.000000;0.263433
4671.000000;0.264498
4670.000000;0.265481
4669.000000;0.266392
4668.000000;0.267340
4667.000000;0.268394
4666.000000;0.269495
4665.000000;0.270494
4664.000000;0.271284
4663.000000;0.271878
4662.000000;0.272387
4661.000000;0.272919
4660.000000;0.273519
4659.000000;0.274179
4658.000000;0.274893
4657.000000;0.275661
4656.000000;0.276453
4655.000000;0.277195
4654.000000;0.277810
4653.000000;0.278289
4652.000000;0.278732
4651.000000;0.279312
4650.000000;0.280147
4649.000000;0.281167
4648.000000;0.282150
4647.000000;0.282924
4646.000000;0.283509
4645.000000;0.284040
4644.000000;0.284566
4643.000000;0.285021
4642.000000;0.285374
4641.000000;0.285749
4640.000000;0.286330
4639.000000;0.287185
4638.000000;0.288170
4637.000000;0.289020
4636.000000;0.289564
4635.000000;0.289890
4634.000000;0.290288
4633.000000;0.290990
4632.000000;0.291950
4631.000000;0.292893
4630.000000;0.293574
4629.000000;0.293964
4628.000000;0.294230
4627.000000;0.294568
4626.000000;0.295034
4625.000000;0.295515
4624.000000;0.295867
4623.000000;0.296127
4622.000000;0.296514
4621.000000;0.297175
4620.000000;0.297992
4619.000000;0.298725
4618.000000;0.299282
4617.000000;0.299766
4616.000000;0.300267
4615.000000;0.300768
4614.000000;0.301246
4613.000000;0.301758
4612.000000;0.302351
4611.000000;0.302972
4610.000000;0.303516
4609.000000;0.303920
4608.000000;0.304176
4607.000000;0.304324
4606.000000;0.304484
4605.000000;0.304820
4604.000000;0.305416
4603.000000;0.306159
4602.000000;0.306830
4601.000000;0.307295
4600.000000;0.307620
4599.000000;0.307985
4598.000000;0.308503
4597.000000;0.309124
4596.000000;0.309706
4595.000000;0.310150
4594.000000;0.310483
4593.000000;0.310806
4592.000000;0.311202
4591.000000;0.311668
4590.000000;0.312120
4589.000000;0.312460
4588.000000;0.312665
4587.000000;0.312822
4586.000000;0.313024
4585.000000;0.313262
4584.000000;0.313462
4583.000000;0.313651
4582.000000;0.313977
4581.000000;0.314525
4580.000000;0.315173
4579.000000;0.315697
4578.000000;0.315969
4577.000000;0.316022
4576.000000;0.315982
4575.000000;0.316010
4574.000000;0.316231
4573.000000;0.316640
4572.000000;0.317099
4571.000000;0.317488
4570.000000;0.317805
4569.000000;0.318095
4568.000000;0.318347
4567.000000;0.318550
4566.000000;0.318769
4565.000000;0.319031
4564.000000;0.319227
4563.000000;0.319273
4562.000000;0.319324
4561.000000;0.319674
4560.000000;0.320372
4559.000000;0.321087
4558.000000;0.321410
4557.000000;0.321247
4556.000000;0.320887
4555.000000;0.320718
4554.000000;0.320901
4553.000000;0.321278
4552.000000;0.321560
4551.000000;0.321638
4550.000000;0.321664
4549.000000;0.321828
4548.000000;0.322128
4547.000000;0.322438
4546.000000;0.322727
4545.000000;0.323076
4544.000000;0.323510
4543.000000;0.323927
4542.000000;0.324220
4541.000000;0.324364
4540.000000;0.324391
4539.000000;0.324355
4538.000000;0.324329
4537.000000;0.324348
4536.000000;0.324361
4535.000000;0.324294
4534.000000;0.324191
4533.000000;0.324199
4532.000000;0.324432
4531.000000;0.324883
4530.000000;0.325440
4529.000000;0.325921
4528.000000;0.326145
4527.000000;0.326085
4526.000000;0.325945
4525.000000;0.325977
4524.000000;0.326204
4523.000000;0.326409
4522.000000;0.326411
4521.000000;0.326253
4520.000000;0.326112
4519.000000;0.326105
4518.000000;0.326244
4517.000000;0.326478
4516.000000;0.326746
4515.000000;0.327020
4514.000000;0.327306
4513.000000;0.327589
4512.000000;0.327785
4511.000000;0.327834
4510.000000;0.327816
4509.000000;0.327889
4508.000000;0.328107
4507.000000;0.328367
4506.000000;0.328538
4505.000000;0.328594
4504.000000;0.328627
4503.000000;0.328787
4502.000000;0.329134
4501.000000;0.329512
4500.000000;0.329613
4499.000000;0.329330
4498.000000;0.328977
4497.000000;0.329011
4496.000000;0.329516
4495.000000;0.330101
4494.000000;0.330326
4493.000000;0.330114
4492.000000;0.329725
4491.000000;0.329480
4490.000000;0.329546
4489.000000;0.329841
4488.000000;0.330073
4487.000000;0.329973
4486.000000;0.329609
4485.000000;0.329396
4484.000000;0.329688
4483.000000;0.330388
4482.000000;0.331016
4481.000000;0.331153
4480.000000;0.330789
4479.000000;0.330304
4478.000000;0.330142
4477.000000;0.330451
4476.000000;0.330964
4475.000000;0.331238
4474.000000;0.331058
4473.000000;0.330608
4472.000000;0.330268
4471.000000;0.330280
4470.000000;0.330609
4469.000000;0.331037
4468.000000;0.331329
4467.000000;0.331364
4466.000000;0.331191
4465.000000;0.331006
4464.000000;0.331026
4463.000000;0.331333
4462.000000;0.331773
4461.000000;0.332033
4460.000000;0.331914
4459.000000;0.331544
4458.000000;0.331278
4457.000000;0.331344
4456.000000;0.331642
4455.000000;0.331894
4454.000000;0.331920
4453.000000;0.331744
4452.000000;0.331521
4451.000000;0.331424
4450.000000;0.331514
4449.000000;0.331668
4448.000000;0.331721
4447.000000;0.331725
4446.000000;0.331943
4445.000000;0.332455
4444.000000;0.332928
4443.000000;0.332955
4442.000000;0.332541
4441.000000;0.332084
4440.000000;0.331921
4439.000000;0.332064
4438.000000;0.332294
4437.000000;0.332345
4436.000000;0.332043
4435.000000;0.331489
4434.000000;0.331105
4433.000000;0.331264
4432.000000;0.331848
4431.000000;0.332328
4430.000000;0.332321
4429.000000;0.331910
4428.000000;0.331408
4427.000000;0.331027
4426.000000;0.330865
4425.000000;0.330981
4424.000000;0.331300
4423.000000;0.331557
4422.000000;0.331516
4421.000000;0.331207
4420.000000;0.330843
4419.000000;0.330566
4418.000000;0.330369
4417.000000;0.330217
4416.000000;0.330120
4415.000000;0.330079
4414.000000;0.330066
4413.000000;0.330072
4412.000000;0.330112
4411.000000;0.330150
4410.000000;0.330040
4409.000000;0.329574
4408.000000;0.328654
4407.000000;0.327440
4406.000000;0.326339
4405.000000;0.325786
4404.000000;0.325952
4403.000000;0.326555
4402.000000;0.326960
4401.000000;0.326639
4400.000000;0.325650
4399.000000;0.324619
4398.000000;0.324120
4397.000000;0.324144
4396.000000;0.324232
4395.000000;0.324021
4394.000000;0.323474
4393.000000;0.322720
4392.000000;0.321974
4391.000000;0.321587
4390.000000;0.321749
4389.000000;0.322051
4388.000000;0.321727
4387.000000;0.320530
4386.000000;0.319074
4385.000000;0.318094
4384.000000;0.317685
4383.000000;0.317461
4382.000000;0.317137
4381.000000;0.316616
4380.000000;0.315802
4379.000000;0.314767
4378.000000;0.313922
4377.000000;0.313615
4376.000000;0.313589
4375.000000;0.313163
4374.000000;0.311912
4373.000000;0.309966
4372.000000;0.307834
4371.000000;0.306187
4370.000000;0.305576
4369.000000;0.305912
4368.000000;0.306303
4367.000000;0.305825
4366.000000;0.304453
4365.000000;0.302902
4364.000000;0.301666
4363.000000;0.300678
4362.000000;0.299811
4361.000000;0.299153
4360.000000;0.298675
4359.000000;0.298045
4358.000000;0.297007
4357.000000;0.295720
4356.000000;0.294580
4355.000000;0.293844
4354.000000;0.293403
4353.000000;0.292748
4352.000000;0.291299
4351.000000;0.289079
4350.000000;0.286909
4349.000000;0.285621
4348.000000;0.285162
4347.000000;0.284744
4346.000000;0.283735
4345.000000;0.282034
4344.000000;0.279815
4343.000000;0.277461
4342.000000;0.275685
4341.000000;0.275058
4340.000000;0.275257
4339.000000;0.275243
4338.000000;0.274361
4337.000000;0.272882
4336.000000;0.271351
4335.000000;0.269903
4334.000000;0.268378
4333.000000;0.266697
4332.000000;0.264851
4331.000000;0.262856
4330.000000;0.260922
4329.000000;0.259412
4328.000000;0.258440
4327.000000;0.257721
4326.000000;0.256900
4325.000000;0.255841
4324.000000;0.254623
4323.000000;0.253520
4322.000000;0.252866
4321.000000;0.252582
4320.000000;0.251959
4319.000000;0.250377
4318.000000;0.248234
4317.000000;0.246588
4316.000000;0.245860
4315.000000;0.245425
4314.000000;0.244447
4313.000000;0.242579
4312.000000;0.239891
4311.000000;0.236861
4310.000000;0.234586
4309.000000;0.234221
4308.000000;0.235755
4307.000000;0.237715
4306.000000;0.238549
4305.000000;0.238082
4304.000000;0.237298
4303.000000;0.237006
4302.000000;0.237029
4301.000000;0.236402
4300.000000;0.234207
4299.000000;0.230576
4298.000000;0.226948
4297.000000;0.224861
4296.000000;0.224331
4295.000000;0.223907
4294.000000;0.222541
4293.000000;0.220936
4292.000000;0.220716
4291.000000;0.222580
4290.000000;0.225572
4289.000000;0.227936
4288.000000;0.228498
4287.000000;0.227621
4286.000000;0.226892
4285.000000;0.227590
4284.000000;0.229597
4283.000000;0.231954
4282.000000;0.234131
4281.000000;0.236343
4280.000000;0.238956
4279.000000;0.242231
4278.000000;0.246459
4277.000000;0.251557
4276.000000;0.256574
4275.000000;0.260473
4274.000000;0.263581
4273.000000;0.267414
4272.000000;0.272748
4271.000000;0.278508
4270.000000;0.282700
4269.000000;0.284210
4268.000000;0.283916
4267.000000;0.284490
4266.000000;0.288599
4265.000000;0.296474
4264.000000;0.305490
4263.000000;0.312971
4262.000000;0.318963
4261.000000;0.325289
4260.000000;0.332593
4259.000000;0.339987
4258.000000;0.347056
4257.000000;0.354203
4256.000000;0.361248
4255.000000;0.367723
4254.000000;0.374524
4253.000000;0.383374
4252.000000;0.394243
4251.000000;0.404900
4250.000000;0.413922
4249.000000;0.422779
4248.000000;0.433682
4247.000000;0.446558
4246.000000;0.459023
4245.000000;0.468954
4244.000000;0.476388
4243.000000;0.483157
4242.000000;0.490991
4241.000000;0.499952
4240.000000;0.508928
4239.000000;0.517300
4238.000000;0.525602
4237.000000;0.534785
4236.000000;0.545275
4235.000000;0.557220
4234.000000;0.570983
4233.000000;0.586269
4232.000000;0.601455
4231.000000;0.614858
4230.000000;0.626106
4229.000000;0.635381
4228.000000;0.642332
4227.000000;0.646970
4226.000000;0.650461
4225.000000;0.653928
4224.000000;0.658140
4223.000000;0.665504
4222.000000;0.679466
4221.000000;0.699371
4220.000000;0.717976
4219.000000;0.727989
4218.000000;0.730918
4217.000000;0.734910
4216.000000;0.744592
4215.000000;0.757273
4214.000000;0.768438
4213.000000;0.777698
4212.000000;0.788150
4211.000000;0.802153
4210.000000;0.818812
4209.000000;0.834388
4208.000000;0.845773
4207.000000;0.853954
4206.000000;0.862444
4205.000000;0.873117
4204.000000;0.884785
4203.000000;0.895312
4202.000000;0.904796
4201.000000;0.914327
4200.000000;0.921982
4199.000000;0.925244
4198.000000;0.926254
4197.000000;0.929533
4196.000000;0.937517
4195.000000;0.951548
4194.000000;0.972108
4193.000000;0.994496
4192.000000;1.008777
4191.000000;1.009345
4190.000000;1.004514
4189.000000;1.009807
4188.000000;1.031126
4187.000000;1.060256
4186.000000;1.085047
4185.000000;1.100112
4184.000000;1.106636
4183.000000;1.107657
4182.000000;1.106683
4181.000000;1.105734
4180.000000;1.103847
4179.000000;1.102076
4178.000000;1.107367
4177.000000;1.125959
4176.000000;1.154899
4175.000000;1.183439
4174.000000;1.202932
4173.000000;1.212292
4172.000000;1.214037
4171.000000;1.213604
4170.000000;1.221740
4169.000000;1.247130
4168.000000;1.284747
4167.000000;1.315991
4166.000000;1.326431
4165.000000;1.321026
4164.000000;1.315484
4163.000000;1.317860
4162.000000;1.320921
4161.000000;1.311720
4160.000000;1.291597
4159.000000;1.281309
4158.000000;1.302144
4157.000000;1.354286
4156.000000;1.406894
4155.000000;1.420841
4154.000000;1.399738
4153.000000;1.381106
4152.000000;1.386069
4151.000000;1.408715
4150.000000;1.434699
4149.000000;1.458418
4148.000000;1.478414
4147.000000;1.490420
4146.000000;1.494209
4145.000000;1.491564
4144.000000;1.479963
4143.000000;1.463327
4142.000000;1.457745
4141.000000;1.474825
4140.000000;1.509499
4139.000000;1.548201
4138.000000;1.582657
4137.000000;1.606900
4136.000000;1.610310
4135.000000;1.593223
4134.000000;1.579491
4133.000000;1.591314
4132.000000;1.624006
4131.000000;1.655864
4130.000000;1.678784
4129.000000;1.703129
4128.000000;1.730323
4127.000000;1.745850
4126.000000;1.735487
4125.000000;1.697411
4124.000000;1.641600
4123.000000;1.588152
4122.000000;1.563955
4121.000000;1.585729
4120.000000;1.644014
4119.000000;1.701972
4118.000000;1.729672
4117.000000;1.744214
4116.000000;1.781308
4115.000000;1.848308
4114.000000;1.905374
4113.000000;1.900213
4112.000000;1.852173
4111.000000;1.800622
4110.000000;1.765684
4109.000000;1.759047
4108.000000;1.783663
4107.000000;1.835514
4106.000000;1.893391
4105.000000;1.950025
4104.000000;1.996818
4103.000000;1.981739
4102.000000;1.960021
4101.000000;2.000443
4100.000000;2.046019
4099.000000;2.012807
4098.000000;1.941583
4097.000000;1.883392
4096.000000;1.837291
4095.000000;1.806487
4094.000000;1.811374
4093.000000;1.855431
4092.000000;1.892099
4091.000000;1.860926
4090.000000;1.798195
4089.000000;1.772098
4088.000000;1.798813
4087.000000;1.850428
4086.000000;1.891115
4085.000000;1.880922
4084.000000;1.805730
4083.000000;1.722501
4082.000000;1.676714
4081.000000;1.687835
4080.000000;1.753547
4079.000000;1.857544
4078.000000;1.928865
4077.000000;1.881446
4076.000000;1.823679
4075.000000;1.829189
4074.000000;1.869756
4073.000000;1.915691
4072.000000;1.942410
4071.000000;1.925925
4070.000000;1.885073
4069.000000;1.859474
4068.000000;1.857420
4067.000000;1.875485
4066.000000;1.931922
4065.000000;2.042813
4064.000000;2.148019
4063.000000;2.136298
4062.000000;2.047408
4061.000000;1.966776
4060.000000;1.924816
4059.000000;1.939681
4058.000000;2.048197
4057.000000;2.324100
4056.000000;2.587379
4055.000000;2.667725
4054.000000;2.932161
4053.000000;2.403106
4052.000000;2.152844
4051.000000;2.013029
4050.000000;1.946469
4049.000000;1.947580
4048.000000;2.007570
4047.000000;2.086317
4046.000000;2.128844
4045.000000;2.154947
4044.000000;2.179044
4043.000000;2.116513
4042.000000;2.045396
4041.000000;2.027945
4040.000000;2.005786
4039.000000;1.990740
4038.000000;2.030143
4037.000000;2.136463
4036.000000;2.237196
4035.000000;2.207729
4034.000000;2.233869
4033.000000;2.429790
4032.000000;2.367608
4031.000000;2.104263
4030.000000;1.999141
4029.000000;2.003857
4028.000000;2.084175
4027.000000;2.102204
4026.000000;2.034617
4025.000000;2.042510
4024.000000;2.177168
4023.000000;2.378278
4022.000000;2.489653
4021.000000;2.650556
4020.000000;2.433702
4019.000000;2.146673
4018.000000;2.063162
4017.000000;2.118201
4016.000000;2.291756
4015.000000;2.420630
4014.000000;2.368318
4013.000000;2.384737
4012.000000;2.463709
4011.000000;2.418446
4010.000000;2.516365
4009.000000;3.116369
4008.000000;2.479186
4007.000000;2.207480
4006.000000;2.009678
4005.000000;1.911112
4004.000000;1.917663
4003.000000;2.001925
4002.000000;2.099593
4001.000000;2.133386
4000.000000;2.086883
3999.000000;2.022226
3998.000000;2.007199
3997.000000;2.076564
3996.000000;2.219540
3995.000000;2.419557
3994.000000;2.462697
3993.000000;2.368721
3992.000000;2.477825
3991.000000;2.893861
3990.000000;2.462030
3989.000000;2.226174
3988.000000;2.236356
3987.000000;2.283133
3986.000000;2.336021
3985.000000;2.518521
3984.000000;2.325164
3983.000000;2.160273
3982.000000;2.100653
3981.000000;2.020382
3980.000000;1.980706
3979.000000;2.011202
3978.000000;2.076151
3977.000000;2.151584
3976.000000;2.331673
3975.000000;2.459076
3974.000000;2.218967
3973.000000;2.214373
3972.000000;2.443272
3971.000000;2.473395
3970.000000;2.325616
3969.000000;2.292572
3968.000000;2.210603
3967.000000;2.151152
3966.000000;2.141798
3965.000000;2.346934
3964.000000;2.462983
3963.000000;2.190655
3962.000000;2.120517
3961.000000;2.242638
3960.000000;2.389942
3959.000000;2.518085
3958.000000;2.388433
3957.000000;2.133115
3956.000000;2.061997
3955.000000;2.127723
3954.000000;2.179672
3953.000000;2.172862
3952.000000;2.222456
3951.000000;2.336136
3950.000000;2.486974
3949.000000;2.540078
3948.000000;2.413047
3947.000000;2.278831
3946.000000;2.174674
3945.000000;2.140827
3944.000000;2.213693
3943.000000;2.384826
3942.000000;2.490471
3941.000000;2.379660
3940.000000;2.235364
3939.000000;2.183468
3938.000000;2.243631
3937.000000;2.363568
3936.000000;2.303490
3935.000000;2.153674
3934.000000;2.111787
3933.000000;2.220501
3932.000000;2.468715
3931.000000;2.770579
3930.000000;2.571814
3929.000000;2.456285
3928.000000;2.590432
3927.000000;2.997372
3926.000000;2.489110
3925.000000;2.420156
3924.000000;2.817958
3923.000000;2.415441
3922.000000;2.081877
3921.000000;2.031222
3920.000000;2.147494
3919.000000;2.276421
3918.000000;2.144764
3917.000000;2.053018
3916.000000;2.084393
3915.000000;2.224267
3914.000000;2.421584
3913.000000;3.164835
3912.000000;3.017034
3911.000000;2.529403
3910.000000;2.575691
3909.000000;2.852591
3908.000000;2.546991
3907.000000;2.268305
3906.000000;2.202673
3905.000000;2.273305
3904.000000;2.608602
3903.000000;2.651365
3902.000000;2.193098
3901.000000;2.009956
3900.000000;2.015196
3899.000000;2.214354
3898.000000;2.570552
3897.000000;3.042709
3896.000000;3.571797
3895.000000;2.883056
3894.000000;3.037650
3893.000000;2.998065
3892.000000;2.431310
3891.000000;2.385437
3890.000000;2.479284
3889.000000;2.557536
3888.000000;2.576078
3887.000000;2.444004
3886.000000;2.271279
3885.000000;2.326985
3884.000000;2.664759
3883.000000;2.852530
3882.000000;2.704475
3881.000000;2.616863
3880.000000;2.461680
3879.000000;3.108834
3878.000000;2.630827
3877.000000;2.246850
3876.000000;2.136339
3875.000000;2.219570
3874.000000;2.435094
3873.000000;2.499591
3872.000000;2.456749
3871.000000;2.563633
3870.000000;3.018202
3869.000000;3.191405
3868.000000;3.158234
3867.000000;2.737705
3866.000000;2.528489
3865.000000;2.567584
3864.000000;2.734280
3863.000000;2.679771
3862.000000;2.435549
3861.000000;2.297714
3860.000000;2.351706
3859.000000;2.842636
3858.000000;3.090406
3857.000000;2.847517
3856.000000;2.813758
3855.000000;2.649005
3854.000000;2.590765
3853.000000;3.098305
3852.000000;2.744602
3851.000000;2.507158
3850.000000;2.532245
3849.000000;2.468576
3848.000000;2.388076
3847.000000;2.630054
3846.000000;2.962360
3845.000000;2.472739
3844.000000;2.714529
3843.000000;3.394076
3842.000000;2.689504
3841.000000;2.693355
3840.000000;2.744884
3839.000000;2.794491
3838.000000;2.818308
3837.000000;2.682901
3836.000000;2.444944
3835.000000;2.323070
3834.000000;2.327920
3833.000000;2.528517
3832.000000;2.990770
3831.000000;2.546743
3830.000000;2.285551
3829.000000;2.258707
3828.000000;2.498279
3827.000000;2.610457
3826.000000;2.307815
3825.000000;2.217816
3824.000000;2.230265
3823.000000;2.466827
3822.000000;2.647755
3821.000000;2.267208
3820.000000;2.304469
3819.000000;2.425396
3818.000000;2.486651
3817.000000;2.464428
3816.000000;2.392915
3815.000000;2.335080
3814.000000;2.281597
3813.000000;2.289695
3812.000000;2.385206
3811.000000;2.445205
3810.000000;2.596252
3809.000000;2.933261
3808.000000;2.421912
3807.000000;2.242725
3806.000000;2.406070
3805.000000;2.683931
3804.000000;2.829940
3803.000000;2.677909
3802.000000;2.463902
3801.000000;2.336104
3800.000000;2.306696
3799.000000;2.269762
3798.000000;2.152245
3797.000000;2.086394
3796.000000;2.175268
3795.000000;2.361853
3794.000000;2.713055
3793.000000;2.983881
3792.000000;2.440799
3791.000000;2.340451
3790.000000;2.476759
3789.000000;2.846715
3788.000000;2.791730
3787.000000;2.792913
3786.000000;2.500976
3785.000000;2.200953
3784.000000;2.181918
3783.000000;2.354623
3782.000000;2.613544
3781.000000;2.746866
3780.000000;2.594484
3779.000000;2.311345
3778.000000;2.238638
3777.000000;2.314035
3776.000000;2.455893
3775.000000;2.396974
3774.000000;2.225102
3773.000000;2.162663
3772.000000;2.306045
3771.000000;2.746101
3770.000000;2.234995
3769.000000;2.165377
3768.000000;2.334672
3767.000000;2.326369
3766.000000;2.196912
3765.000000;2.247894
3764.000000;2.509493
3763.000000;2.734476
3762.000000;2.439214
3761.000000;2.344029
3760.000000;2.459325
3759.000000;2.722842
3758.000000;2.877866
3757.000000;2.737421
3756.000000;2.581705
3755.000000;2.577427
3754.000000;2.664043
3753.000000;2.739781
3752.000000;2.766673
3751.000000;2.818705
3750.000000;3.464263
3749.000000;3.420318
3748.000000;3.076858
3747.000000;3.065529
3746.000000;3.043114
3745.000000;3.114555
3744.000000;3.029726
3743.000000;3.004326
3742.000000;2.897110
3741.000000;2.638890
3740.000000;2.501203
3739.000000;2.526750
3738.000000;2.789459
3737.000000;2.707655
3736.000000;2.426149
3735.000000;2.416578
3734.000000;2.359202
3733.000000;2.401515
3732.000000;2.563502
3731.000000;2.474364
3730.000000;2.485356
3729.000000;2.590321
3728.000000;2.593564
3727.000000;2.548736
3726.000000;2.514604
3725.000000;2.474106
3724.000000;2.641183
3723.000000;2.531299
3722.000000;2.287710
3721.000000;2.316911
3720.000000;2.325559
3719.000000;2.266736
3718.000000;2.424076
3717.000000;3.240013
3716.000000;2.699087
3715.000000;2.539206
3714.000000;2.648522
3713.000000;2.917329
3712.000000;3.309408
3711.000000;2.817924
3710.000000;2.684094
3709.000000;2.755004
3708.000000;2.316882
3707.000000;2.151938
3706.000000;2.303449
3705.000000;2.712755
3704.000000;2.282165
3703.000000;2.028044
3702.000000;2.068713
3701.000000;2.264605
3700.000000;2.136847
3699.000000;1.978077
3698.000000;1.980606
3697.000000;2.067899
3696.000000;2.183186
3695.000000;2.455183
3694.000000;2.815993
3693.000000;2.394305
3692.000000;2.253980
3691.000000;2.330092
3690.000000;2.404134
3689.000000;2.465425
3688.000000;2.578985
3687.000000;2.200543
3686.000000;2.028273
3685.000000;2.097207
3684.000000;2.521351
3683.000000;2.485064
3682.000000;2.185649
3681.000000;2.160939
3680.000000;2.238395
3679.000000;2.360938
3678.000000;2.575689
3677.000000;2.880078
3676.000000;2.399523
3675.000000;2.273432
3674.000000;2.358847
3673.000000;2.456205
3672.000000;2.403964
3671.000000;2.160539
3670.000000;1.980532
3669.000000;1.976858
3668.000000;2.130461
3667.000000;2.467721
3666.000000;2.436575
3665.000000;2.137228
3664.000000;1.978542
3663.000000;1.943286
3662.000000;2.044850
3661.000000;2.347301
3660.000000;3.115855
3659.000000;2.337132
3658.000000;2.139040
3657.000000;2.289512
3656.000000;2.632573
3655.000000;2.316172
3654.000000;2.328974
3653.000000;2.677072
3652.000000;3.147639
3651.000000;2.452515
3650.000000;2.516644
3649.000000;2.534621
3648.000000;2.897350
3647.000000;2.736754
3646.000000;2.220832
3645.000000;2.134308
3644.000000;2.082506
3643.000000;2.050605
3642.000000;2.128706
3641.000000;2.389008
3640.000000;2.417000
3639.000000;2.457287
3638.000000;2.734987
3637.000000;2.405366
3636.000000;2.347272
3635.000000;2.631659
3634.000000;2.419617
3633.000000;2.322416
3632.000000;2.374598
3631.000000;2.409311
3630.000000;2.239462
3629.000000;2.021070
3628.000000;2.019293
3627.000000;2.310955
3626.000000;2.880908
3625.000000;2.682590
3624.000000;2.927607
3623.000000;2.615063
3622.000000;2.272990
3621.000000;2.199999
3620.000000;2.202747
3619.000000;2.284727
3618.000000;2.289283
3617.000000;2.212142
3616.000000;2.211664
3615.000000;2.693946
3614.000000;2.597546
3613.000000;2.268260
3612.000000;2.508632
3611.000000;2.764332
3610.000000;2.334374
3609.000000;2.128036
3608.000000;2.103541
3607.000000;2.261241
3606.000000;2.619911
3605.000000;2.606165
3604.000000;2.473972
3603.000000;2.254207
3602.000000;2.082167
3601.000000;2.100132
3600.000000;2.295231
3599.000000;2.307421
3598.000000;2.202418
3597.000000;2.249290
3596.000000;2.680909
3595.000000;2.790672
3594.000000;2.130406
3593.000000;2.062339
3592.000000;2.202505
3591.000000;2.585953
3590.000000;2.668398
3589.000000;2.389854
3588.000000;2.193325
3587.000000;2.112267
3586.000000;2.154690
3585.000000;2.226737
3584.000000;2.371887
3583.000000;2.738362
3582.000000;2.364314
3581.000000;2.181483
3580.000000;2.244076
3579.000000;2.244695
3578.000000;2.228102
3577.000000;2.516525
3576.000000;2.829842
3575.000000;2.370184
3574.000000;2.388855
3573.000000;2.452565
3572.000000;2.397045
3571.000000;2.393663
3570.000000;2.509145
3569.000000;2.594374
3568.000000;2.467626
3567.000000;2.396258
3566.000000;2.332642
3565.000000;2.204484
3564.000000;2.100238
3563.000000;2.100710
3562.000000;2.215451
3561.000000;2.598952
3560.000000;2.507586
3559.000000;2.176769
3558.000000;2.121145
3557.000000;2.191419
3556.000000;2.263684
3555.000000;2.265041
3554.000000;2.283142
3553.000000;2.392783
3552.000000;2.422139
3551.000000;2.290096
3550.000000;2.116424
3549.000000;1.979072
3548.000000;1.957927
3547.000000;2.061877
3546.000000;2.212728
3545.000000;2.197682
3544.000000;2.091366
3543.000000;2.054744
3542.000000;2.071608
3541.000000;2.118801
3540.000000;2.197457
3539.000000;2.315822
3538.000000;2.433747
3537.000000;2.454310
3536.000000;2.476498
3535.000000;2.445641
3534.000000;2.419330
3533.000000;2.795193
3532.000000;2.470993
3531.000000;2.164078
3530.000000;2.138231
3529.000000;2.272423
3528.000000;2.736281
3527.000000;2.853786
3526.000000;2.559552
3525.000000;2.506954
3524.000000;2.384690
3523.000000;2.229102
3522.000000;2.158667
3521.000000;2.186313
3520.000000;2.412614
3519.000000;2.599841
3518.000000;2.184314
3517.000000;2.079462
3516.000000;2.328124
3515.000000;2.758554
3514.000000;2.898981
3513.000000;2.689435
3512.000000;2.044840
3511.000000;1.876820
3510.000000;1.909692
3509.000000;2.196427
3508.000000;2.777421
3507.000000;2.892695
3506.000000;2.747074
3505.000000;2.287847
3504.000000;2.072905
3503.000000;2.054604
3502.000000;2.123874
3501.000000;2.190140
3500.000000;2.128576
3499.000000;2.040784
3498.000000;1.991572
3497.000000;1.967711
3496.000000;1.986645
3495.000000;2.064822
3494.000000;2.170896
3493.000000;2.229497
3492.000000;2.351138
3491.000000;2.649385
3490.000000;2.343167
3489.000000;2.021254
3488.000000;1.930931
3487.000000;1.991933
3486.000000;2.223040
3485.000000;2.438682
3484.000000;2.344561
3483.000000;2.290268
3482.000000;2.304485
3481.000000;2.360539
3480.000000;2.357141
3479.000000;2.176854
3478.000000;2.040191
3477.000000;2.074265
3476.000000;2.468887
3475.000000;2.266420
3474.000000;2.029143
3473.000000;2.044057
3472.000000;2.078130
3471.000000;2.104536
3470.000000;2.309066
3469.000000;2.764032
3468.000000;2.398263
3467.000000;2.212476
3466.000000;2.135511
3465.000000;2.126093
3464.000000;2.220907
3463.000000;2.435766
3462.000000;2.712576
3461.000000;2.661607
3460.000000;2.447846
3459.000000;2.415733
3458.000000;2.659840
3457.000000;3.166391
3456.000000;2.831305
3455.000000;2.353336
3454.000000;2.035960
3453.000000;1.904413
3452.000000;1.975582
3451.000000;2.193667
3450.000000;2.159499
3449.000000;2.047937
3448.000000;2.012322
3447.000000;1.980268
3446.000000;1.975925
3445.000000;2.010795
3444.000000;2.102788
3443.000000;2.208561
3442.000000;2.152242
3441.000000;2.127504
3440.000000;2.274907
3439.000000;2.265158
3438.000000;2.217480
3437.000000;2.398165
3436.000000;2.141363
3435.000000;1.877937
3434.000000;1.809602
3433.000000;1.836158
3432.000000;1.888117
3431.000000;1.878703
3430.000000;1.856448
3429.000000;1.895323
3428.000000;1.931297
3427.000000;1.944379
3426.000000;2.061071
3425.000000;2.237502
3424.000000;2.212472
3423.000000;2.213225
3422.000000;2.553160
3421.000000;2.568007
3420.000000;2.094710
3419.000000;1.908066
3418.000000;1.895472
3417.000000;2.032397
3416.000000;2.326097
3415.000000;2.822245
3414.000000;2.847091
3413.000000;2.382710
3412.000000;2.273442
3411.000000;2.401840
3410.000000;2.718503
3409.000000;2.728147
3408.000000;2.573389
3407.000000;2.508391
3406.000000;2.368649
3405.000000;2.074573
3404.000000;1.904744
3403.000000;1.959319
3402.000000;2.222077
3401.000000;2.109517
3400.000000;1.932353
3399.000000;1.959021
3398.000000;1.986084
3397.000000;1.963735
3396.000000;1.945480
3395.000000;1.981651
3394.000000;2.112705
3393.000000;2.376059
3392.000000;2.478632
3391.000000;2.572253
3390.000000;2.787623
3389.000000;2.249858
3388.000000;2.114345
3387.000000;2.193763
3386.000000;2.294013
3385.000000;2.202227
3384.000000;2.065741
3383.000000;2.072501
3382.000000;2.206156
3381.000000;2.226581
3380.000000;2.133445
3379.000000;2.271231
3378.000000;2.618818
3377.000000;2.168367
3376.000000;1.886188
3375.000000;1.880102
3374.000000;2.032453
3373.000000;2.136309
3372.000000;2.037113
3371.000000;1.931107
3370.000000;1.863631
3369.000000;1.856960
3368.000000;1.906828
3367.000000;1.917412
3366.000000;1.893612
3365.000000;1.962692
3364.000000;1.973747
3363.000000;1.814744
3362.000000;1.747888
3361.000000;1.795613
3360.000000;1.901960
3359.000000;2.030321
3358.000000;2.192706
3357.000000;2.616579
3356.000000;2.927919
3355.000000;2.450057
3354.000000;2.547948
3353.000000;2.434456
3352.000000;2.213137
3351.000000;1.966304
3350.000000;1.760566
3349.000000;1.720953
3348.000000;1.854430
3347.000000;1.962926
3346.000000;1.839506
3345.000000;1.763828
3344.000000;1.779766
3343.000000;1.847509
3342.000000;2.044653
3341.000000;2.280360
3340.000000;2.084243
3339.000000;1.975358
3338.000000;1.945558
3337.000000;1.997613
3336.000000;2.395026
3335.000000;2.257627
3334.000000;1.857194
3333.000000;1.733856
3332.000000;1.732456
3331.000000;1.825699
3330.000000;2.057022
3329.000000;2.354291
3328.000000;2.246175
3327.000000;2.144903
3326.000000;2.017125
3325.000000;1.870414
3324.000000;1.892964
3323.000000;2.208636
3322.000000;2.195307
3321.000000;1.928887
3320.000000;1.935481
3319.000000;1.956829
3318.000000;1.906120
3317.000000;1.939296
3316.000000;2.292560
3315.000000;2.148210
3314.000000;1.861374
3313.000000;1.845489
3312.000000;1.934016
3311.000000;1.864814
3310.000000;1.734744
3309.000000;1.711352
3308.000000;1.771479
3307.000000;1.871301
3306.000000;1.993718
3305.000000;2.072445
3304.000000;2.072760
3303.000000;2.120700
3302.000000;2.245285
3301.000000;2.335018
3300.000000;2.248827
3299.000000;2.101384
3298.000000;1.996859
3297.000000;2.111429
3296.000000;2.210161
3295.000000;1.905062
3294.000000;1.767817
3293.000000;1.858096
3292.000000;2.332489
3291.000000;2.162662
3290.000000;1.816364
3289.000000;1.751616
3288.000000;1.782436
3287.000000;1.902107
3286.000000;2.062019
3285.000000;2.182090
3284.000000;2.306861
3283.000000;2.190518
3282.000000;1.879793
3281.000000;1.741365
3280.000000;1.788490
3279.000000;1.898988
3278.000000;1.866792
3277.000000;1.834243
3276.000000;1.758244
3275.000000;1.662253
3274.000000;1.677908
3273.000000;2.014702
3272.000000;2.372933
3271.000000;1.890280
3270.000000;1.852995
3269.000000;1.963265
3268.000000;2.110284
3267.000000;2.122184
3266.000000;1.943485
3265.000000;1.772321
3264.000000;1.669216
3263.000000;1.666233
3262.000000;1.782266
3261.000000;1.988786
3260.000000;2.071968
3259.000000;2.013995
3258.000000;1.969366
3257.000000;1.988027
3256.000000;2.073051
3255.000000;1.960781
3254.000000;1.786731
3253.000000;1.736357
3252.000000;1.757559
3251.000000;1.799823
3250.000000;1.872462
3249.000000;1.988022
3248.000000;2.112741
3247.000000;2.191691
3246.000000;2.112399
3245.000000;1.908914
3244.000000;1.726839
3243.000000;1.605939
3242.000000;1.569959
3241.000000;1.632622
3240.000000;1.795105
3239.000000;2.028992
3238.000000;2.116950
3237.000000;2.063101
3236.000000;2.177175
3235.000000;2.456036
3234.000000;2.547817
3233.000000;2.395514
3232.000000;2.111225
3231.000000;2.000586
3230.000000;2.212461
3229.000000;2.730227
3228.000000;2.461380
3227.000000;2.699246
3226.000000;2.055790
3225.000000;1.739252
3224.000000;1.662927
3223.000000;1.732276
3222.000000;1.939407
3221.000000;2.141980
3220.000000;2.102907
3219.000000;2.002886
3218.000000;1.959479
3217.000000;1.954113
3216.000000;1.972768
3215.000000;1.965756
3214.000000;1.908644
3213.000000;1.841425
3212.000000;1.796859
3211.000000;1.776192
3210.000000;1.775398
3209.000000;1.801466
3208.000000;1.862235
3207.000000;1.951728
3206.000000;2.050221
3205.000000;2.165684
3204.000000;2.347668
3203.000000;2.536726
3202.000000;2.447375
3201.000000;2.156659
3200.000000;1.926654
3199.000000;1.830799
3198.000000;1.899213
3197.000000;2.216579
3196.000000;2.493074
3195.000000;2.273133
3194.000000;2.097973
3193.000000;1.907000
3192.000000;2.060431
3191.000000;2.456289
3190.000000;2.044288
3189.000000;1.958056
3188.000000;2.062425
3187.000000;1.905960
3186.000000;1.789152
3185.000000;1.895451
3184.000000;2.315405
3183.000000;2.756397
3182.000000;2.593036
3181.000000;2.146555
3180.000000;1.919217
3179.000000;1.890128
3178.000000;1.927181
3177.000000;2.036802
3176.000000;2.310579
3175.000000;2.867048
3174.000000;3.091632
3173.000000;3.032391
3172.000000;2.696736
3171.000000;2.453259
3170.000000;2.385529
3169.000000;2.338809
3168.000000;2.240226
3167.000000;2.120008
3166.000000;2.032454
3165.000000;1.997144
3164.000000;2.023830
3163.000000;2.090189
3162.000000;2.107412
3161.000000;2.072346
3160.000000;2.026957
3159.000000;2.003531
3158.000000;2.041402
3157.000000;2.196031
3156.000000;2.425157
3155.000000;2.140082
3154.000000;1.899484
3153.000000;1.862999
3152.000000;1.983348
3151.000000;2.303356
3150.000000;2.918431
3149.000000;3.104420
3148.000000;2.501821
3147.000000;2.241572
3146.000000;2.137956
3145.000000;2.094928
3144.000000;2.125799
3143.000000;2.279754
3142.000000;2.360368
3141.000000;2.203650
3140.000000;2.138494
3139.000000;2.228048
3138.000000;2.210754
3137.000000;1.981569
3136.000000;1.872837
3135.000000;1.909793
3134.000000;2.070649
3133.000000;2.258765
3132.000000;2.224622
3131.000000;2.103666
3130.000000;2.056735
3129.000000;2.075922
3128.000000;2.147033
3127.000000;2.212381
3126.000000;2.154068
3125.000000;2.102695
3124.000000;2.176445
3123.000000;2.324717
3122.000000;2.384810
3121.000000;2.322300
3120.000000;2.295202
3119.000000;2.286612
3118.000000;2.124903
3117.000000;1.958056
3116.000000;1.907090
3115.000000;1.981871
3114.000000;2.201421
3113.000000;2.469492
3112.000000;2.341131
3111.000000;2.076798
3110.000000;1.922079
3109.000000;1.886799
3108.000000;1.966775
3107.000000;2.248970
3106.000000;2.644313
3105.000000;2.387369
3104.000000;2.512132
3103.000000;2.859013
3102.000000;2.620491
3101.000000;2.774457
3100.000000;2.318244
3099.000000;2.076680
3098.000000;2.186175
3097.000000;2.704539
3096.000000;2.242717
3095.000000;1.901876
3094.000000;1.791127
3093.000000;1.780299
3092.000000;1.968993
3091.000000;2.485426
3090.000000;2.203622
3089.000000;2.035694
3088.000000;2.318816
3087.000000;2.474044
3086.000000;2.029707
3085.000000;1.880945
3084.000000;1.810296
3083.000000;1.803326
3082.000000;1.938429
3081.000000;2.148950
3080.000000;2.084164
3079.000000;1.984410
3078.000000;2.035505
3077.000000;2.212425
3076.000000;2.767925
3075.000000;2.315689
3074.000000;2.131789
3073.000000;2.539897
3072.000000;2.312602
3071.000000;2.017809
3070.000000;2.156781
3069.000000;3.199125
3068.000000;2.400352
3067.000000;2.285184
3066.000000;2.447337
3065.000000;2.505830
3064.000000;2.266429
3063.000000;2.002609
3062.000000;1.974780
3061.000000;1.997728
3060.000000;1.926973
3059.000000;1.931011
3058.000000;2.090336
3057.000000;2.166303
3056.000000;2.138346
3055.000000;2.301615
3054.000000;2.561501
3053.000000;2.494570
3052.000000;2.255199
3051.000000;2.095795
3050.000000;2.018524
3049.000000;1.995126
3048.000000;2.033547
3047.000000;2.125899
3046.000000;2.157360
3045.000000;2.114214
3044.000000;2.115788
3043.000000;2.120856
3042.000000;2.193143
3041.000000;2.364888
3040.000000;2.236404
3039.000000;2.274411
3038.000000;2.770853
3037.000000;2.427115
3036.000000;2.157862
3035.000000;2.165206
3034.000000;2.097108
3033.000000;1.914309
3032.000000;1.874576
3031.000000;2.021339
3030.000000;2.256916
3029.000000;2.190828
3028.000000;1.916342
3027.000000;1.780895
3026.000000;1.795003
3025.000000;1.930766
3024.000000;2.366456
3023.000000;2.576738
3022.000000;2.207299
3021.000000;2.212052
3020.000000;2.455893
3019.000000;3.150386
3018.000000;2.607035
3017.000000;2.198495
3016.000000;2.101792
3015.000000;2.125587
3014.000000;2.171215
3013.000000;2.169368
3012.000000;2.029428
3011.000000;1.889502
3010.000000;1.900078
3009.000000;1.985742
3008.000000;1.966001
3007.000000;1.898544
3006.000000;1.853344
3005.000000;1.833690
3004.000000;1.870422
3003.000000;1.968463
3002.000000;2.070529
3001.000000;2.123971
3000.000000;2.125124
2999.000000;2.021188
2998.000000;1.937696
2997.000000;1.953918
2996.000000;2.138995
2995.000000;2.473274
2994.000000;2.425776
2993.000000;2.555743
2992.000000;2.431247
2991.000000;2.078841
2990.000000;1.991257
2989.000000;2.028043
2988.000000;2.074852
2987.000000;2.080129
2986.000000;2.241968
2985.000000;2.697792
2984.000000;2.281172
2983.000000;1.948836
2982.000000;1.795335
2981.000000;1.761692
2980.000000;1.900667
2979.000000;2.362245
2978.000000;2.235787
2977.000000;1.866800
2976.000000;1.833042
2975.000000;1.943900
2974.000000;2.402599
2973.000000;2.211751
2972.000000;1.796145
2971.000000;1.727578
2970.000000;1.791519
2969.000000;1.923103
2968.000000;2.164771
2967.000000;2.479049
2966.000000;2.110992
2965.000000;1.964809
2964.000000;2.208098
2963.000000;2.352697
2962.000000;1.960780
2961.000000;1.799873
2960.000000;1.803128
2959.000000;1.891274
2958.000000;2.039711
2957.000000;2.198386
2956.000000;2.541796
2955.000000;2.720617
2954.000000;2.369321
2953.000000;2.210855
2952.000000;1.993643
2951.000000;1.865742
2950.000000;1.883862
2949.000000;2.078476
2948.000000;2.450304
2947.000000;2.949871
2946.000000;2.562258
2945.000000;1.998582
2944.000000;1.784948
2943.000000;1.807186
2942.000000;2.185274
2941.000000;2.556311
2940.000000;2.256330
2939.000000;2.140816
2938.000000;2.056794
2937.000000;2.239329
2936.000000;2.264390
2935.000000;1.938536
2934.000000;1.910255
2933.000000;2.223398
2932.000000;2.252154
2931.000000;2.035321
2930.000000;2.018912
2929.000000;1.864559
2928.000000;1.757087
2927.000000;1.790562
2926.000000;1.944020
2925.000000;2.372407
2924.000000;2.257903
2923.000000;1.924566
2922.000000;2.353957
2921.000000;2.504853
2920.000000;1.872965
2919.000000;1.905155
2918.000000;2.136465
2917.000000;2.184650
2916.000000;2.049835
2915.000000;2.163992
2914.000000;2.675330
2913.000000;2.539343
2912.000000;2.430739
2911.000000;2.213605
2910.000000;1.961915
2909.000000;1.907463
2908.000000;1.997389
2907.000000;2.214716
2906.000000;2.291134
2905.000000;2.204784
2904.000000;2.468343
2903.000000;2.591675
2902.000000;2.140254
2901.000000;2.121971
2900.000000;2.278634
2899.000000;2.505020
2898.000000;2.603466
2897.000000;2.203990
2896.000000;2.079504
2895.000000;2.137554
2894.000000;2.114316
2893.000000;2.256689
2892.000000;2.551601
2891.000000;2.170514
2890.000000;2.064018
2889.000000;2.465157
2888.000000;2.244473
2887.000000;2.086558
2886.000000;2.635686
2885.000000;2.086321
2884.000000;1.790958
2883.000000;1.802370
2882.000000;1.853180
2881.000000;1.923334
2880.000000;2.064643
2879.000000;2.074644
2878.000000;2.007044
2877.000000;2.067514
2876.000000;1.992023
2875.000000;1.898728
2874.000000;2.031025
2873.000000;2.238200
2872.000000;2.086002
2871.000000;2.067458
2870.000000;2.192363
2869.000000;2.190027
2868.000000;2.198634
2867.000000;2.246516
2866.000000;2.036991
2865.000000;1.895322
2864.000000;2.186731
2863.000000;2.292855
2862.000000;1.846512
2861.000000;1.807314
2860.000000;2.191462
2859.000000;2.393593
2858.000000;2.155232
2857.000000;2.220064
2856.000000;2.132553
2855.000000;2.118264
2854.000000;2.151797
2853.000000;1.935822
2852.000000;1.836867
2851.000000;1.972748
2850.000000;2.274695
2849.000000;2.376529
2848.000000;2.330909
2847.000000;2.115887
2846.000000;1.956566
2845.000000;1.882475
2844.000000;1.859227
2843.000000;1.960547
2842.000000;2.220625
2841.000000;2.385399
2840.000000;2.240076
2839.000000;2.234617
2838.000000;2.261143
2837.000000;2.020139
2836.000000;1.823826
2835.000000;1.807623
2834.000000;1.899444
2833.000000;1.922578
2832.000000;1.829768
2831.000000;1.795719
2830.000000;1.853325
2829.000000;2.099481
2828.000000;2.532336
2827.000000;2.094689
2826.000000;1.936493
2825.000000;2.067269
2824.000000;2.075262
2823.000000;1.865867
2822.000000;1.801844
2821.000000;1.887296
2820.000000;1.992374
2819.000000;2.058244
2818.000000;2.138903
2817.000000;2.047075
2816.000000;1.832235
2815.000000;1.690364
2814.000000;1.620476
2813.000000;1.627061
2812.000000;1.739838
2811.000000;1.999471
2810.000000;2.123743
2809.000000;2.025569
2808.000000;2.073361
2807.000000;2.031411
2806.000000;2.120861
2805.000000;2.599221
2804.000000;2.407726
2803.000000;2.584585
2802.000000;2.438368
2801.000000;2.039652
2800.000000;2.018238
2799.000000;2.048015
2798.000000;1.950583
2797.000000;1.920003
2796.000000;1.982456
2795.000000;1.968794
2794.000000;2.011978
2793.000000;2.186947
2792.000000;2.429962
2791.000000;2.475563
2790.000000;2.308729
2789.000000;2.124258
2788.000000;1.996934
2787.000000;2.423335
2786.000000;2.410843
2785.000000;1.833423
2784.000000;1.897744
2783.000000;2.354312
2782.000000;2.148532
2781.000000;1.958326
2780.000000;2.057382
2779.000000;1.966620
2778.000000;2.007772
2777.000000;2.345090
2776.000000;2.262283
2775.000000;2.218401
2774.000000;2.086591
2773.000000;2.009624
2772.000000;2.017341
2771.000000;1.718792
2770.000000;1.569969
2769.000000;1.616572
2768.000000;1.937157
2767.000000;2.686229
2766.000000;2.328066
2765.000000;2.192857
2764.000000;2.103337
2763.000000;2.193499
2762.000000;2.213993
2761.000000;2.328458
2760.000000;2.644430
2759.000000;2.109719
2758.000000;1.919464
2757.000000;1.890033
2756.000000;1.928570
2755.000000;1.949415
2754.000000;1.809575
2753.000000;1.685196
2752.000000;1.672089
2751.000000;1.714501
2750.000000;1.731724
2749.000000;1.731482
2748.000000;1.775953
2747.000000;1.853793
2746.000000;2.012426
2745.000000;2.431035
2744.000000;2.184325
2743.000000;1.822119
2742.000000;1.732162
2741.000000;1.773521
2740.000000;1.981772
2739.000000;2.245938
2738.000000;2.052860
2737.000000;1.932416
2736.000000;1.956277
2735.000000;2.027930
2734.000000;2.185593
2733.000000;2.200472
2732.000000;1.976046
2731.000000;1.844208
2730.000000;1.862048
2729.000000;1.990157
2728.000000;1.986549
2727.000000;1.892321
2726.000000;1.950833
2725.000000;1.925747
2724.000000;1.776817
2723.000000;1.720931
2722.000000;1.810009
2721.000000;1.888972
2720.000000;1.742844
2719.000000;1.643663
2718.000000;1.786974
2717.000000;2.187321
2716.000000;2.184799
2715.000000;2.036247
2714.000000;1.847293
2713.000000;1.704406
2712.000000;1.852806
2711.000000;2.279675
2710.000000;2.114222
2709.000000;2.136916
2708.000000;2.086195
2707.000000;1.710225
2706.000000;1.662674
2705.000000;1.889966
2704.000000;2.273044
2703.000000;2.873639
2702.000000;2.313888
2701.000000;1.769530
2700.000000;1.606251
2699.000000;1.592207
2698.000000;1.659178
2697.000000;1.944223
2696.000000;2.064057
2695.000000;1.661000
2694.000000;1.512867
2693.000000;1.525600
2692.000000;1.615585
2691.000000;1.722907
2690.000000;1.619860
2689.000000;1.467262
2688.000000;1.428313
2687.000000;1.499789
2686.000000;1.755491
2685.000000;2.101033
2684.000000;1.880366
2683.000000;1.759326
2682.000000;1.826270
2681.000000;1.822306
2680.000000;1.663181
2679.000000;1.628192
2678.000000;1.798368
2677.000000;2.081136
2676.000000;2.335219
2675.000000;2.324508
2674.000000;1.937097
2673.000000;1.641677
2672.000000;1.504597
2671.000000;1.505709
2670.000000;1.661726
2669.000000;1.786204
2668.000000;1.783276
2667.000000;2.001127
2666.000000;2.089702
2665.000000;1.807098
2664.000000;1.765484
2663.000000;1.817168
2662.000000;1.912020
2661.000000;1.877734
2660.000000;2.057013
2659.000000;2.506238
2658.000000;1.682646
2657.000000;1.457087
2656.000000;1.519001
2655.000000;1.753397
2654.000000;1.712040
2653.000000;1.516154
2652.000000;1.480398
2651.000000;1.468734
2650.000000;1.463996
2649.000000;1.446664
2648.000000;1.447840
2647.000000;1.531381
2646.000000;1.553582
2645.000000;1.401488
2644.000000;1.295132
2643.000000;1.281959
2642.000000;1.349743
2641.000000;1.505689
2640.000000;1.776717
2639.000000;2.267667
2638.000000;2.542847
2637.000000;2.183386
2636.000000;1.796199
2635.000000;1.615784
2634.000000;1.610207
2633.000000;1.895851
2632.000000;2.208109
2631.000000;1.772187
2630.000000;1.676589
2629.000000;1.589769
2628.000000;1.486303
2627.000000;1.466731
2626.000000;1.463672
2625.000000;1.518650
2624.000000;1.758826
2623.000000;2.037445
2622.000000;1.909679
2621.000000;1.947037
2620.000000;1.891828
2619.000000;1.738183
2618.000000;1.755722
2617.000000;1.672471
2616.000000;1.473617
2615.000000;1.364742
2614.000000;1.374272
2613.000000;1.500016
2612.000000;1.749865
2611.000000;1.904418
2610.000000;2.048743
2609.000000;2.314409
2608.000000;1.819603
2607.000000;1.526950
2606.000000;1.379095
2605.000000;1.303042
2604.000000;1.294931
2603.000000;1.313663
2602.000000;1.348866
2601.000000;1.374961
2600.000000;1.399786
2599.000000;1.436073
2598.000000;1.541864
2597.000000;1.947946
2596.000000;2.022211
2595.000000;1.670949
2594.000000;1.697623
2593.000000;1.846273
2592.000000;2.042936
2591.000000;2.361586
2590.000000;2.795391
2589.000000;2.890209
2588.000000;2.189805
2587.000000;1.853424
2586.000000;1.734770
2585.000000;1.723888
2584.000000;1.824016
2583.000000;1.927190
2582.000000;1.777525
2581.000000;1.640576
2580.000000;1.746287
2579.000000;2.204002
2578.000000;2.113981
2577.000000;1.875142
2576.000000;1.863872
2575.000000;1.828517
2574.000000;1.814373
2573.000000;1.734375
2572.000000;1.658705
2571.000000;1.677257
2570.000000;1.845595
2569.000000;2.127246
2568.000000;1.955522
2567.000000;1.737675
2566.000000;1.695824
2565.000000;1.844241
2564.000000;2.256059
2563.000000;2.233050
2562.000000;1.779403
2561.000000;1.556399
2560.000000;1.512783
2559.000000;1.795503
2558.000000;2.266819
2557.000000;1.942045
2556.000000;2.071322
2555.000000;1.856864
2554.000000;1.605957
2553.000000;1.692135
2552.000000;1.891841
2551.000000;1.785506
2550.000000;1.937346
2549.000000;2.248182
2548.000000;1.737935
2547.000000;1.706756
2546.000000;2.054677
2545.000000;2.052330
2544.000000;1.770194
2543.000000;1.712661
2542.000000;1.682342
2541.000000;1.687130
2540.000000;1.778493
2539.000000;1.794253
2538.000000;1.677091
2537.000000;1.537824
2536.000000;1.467445
2535.000000;1.483224
2534.000000;1.629035
2533.000000;1.924904
2532.000000;2.066386
2531.000000;2.020498
2530.000000;2.102316
2529.000000;2.025719
2528.000000;2.127181
2527.000000;2.394705
2526.000000;1.808183
2525.000000;1.495708
2524.000000;1.356071
2523.000000;1.325303
2522.000000;1.397360
2521.000000;1.538911
2520.000000;1.717281
2519.000000;1.867628
2518.000000;2.189419
2517.000000;2.427970
2516.000000;2.020236
2515.000000;1.969716
2514.000000;2.017906
2513.000000;1.787005
2512.000000;1.615557
2511.000000;1.603251
2510.000000;1.707003
2509.000000;1.885616
2508.000000;2.101087
2507.000000;2.259829
2506.000000;2.093424
2505.000000;1.795776
2504.000000;1.612040
2503.000000;1.556674
2502.000000;1.590279
2501.000000;1.627578
2500.000000;1.642276
2499.000000;1.711045
2498.000000;1.849096
2497.000000;2.019747
2496.000000;2.070857
2495.000000;1.930584
2494.000000;1.837186
2493.000000;1.903149
2492.000000;2.089257
2491.000000;2.270944
2490.000000;2.746330
2489.000000;2.701867
2488.000000;2.472874
2487.000000;2.322939
2486.000000;1.976757
2485.000000;1.839832
2484.000000;1.907053
2483.000000;2.061561
2482.000000;2.257296
2481.000000;2.872498
2480.000000;2.195768
2479.000000;1.812861
2478.000000;1.762252
2477.000000;1.803526
2476.000000;1.801498
2475.000000;1.811241
2474.000000;1.934075
2473.000000;2.039652
2472.000000;2.340096
2471.000000;2.656933
2470.000000;2.075332
2469.000000;2.224266
2468.000000;2.737803
2467.000000;2.069456
2466.000000;1.995112
2465.000000;1.919912
2464.000000;1.811989
2463.000000;1.904819
2462.000000;2.071725
2461.000000;2.639643
2460.000000;2.442755
2459.000000;1.897495
2458.000000;1.875147
2457.000000;2.056552
2456.000000;1.991182
2455.000000;1.791590
2454.000000;1.821428
2453.000000;2.080113
2452.000000;2.136006
2451.000000;2.169958
2450.000000;2.225624
2449.000000;2.088260
2448.000000;1.980316
2447.000000;1.793996
2446.000000;1.662860
2445.000000;1.619971
2444.000000;1.700368
2443.000000;2.060412
2442.000000;2.673309
2441.000000;2.470980
2440.000000;1.952579
2439.000000;1.642000
2438.000000;1.638707
2437.000000;1.871476
2436.000000;2.203364
2435.000000;2.924432
2434.000000;2.588228
2433.000000;2.058474
2432.000000;1.989887
2431.000000;2.014093
2430.000000;1.981186
2429.000000;2.182492
2428.000000;2.414028
2427.000000;1.994325
2426.000000;1.838652
2425.000000;2.048333
2424.000000;2.525075
2423.000000;2.143000
2422.000000;1.997129
2421.000000;2.022807
2420.000000;2.029885
2419.000000;1.926977
2418.000000;1.714934
2417.000000;1.653155
2416.000000;1.760697
2415.000000;2.099983
2414.000000;2.558457
2413.000000;2.334178
2412.000000;2.029245
2411.000000;1.816564
2410.000000;1.747751
2409.000000;1.765771
2408.000000;1.829105
2407.000000;2.101961
2406.000000;2.208435
2405.000000;1.910038
2404.000000;1.803049
2403.000000;1.821513
2402.000000;1.815861
2401.000000;1.879992
2400.000000;2.392088
2399.000000;2.251195
2398.000000;1.961964
2397.000000;2.208101
2396.000000;2.029494
2395.000000;1.701511
2394.000000;1.606560
2393.000000;1.648423
2392.000000;1.807222
2391.000000;2.123910
2390.000000;2.744520
2389.000000;2.316916
2388.000000;1.780358
2387.000000;1.562951
2386.000000;1.528419
2385.000000;1.732921
2384.000000;2.152563
2383.000000;1.924382
2382.000000;1.806849
2381.000000;2.291429
2380.000000;2.169517
2379.000000;1.812936
2378.000000;2.039635
2377.000000;1.962109
2376.000000;1.619896
2375.000000;1.473452
2374.000000;1.415458
2373.000000;1.428498
2372.000000;1.545189
2371.000000;1.903649
2370.000000;2.125133
2369.000000;1.848608
2368.000000;1.801484
2367.000000;1.782595
2366.000000;1.633753
2365.000000;1.514542
2364.000000;1.491061
2363.000000;1.778401
2362.000000;2.343066
2361.000000;1.775990
2360.000000;1.575613
2359.000000;1.663981
2358.000000;1.843503
2357.000000;1.582183
2356.000000;1.365348
2355.000000;1.330500
2354.000000;1.372794
2353.000000;1.510507
2352.000000;1.654592
2351.000000;1.655143
2350.000000;1.600476
2349.000000;1.580399
2348.000000;1.580551
2347.000000;1.589403
2346.000000;1.612042
2345.000000;1.699779
2344.000000;1.817215
2343.000000;1.874672
2342.000000;1.778919
2341.000000;1.645948
2340.000000;1.558769
2339.000000;1.677550
2338.000000;1.938593
2337.000000;1.562999
2336.000000;1.351610
2335.000000;1.346168
2334.000000;1.472636
2333.000000;1.756716
2332.000000;2.122758
2331.000000;2.165233
2330.000000;1.909191
2329.000000;1.698570
2328.000000;1.663633
2327.000000;2.200380
2326.000000;2.312252
2325.000000;1.847110
2324.000000;1.892366
2323.000000;1.578468
2322.000000;1.343143
2321.000000;1.294414
2320.000000;1.403432
2319.000000;1.823453
2318.000000;2.196074
2317.000000;1.804975
2316.000000;1.628445
2315.000000;1.492737
2314.000000;1.388354
2313.000000;1.352945
2312.000000;1.386397
2311.000000;1.497904
2310.000000;1.630641
2309.000000;1.771754
2308.000000;1.802929
2307.000000;1.569764
2306.000000;1.446871
2305.000000;1.567331
2304.000000;1.609902
2303.000000;1.393434
2302.000000;1.334016
2301.000000;1.383856
2300.000000;1.411077
2299.000000;1.368768
2298.000000;1.340845
2297.000000;1.365989
2296.000000;1.524562
2295.000000;2.118911
2294.000000;2.168070
2293.000000;1.975078
2292.000000;1.986770
2291.000000;1.713730
2290.000000;1.679264
2289.000000;1.859018
2288.000000;1.906152
2287.000000;1.778098
2286.000000;1.713895
2285.000000;1.660768
2284.000000;1.717660
2283.000000;1.976141
2282.000000;2.254053
2281.000000;2.125106
2280.000000;1.935374
2279.000000;1.987985
2278.000000;1.926880
2277.000000;1.671846
2276.000000;1.596129
2275.000000;1.655263
2274.000000;1.783260
2273.000000;1.908455
2272.000000;2.022552
2271.000000;2.320327
2270.000000;2.432016
2269.000000;2.112933
2268.000000;1.867548
2267.000000;1.663504
2266.000000;1.527757
2265.000000;1.487262
2264.000000;1.525579
2263.000000;1.570433
2262.000000;1.525472
2261.000000;1.390952
2260.000000;1.287092
2259.000000;1.277961
2258.000000;1.433498
2257.000000;1.625007
2256.000000;1.497291
2255.000000;1.423914
2254.000000;1.490799
2253.000000;1.623882
2252.000000;1.800287
2251.000000;2.106208
2250.000000;2.045418
2249.000000;1.715389
2248.000000;1.581323
2247.000000;1.458576
2246.000000;1.449821
2245.000000;1.576824
2244.000000;1.594084
2243.000000;1.572440
2242.000000;1.632577
2241.000000;1.585099
2240.000000;1.562156
2239.000000;1.825708
2238.000000;1.939749
2237.000000;1.826305
2236.000000;2.067114
2235.000000;1.811349
2234.000000;1.669919
2233.000000;1.918826
2232.000000;1.891710
2231.000000;1.690715
2230.000000;1.719124
2229.000000;1.870838
2228.000000;2.058335
2227.000000;2.210040
2226.000000;2.587614
2225.000000;3.069987
2224.000000;2.120097
2223.000000;1.825564
2222.000000;1.680331
2221.000000;1.655233
2220.000000;1.741037
2219.000000;1.873737
2218.000000;2.302554
2217.000000;2.301164
2216.000000;1.802042
2215.000000;1.719355
2214.000000;1.823677
2213.000000;2.021894
2212.000000;2.108267
2211.000000;1.776254
2210.000000;1.538599
2209.000000;1.521179
2208.000000;1.683632
2207.000000;1.590604
2206.000000;1.385107
2205.000000;1.348356
2204.000000;1.475691
2203.000000;1.843888
2202.000000;1.867049
2201.000000;1.588820
2200.000000;1.584372
2199.000000;1.947659
2198.000000;2.259504
2197.000000;1.719512
2196.000000;1.652590
2195.000000;1.914503
2194.000000;2.198491
2193.000000;1.841846
2192.000000;1.719553
2191.000000;2.070489
2190.000000;2.235196
2189.000000;1.800530
2188.000000;1.730133
2187.000000;1.867239
2186.000000;2.151417
2185.000000;2.606794
2184.000000;1.971239
2183.000000;1.741967
2182.000000;1.719670
2181.000000;1.918120
2180.000000;2.299668
2179.000000;1.791290
2178.000000;1.573151
2177.000000;1.595820
2176.000000;1.795479
2175.000000;1.708723
2174.000000;1.442676
2173.000000;1.394688
2172.000000;1.551135
2171.000000;2.049572
2170.000000;2.029677
2169.000000;1.747690
2168.000000;1.810605
2167.000000;1.747074
2166.000000;1.642940
2165.000000;1.648796
2164.000000;1.816511
2163.000000;2.348366
2162.000000;2.014185
2161.000000;1.810863
2160.000000;2.257200
2159.000000;2.136080
2158.000000;1.768660
2157.000000;1.785526
2156.000000;2.130187
2155.000000;2.315323
2154.000000;2.049090
2153.000000;2.319640
2152.000000;2.200780
2151.000000;1.790703
2150.000000;1.787035
2149.000000;1.884013
2148.000000;1.748290
2147.000000;1.708742
2146.000000;1.834595
2145.000000;2.048692
2144.000000;1.962552
2143.000000;1.704069
2142.000000;1.609118
2141.000000;1.665290
2140.000000;2.129981
2139.000000;2.101938
2138.000000;1.610145
2137.000000;1.498575
2136.000000;1.496587
2135.000000;1.575739
2134.000000;1.619624
2133.000000;1.592126
2132.000000;1.625592
2131.000000;1.710905
2130.000000;1.763961
2129.000000;1.750669
2128.000000;1.822239
2127.000000;1.927965
2126.000000;1.831173
2125.000000;1.786505
2124.000000;1.797347
2123.000000;1.893829
2122.000000;2.307664
2121.000000;1.922501
2120.000000;1.553674
2119.000000;1.479593
2118.000000;1.581511
2117.000000;1.915710
2116.000000;2.073467
2115.000000;1.928649
2114.000000;1.990953
2113.000000;1.832444
2112.000000;1.648482
2111.000000;1.623847
2110.000000;1.786757
2109.000000;1.977698
2108.000000;1.795749
2107.000000;1.686930
2106.000000;1.700728
2105.000000;1.683728
2104.000000;1.573753
2103.000000;1.480677
2102.000000;1.498277
2101.000000;1.627398
2100.000000;1.768954
2099.000000;1.755377
2098.000000;1.702537
2097.000000;1.755045
2096.000000;1.946179
2095.000000;2.429235
2094.000000;2.630234
2093.000000;2.080460
2092.000000;1.973748
2091.000000;2.174056
2090.000000;2.141833
2089.000000;1.959324
2088.000000;2.116563
2087.000000;2.070160
2086.000000;1.819317
2085.000000;1.849507
2084.000000;2.007341
2083.000000;1.904330
2082.000000;1.751623
2081.000000;1.828480
2080.000000;2.092218
2079.000000;2.172708
2078.000000;1.920309
2077.000000;1.816291
2076.000000;2.101317
2075.000000;2.221318
2074.000000;1.778557
2073.000000;1.694082
2072.000000;1.729372
2071.000000;1.960051
2070.000000;2.234458
2069.000000;1.707301
2068.000000;1.505979
2067.000000;1.498188
2066.000000;1.541991
2065.000000;1.505836
2064.000000;1.426835
2063.000000;1.392361
2062.000000;1.395430
2061.000000;1.455387
2060.000000;1.516860
2059.000000;1.578741
2058.000000;1.705100
2057.000000;2.009181
2056.000000;2.226146
2055.000000;2.136396
2054.000000;2.426412
2053.000000;2.277264
2052.000000;2.045694
2051.000000;2.283200
2050.000000;2.799501
2049.000000;2.915782
2048.000000;2.289410
2047.000000;1.885702
2046.000000;1.739492
2045.000000;1.788828
2044.000000;1.927117
2043.000000;1.882114
2042.000000;1.807085
2041.000000;1.793959
2040.000000;1.740428
2039.000000;1.812162
2038.000000;1.957006
2037.000000;2.036823
2036.000000;2.197108
2035.000000;1.822831
2034.000000;1.532283
2033.000000;1.498838
2032.000000;1.690767
2031.000000;1.924554
2030.000000;1.764765
2029.000000;1.656360
2028.000000;1.698118
2027.000000;1.800347
2026.000000;1.775671
2025.000000;1.646476
2024.000000;1.716965
2023.000000;2.156263
2022.000000;2.144486
2021.000000;1.851543
2020.000000;1.788360
2019.000000;1.722093
2018.000000;1.704353
2017.000000;1.775170
2016.000000;1.893616
2015.000000;1.955652
2014.000000;1.961275
2013.000000;1.949766
2012.000000;1.945638
2011.000000;2.110978
2010.000000;2.363592
2009.000000;2.232264
2008.000000;2.095040
2007.000000;2.062957
2006.000000;2.102955
2005.000000;2.076230
2004.000000;1.897837
2003.000000;1.768951
2002.000000;1.772213
2001.000000;1.801952
2000.000000;1.718775
1999.000000;1.689697
1998.000000;1.745660
1997.000000;1.639375
1996.000000;1.497603
1995.000000;1.473313
1994.000000;1.475988
1993.000000;1.476116
1992.000000;1.555392
1991.000000;1.907013
1990.000000;2.141495
1989.000000;1.668553
1988.000000;1.568162
1987.000000;1.622720
1986.000000;1.849542
1985.000000;2.185656
1984.000000;1.860300
1983.000000;1.916182
1982.000000;2.094826
1981.000000;1.738922
1980.000000;1.595964
1979.000000;1.649319
1978.000000;1.778336
1977.000000;1.921130
1976.000000;2.049745
1975.000000;2.105920
1974.000000;2.008870
1973.000000;1.831094
1972.000000;1.673308
1971.000000;1.645243
1970.000000;1.592637
1969.000000;1.438292
1968.000000;1.365210
1967.000000;1.477433
1966.000000;1.798015
1965.000000;1.802581
1964.000000;1.607708
1963.000000;1.522311
1962.000000;1.542165
1961.000000;1.616828
1960.000000;1.491041
1959.000000;1.386467
1958.000000;1.441688
1957.000000;1.570013
1956.000000;1.625203
1955.000000;2.023616
1954.000000;2.160725
1953.000000;1.762872
1952.000000;2.119545
1951.000000;1.720073
1950.000000;1.369423
1949.000000;1.345277
1948.000000;1.592506
1947.000000;1.605036
1946.000000;1.336126
1945.000000;1.265186
1944.000000;1.435034
1943.000000;2.127950
1942.000000;1.568055
1941.000000;1.274241
1940.000000;1.373507
1939.000000;1.569378
1938.000000;1.399219
1937.000000;1.241611
1936.000000;1.328046
1935.000000;1.719156
1934.000000;1.929544
1933.000000;1.527200
1932.000000;1.635497
1931.000000;1.906491
1930.000000;1.699121
1929.000000;1.557654
1928.000000;1.651339
1927.000000;2.107583
1926.000000;1.836103
1925.000000;1.508979
1924.000000;1.494670
1923.000000;1.725598
1922.000000;1.832082
1921.000000;1.566388
1920.000000;1.476127
1919.000000;1.611804
1918.000000;2.197863
1917.000000;1.894405
1916.000000;1.575254
1915.000000;1.661490
1914.000000;1.842228
1913.000000;1.797168
1912.000000;1.640409
1911.000000;1.670245
1910.000000;1.821789
1909.000000;1.894972
1908.000000;1.805335
1907.000000;1.633168
1906.000000;1.512462
1905.000000;1.578138
1904.000000;2.008428
1903.000000;2.010178
1902.000000;1.612371
1901.000000;1.666325
1900.000000;1.953083
1899.000000;2.698724
1898.000000;2.047295
1897.000000;1.543645
1896.000000;1.369981
1895.000000;1.421718
1894.000000;1.961520
1893.000000;1.973860
1892.000000;1.635302
1891.000000;1.637389
1890.000000;1.453248
1889.000000;1.407759
1888.000000;1.720105
1887.000000;1.741900
1886.000000;1.413597
1885.000000;1.437404
1884.000000;1.772814
1883.000000;1.985550
1882.000000;1.777359
1881.000000;1.634164
1880.000000;1.556947
1879.000000;1.820715
1878.000000;1.864061
1877.000000;1.428348
1876.000000;1.343819
1875.000000;1.587734
1874.000000;2.073410
1873.000000;1.802666
1872.000000;1.688685
1871.000000;1.655942
1870.000000;1.526856
1869.000000;1.617719
1868.000000;2.047989
1867.000000;1.741183
1866.000000;1.362671
1865.000000;1.331822
1864.000000;1.382965
1863.000000;1.560903
1862.000000;2.181100
1861.000000;1.623088
1860.000000;1.302985
1859.000000;1.288470
1858.000000;1.399602
1857.000000;1.588121
1856.000000;1.670080
1855.000000;1.778757
1854.000000;2.197226
1853.000000;2.308344
1852.000000;1.852339
1851.000000;1.718056
1850.000000;1.694825
1849.000000;1.986547
1848.000000;2.023650
1847.000000;1.643863
1846.000000;1.676560
1845.000000;1.694210
1844.000000;1.631406
1843.000000;1.645676
1842.000000;1.419680
1841.000000;1.235447
1840.000000;1.240585
1839.000000;1.358144
1838.000000;1.467563
1837.000000;1.534806
1836.000000;1.573313
1835.000000;1.459475
1834.000000;1.339122
1833.000000;1.347116
1832.000000;1.471998
1831.000000;1.744463
1830.000000;2.067194
1829.000000;1.740844
1828.000000;1.522383
1827.000000;1.469958
1826.000000;1.631409
1825.000000;1.968536
1824.000000;1.648996
1823.000000;1.467376
1822.000000;1.516112
1821.000000;1.886900
1820.000000;1.991068
1819.000000;1.536144
1818.000000;1.479084
1817.000000;1.774143
1816.000000;2.013927
1815.000000;1.802914
1814.000000;2.047501
1813.000000;1.777318
1812.000000;1.502546
1811.000000;1.542721
1810.000000;1.722614
1809.000000;2.021784
1808.000000;1.766431
1807.000000;1.418873
1806.000000;1.273692
1805.000000;1.307598
1804.000000;1.434208
1803.000000;1.750118
1802.000000;1.876847
1801.000000;1.391378
1800.000000;1.273075
1799.000000;1.436903
1798.000000;1.613576
1797.000000;1.435732
1796.000000;1.686531
1795.000000;2.071588
1794.000000;1.443501
1793.000000;1.330023
1792.000000;1.498677
1791.000000;1.781269
1790.000000;1.379376
1789.000000;1.179228
1788.000000;1.247347
1787.000000;1.568505
1786.000000;2.008296
1785.000000;1.598296
1784.000000;1.429290
1783.000000;1.439342
1782.000000;1.492628
1781.000000;1.439783
1780.000000;1.428768
1779.000000;1.665724
1778.000000;1.710091
1777.000000;1.501456
1776.000000;1.506120
1775.000000;1.636883
1774.000000;1.992343
1773.000000;2.251807
1772.000000;1.669337
1771.000000;1.688056
1770.000000;2.155732
1769.000000;1.748199
1768.000000;1.661326
1767.000000;1.894660
1766.000000;1.522602
1765.000000;1.321280
1764.000000;1.369500
1763.000000;1.390767
1762.000000;1.317780
1761.000000;1.298836
1760.000000;1.437531
1759.000000;1.728574
1758.000000;1.912989
1757.000000;1.897239
1756.000000;1.969518
1755.000000;2.081834
1754.000000;1.974055
1753.000000;1.621181
1752.000000;1.421554
1751.000000;1.344381
1750.000000;1.463122
1749.000000;1.843883
1748.000000;1.648530
1747.000000;1.455540
1746.000000;1.702224
1745.000000;1.898518
1744.000000;1.480046
1743.000000;1.396736
1742.000000;1.507912
1741.000000;1.839081
1740.000000;1.855133
1739.000000;1.551612
1738.000000;1.657838
1737.000000;1.623633
1736.000000;1.378159
1735.000000;1.279817
1734.000000;1.316557
1733.000000;1.302191
1732.000000;1.148357
1731.000000;1.170842
1730.000000;1.553460
1729.000000;1.731119
1728.000000;1.360460
1727.000000;1.327184
1726.000000;1.607995
1725.000000;1.714590
1724.000000;1.434276
1723.000000;1.388804
1722.000000;1.690237
1721.000000;2.251570
1720.000000;1.759966
1719.000000;1.855107
1718.000000;2.507119
1717.000000;1.801163
1716.000000;1.814569
1715.000000;1.887236
1714.000000;1.463162
1713.000000;1.357005
1712.000000;1.490789
1711.000000;1.665204
1710.000000;1.611643
1709.000000;1.600256
1708.000000;1.537011
1707.000000;1.505765
1706.000000;1.968530
1705.000000;2.002432
1704.000000;1.648775
1703.000000;1.880094
1702.000000;2.078575
1701.000000;1.860865
1700.000000;1.792011
1699.000000;2.036091
1698.000000;1.893157
1697.000000;1.490310
1696.000000;1.256485
1695.000000;1.234684
1694.000000;1.476057
1693.000000;1.428153
1692.000000;1.211143
1691.000000;1.212241
1690.000000;1.352097
1689.000000;1.629677
1688.000000;1.761012
1687.000000;1.559964
1686.000000;1.511875
1685.000000;1.585421
1684.000000;1.613054
1683.000000;1.609984
1682.000000;1.706335
1681.000000;1.704928
1680.000000;1.559478
1679.000000;1.480182
1678.000000;1.587661
1677.000000;1.984150
1676.000000;2.161598
1675.000000;1.862077
1674.000000;1.523658
1673.000000;1.342424
1672.000000;1.404144
1671.000000;1.717439
1670.000000;1.878834
1669.000000;1.527188
1668.000000;1.510401
1667.000000;1.808085
1666.000000;1.538551
1665.000000;1.287884
1664.000000;1.259463
1663.000000;1.355178
1662.000000;1.776960
1661.000000;1.996746
1660.000000;1.501165
1659.000000;1.626098
1658.000000;1.986553
1657.000000;1.622391
1656.000000;1.443408
1655.000000;1.455376
1654.000000;1.581005
1653.000000;1.750127
1652.000000;2.043598
1651.000000;1.900170
1650.000000;1.500148
1649.000000;1.407520
1648.000000;1.472154
1647.000000;1.784491
1646.000000;1.778642
1645.000000;1.363349
1644.000000;1.264640
1643.000000;1.388311
1642.000000;1.538926
1641.000000;1.429587
1640.000000;1.340744
1639.000000;1.367638
1638.000000;1.415424
1637.000000;1.465876
1636.000000;1.568951
1635.000000;1.855456
1634.000000;1.869712
1633.000000;1.660570
1632.000000;1.774249
1631.000000;1.795037
1630.000000;1.563965
1629.000000;1.428778
1628.000000;1.395773
1627.000000;1.514909
1626.000000;1.748867
1625.000000;1.702611
1624.000000;1.663618
1623.000000;1.686309
1622.000000;1.417513
1621.000000;1.249842
1620.000000;1.315960
1619.000000;1.541027
1618.000000;1.785665
1617.000000;1.848235
1616.000000;1.441654
1615.000000;1.186595
1614.000000;1.216816
1613.000000;1.482937
1612.000000;1.438361
1611.000000;1.177197
1610.000000;1.122998
1609.000000;1.215405
1608.000000;1.390297
1607.000000;1.414974
1606.000000;1.297302
1605.000000;1.252719
1604.000000;1.313330
1603.000000;1.371305
1602.000000;1.299419
1601.000000;1.261910
1600.000000;1.295423
1599.000000;1.307435
1598.000000;1.302621
1597.000000;1.342291
1596.000000;1.427239
1595.000000;1.475561
1594.000000;1.423960
1593.000000;1.348614
1592.000000;1.317791
1591.000000;1.339640
1590.000000;1.417150
1589.000000;1.553313
1588.000000;1.631103
1587.000000;1.540354
1586.000000;1.453769
1585.000000;1.458567
1584.000000;1.530263
1583.000000;1.578938
1582.000000;1.477594
1581.000000;1.331055
1580.000000;1.274352
1579.000000;1.355827
1578.000000;1.776985
1577.000000;1.751921
1576.000000;1.503729
1575.000000;1.723490
1574.000000;1.485172
1573.000000;1.368003
1572.000000;1.571902
1571.000000;1.735106
1570.000000;1.730541
1569.000000;1.944542
1568.000000;2.195693
1567.000000;1.851225
1566.000000;2.008065
1565.000000;1.776566
1564.000000;1.454417
1563.000000;1.420708
1562.000000;1.651943
1561.000000;2.302978
1560.000000;2.022780
1559.000000;1.812456
1558.000000;1.824434
1557.000000;2.175006
1556.000000;2.367673
1555.000000;1.738886
1554.000000;1.596366
1553.000000;1.798329
1552.000000;1.952728
1551.000000;1.631628
1550.000000;1.648901
1549.000000;1.777859
1548.000000;1.552684
1547.000000;1.441613
1546.000000;1.560350
1545.000000;1.901172
1544.000000;2.387409
1543.000000;2.373460
1542.000000;2.011304
1541.000000;1.798476
1540.000000;1.646980
1539.000000;1.863417
1538.000000;2.055620
1537.000000;1.783035
1536.000000;2.103572
1535.000000;1.777055
1534.000000;1.559594
1533.000000;1.829108
1532.000000;1.547832
1531.000000;1.160288
1530.000000;1.116378
1529.000000;1.325490
1528.000000;1.591032
1527.000000;1.566374
1526.000000;1.700925
1525.000000;1.636683
1524.000000;1.494827
1523.000000;1.628643
1522.000000;1.544275
1521.000000;1.374024
1520.000000;1.477552
1519.000000;1.830333
1518.000000;1.807548
1517.000000;1.682067
1516.000000;1.935050
1515.000000;1.789407
1514.000000;1.573158
1513.000000;1.762373
1512.000000;1.645601
1511.000000;1.385677
1510.000000;1.430540
1509.000000;1.714037
1508.000000;1.596657
1507.000000;1.334857
1506.000000;1.259758
1505.000000;1.349114
1504.000000;1.753003
1503.000000;1.990598
1502.000000;1.518863
1501.000000;1.459953
1500.000000;1.563568
1499.000000;1.736130
1498.000000;1.748949
1497.000000;1.639783
1496.000000;1.574586
1495.000000;1.486393
1494.000000;1.394989
1493.000000;1.444526
1492.000000;1.763535
1491.000000;1.944846
1490.000000;1.592058
1489.000000;1.517563
1488.000000;2.235232
1487.000000;1.613254
1486.000000;1.229418
1485.000000;1.193280
1484.000000;1.316314
1483.000000;1.778408
1482.000000;1.463804
1481.000000;1.173418
1480.000000;1.258479
1479.000000;1.736069
1478.000000;1.632193
1477.000000;1.368296
1476.000000;1.418149
1475.000000;1.483496
1474.000000;1.347846
1473.000000;1.184532
1472.000000;1.123084
1471.000000;1.208524
1470.000000;1.467074
1469.000000;1.588867
1468.000000;1.580325
1467.000000;1.846919
1466.000000;1.965965
1465.000000;1.586323
1464.000000;1.334745
1463.000000;1.299714
1462.000000;1.488608
1461.000000;1.574056
1460.000000;1.423483
1459.000000;1.380695
1458.000000;1.411245
1457.000000;1.459154
1456.000000;1.475026
1455.000000;1.460135
1454.000000;1.469932
1453.000000;1.598764
1452.000000;1.771456
1451.000000;1.726517
1450.000000;1.627261
1449.000000;1.471999
1448.000000;1.359021
1447.000000;1.357504
1446.000000;1.402711
1445.000000;1.437209
1444.000000;1.533518
1443.000000;1.517152
1442.000000;1.321527
1441.000000;1.234410
1440.000000;1.186209
1439.000000;1.183997
1438.000000;1.263885
1437.000000;1.430399
1436.000000;2.148552
1435.000000;1.906124
1434.000000;1.456962
1433.000000;1.367991
1432.000000;1.249239
1431.000000;1.211964
1430.000000;1.211780
1429.000000;1.227593
1428.000000;1.265277
1427.000000;1.381705
1426.000000;1.400492
1425.000000;1.219539
1424.000000;1.157250
1423.000000;1.361692
1422.000000;1.769112
1421.000000;1.574589
1420.000000;1.533630
1419.000000;1.766945
1418.000000;1.903432
1417.000000;1.635232
1416.000000;1.460473
1415.000000;1.706085
1414.000000;1.921972
1413.000000;1.358455
1412.000000;1.142070
1411.000000;1.153115
1410.000000;1.495058
1409.000000;1.661336
1408.000000;1.342495
1407.000000;1.393578
1406.000000;1.763122
1405.000000;1.910747
1404.000000;1.567017
1403.000000;1.494122
1402.000000;1.523084
1401.000000;1.343904
1400.000000;1.188067
1399.000000;1.196264
1398.000000;1.382145
1397.000000;1.486387
1396.000000;1.381733
1395.000000;1.309106
1394.000000;1.380664
1393.000000;1.674943
1392.000000;1.393275
1391.000000;1.149902
1390.000000;1.185488
1389.000000;1.347822
1388.000000;1.519785
1387.000000;1.377521
1386.000000;1.181606
1385.000000;1.121160
1384.000000;1.138572
1383.000000;1.121239
1382.000000;1.042579
1381.000000;1.003376
1380.000000;1.070840
1379.000000;1.150047
1378.000000;1.124576
1377.000000;1.130556
1376.000000;1.340904
1375.000000;1.770875
1374.000000;1.517967
1373.000000;1.499475
1372.000000;1.489581
1371.000000;1.139372
1370.000000;1.005343
1369.000000;1.018919
1368.000000;1.244170
1367.000000;1.763584
1366.000000;1.458815
1365.000000;1.288874
1364.000000;1.331758
1363.000000;1.276413
1362.000000;1.174097
1361.000000;1.193564
1360.000000;1.384785
1359.000000;1.464972
1358.000000;1.358343
1357.000000;1.383321
1356.000000;1.574695
1355.000000;2.141743
1354.000000;2.056990
1353.000000;1.641536
1352.000000;1.557172
1351.000000;1.441036
1350.000000;1.193743
1349.000000;1.006872
1348.000000;0.953732
1347.000000;1.039945
1346.000000;1.285307
1345.000000;1.822681
1344.000000;2.957682
1343.000000;1.609012
1342.000000;1.166013
1341.000000;0.980105
1340.000000;0.946357
1339.000000;1.115804
1338.000000;1.510382
1337.000000;1.422192
1336.000000;1.486509
1335.000000;1.756817
1334.000000;1.379426
1333.000000;1.359951
1332.000000;1.625397
1331.000000;1.831894
1330.000000;1.538899
1329.000000;1.242068
1328.000000;1.122856
1327.000000;1.134872
1326.000000;1.295414
1325.000000;1.699265
1324.000000;1.687029
1323.000000;1.335132
1322.000000;1.130810
1321.000000;1.013556
1320.000000;1.002810
1319.000000;1.066222
1318.000000;1.085049
1317.000000;1.037264
1316.000000;1.129596
1315.000000;1.372195
1314.000000;1.240190
1313.000000;1.090444
1312.000000;1.291607
1311.000000;1.635470
1310.000000;1.263766
1309.000000;1.159584
1308.000000;1.377914
1307.000000;1.619007
1306.000000;1.315869
1305.000000;1.177202
1304.000000;1.235423
1303.000000;1.286141
1302.000000;1.337336
1301.000000;1.227085
1300.000000;1.005919
1299.000000;0.912236
1298.000000;1.073867
1297.000000;1.567711
1296.000000;1.103796
1295.000000;0.971524
1294.000000;1.364737
1293.000000;1.290632
1292.000000;0.929675
1291.000000;0.951346
1290.000000;1.304231
1289.000000;1.214400
1288.000000;1.021225
1287.000000;1.144639
1286.000000;1.334957
1285.000000;1.446571
1284.000000;1.273910
1283.000000;0.997421
1282.000000;0.975332
1281.000000;1.208213
1280.000000;1.476061
1279.000000;1.564721
1278.000000;1.629023
1277.000000;1.293084
1276.000000;1.136594
1275.000000;1.233511
1274.000000;1.523053
1273.000000;1.618584
1272.000000;1.505008
1271.000000;1.486029
1270.000000;1.436596
1269.000000;1.357065
1268.000000;1.253899
1267.000000;1.226367
1266.000000;1.319228
1265.000000;1.523792
1264.000000;1.718880
1263.000000;1.761527
1262.000000;2.029403
1261.000000;1.871670
1260.000000;1.447886
1259.000000;1.449321
1258.000000;1.564280
1257.000000;1.617769
1256.000000;1.815374
1255.000000;1.472554
1254.000000;1.169863
1253.000000;1.182118
1252.000000;1.638517
1251.000000;1.576152
1250.000000;1.129123
1249.000000;1.123187
1248.000000;1.479098
1247.000000;1.446464
1246.000000;1.121521
1245.000000;1.143372
1244.000000;1.437742
1243.000000;1.578875
1242.000000;1.496939
1241.000000;1.576210
1240.000000;1.474199
1239.000000;1.419313
1238.000000;1.561094
1237.000000;1.646943
1236.000000;1.590782
1235.000000;1.665539
1234.000000;1.868658
1233.000000;1.565315
1232.000000;1.219360
1231.000000;1.091973
1230.000000;1.157170
1229.000000;1.413310
1228.000000;1.416374
1227.000000;1.170673
1226.000000;1.058920
1225.000000;1.021238
1224.000000;1.079673
1223.000000;1.369923
1222.000000;1.608166
1221.000000;1.451951
1220.000000;1.585167
1219.000000;1.355473
1218.000000;1.097731
1217.000000;1.117811
1216.000000;1.319453
1215.000000;1.318149
1214.000000;1.235216
1213.000000;1.432222
1212.000000;1.661614
1211.000000;1.383324
1210.000000;1.283298
1209.000000;1.318570
1208.000000;1.464660
1207.000000;1.556628
1206.000000;1.477619
1205.000000;1.674641
1204.000000;1.619320
1203.000000;1.266214
1202.000000;1.138487
1201.000000;1.146654
1200.000000;1.260014
