Criado como novo conjunto de dados;"2706_e01_daniel.spp","49504.6 Secs"
cm-1;Abs
10000.000000;1.125304
9999.000000;1.124723
9998.000000;1.124448
9997.000000;1.124414
9996.000000;1.124537
9995.000000;1.124736
9994.000000;1.124756
9993.000000;1.124475
9992.000000;1.124124
9991.000000;1.124134
9990.000000;1.124550
9989.000000;1.124959
9988.000000;1.125081
9987.000000;1.125128
9986.000000;1.125307
9985.000000;1.125308
9984.000000;1.124724
9983.000000;1.123826
9982.000000;1.123441
9981.000000;1.123991
9980.000000;1.124987
9979.000000;1.125595
9978.000000;1.125494
9977.000000;1.125111
9976.000000;1.125099
9975.000000;1.125648
9974.000000;1.126195
9973.000000;1.125869
9972.000000;1.124418
9971.000000;1.122676
9970.000000;1.121883
9969.000000;1.122473
9968.000000;1.123677
9967.000000;1.124393
9966.000000;1.124299
9965.000000;1.123977
9964.000000;1.124061
9963.000000;1.124490
9962.000000;1.124649
9961.000000;1.124104
9960.000000;1.123066
9959.000000;1.122109
9958.000000;1.121622
9957.000000;1.121634
9956.000000;1.122024
9955.000000;1.122591
9954.000000;1.122961
9953.000000;1.122746
9952.000000;1.121968
9951.000000;1.121121
9950.000000;1.120682
9949.000000;1.120720
9948.000000;1.121050
9947.000000;1.121513
9946.000000;1.121977
9945.000000;1.122327
9944.000000;1.122656
9943.000000;1.123230
9942.000000;1.124009
9941.000000;1.124483
9940.000000;1.124240
9939.000000;1.123485
9938.000000;1.122686
9937.000000;1.121959
9936.000000;1.121164
9935.000000;1.120372
9934.000000;1.119796
9933.000000;1.119423
9932.000000;1.119159
9931.000000;1.119177
9930.000000;1.119590
9929.000000;1.119857
9928.000000;1.119212
9927.000000;1.117844
9926.000000;1.117005
9925.000000;1.117594
9924.000000;1.119064
9923.000000;1.120100
9922.000000;1.120067
9921.000000;1.119423
9920.000000;1.118869
9919.000000;1.118614
9918.000000;1.118482
9917.000000;1.118372
9916.000000;1.118395
9915.000000;1.118614
9914.000000;1.118757
9913.000000;1.118335
9912.000000;1.117189
9911.000000;1.115908
9910.000000;1.115436
9909.000000;1.116112
9908.000000;1.117252
9907.000000;1.117842
9906.000000;1.117587
9905.000000;1.117086
9904.000000;1.117023
9903.000000;1.117404
9902.000000;1.117668
9901.000000;1.117426
9900.000000;1.116923
9899.000000;1.116748
9898.000000;1.117149
9897.000000;1.117734
9896.000000;1.117892
9895.000000;1.117451
9894.000000;1.116833
9893.000000;1.116555
9892.000000;1.116706
9891.000000;1.116960
9890.000000;1.117033
9889.000000;1.116981
9888.000000;1.117000
9887.000000;1.117040
9886.000000;1.116802
9885.000000;1.116125
9884.000000;1.115198
9883.000000;1.114316
9882.000000;1.113598
9881.000000;1.113101
9880.000000;1.112993
9879.000000;1.113321
9878.000000;1.113777
9877.000000;1.114029
9876.000000;1.114221
9875.000000;1.114680
9874.000000;1.115148
9873.000000;1.114874
9872.000000;1.113627
9871.000000;1.112158
9870.000000;1.111310
9869.000000;1.111120
9868.000000;1.111143
9867.000000;1.111307
9866.000000;1.111896
9865.000000;1.112808
9864.000000;1.113369
9863.000000;1.113034
9862.000000;1.112006
9861.000000;1.111030
9860.000000;1.110669
9859.000000;1.110818
9858.000000;1.110866
9857.000000;1.110384
9856.000000;1.109637
9855.000000;1.109235
9854.000000;1.109306
9853.000000;1.109374
9852.000000;1.109126
9851.000000;1.108843
9850.000000;1.108837
9849.000000;1.108871
9848.000000;1.108580
9847.000000;1.108180
9846.000000;1.108298
9845.000000;1.109192
9844.000000;1.110451
9843.000000;1.111333
9842.000000;1.111202
9841.000000;1.109943
9840.000000;1.108244
9839.000000;1.107163
9838.000000;1.107066
9837.000000;1.107270
9836.000000;1.107065
9835.000000;1.106686
9834.000000;1.106757
9833.000000;1.107170
9832.000000;1.107293
9831.000000;1.107063
9830.000000;1.107082
9829.000000;1.107636
9828.000000;1.108359
9827.000000;1.108929
9826.000000;1.109374
9825.000000;1.109503
9824.000000;1.108807
9823.000000;1.107242
9822.000000;1.105593
9821.000000;1.104696
9820.000000;1.104705
9819.000000;1.105304
9818.000000;1.106193
9817.000000;1.107075
9816.000000;1.107558
9815.000000;1.107464
9814.000000;1.107025
9813.000000;1.106580
9812.000000;1.106276
9811.000000;1.106207
9810.000000;1.106478
9809.000000;1.106960
9808.000000;1.107277
9807.000000;1.107263
9806.000000;1.107165
9805.000000;1.107190
9804.000000;1.107146
9803.000000;1.106764
9802.000000;1.106144
9801.000000;1.105610
9800.000000;1.105247
9799.000000;1.104783
9798.000000;1.103879
9797.000000;1.102496
9796.000000;1.101108
9795.000000;1.100486
9794.000000;1.100996
9793.000000;1.102082
9792.000000;1.102735
9791.000000;1.102575
9790.000000;1.102172
9789.000000;1.102204
9788.000000;1.102680
9787.000000;1.103166
9786.000000;1.103421
9785.000000;1.103490
9784.000000;1.103377
9783.000000;1.102940
9782.000000;1.102070
9781.000000;1.100883
9780.000000;1.099812
9779.000000;1.099470
9778.000000;1.100137
9777.000000;1.101350
9776.000000;1.102255
9775.000000;1.102455
9774.000000;1.102241
9773.000000;1.101976
9772.000000;1.101721
9771.000000;1.101580
9770.000000;1.101854
9769.000000;1.102508
9768.000000;1.102906
9767.000000;1.102516
9766.000000;1.101645
9765.000000;1.101018
9764.000000;1.100804
9763.000000;1.100490
9762.000000;1.099672
9761.000000;1.098583
9760.000000;1.097803
9759.000000;1.097702
9758.000000;1.098220
9757.000000;1.098975
9756.000000;1.099503
9755.000000;1.099533
9754.000000;1.099133
9753.000000;1.098630
9752.000000;1.098400
9751.000000;1.098673
9750.000000;1.099379
9749.000000;1.100158
9748.000000;1.100612
9747.000000;1.100586
9746.000000;1.100136
9745.000000;1.099349
9744.000000;1.098404
9743.000000;1.097712
9742.000000;1.097691
9741.000000;1.098302
9740.000000;1.099053
9739.000000;1.099513
9738.000000;1.099615
9737.000000;1.099457
9736.000000;1.099127
9735.000000;1.098793
9734.000000;1.098680
9733.000000;1.098799
9732.000000;1.098946
9731.000000;1.098995
9730.000000;1.098914
9729.000000;1.098481
9728.000000;1.097455
9727.000000;1.096167
9726.000000;1.095476
9725.000000;1.095853
9724.000000;1.096816
9723.000000;1.097508
9722.000000;1.097527
9721.000000;1.096956
9720.000000;1.095986
9719.000000;1.094922
9718.000000;1.094263
9717.000000;1.094315
9716.000000;1.094821
9715.000000;1.095248
9714.000000;1.095339
9713.000000;1.095178
9712.000000;1.094953
9711.000000;1.094911
9710.000000;1.095328
9709.000000;1.096171
9708.000000;1.096964
9707.000000;1.097278
9706.000000;1.097166
9705.000000;1.096820
9704.000000;1.096151
9703.000000;1.095169
9702.000000;1.094445
9701.000000;1.094547
9700.000000;1.095132
9699.000000;1.095267
9698.000000;1.094667
9697.000000;1.093971
9696.000000;1.093680
9695.000000;1.093510
9694.000000;1.093087
9693.000000;1.092674
9692.000000;1.092727
9691.000000;1.093147
9690.000000;1.093464
9689.000000;1.093529
9688.000000;1.093565
9687.000000;1.093643
9686.000000;1.093543
9685.000000;1.093144
9684.000000;1.092620
9683.000000;1.092211
9682.000000;1.092040
9681.000000;1.092170
9680.000000;1.092556
9679.000000;1.092878
9678.000000;1.092688
9677.000000;1.091889
9676.000000;1.090947
9675.000000;1.090484
9674.000000;1.090702
9673.000000;1.091280
9672.000000;1.091730
9671.000000;1.091797
9670.000000;1.091550
9669.000000;1.091218
9668.000000;1.090972
9667.000000;1.090818
9666.000000;1.090670
9665.000000;1.090468
9664.000000;1.090222
9663.000000;1.089934
9662.000000;1.089569
9661.000000;1.089107
9660.000000;1.088613
9659.000000;1.088219
9658.000000;1.088081
9657.000000;1.088319
9656.000000;1.088926
9655.000000;1.089701
9654.000000;1.090377
9653.000000;1.090824
9652.000000;1.091052
9651.000000;1.090977
9650.000000;1.090387
9649.000000;1.089307
9648.000000;1.088258
9647.000000;1.087885
9646.000000;1.088326
9645.000000;1.089119
9644.000000;1.089714
9643.000000;1.089876
9642.000000;1.089617
9641.000000;1.089044
9640.000000;1.088421
9639.000000;1.088125
9638.000000;1.088283
9637.000000;1.088606
9636.000000;1.088741
9635.000000;1.088681
9634.000000;1.088627
9633.000000;1.088578
9632.000000;1.088326
9631.000000;1.087813
9630.000000;1.087234
9629.000000;1.086790
9628.000000;1.086514
9627.000000;1.086376
9626.000000;1.086416
9625.000000;1.086717
9624.000000;1.087292
9623.000000;1.087967
9622.000000;1.088333
9621.000000;1.087973
9620.000000;1.086930
9619.000000;1.085832
9618.000000;1.085308
9617.000000;1.085341
9616.000000;1.085374
9615.000000;1.085022
9614.000000;1.084449
9613.000000;1.084048
9612.000000;1.084041
9611.000000;1.084467
9610.000000;1.085254
9609.000000;1.086108
9608.000000;1.086515
9607.000000;1.086127
9606.000000;1.085158
9605.000000;1.084268
9604.000000;1.083991
9603.000000;1.084300
9602.000000;1.084708
9601.000000;1.084732
9600.000000;1.084259
9599.000000;1.083523
9598.000000;1.082808
9597.000000;1.082286
9596.000000;1.082075
9595.000000;1.082236
9594.000000;1.082615
9593.000000;1.082896
9592.000000;1.082982
9591.000000;1.083176
9590.000000;1.083753
9589.000000;1.084480
9588.000000;1.084826
9587.000000;1.084591
9586.000000;1.084104
9585.000000;1.083795
9584.000000;1.083834
9583.000000;1.084160
9582.000000;1.084590
9581.000000;1.084848
9580.000000;1.084718
9579.000000;1.084265
9578.000000;1.083757
9577.000000;1.083340
9576.000000;1.082967
9575.000000;1.082621
9574.000000;1.082366
9573.000000;1.082167
9572.000000;1.081921
9571.000000;1.081730
9570.000000;1.081891
9569.000000;1.082484
9568.000000;1.083177
9567.000000;1.083549
9566.000000;1.083428
9565.000000;1.082863
9564.000000;1.081996
9563.000000;1.081113
9562.000000;1.080546
9561.000000;1.080331
9560.000000;1.080166
9559.000000;1.079895
9558.000000;1.079830
9557.000000;1.080312
9556.000000;1.081118
9555.000000;1.081606
9554.000000;1.081427
9553.000000;1.080818
9552.000000;1.080211
9551.000000;1.079807
9550.000000;1.079594
9549.000000;1.079522
9548.000000;1.079511
9547.000000;1.079426
9546.000000;1.079216
9545.000000;1.078976
9544.000000;1.078776
9543.000000;1.078522
9542.000000;1.078138
9541.000000;1.077798
9540.000000;1.077782
9539.000000;1.078055
9538.000000;1.078193
9537.000000;1.077882
9536.000000;1.077377
9535.000000;1.077224
9534.000000;1.077563
9533.000000;1.077947
9532.000000;1.077915
9531.000000;1.077493
9530.000000;1.076987
9529.000000;1.076495
9528.000000;1.075910
9527.000000;1.075294
9526.000000;1.074977
9525.000000;1.075211
9524.000000;1.075909
9523.000000;1.076789
9522.000000;1.077602
9521.000000;1.078142
9520.000000;1.078193
9519.000000;1.077625
9518.000000;1.076583
9517.000000;1.075511
9516.000000;1.074939
9515.000000;1.075127
9514.000000;1.075825
9513.000000;1.076428
9512.000000;1.076462
9511.000000;1.075954
9510.000000;1.075313
9509.000000;1.074913
9508.000000;1.074848
9507.000000;1.074973
9506.000000;1.075054
9505.000000;1.074933
9504.000000;1.074646
9503.000000;1.074332
9502.000000;1.074009
9501.000000;1.073559
9500.000000;1.073070
9499.000000;1.072966
9498.000000;1.073541
9497.000000;1.074453
9496.000000;1.074997
9495.000000;1.074850
9494.000000;1.074299
9493.000000;1.073696
9492.000000;1.073035
9491.000000;1.072212
9490.000000;1.071446
9489.000000;1.071169
9488.000000;1.071572
9487.000000;1.072413
9486.000000;1.073256
9485.000000;1.073827
9484.000000;1.074143
9483.000000;1.074378
9482.000000;1.074624
9481.000000;1.074811
9480.000000;1.074821
9479.000000;1.074597
9478.000000;1.074101
9477.000000;1.073312
9476.000000;1.072366
9475.000000;1.071598
9474.000000;1.071259
9473.000000;1.071260
9472.000000;1.071333
9471.000000;1.071340
9470.000000;1.071273
9469.000000;1.071047
9468.000000;1.070574
9467.000000;1.070016
9466.000000;1.069687
9465.000000;1.069646
9464.000000;1.069596
9463.000000;1.069288
9462.000000;1.068859
9461.000000;1.068660
9460.000000;1.068868
9459.000000;1.069316
9458.000000;1.069648
9457.000000;1.069631
9456.000000;1.069400
9455.000000;1.069343
9454.000000;1.069649
9453.000000;1.070060
9452.000000;1.070230
9451.000000;1.070210
9450.000000;1.070321
9449.000000;1.070642
9448.000000;1.070953
9447.000000;1.071138
9446.000000;1.071284
9445.000000;1.071307
9444.000000;1.070871
9443.000000;1.069877
9442.000000;1.068744
9441.000000;1.067960
9440.000000;1.067595
9439.000000;1.067460
9438.000000;1.067547
9437.000000;1.067998
9436.000000;1.068756
9435.000000;1.069514
9434.000000;1.069980
9433.000000;1.070005
9432.000000;1.069497
9431.000000;1.068479
9430.000000;1.067285
9429.000000;1.066485
9428.000000;1.066465
9427.000000;1.067104
9426.000000;1.067898
9425.000000;1.068376
9424.000000;1.068399
9423.000000;1.068139
9422.000000;1.067818
9421.000000;1.067492
9420.000000;1.067059
9419.000000;1.066416
9418.000000;1.065613
9417.000000;1.064886
9416.000000;1.064539
9415.000000;1.064702
9414.000000;1.065126
9413.000000;1.065294
9412.000000;1.064892
9411.000000;1.064162
9410.000000;1.063699
9409.000000;1.063901
9408.000000;1.064647
9407.000000;1.065447
9406.000000;1.065829
9405.000000;1.065639
9404.000000;1.065117
9403.000000;1.064678
9402.000000;1.064540
9401.000000;1.064582
9400.000000;1.064592
9399.000000;1.064548
9398.000000;1.064543
9397.000000;1.064588
9396.000000;1.064657
9395.000000;1.064814
9394.000000;1.065053
9393.000000;1.065125
9392.000000;1.064796
9391.000000;1.064257
9390.000000;1.063970
9389.000000;1.064066
9388.000000;1.064191
9387.000000;1.064032
9386.000000;1.063716
9385.000000;1.063549
9384.000000;1.063584
9383.000000;1.063627
9382.000000;1.063483
9381.000000;1.063070
9380.000000;1.062425
9379.000000;1.061750
9378.000000;1.061338
9377.000000;1.061316
9376.000000;1.061532
9375.000000;1.061777
9374.000000;1.061981
9373.000000;1.062091
9372.000000;1.061941
9371.000000;1.061420
9370.000000;1.060704
9369.000000;1.060170
9368.000000;1.060107
9367.000000;1.060552
9366.000000;1.061299
9365.000000;1.061945
9364.000000;1.062065
9363.000000;1.061525
9362.000000;1.060666
9361.000000;1.060055
9360.000000;1.060032
9359.000000;1.060491
9358.000000;1.061018
9357.000000;1.061220
9356.000000;1.061034
9355.000000;1.060775
9354.000000;1.060819
9353.000000;1.061158
9352.000000;1.061345
9351.000000;1.060937
9350.000000;1.059950
9349.000000;1.058808
9348.000000;1.057932
9347.000000;1.057467
9346.000000;1.057357
9345.000000;1.057507
9344.000000;1.057841
9343.000000;1.058240
9342.000000;1.058533
9341.000000;1.058613
9340.000000;1.058569
9339.000000;1.058613
9338.000000;1.058801
9337.000000;1.058903
9336.000000;1.058655
9335.000000;1.058113
9334.000000;1.057627
9333.000000;1.057467
9332.000000;1.057612
9331.000000;1.057894
9330.000000;1.058160
9329.000000;1.058281
9328.000000;1.058173
9327.000000;1.057923
9326.000000;1.057732
9325.000000;1.057681
9324.000000;1.057638
9323.000000;1.057479
9322.000000;1.057251
9321.000000;1.057025
9320.000000;1.056751
9319.000000;1.056399
9318.000000;1.056155
9317.000000;1.056265
9316.000000;1.056696
9315.000000;1.057100
9314.000000;1.057150
9313.000000;1.056841
9312.000000;1.056435
9311.000000;1.056169
9310.000000;1.056077
9309.000000;1.056082
9308.000000;1.056173
9307.000000;1.056378
9306.000000;1.056565
9305.000000;1.056440
9304.000000;1.055872
9303.000000;1.055135
9302.000000;1.054649
9301.000000;1.054530
9300.000000;1.054571
9299.000000;1.054643
9298.000000;1.054857
9297.000000;1.055259
9296.000000;1.055595
9295.000000;1.055550
9294.000000;1.055155
9293.000000;1.054788
9292.000000;1.054795
9291.000000;1.055198
9290.000000;1.055713
9289.000000;1.056000
9288.000000;1.055897
9287.000000;1.055495
9286.000000;1.055013
9285.000000;1.054633
9284.000000;1.054444
9283.000000;1.054428
9282.000000;1.054423
9281.000000;1.054195
9280.000000;1.053688
9279.000000;1.053142
9278.000000;1.052814
9277.000000;1.052636
9276.000000;1.052338
9275.000000;1.051875
9274.000000;1.051499
9273.000000;1.051384
9272.000000;1.051417
9271.000000;1.051450
9270.000000;1.051520
9269.000000;1.051712
9268.000000;1.051987
9267.000000;1.052278
9266.000000;1.052574
9265.000000;1.052754
9264.000000;1.052544
9263.000000;1.051843
9262.000000;1.050983
9261.000000;1.050438
9260.000000;1.050322
9259.000000;1.050357
9258.000000;1.050282
9257.000000;1.050113
9256.000000;1.049986
9255.000000;1.049918
9254.000000;1.049784
9253.000000;1.049463
9252.000000;1.048986
9251.000000;1.048556
9250.000000;1.048431
9249.000000;1.048714
9248.000000;1.049283
9247.000000;1.049933
9246.000000;1.050524
9245.000000;1.050945
9244.000000;1.051033
9243.000000;1.050657
9242.000000;1.049866
9241.000000;1.048914
9240.000000;1.048123
9239.000000;1.047734
9238.000000;1.047791
9237.000000;1.048091
9236.000000;1.048308
9235.000000;1.048236
9234.000000;1.047911
9233.000000;1.047506
9232.000000;1.047174
9231.000000;1.047006
9230.000000;1.047019
9229.000000;1.047118
9228.000000;1.047142
9227.000000;1.047070
9226.000000;1.047090
9225.000000;1.047355
9224.000000;1.047726
9223.000000;1.047869
9222.000000;1.047617
9221.000000;1.047126
9220.000000;1.046685
9219.000000;1.046438
9218.000000;1.046345
9217.000000;1.046315
9216.000000;1.046349
9215.000000;1.046539
9214.000000;1.046933
9213.000000;1.047420
9212.000000;1.047790
9211.000000;1.047915
9210.000000;1.047843
9209.000000;1.047683
9208.000000;1.047473
9207.000000;1.047195
9206.000000;1.046870
9205.000000;1.046539
9204.000000;1.046202
9203.000000;1.045835
9202.000000;1.045508
9201.000000;1.045398
9200.000000;1.045619
9199.000000;1.046027
9198.000000;1.046247
9197.000000;1.045984
9196.000000;1.045337
9195.000000;1.044769
9194.000000;1.044691
9193.000000;1.045087
9192.000000;1.045534
9191.000000;1.045580
9190.000000;1.045094
9189.000000;1.044345
9188.000000;1.043794
9187.000000;1.043735
9186.000000;1.044048
9185.000000;1.044316
9184.000000;1.044275
9183.000000;1.044064
9182.000000;1.043947
9181.000000;1.043892
9180.000000;1.043655
9179.000000;1.043245
9178.000000;1.043032
9177.000000;1.043291
9176.000000;1.043819
9175.000000;1.044138
9174.000000;1.044005
9173.000000;1.043575
9172.000000;1.043157
9171.000000;1.042920
9170.000000;1.042798
9169.000000;1.042608
9168.000000;1.042261
9167.000000;1.041903
9166.000000;1.041777
9165.000000;1.041934
9164.000000;1.042131
9163.000000;1.042107
9162.000000;1.041878
9161.000000;1.041713
9160.000000;1.041860
9159.000000;1.042345
9158.000000;1.042944
9157.000000;1.043306
9156.000000;1.043202
9155.000000;1.042766
9154.000000;1.042402
9153.000000;1.042368
9152.000000;1.042488
9151.000000;1.042387
9150.000000;1.041929
9149.000000;1.041321
9148.000000;1.040824
9147.000000;1.040527
9146.000000;1.040422
9145.000000;1.040535
9144.000000;1.040862
9143.000000;1.041228
9142.000000;1.041333
9141.000000;1.041013
9140.000000;1.040418
9139.000000;1.039898
9138.000000;1.039684
9137.000000;1.039674
9136.000000;1.039561
9135.000000;1.039165
9134.000000;1.038606
9133.000000;1.038176
9132.000000;1.038074
9131.000000;1.038277
9130.000000;1.038595
9129.000000;1.038842
9128.000000;1.038978
9127.000000;1.039123
9126.000000;1.039363
9125.000000;1.039553
9124.000000;1.039418
9123.000000;1.038889
9122.000000;1.038270
9121.000000;1.037946
9120.000000;1.037967
9119.000000;1.038004
9118.000000;1.037730
9117.000000;1.037177
9116.000000;1.036714
9115.000000;1.036722
9114.000000;1.037277
9113.000000;1.038082
9112.000000;1.038667
9111.000000;1.038704
9110.000000;1.038190
9109.000000;1.037392
9108.000000;1.036638
9107.000000;1.036152
9106.000000;1.036025
9105.000000;1.036220
9104.000000;1.036572
9103.000000;1.036846
9102.000000;1.036897
9101.000000;1.036830
9100.000000;1.036901
9099.000000;1.037212
9098.000000;1.037542
9097.000000;1.037562
9096.000000;1.037205
9095.000000;1.036726
9094.000000;1.036411
9093.000000;1.036302
9092.000000;1.036259
9091.000000;1.036163
9090.000000;1.035988
9089.000000;1.035758
9088.000000;1.035542
9087.000000;1.035455
9086.000000;1.035559
9085.000000;1.035754
9084.000000;1.035836
9083.000000;1.035664
9082.000000;1.035269
9081.000000;1.034797
9080.000000;1.034414
9079.000000;1.034192
9078.000000;1.034075
9077.000000;1.033948
9076.000000;1.033792
9075.000000;1.033706
9074.000000;1.033728
9073.000000;1.033729
9072.000000;1.033580
9071.000000;1.033336
9070.000000;1.033161
9069.000000;1.033096
9068.000000;1.033049
9067.000000;1.032986
9066.000000;1.033014
9065.000000;1.033233
9064.000000;1.033602
9063.000000;1.033970
9062.000000;1.034166
9061.000000;1.034069
9060.000000;1.033661
9059.000000;1.033038
9058.000000;1.032338
9057.000000;1.031664
9056.000000;1.031096
9055.000000;1.030714
9054.000000;1.030530
9053.000000;1.030486
9052.000000;1.030586
9051.000000;1.030942
9050.000000;1.031548
9049.000000;1.032094
9048.000000;1.032203
9047.000000;1.031860
9046.000000;1.031414
9045.000000;1.031169
9044.000000;1.031146
9043.000000;1.031253
9042.000000;1.031453
9041.000000;1.031661
9040.000000;1.031659
9039.000000;1.031277
9038.000000;1.030604
9037.000000;1.029899
9036.000000;1.029375
9035.000000;1.029090
9034.000000;1.028978
9033.000000;1.028904
9032.000000;1.028803
9031.000000;1.028803
9030.000000;1.029115
9029.000000;1.029719
9028.000000;1.030284
9027.000000;1.030470
9026.000000;1.030239
9025.000000;1.029774
9024.000000;1.029243
9023.000000;1.028757
9022.000000;1.028478
9021.000000;1.028568
9020.000000;1.029003
9019.000000;1.029539
9018.000000;1.029866
9017.000000;1.029816
9016.000000;1.029471
9015.000000;1.029113
9014.000000;1.028977
9013.000000;1.028983
9012.000000;1.028778
9011.000000;1.028168
9010.000000;1.027419
9009.000000;1.026983
9008.000000;1.026999
9007.000000;1.027199
9006.000000;1.027290
9005.000000;1.027254
9004.000000;1.027223
9003.000000;1.027243
9002.000000;1.027250
9001.000000;1.027194
9000.000000;1.027087
8999.000000;1.026949
8998.000000;1.026797
8997.000000;1.026657
8996.000000;1.026558
8995.000000;1.026509
8994.000000;1.026521
8993.000000;1.026613
8992.000000;1.026773
8991.000000;1.026931
8990.000000;1.027003
8989.000000;1.026975
8988.000000;1.026906
8987.000000;1.026866
8986.000000;1.026866
8985.000000;1.026867
8984.000000;1.026808
8983.000000;1.026652
8982.000000;1.026400
8981.000000;1.026089
8980.000000;1.025792
8979.000000;1.025598
8978.000000;1.025555
8977.000000;1.025608
8976.000000;1.025614
8975.000000;1.025447
8974.000000;1.025123
8973.000000;1.024788
8972.000000;1.024574
8971.000000;1.024496
8970.000000;1.024476
8969.000000;1.024438
8968.000000;1.024356
8967.000000;1.024231
8966.000000;1.024102
8965.000000;1.024050
8964.000000;1.024133
8963.000000;1.024279
8962.000000;1.024323
8961.000000;1.024207
8960.000000;1.024094
8959.000000;1.024167
8958.000000;1.024345
8957.000000;1.024331
8956.000000;1.023988
8955.000000;1.023543
8954.000000;1.023299
8953.000000;1.023270
8952.000000;1.023250
8951.000000;1.023181
8950.000000;1.023238
8949.000000;1.023509
8948.000000;1.023774
8947.000000;1.023748
8946.000000;1.023417
8945.000000;1.022999
8944.000000;1.022641
8943.000000;1.022342
8942.000000;1.022142
8941.000000;1.022160
8940.000000;1.022375
8939.000000;1.022548
8938.000000;1.022510
8937.000000;1.022398
8936.000000;1.022433
8935.000000;1.022536
8934.000000;1.022389
8933.000000;1.021901
8932.000000;1.021380
8931.000000;1.021131
8930.000000;1.021077
8929.000000;1.020922
8928.000000;1.020568
8927.000000;1.020194
8926.000000;1.019969
8925.000000;1.019900
8924.000000;1.019962
8923.000000;1.020181
8922.000000;1.020516
8921.000000;1.020774
8920.000000;1.020763
8919.000000;1.020484
8918.000000;1.020110
8917.000000;1.019814
8916.000000;1.019637
8915.000000;1.019505
8914.000000;1.019315
8913.000000;1.019056
8912.000000;1.018844
8911.000000;1.018807
8910.000000;1.018924
8909.000000;1.019013
8908.000000;1.018903
8907.000000;1.018582
8906.000000;1.018183
8905.000000;1.017877
8904.000000;1.017800
8903.000000;1.018014
8902.000000;1.018468
8901.000000;1.019006
8900.000000;1.019448
8899.000000;1.019678
8898.000000;1.019699
8897.000000;1.019618
8896.000000;1.019523
8895.000000;1.019352
8894.000000;1.018950
8893.000000;1.018319
8892.000000;1.017716
8891.000000;1.017390
8890.000000;1.017293
8889.000000;1.017190
8888.000000;1.016992
8887.000000;1.016815
8886.000000;1.016747
8885.000000;1.016750
8884.000000;1.016822
8883.000000;1.017043
8882.000000;1.017357
8881.000000;1.017516
8880.000000;1.017339
8879.000000;1.016921
8878.000000;1.016489
8877.000000;1.016180
8876.000000;1.016042
8875.000000;1.016105
8874.000000;1.016321
8873.000000;1.016532
8872.000000;1.016608
8871.000000;1.016535
8870.000000;1.016349
8869.000000;1.016079
8868.000000;1.015836
8867.000000;1.015769
8866.000000;1.015836
8865.000000;1.015779
8864.000000;1.015472
8863.000000;1.015126
8862.000000;1.015015
8861.000000;1.015124
8860.000000;1.015264
8859.000000;1.015369
8858.000000;1.015450
8857.000000;1.015379
8856.000000;1.015018
8855.000000;1.014524
8854.000000;1.014249
8853.000000;1.014314
8852.000000;1.014492
8851.000000;1.014576
8850.000000;1.014635
8849.000000;1.014818
8848.000000;1.015053
8847.000000;1.015102
8846.000000;1.014841
8845.000000;1.014391
8844.000000;1.013997
8843.000000;1.013823
8842.000000;1.013844
8841.000000;1.013942
8840.000000;1.014055
8839.000000;1.014184
8838.000000;1.014235
8837.000000;1.014006
8836.000000;1.013446
8835.000000;1.012839
8834.000000;1.012552
8833.000000;1.012643
8832.000000;1.012860
8831.000000;1.012995
8830.000000;1.013072
8829.000000;1.013184
8828.000000;1.013313
8827.000000;1.013377
8826.000000;1.013322
8825.000000;1.013126
8824.000000;1.012783
8823.000000;1.012359
8822.000000;1.011985
8821.000000;1.011757
8820.000000;1.011674
8819.000000;1.011664
8818.000000;1.011630
8817.000000;1.011518
8816.000000;1.011375
8815.000000;1.011324
8814.000000;1.011394
8813.000000;1.011423
8812.000000;1.011233
8811.000000;1.010857
8810.000000;1.010494
8809.000000;1.010276
8808.000000;1.010208
8807.000000;1.010269
8806.000000;1.010430
8805.000000;1.010553
8804.000000;1.010463
8803.000000;1.010173
8802.000000;1.009939
8801.000000;1.010001
8800.000000;1.010334
8799.000000;1.010698
8798.000000;1.010874
8797.000000;1.010828
8796.000000;1.010708
8795.000000;1.010711
8794.000000;1.010912
8793.000000;1.011193
8792.000000;1.011372
8791.000000;1.011392
8790.000000;1.011331
8789.000000;1.011246
8788.000000;1.011088
8787.000000;1.010762
8786.000000;1.010240
8785.000000;1.009629
8784.000000;1.009170
8783.000000;1.009109
8782.000000;1.009452
8781.000000;1.009893
8780.000000;1.010070
8779.000000;1.009916
8778.000000;1.009652
8777.000000;1.009487
8776.000000;1.009417
8775.000000;1.009301
8774.000000;1.009040
8773.000000;1.008651
8772.000000;1.008269
8771.000000;1.008074
8770.000000;1.008151
8769.000000;1.008412
8768.000000;1.008681
8767.000000;1.008837
8766.000000;1.008837
8765.000000;1.008668
8764.000000;1.008410
8763.000000;1.008262
8762.000000;1.008350
8761.000000;1.008540
8760.000000;1.008571
8759.000000;1.008378
8758.000000;1.008118
8757.000000;1.007898
8756.000000;1.007662
8755.000000;1.007396
8754.000000;1.007280
8753.000000;1.007485
8752.000000;1.007904
8751.000000;1.008211
8750.000000;1.008156
8749.000000;1.007773
8748.000000;1.007320
8747.000000;1.007059
8746.000000;1.007072
8745.000000;1.007268
8744.000000;1.007532
8743.000000;1.007780
8742.000000;1.007888
8741.000000;1.007690
8740.000000;1.007227
8739.000000;1.006871
8738.000000;1.006978
8737.000000;1.007410
8736.000000;1.007609
8735.000000;1.007231
8734.000000;1.006551
8733.000000;1.006142
8732.000000;1.006269
8731.000000;1.006720
8730.000000;1.007121
8729.000000;1.007292
8728.000000;1.007306
8727.000000;1.007299
8726.000000;1.007275
8725.000000;1.007095
8724.000000;1.006662
8723.000000;1.006102
8722.000000;1.005691
8721.000000;1.005604
8720.000000;1.005757
8719.000000;1.005897
8718.000000;1.005792
8717.000000;1.005383
8716.000000;1.004851
8715.000000;1.004535
8714.000000;1.004695
8713.000000;1.005291
8712.000000;1.006014
8711.000000;1.006530
8710.000000;1.006681
8709.000000;1.006482
8708.000000;1.006047
8707.000000;1.005511
8706.000000;1.004955
8705.000000;1.004394
8704.000000;1.003869
8703.000000;1.003521
8702.000000;1.003475
8701.000000;1.003660
8700.000000;1.003867
8699.000000;1.003992
8698.000000;1.004136
8697.000000;1.004405
8696.000000;1.004697
8695.000000;1.004768
8694.000000;1.004497
8693.000000;1.004051
8692.000000;1.003793
8691.000000;1.003983
8690.000000;1.004541
8689.000000;1.005116
8688.000000;1.005392
8687.000000;1.005310
8686.000000;1.004987
8685.000000;1.004572
8684.000000;1.004232
8683.000000;1.004106
8682.000000;1.004144
8681.000000;1.004084
8680.000000;1.003773
8679.000000;1.003414
8678.000000;1.003290
8677.000000;1.003335
8676.000000;1.003235
8675.000000;1.002918
8674.000000;1.002664
8673.000000;1.002670
8672.000000;1.002793
8671.000000;1.002815
8670.000000;1.002736
8669.000000;1.002633
8668.000000;1.002446
8667.000000;1.002083
8666.000000;1.001633
8665.000000;1.001294
8664.000000;1.001168
8663.000000;1.001256
8662.000000;1.001563
8661.000000;1.002071
8660.000000;1.002629
8659.000000;1.002987
8658.000000;1.002949
8657.000000;1.002465
8656.000000;1.001679
8655.000000;1.000917
8654.000000;1.000539
8653.000000;1.000628
8652.000000;1.000891
8651.000000;1.000944
8650.000000;1.000688
8649.000000;1.000310
8648.000000;1.000005
8647.000000;0.999821
8646.000000;0.999737
8645.000000;0.999744
8644.000000;0.999804
8643.000000;0.999803
8642.000000;0.999631
8641.000000;0.999292
8640.000000;0.998920
8639.000000;0.998666
8638.000000;0.998539
8637.000000;0.998390
8636.000000;0.998105
8635.000000;0.997786
8634.000000;0.997663
8633.000000;0.997821
8632.000000;0.998114
8631.000000;0.998384
8630.000000;0.998635
8629.000000;0.998892
8628.000000;0.999012
8627.000000;0.998765
8626.000000;0.998111
8625.000000;0.997286
8624.000000;0.996607
8623.000000;0.996256
8622.000000;0.996245
8621.000000;0.996490
8620.000000;0.996854
8619.000000;0.997175
8618.000000;0.997297
8617.000000;0.997152
8616.000000;0.996814
8615.000000;0.996449
8614.000000;0.996166
8613.000000;0.995944
8612.000000;0.995740
8611.000000;0.995619
8610.000000;0.995685
8609.000000;0.995854
8608.000000;0.995852
8607.000000;0.995495
8606.000000;0.994918
8605.000000;0.994451
8604.000000;0.994297
8603.000000;0.994378
8602.000000;0.994444
8601.000000;0.994282
8600.000000;0.993886
8599.000000;0.993479
8598.000000;0.993330
8597.000000;0.993477
8596.000000;0.993662
8595.000000;0.993606
8594.000000;0.993294
8593.000000;0.992942
8592.000000;0.992711
8591.000000;0.992579
8590.000000;0.992457
8589.000000;0.992326
8588.000000;0.992213
8587.000000;0.992121
8586.000000;0.992038
8585.000000;0.991980
8584.000000;0.991981
8583.000000;0.992028
8582.000000;0.992048
8581.000000;0.991960
8580.000000;0.991738
8579.000000;0.991432
8578.000000;0.991107
8577.000000;0.990778
8576.000000;0.990408
8575.000000;0.989997
8574.000000;0.989635
8573.000000;0.989449
8572.000000;0.989476
8571.000000;0.989615
8570.000000;0.989703
8569.000000;0.989642
8568.000000;0.989479
8567.000000;0.989350
8566.000000;0.989352
8565.000000;0.989439
8564.000000;0.989462
8563.000000;0.989309
8562.000000;0.988996
8561.000000;0.988646
8560.000000;0.988389
8559.000000;0.988286
8558.000000;0.988295
8557.000000;0.988298
8556.000000;0.988186
8555.000000;0.987961
8554.000000;0.987750
8553.000000;0.987670
8552.000000;0.987694
8551.000000;0.987671
8550.000000;0.987490
8549.000000;0.987194
8548.000000;0.986914
8547.000000;0.986741
8546.000000;0.986671
8545.000000;0.986652
8544.000000;0.986622
8543.000000;0.986516
8542.000000;0.986296
8541.000000;0.986016
8540.000000;0.985802
8539.000000;0.985742
8538.000000;0.985793
8537.000000;0.985848
8536.000000;0.985841
8535.000000;0.985768
8534.000000;0.985615
8533.000000;0.985354
8532.000000;0.984987
8531.000000;0.984564
8530.000000;0.984170
8529.000000;0.983917
8528.000000;0.983904
8527.000000;0.984100
8526.000000;0.984270
8525.000000;0.984156
8524.000000;0.983769
8523.000000;0.983408
8522.000000;0.983367
8521.000000;0.983655
8520.000000;0.984045
8519.000000;0.984300
8518.000000;0.984322
8517.000000;0.984156
8516.000000;0.983931
8515.000000;0.983737
8514.000000;0.983526
8513.000000;0.983168
8512.000000;0.982648
8511.000000;0.982133
8510.000000;0.981814
8509.000000;0.981753
8508.000000;0.981906
8507.000000;0.982207
8506.000000;0.982534
8505.000000;0.982692
8504.000000;0.982554
8503.000000;0.982200
8502.000000;0.981824
8501.000000;0.981532
8500.000000;0.981291
8499.000000;0.981060
8498.000000;0.980854
8497.000000;0.980693
8496.000000;0.980538
8495.000000;0.980308
8494.000000;0.979963
8493.000000;0.979598
8492.000000;0.979450
8491.000000;0.979686
8490.000000;0.980163
8489.000000;0.980492
8488.000000;0.980461
8487.000000;0.980273
8486.000000;0.980251
8485.000000;0.980395
8484.000000;0.980391
8483.000000;0.980009
8482.000000;0.979354
8481.000000;0.978705
8480.000000;0.978260
8479.000000;0.978028
8478.000000;0.977883
8477.000000;0.977685
8476.000000;0.977436
8475.000000;0.977311
8474.000000;0.977445
8473.000000;0.977715
8472.000000;0.977842
8471.000000;0.977700
8470.000000;0.977417
8469.000000;0.977178
8468.000000;0.977047
8467.000000;0.977001
8466.000000;0.977011
8465.000000;0.977024
8464.000000;0.976948
8463.000000;0.976739
8462.000000;0.976461
8461.000000;0.976241
8460.000000;0.976177
8459.000000;0.976260
8458.000000;0.976344
8457.000000;0.976217
8456.000000;0.975801
8455.000000;0.975259
8454.000000;0.974841
8453.000000;0.974647
8452.000000;0.974603
8451.000000;0.974626
8450.000000;0.974676
8449.000000;0.974679
8448.000000;0.974558
8447.000000;0.974354
8446.000000;0.974198
8445.000000;0.974123
8444.000000;0.974041
8443.000000;0.973927
8442.000000;0.973873
8441.000000;0.973905
8440.000000;0.973894
8439.000000;0.973746
8438.000000;0.973575
8437.000000;0.973558
8436.000000;0.973696
8435.000000;0.973814
8434.000000;0.973748
8433.000000;0.973454
8432.000000;0.973003
8431.000000;0.972559
8430.000000;0.972307
8429.000000;0.972292
8428.000000;0.972366
8427.000000;0.972347
8426.000000;0.972228
8425.000000;0.972139
8424.000000;0.972152
8423.000000;0.972204
8422.000000;0.972191
8421.000000;0.972043
8420.000000;0.971724
8419.000000;0.971259
8418.000000;0.970782
8417.000000;0.970475
8416.000000;0.970400
8415.000000;0.970437
8414.000000;0.970420
8413.000000;0.970307
8412.000000;0.970182
8411.000000;0.970127
8410.000000;0.970134
8409.000000;0.970138
8408.000000;0.970105
8407.000000;0.970049
8406.000000;0.969985
8405.000000;0.969892
8404.000000;0.969726
8403.000000;0.969482
8402.000000;0.969216
8401.000000;0.969010
8400.000000;0.968902
8399.000000;0.968867
8398.000000;0.968864
8397.000000;0.968888
8396.000000;0.968967
8395.000000;0.969087
8394.000000;0.969155
8393.000000;0.969053
8392.000000;0.968745
8391.000000;0.968315
8390.000000;0.967903
8389.000000;0.967609
8388.000000;0.967453
8387.000000;0.967387
8386.000000;0.967367
8385.000000;0.967398
8384.000000;0.967490
8383.000000;0.967555
8382.000000;0.967415
8381.000000;0.966997
8380.000000;0.966489
8379.000000;0.966165
8378.000000;0.966080
8377.000000;0.966027
8376.000000;0.965845
8375.000000;0.965636
8374.000000;0.965601
8373.000000;0.965768
8372.000000;0.965985
8371.000000;0.966107
8370.000000;0.966088
8369.000000;0.965938
8368.000000;0.965706
8367.000000;0.965495
8366.000000;0.965395
8365.000000;0.965401
8364.000000;0.965449
8363.000000;0.965494
8362.000000;0.965491
8361.000000;0.965339
8360.000000;0.964966
8359.000000;0.964465
8358.000000;0.964037
8357.000000;0.963797
8356.000000;0.963717
8355.000000;0.963748
8354.000000;0.963885
8353.000000;0.964092
8352.000000;0.964265
8351.000000;0.964312
8350.000000;0.964230
8349.000000;0.964055
8348.000000;0.963778
8347.000000;0.963373
8346.000000;0.962867
8345.000000;0.962386
8344.000000;0.962126
8343.000000;0.962219
8342.000000;0.962577
8341.000000;0.962876
8340.000000;0.962822
8339.000000;0.962438
8338.000000;0.962030
8337.000000;0.961849
8336.000000;0.961849
8335.000000;0.961805
8334.000000;0.961594
8333.000000;0.961292
8332.000000;0.961052
8331.000000;0.960924
8330.000000;0.960833
8329.000000;0.960699
8328.000000;0.960552
8327.000000;0.960486
8326.000000;0.960497
8325.000000;0.960427
8324.000000;0.960135
8323.000000;0.959693
8322.000000;0.959345
8321.000000;0.959292
8320.000000;0.959547
8319.000000;0.959960
8318.000000;0.960312
8317.000000;0.960417
8316.000000;0.960216
8315.000000;0.959813
8314.000000;0.959371
8313.000000;0.959001
8312.000000;0.958755
8311.000000;0.958668
8310.000000;0.958704
8309.000000;0.958720
8308.000000;0.958595
8307.000000;0.958389
8306.000000;0.958254
8305.000000;0.958197
8304.000000;0.958054
8303.000000;0.957711
8302.000000;0.957227
8301.000000;0.956721
8300.000000;0.956284
8299.000000;0.956064
8298.000000;0.956265
8297.000000;0.956916
8296.000000;0.957702
8295.000000;0.958173
8294.000000;0.958150
8293.000000;0.957828
8292.000000;0.957517
8291.000000;0.957337
8290.000000;0.957187
8289.000000;0.956923
8288.000000;0.956524
8287.000000;0.956114
8286.000000;0.955835
8285.000000;0.955713
8284.000000;0.955635
8283.000000;0.955470
8282.000000;0.955193
8281.000000;0.954905
8280.000000;0.954750
8279.000000;0.954828
8278.000000;0.955122
8277.000000;0.955479
8276.000000;0.955697
8275.000000;0.955681
8274.000000;0.955517
8273.000000;0.955377
8272.000000;0.955340
8271.000000;0.955324
8270.000000;0.955181
8269.000000;0.954843
8268.000000;0.954406
8267.000000;0.954052
8266.000000;0.953898
8265.000000;0.953896
8264.000000;0.953896
8263.000000;0.953810
8262.000000;0.953678
8261.000000;0.953579
8260.000000;0.953505
8259.000000;0.953390
8258.000000;0.953224
8257.000000;0.953089
8256.000000;0.953034
8255.000000;0.952967
8254.000000;0.952742
8253.000000;0.952361
8252.000000;0.952014
8251.000000;0.951878
8250.000000;0.951926
8249.000000;0.951994
8248.000000;0.952001
8247.000000;0.952016
8246.000000;0.952105
8245.000000;0.952219
8244.000000;0.952289
8243.000000;0.952337
8242.000000;0.952397
8241.000000;0.952386
8240.000000;0.952173
8239.000000;0.951778
8238.000000;0.951396
8237.000000;0.951188
8236.000000;0.951109
8235.000000;0.950991
8234.000000;0.950755
8233.000000;0.950482
8232.000000;0.950305
8231.000000;0.950257
8230.000000;0.950271
8229.000000;0.950282
8228.000000;0.950279
8227.000000;0.950259
8226.000000;0.950161
8225.000000;0.949924
8224.000000;0.949597
8223.000000;0.949321
8222.000000;0.949182
8221.000000;0.949123
8220.000000;0.949051
8219.000000;0.948970
8218.000000;0.948969
8217.000000;0.949098
8216.000000;0.949289
8215.000000;0.949399
8214.000000;0.949318
8213.000000;0.949052
8212.000000;0.948719
8211.000000;0.948427
8210.000000;0.948192
8209.000000;0.947992
8208.000000;0.947862
8207.000000;0.947854
8206.000000;0.947907
8205.000000;0.947886
8204.000000;0.947767
8203.000000;0.947667
8202.000000;0.947632
8201.000000;0.947515
8200.000000;0.947191
8199.000000;0.946779
8198.000000;0.946517
8197.000000;0.946464
8196.000000;0.946451
8195.000000;0.946331
8194.000000;0.946151
8193.000000;0.946053
8192.000000;0.946103
8191.000000;0.946238
8190.000000;0.946341
8189.000000;0.946337
8188.000000;0.946239
8187.000000;0.946104
8186.000000;0.945930
8185.000000;0.945668
8184.000000;0.945347
8183.000000;0.945121
8182.000000;0.945106
8181.000000;0.945230
8180.000000;0.945326
8179.000000;0.945332
8178.000000;0.945292
8177.000000;0.945224
8176.000000;0.945100
8175.000000;0.944931
8174.000000;0.944773
8173.000000;0.944629
8172.000000;0.944457
8171.000000;0.944278
8170.000000;0.944181
8169.000000;0.944201
8168.000000;0.944282
8167.000000;0.944361
8166.000000;0.944425
8165.000000;0.944462
8164.000000;0.944437
8163.000000;0.944329
8162.000000;0.944136
8161.000000;0.943847
8160.000000;0.943484
8159.000000;0.943184
8158.000000;0.943108
8157.000000;0.943254
8156.000000;0.943411
8155.000000;0.943375
8154.000000;0.943135
8153.000000;0.942836
8152.000000;0.942615
8151.000000;0.942513
8150.000000;0.942499
8149.000000;0.942505
8148.000000;0.942470
8147.000000;0.942379
8146.000000;0.942281
8145.000000;0.942244
8144.000000;0.942286
8143.000000;0.942338
8142.000000;0.942269
8141.000000;0.941998
8140.000000;0.941595
8139.000000;0.941228
8138.000000;0.940994
8137.000000;0.940847
8136.000000;0.940741
8135.000000;0.940727
8134.000000;0.940848
8133.000000;0.940995
8132.000000;0.941000
8131.000000;0.940863
8130.000000;0.940734
8129.000000;0.940709
8128.000000;0.940722
8127.000000;0.940677
8126.000000;0.940551
8125.000000;0.940355
8124.000000;0.940088
8123.000000;0.939804
8122.000000;0.939625
8121.000000;0.939633
8120.000000;0.939770
8119.000000;0.939883
8118.000000;0.939836
8117.000000;0.939572
8116.000000;0.939155
8115.000000;0.938755
8114.000000;0.938536
8113.000000;0.938512
8112.000000;0.938541
8111.000000;0.938490
8110.000000;0.938334
8109.000000;0.938124
8108.000000;0.937911
8107.000000;0.937753
8106.000000;0.937725
8105.000000;0.937872
8104.000000;0.938160
8103.000000;0.938475
8102.000000;0.938655
8101.000000;0.938557
8100.000000;0.938161
8099.000000;0.937634
8098.000000;0.937203
8097.000000;0.936972
8096.000000;0.936891
8095.000000;0.936881
8094.000000;0.936907
8093.000000;0.936922
8092.000000;0.936850
8091.000000;0.936664
8090.000000;0.936433
8089.000000;0.936250
8088.000000;0.936153
8087.000000;0.936141
8086.000000;0.936182
8085.000000;0.936202
8084.000000;0.936127
8083.000000;0.935974
8082.000000;0.935844
8081.000000;0.935792
8080.000000;0.935772
8079.000000;0.935725
8078.000000;0.935649
8077.000000;0.935547
8076.000000;0.935373
8075.000000;0.935107
8074.000000;0.934824
8073.000000;0.934645
8072.000000;0.934620
8071.000000;0.934707
8070.000000;0.934808
8069.000000;0.934815
8068.000000;0.934669
8067.000000;0.934433
8066.000000;0.934267
8065.000000;0.934281
8064.000000;0.934429
8063.000000;0.934561
8062.000000;0.934567
8061.000000;0.934437
8060.000000;0.934234
8059.000000;0.934046
8058.000000;0.933931
8057.000000;0.933879
8056.000000;0.933833
8055.000000;0.933758
8054.000000;0.933643
8053.000000;0.933438
8052.000000;0.933073
8051.000000;0.932588
8050.000000;0.932173
8049.000000;0.932017
8048.000000;0.932112
8047.000000;0.932297
8046.000000;0.932451
8045.000000;0.932590
8044.000000;0.932762
8043.000000;0.932928
8042.000000;0.932973
8041.000000;0.932807
8040.000000;0.932448
8039.000000;0.932015
8038.000000;0.931673
8037.000000;0.931533
8036.000000;0.931571
8035.000000;0.931625
8034.000000;0.931528
8033.000000;0.931266
8032.000000;0.931027
8031.000000;0.931018
8030.000000;0.931244
8029.000000;0.931483
8028.000000;0.931519
8027.000000;0.931363
8026.000000;0.931184
8025.000000;0.931071
8024.000000;0.930949
8023.000000;0.930735
8022.000000;0.930491
8021.000000;0.930366
8020.000000;0.930423
8019.000000;0.930571
8018.000000;0.930647
8017.000000;0.930559
8016.000000;0.930360
8015.000000;0.930176
8014.000000;0.930093
8013.000000;0.930106
8012.000000;0.930181
8011.000000;0.930307
8010.000000;0.930433
8009.000000;0.930419
8008.000000;0.930164
8007.000000;0.929761
8006.000000;0.929444
8005.000000;0.929336
8004.000000;0.929326
8003.000000;0.929226
8002.000000;0.929002
8001.000000;0.928788
8000.000000;0.928719
7999.000000;0.928792
7998.000000;0.928876
7997.000000;0.928833
7996.000000;0.928647
7995.000000;0.928444
7994.000000;0.928369
7993.000000;0.928430
7992.000000;0.928492
7991.000000;0.928425
7990.000000;0.928210
7989.000000;0.927904
7988.000000;0.927568
7987.000000;0.927260
7986.000000;0.927057
7985.000000;0.927021
7984.000000;0.927150
7983.000000;0.927358
7982.000000;0.927513
7981.000000;0.927515
7980.000000;0.927378
7979.000000;0.927219
7978.000000;0.927124
7977.000000;0.927040
7976.000000;0.926856
7975.000000;0.926582
7974.000000;0.926364
7973.000000;0.926303
7972.000000;0.926337
7971.000000;0.926343
7970.000000;0.926267
7969.000000;0.926131
7968.000000;0.925988
7967.000000;0.925905
7966.000000;0.925922
7965.000000;0.925967
7964.000000;0.925893
7963.000000;0.925670
7962.000000;0.925476
7961.000000;0.925508
7960.000000;0.925724
7959.000000;0.925885
7958.000000;0.925827
7957.000000;0.925602
7956.000000;0.925332
7955.000000;0.925052
7954.000000;0.924740
7953.000000;0.924432
7952.000000;0.924231
7951.000000;0.924198
7950.000000;0.924281
7949.000000;0.924356
7948.000000;0.924333
7947.000000;0.924228
7946.000000;0.924124
7945.000000;0.924067
7944.000000;0.924018
7943.000000;0.923917
7942.000000;0.923777
7941.000000;0.923656
7940.000000;0.923565
7939.000000;0.923442
7938.000000;0.923253
7937.000000;0.923053
7936.000000;0.922925
7935.000000;0.922881
7934.000000;0.922867
7933.000000;0.922846
7932.000000;0.922819
7931.000000;0.922780
7930.000000;0.922696
7929.000000;0.922573
7928.000000;0.922485
7927.000000;0.922492
7926.000000;0.922539
7925.000000;0.922500
7924.000000;0.922344
7923.000000;0.922172
7922.000000;0.922098
7921.000000;0.922115
7920.000000;0.922132
7919.000000;0.922077
7918.000000;0.921923
7917.000000;0.921683
7916.000000;0.921442
7915.000000;0.921349
7914.000000;0.921483
7913.000000;0.921703
7912.000000;0.921740
7911.000000;0.921480
7910.000000;0.921093
7909.000000;0.920844
7908.000000;0.920829
7907.000000;0.920926
7906.000000;0.920960
7905.000000;0.920861
7904.000000;0.920691
7903.000000;0.920559
7902.000000;0.920527
7901.000000;0.920551
7900.000000;0.920537
7899.000000;0.920434
7898.000000;0.920257
7897.000000;0.920023
7896.000000;0.919724
7895.000000;0.919403
7894.000000;0.919200
7893.000000;0.919248
7892.000000;0.919505
7891.000000;0.919747
7890.000000;0.919745
7889.000000;0.919460
7888.000000;0.919062
7887.000000;0.918774
7886.000000;0.918697
7885.000000;0.918756
7884.000000;0.918801
7883.000000;0.918751
7882.000000;0.918648
7881.000000;0.918576
7880.000000;0.918566
7879.000000;0.918582
7878.000000;0.918581
7877.000000;0.918534
7876.000000;0.918426
7875.000000;0.918249
7874.000000;0.918025
7873.000000;0.917813
7872.000000;0.917670
7871.000000;0.917610
7870.000000;0.917613
7869.000000;0.917645
7868.000000;0.917677
7867.000000;0.917673
7866.000000;0.917593
7865.000000;0.917423
7864.000000;0.917212
7863.000000;0.917050
7862.000000;0.917003
7861.000000;0.917044
7860.000000;0.917080
7859.000000;0.917035
7858.000000;0.916905
7857.000000;0.916745
7856.000000;0.916612
7855.000000;0.916525
7854.000000;0.916467
7853.000000;0.916413
7852.000000;0.916342
7851.000000;0.916241
7850.000000;0.916092
7849.000000;0.915878
7848.000000;0.915609
7847.000000;0.915364
7846.000000;0.915260
7845.000000;0.915361
7844.000000;0.915592
7843.000000;0.915769
7842.000000;0.915754
7841.000000;0.915575
7840.000000;0.915373
7839.000000;0.915247
7838.000000;0.915178
7837.000000;0.915116
7836.000000;0.915073
7835.000000;0.915080
7834.000000;0.915088
7833.000000;0.914974
7832.000000;0.914674
7831.000000;0.914268
7830.000000;0.913919
7829.000000;0.913753
7828.000000;0.913779
7827.000000;0.913895
7826.000000;0.913959
7825.000000;0.913910
7824.000000;0.913815
7823.000000;0.913771
7822.000000;0.913774
7821.000000;0.913740
7820.000000;0.913658
7819.000000;0.913629
7818.000000;0.913716
7817.000000;0.913831
7816.000000;0.913830
7815.000000;0.913674
7814.000000;0.913445
7813.000000;0.913235
7812.000000;0.913079
7811.000000;0.912960
7810.000000;0.912831
7809.000000;0.912650
7808.000000;0.912444
7807.000000;0.912308
7806.000000;0.912287
7805.000000;0.912304
7804.000000;0.912258
7803.000000;0.912155
7802.000000;0.912069
7801.000000;0.912023
7800.000000;0.911990
7799.000000;0.911982
7798.000000;0.912041
7797.000000;0.912121
7796.000000;0.912093
7795.000000;0.911906
7794.000000;0.911669
7793.000000;0.911520
7792.000000;0.911469
7791.000000;0.911410
7790.000000;0.911251
7789.000000;0.911006
7788.000000;0.910763
7787.000000;0.910603
7786.000000;0.910537
7785.000000;0.910506
7784.000000;0.910451
7783.000000;0.910379
7782.000000;0.910331
7781.000000;0.910308
7780.000000;0.910256
7779.000000;0.910136
7778.000000;0.909968
7777.000000;0.909798
7776.000000;0.909646
7775.000000;0.909516
7774.000000;0.909427
7773.000000;0.909397
7772.000000;0.909410
7771.000000;0.909402
7770.000000;0.909317
7769.000000;0.909171
7768.000000;0.909077
7767.000000;0.909148
7766.000000;0.909354
7765.000000;0.909518
7764.000000;0.909481
7763.000000;0.909265
7762.000000;0.909027
7761.000000;0.908864
7760.000000;0.908743
7759.000000;0.908609
7758.000000;0.908466
7757.000000;0.908351
7756.000000;0.908268
7755.000000;0.908201
7754.000000;0.908144
7753.000000;0.908093
7752.000000;0.908029
7751.000000;0.907929
7750.000000;0.907773
7749.000000;0.907557
7748.000000;0.907325
7747.000000;0.907177
7746.000000;0.907190
7745.000000;0.907312
7744.000000;0.907389
7743.000000;0.907321
7742.000000;0.907144
7741.000000;0.906951
7740.000000;0.906793
7739.000000;0.906679
7738.000000;0.906626
7737.000000;0.906640
7736.000000;0.906680
7735.000000;0.906686
7734.000000;0.906635
7733.000000;0.906559
7732.000000;0.906506
7731.000000;0.906504
7730.000000;0.906531
7729.000000;0.906499
7728.000000;0.906299
7727.000000;0.905911
7726.000000;0.905457
7725.000000;0.905114
7724.000000;0.904983
7723.000000;0.905041
7722.000000;0.905195
7721.000000;0.905347
7720.000000;0.905417
7719.000000;0.905357
7718.000000;0.905165
7717.000000;0.904887
7716.000000;0.904598
7715.000000;0.904389
7714.000000;0.904329
7713.000000;0.904424
7712.000000;0.904585
7711.000000;0.904674
7710.000000;0.904582
7709.000000;0.904306
7708.000000;0.903939
7707.000000;0.903606
7706.000000;0.903394
7705.000000;0.903313
7704.000000;0.903314
7703.000000;0.903325
7702.000000;0.903293
7701.000000;0.903220
7700.000000;0.903170
7699.000000;0.903210
7698.000000;0.903327
7697.000000;0.903425
7696.000000;0.903421
7695.000000;0.903340
7694.000000;0.903274
7693.000000;0.903257
7692.000000;0.903220
7691.000000;0.903079
7690.000000;0.902827
7689.000000;0.902529
7688.000000;0.902260
7687.000000;0.902066
7686.000000;0.901965
7685.000000;0.901952
7684.000000;0.901996
7683.000000;0.902045
7682.000000;0.902044
7681.000000;0.901974
7680.000000;0.901863
7679.000000;0.901754
7678.000000;0.901664
7677.000000;0.901585
7676.000000;0.901532
7675.000000;0.901529
7674.000000;0.901555
7673.000000;0.901525
7672.000000;0.901370
7671.000000;0.901117
7670.000000;0.900841
7669.000000;0.900588
7668.000000;0.900386
7667.000000;0.900285
7666.000000;0.900315
7665.000000;0.900419
7664.000000;0.900487
7663.000000;0.900462
7662.000000;0.900367
7661.000000;0.900218
7660.000000;0.900014
7659.000000;0.899801
7658.000000;0.899669
7657.000000;0.899647
7656.000000;0.899669
7655.000000;0.899680
7654.000000;0.899695
7653.000000;0.899712
7652.000000;0.899643
7651.000000;0.899407
7650.000000;0.899082
7649.000000;0.898872
7648.000000;0.898912
7647.000000;0.899147
7646.000000;0.899392
7645.000000;0.899486
7644.000000;0.899394
7643.000000;0.899206
7642.000000;0.899035
7641.000000;0.898912
7640.000000;0.898782
7639.000000;0.898612
7638.000000;0.898444
7637.000000;0.898333
7636.000000;0.898267
7635.000000;0.898198
7634.000000;0.898123
7633.000000;0.898067
7632.000000;0.898001
7631.000000;0.897856
7630.000000;0.897627
7629.000000;0.897412
7628.000000;0.897306
7627.000000;0.897289
7626.000000;0.897268
7625.000000;0.897199
7624.000000;0.897137
7623.000000;0.897154
7622.000000;0.897247
7621.000000;0.897341
7620.000000;0.897373
7619.000000;0.897341
7618.000000;0.897259
7617.000000;0.897108
7616.000000;0.896857
7615.000000;0.896547
7614.000000;0.896302
7613.000000;0.896236
7612.000000;0.896350
7611.000000;0.896536
7610.000000;0.896671
7609.000000;0.896683
7608.000000;0.896570
7607.000000;0.896378
7606.000000;0.896187
7605.000000;0.896056
7604.000000;0.895979
7603.000000;0.895896
7602.000000;0.895765
7601.000000;0.895609
7600.000000;0.895480
7599.000000;0.895389
7598.000000;0.895295
7597.000000;0.895164
7596.000000;0.895011
7595.000000;0.894891
7594.000000;0.894840
7593.000000;0.894833
7592.000000;0.894806
7591.000000;0.894717
7590.000000;0.894598
7589.000000;0.894545
7588.000000;0.894628
7587.000000;0.894808
7586.000000;0.894949
7585.000000;0.894941
7584.000000;0.894789
7583.000000;0.894592
7582.000000;0.894439
7581.000000;0.894347
7580.000000;0.894290
7579.000000;0.894242
7578.000000;0.894191
7577.000000;0.894131
7576.000000;0.894074
7575.000000;0.894048
7574.000000;0.894072
7573.000000;0.894118
7572.000000;0.894138
7571.000000;0.894099
7570.000000;0.893996
7569.000000;0.893844
7568.000000;0.893661
7567.000000;0.893481
7566.000000;0.893343
7565.000000;0.893276
7564.000000;0.893274
7563.000000;0.893291
7562.000000;0.893271
7561.000000;0.893189
7560.000000;0.893072
7559.000000;0.892968
7558.000000;0.892902
7557.000000;0.892869
7556.000000;0.892859
7555.000000;0.892857
7554.000000;0.892827
7553.000000;0.892737
7552.000000;0.892608
7551.000000;0.892524
7550.000000;0.892539
7549.000000;0.892601
7548.000000;0.892579
7547.000000;0.892383
7546.000000;0.892054
7545.000000;0.891750
7544.000000;0.891624
7543.000000;0.891694
7542.000000;0.891827
7541.000000;0.891862
7540.000000;0.891758
7539.000000;0.891610
7538.000000;0.891521
7537.000000;0.891512
7536.000000;0.891559
7535.000000;0.891652
7534.000000;0.891775
7533.000000;0.891863
7532.000000;0.891845
7531.000000;0.891711
7530.000000;0.891532
7529.000000;0.891381
7528.000000;0.891292
7527.000000;0.891251
7526.000000;0.891234
7525.000000;0.891230
7524.000000;0.891248
7523.000000;0.891295
7522.000000;0.891336
7521.000000;0.891303
7520.000000;0.891167
7519.000000;0.890985
7518.000000;0.890852
7517.000000;0.890824
7516.000000;0.890897
7515.000000;0.891012
7514.000000;0.891083
7513.000000;0.891040
7512.000000;0.890892
7511.000000;0.890714
7510.000000;0.890545
7509.000000;0.890341
7508.000000;0.890060
7507.000000;0.889757
7506.000000;0.889531
7505.000000;0.889432
7504.000000;0.889451
7503.000000;0.889590
7502.000000;0.889841
7501.000000;0.890108
7500.000000;0.890241
7499.000000;0.890170
7498.000000;0.889980
7497.000000;0.889793
7496.000000;0.889661
7495.000000;0.889579
7494.000000;0.889538
7493.000000;0.889526
7492.000000;0.889492
7491.000000;0.889375
7490.000000;0.889182
7489.000000;0.889014
7488.000000;0.888989
7487.000000;0.889131
7486.000000;0.889331
7485.000000;0.889440
7484.000000;0.889412
7483.000000;0.889331
7482.000000;0.889292
7481.000000;0.889291
7480.000000;0.889255
7479.000000;0.889158
7478.000000;0.889052
7477.000000;0.888983
7476.000000;0.888940
7475.000000;0.888892
7474.000000;0.888835
7473.000000;0.888788
7472.000000;0.888751
7471.000000;0.888708
7470.000000;0.888645
7469.000000;0.888567
7468.000000;0.888499
7467.000000;0.888475
7466.000000;0.888519
7465.000000;0.888611
7464.000000;0.888701
7463.000000;0.888734
7462.000000;0.888676
7461.000000;0.888513
7460.000000;0.888281
7459.000000;0.888073
7458.000000;0.887992
7457.000000;0.888064
7456.000000;0.888198
7455.000000;0.888242
7454.000000;0.888099
7453.000000;0.887811
7452.000000;0.887547
7451.000000;0.887470
7450.000000;0.887586
7449.000000;0.887755
7448.000000;0.887841
7447.000000;0.887834
7446.000000;0.887799
7445.000000;0.887746
7444.000000;0.887646
7443.000000;0.887534
7442.000000;0.887520
7441.000000;0.887663
7440.000000;0.887891
7439.000000;0.888073
7438.000000;0.888150
7437.000000;0.888146
7436.000000;0.888101
7435.000000;0.888033
7434.000000;0.887962
7433.000000;0.887924
7432.000000;0.887925
7431.000000;0.887923
7430.000000;0.887862
7429.000000;0.887733
7428.000000;0.887585
7427.000000;0.887471
7426.000000;0.887411
7425.000000;0.887411
7424.000000;0.887492
7423.000000;0.887655
7422.000000;0.887831
7421.000000;0.887910
7420.000000;0.887838
7419.000000;0.887659
7418.000000;0.887440
7417.000000;0.887214
7416.000000;0.887007
7415.000000;0.886885
7414.000000;0.886899
7413.000000;0.887015
7412.000000;0.887134
7411.000000;0.887175
7410.000000;0.887125
7409.000000;0.887034
7408.000000;0.886992
7407.000000;0.887068
7406.000000;0.887242
7405.000000;0.887423
7404.000000;0.887555
7403.000000;0.887659
7402.000000;0.887719
7401.000000;0.887628
7400.000000;0.887334
7399.000000;0.886997
7398.000000;0.886869
7397.000000;0.887015
7396.000000;0.887255
7395.000000;0.887387
7394.000000;0.887380
7393.000000;0.887321
7392.000000;0.887263
7391.000000;0.887194
7390.000000;0.887102
7389.000000;0.887001
7388.000000;0.886908
7387.000000;0.886851
7386.000000;0.886859
7385.000000;0.886919
7384.000000;0.886967
7383.000000;0.886960
7382.000000;0.886927
7381.000000;0.886915
7380.000000;0.886908
7379.000000;0.886850
7378.000000;0.886725
7377.000000;0.886588
7376.000000;0.886502
7375.000000;0.886499
7374.000000;0.886576
7373.000000;0.886717
7372.000000;0.886890
7371.000000;0.887044
7370.000000;0.887123
7369.000000;0.887098
7368.000000;0.886997
7367.000000;0.886892
7366.000000;0.886844
7365.000000;0.886851
7364.000000;0.886847
7363.000000;0.886784
7362.000000;0.886697
7361.000000;0.886672
7360.000000;0.886740
7359.000000;0.886841
7358.000000;0.886880
7357.000000;0.886823
7356.000000;0.886728
7355.000000;0.886707
7354.000000;0.886823
7353.000000;0.887013
7352.000000;0.887142
7351.000000;0.887143
7350.000000;0.887070
7349.000000;0.886999
7348.000000;0.886929
7347.000000;0.886815
7346.000000;0.886697
7345.000000;0.886689
7344.000000;0.886836
7343.000000;0.887046
7342.000000;0.887191
7341.000000;0.887258
7340.000000;0.887337
7339.000000;0.887490
7338.000000;0.887673
7337.000000;0.887783
7336.000000;0.887752
7335.000000;0.887611
7334.000000;0.887506
7333.000000;0.887598
7332.000000;0.887905
7331.000000;0.888243
7330.000000;0.888372
7329.000000;0.888204
7328.000000;0.887865
7327.000000;0.887576
7326.000000;0.887480
7325.000000;0.887579
7324.000000;0.887771
7323.000000;0.887923
7322.000000;0.887935
7321.000000;0.887827
7320.000000;0.887733
7319.000000;0.887774
7318.000000;0.887932
7317.000000;0.888084
7316.000000;0.888136
7315.000000;0.888095
7314.000000;0.888019
7313.000000;0.887981
7312.000000;0.888064
7311.000000;0.888329
7310.000000;0.888735
7309.000000;0.889122
7308.000000;0.889338
7307.000000;0.889357
7306.000000;0.889272
7305.000000;0.889195
7304.000000;0.889192
7303.000000;0.889266
7302.000000;0.889343
7301.000000;0.889333
7300.000000;0.889252
7299.000000;0.889245
7298.000000;0.889424
7297.000000;0.889709
7296.000000;0.889905
7295.000000;0.889928
7294.000000;0.889895
7293.000000;0.889980
7292.000000;0.890225
7291.000000;0.890534
7290.000000;0.890802
7289.000000;0.890993
7288.000000;0.891127
7287.000000;0.891252
7286.000000;0.891420
7285.000000;0.891656
7284.000000;0.891940
7283.000000;0.892224
7282.000000;0.892445
7281.000000;0.892562
7280.000000;0.892580
7279.000000;0.892518
7278.000000;0.892379
7277.000000;0.892169
7276.000000;0.891960
7275.000000;0.891895
7274.000000;0.892067
7273.000000;0.892435
7272.000000;0.892876
7271.000000;0.893304
7270.000000;0.893667
7269.000000;0.893899
7268.000000;0.893970
7267.000000;0.893973
7266.000000;0.894062
7265.000000;0.894285
7264.000000;0.894550
7263.000000;0.894775
7262.000000;0.894995
7261.000000;0.895293
7260.000000;0.895700
7259.000000;0.896186
7258.000000;0.896662
7257.000000;0.896987
7256.000000;0.897050
7255.000000;0.896904
7254.000000;0.896769
7253.000000;0.896839
7252.000000;0.897091
7251.000000;0.897325
7250.000000;0.897385
7249.000000;0.897308
7248.000000;0.897292
7247.000000;0.897531
7246.000000;0.898046
7245.000000;0.898630
7244.000000;0.899019
7243.000000;0.899172
7242.000000;0.899322
7241.000000;0.899682
7240.000000;0.900158
7239.000000;0.900478
7238.000000;0.900543
7237.000000;0.900535
7236.000000;0.900694
7235.000000;0.901051
7234.000000;0.901413
7233.000000;0.901589
7232.000000;0.901597
7231.000000;0.901650
7230.000000;0.901951
7229.000000;0.902511
7228.000000;0.903160
7227.000000;0.903730
7226.000000;0.904215
7225.000000;0.904708
7224.000000;0.905225
7223.000000;0.905648
7222.000000;0.905875
7221.000000;0.905951
7220.000000;0.906026
7219.000000;0.906228
7218.000000;0.906576
7217.000000;0.906993
7216.000000;0.907371
7215.000000;0.907639
7214.000000;0.907809
7213.000000;0.907967
7212.000000;0.908205
7211.000000;0.908551
7210.000000;0.908969
7209.000000;0.909414
7208.000000;0.909856
7207.000000;0.910259
7206.000000;0.910583
7205.000000;0.910847
7204.000000;0.911163
7203.000000;0.911669
7202.000000;0.912391
7201.000000;0.913213
7200.000000;0.913984
7199.000000;0.914623
7198.000000;0.915092
7197.000000;0.915356
7196.000000;0.915437
7195.000000;0.915484
7194.000000;0.915679
7193.000000;0.916072
7192.000000;0.916564
7191.000000;0.917050
7190.000000;0.917510
7189.000000;0.917937
7188.000000;0.918272
7187.000000;0.918476
7186.000000;0.918595
7185.000000;0.918724
7184.000000;0.918942
7183.000000;0.919292
7182.000000;0.919802
7181.000000;0.920451
7180.000000;0.921165
7179.000000;0.921892
7178.000000;0.922629
7177.000000;0.923335
7176.000000;0.923899
7175.000000;0.924261
7174.000000;0.924530
7173.000000;0.924888
7172.000000;0.925388
7171.000000;0.925918
7170.000000;0.926344
7169.000000;0.926652
7168.000000;0.926926
7167.000000;0.927283
7166.000000;0.927810
7165.000000;0.928541
7164.000000;0.929392
7163.000000;0.930152
7162.000000;0.930615
7161.000000;0.930800
7160.000000;0.930980
7159.000000;0.931403
7158.000000;0.932010
7157.000000;0.932520
7156.000000;0.932793
7155.000000;0.932976
7154.000000;0.933257
7153.000000;0.933638
7152.000000;0.934067
7151.000000;0.934631
7150.000000;0.935414
7149.000000;0.936243
7148.000000;0.936799
7147.000000;0.936990
7146.000000;0.937010
7145.000000;0.937034
7144.000000;0.937080
7143.000000;0.937215
7142.000000;0.937659
7141.000000;0.938483
7140.000000;0.939363
7139.000000;0.939837
7138.000000;0.939772
7137.000000;0.939457
7136.000000;0.939304
7135.000000;0.939610
7134.000000;0.940481
7133.000000;0.941721
7132.000000;0.942803
7131.000000;0.943185
7130.000000;0.942768
7129.000000;0.942019
7128.000000;0.941613
7127.000000;0.941946
7126.000000;0.942876
7125.000000;0.943782
7124.000000;0.943956
7123.000000;0.943164
7122.000000;0.941892
7121.000000;0.940921
7120.000000;0.940631
7119.000000;0.940832
7118.000000;0.941214
7117.000000;0.941702
7116.000000;0.942283
7115.000000;0.942775
7114.000000;0.943011
7113.000000;0.943057
7112.000000;0.943015
7111.000000;0.942737
7110.000000;0.942061
7109.000000;0.941252
7108.000000;0.940854
7107.000000;0.940966
7106.000000;0.940991
7105.000000;0.940337
7104.000000;0.939137
7103.000000;0.937950
7102.000000;0.937015
7101.000000;0.936237
7100.000000;0.935780
7099.000000;0.936035
7098.000000;0.936824
7097.000000;0.937134
7096.000000;0.936139
7095.000000;0.934259
7094.000000;0.932760
7093.000000;0.932334
7092.000000;0.932498
7091.000000;0.932353
7090.000000;0.931483
7089.000000;0.930007
7088.000000;0.928228
7087.000000;0.926518
7086.000000;0.925226
7085.000000;0.924382
7084.000000;0.923644
7083.000000;0.922785
7082.000000;0.922054
7081.000000;0.921733
7080.000000;0.921497
7079.000000;0.920627
7078.000000;0.918918
7077.000000;0.916934
7076.000000;0.915262
7075.000000;0.913898
7074.000000;0.912528
7073.000000;0.911068
7072.000000;0.909625
7071.000000;0.908171
7070.000000;0.906566
7069.000000;0.904825
7068.000000;0.903061
7067.000000;0.901252
7066.000000;0.899366
7065.000000;0.897637
7064.000000;0.896378
7063.000000;0.895495
7062.000000;0.894494
7061.000000;0.893071
7060.000000;0.891382
7059.000000;0.889670
7058.000000;0.887985
7057.000000;0.886410
7056.000000;0.885155
7055.000000;0.884140
7054.000000;0.882801
7053.000000;0.880715
7052.000000;0.878205
7051.000000;0.875899
7050.000000;0.873879
7049.000000;0.871732
7048.000000;0.869367
7047.000000;0.867234
7046.000000;0.865614
7045.000000;0.864098
7044.000000;0.862003
7043.000000;0.859075
7042.000000;0.855624
7041.000000;0.852226
7040.000000;0.849507
7039.000000;0.847871
7038.000000;0.847164
7037.000000;0.846763
7036.000000;0.846090
7035.000000;0.844886
7034.000000;0.842999
7033.000000;0.840248
7032.000000;0.836733
7031.000000;0.833035
7030.000000;0.829867
7029.000000;0.827561
7028.000000;0.825917
7027.000000;0.824367
7026.000000;0.822268
7025.000000;0.819369
7024.000000;0.816070
7023.000000;0.812908
7022.000000;0.809797
7021.000000;0.806258
7020.000000;0.802507
7019.000000;0.799613
7018.000000;0.798102
7017.000000;0.796982
7016.000000;0.794848
7015.000000;0.791683
7014.000000;0.788852
7013.000000;0.787427
7012.000000;0.787091
7011.000000;0.786571
7010.000000;0.784652
7009.000000;0.780934
7008.000000;0.776137
7007.000000;0.771649
7006.000000;0.768333
7005.000000;0.765798
7004.000000;0.763228
7003.000000;0.760735
7002.000000;0.759063
7001.000000;0.758003
7000.000000;0.756097
6999.000000;0.752357
6998.000000;0.747582
6997.000000;0.743487
6996.000000;0.740990
6995.000000;0.739709
6994.000000;0.738623
6993.000000;0.736799
6992.000000;0.733914
6991.000000;0.730512
6990.000000;0.727580
6989.000000;0.725598
6988.000000;0.724151
6987.000000;0.722525
6986.000000;0.720286
6985.000000;0.717177
6984.000000;0.713020
6983.000000;0.708144
6982.000000;0.703525
6981.000000;0.700042
6980.000000;0.697748
6979.000000;0.696094
6978.000000;0.694548
6977.000000;0.692701
6976.000000;0.690182
6975.000000;0.686972
6974.000000;0.683600
6973.000000;0.680635
6972.000000;0.678096
6971.000000;0.675644
6970.000000;0.673170
6969.000000;0.670863
6968.000000;0.668807
6967.000000;0.666880
6966.000000;0.665015
6965.000000;0.663266
6964.000000;0.661563
6963.000000;0.659505
6962.000000;0.656507
6961.000000;0.652314
6960.000000;0.647509
6959.000000;0.643343
6958.000000;0.640691
6957.000000;0.639179
6956.000000;0.637683
6955.000000;0.635662
6954.000000;0.633474
6953.000000;0.631390
6952.000000;0.629083
6951.000000;0.626418
6950.000000;0.624041
6949.000000;0.622589
6948.000000;0.621681
6947.000000;0.620246
6946.000000;0.617685
6945.000000;0.614268
6944.000000;0.610595
6943.000000;0.607118
6942.000000;0.604104
6941.000000;0.601640
6940.000000;0.599631
6939.000000;0.597960
6938.000000;0.596528
6937.000000;0.594996
6936.000000;0.592840
6935.000000;0.589914
6934.000000;0.586668
6933.000000;0.583579
6932.000000;0.580765
6931.000000;0.578395
6930.000000;0.576986
6929.000000;0.576695
6928.000000;0.576625
6927.000000;0.575475
6926.000000;0.572827
6925.000000;0.569390
6924.000000;0.566069
6923.000000;0.563309
6922.000000;0.561273
6921.000000;0.560035
6920.000000;0.559363
6919.000000;0.558675
6918.000000;0.557442
6917.000000;0.555583
6916.000000;0.553432
6915.000000;0.551386
6914.000000;0.549579
6913.000000;0.547847
6912.000000;0.546002
6911.000000;0.544170
6910.000000;0.542706
6909.000000;0.541714
6908.000000;0.540772
6907.000000;0.539279
6906.000000;0.537010
6905.000000;0.534352
6904.000000;0.532124
6903.000000;0.531101
6902.000000;0.531368
6901.000000;0.531993
6900.000000;0.531590
6899.000000;0.529399
6898.000000;0.525763
6897.000000;0.521609
6896.000000;0.517763
6895.000000;0.514821
6894.000000;0.513242
6893.000000;0.513121
6892.000000;0.513914
6891.000000;0.514636
6890.000000;0.514460
6889.000000;0.513222
6888.000000;0.511460
6887.000000;0.509904
6886.000000;0.508816
6885.000000;0.507881
6884.000000;0.506794
6883.000000;0.505629
6882.000000;0.504393
6881.000000;0.502653
6880.000000;0.500181
6879.000000;0.497700
6878.000000;0.496307
6877.000000;0.496208
6876.000000;0.496613
6875.000000;0.496878
6874.000000;0.497037
6873.000000;0.497206
6872.000000;0.497256
6871.000000;0.497228
6870.000000;0.497333
6869.000000;0.497267
6868.000000;0.496232
6867.000000;0.494042
6866.000000;0.491595
6865.000000;0.489825
6864.000000;0.488743
6863.000000;0.487944
6862.000000;0.487455
6861.000000;0.487514
6860.000000;0.487861
6859.000000;0.487803
6858.000000;0.486885
6857.000000;0.485286
6856.000000;0.483772
6855.000000;0.483302
6854.000000;0.484152
6853.000000;0.485217
6852.000000;0.484797
6851.000000;0.482477
6850.000000;0.479803
6849.000000;0.478736
6848.000000;0.479820
6847.000000;0.482113
6846.000000;0.484291
6845.000000;0.485336
6844.000000;0.484750
6843.000000;0.482894
6842.000000;0.480964
6841.000000;0.480058
6840.000000;0.480234
6839.000000;0.480779
6838.000000;0.481167
6837.000000;0.481367
6836.000000;0.481484
6835.000000;0.481585
6834.000000;0.481751
6833.000000;0.481927
6832.000000;0.481905
6831.000000;0.481735
6830.000000;0.481853
6829.000000;0.482414
6828.000000;0.482775
6827.000000;0.482181
6826.000000;0.480829
6825.000000;0.479710
6824.000000;0.479487
6823.000000;0.480006
6822.000000;0.480849
6821.000000;0.481844
6820.000000;0.482923
6819.000000;0.483870
6818.000000;0.484461
6817.000000;0.484738
6816.000000;0.485049
6815.000000;0.485842
6814.000000;0.487325
6813.000000;0.489151
6812.000000;0.490534
6811.000000;0.490876
6810.000000;0.490291
6809.000000;0.489473
6808.000000;0.489112
6807.000000;0.489443
6806.000000;0.490204
6805.000000;0.490926
6804.000000;0.491379
6803.000000;0.491801
6802.000000;0.492515
6801.000000;0.493328
6800.000000;0.493652
6799.000000;0.493374
6798.000000;0.493234
6797.000000;0.494022
6796.000000;0.495635
6795.000000;0.497333
6794.000000;0.498732
6793.000000;0.500069
6792.000000;0.501524
6791.000000;0.502771
6790.000000;0.503412
6789.000000;0.503520
6788.000000;0.503447
6787.000000;0.503309
6786.000000;0.503013
6785.000000;0.502747
6784.000000;0.503064
6783.000000;0.504322
6782.000000;0.506204
6781.000000;0.507998
6780.000000;0.509252
6779.000000;0.509951
6778.000000;0.510197
6777.000000;0.510085
6776.000000;0.509925
6775.000000;0.510171
6774.000000;0.510889
6773.000000;0.511580
6772.000000;0.511788
6771.000000;0.511722
6770.000000;0.511976
6769.000000;0.512836
6768.000000;0.514144
6767.000000;0.515711
6766.000000;0.517400
6765.000000;0.518884
6764.000000;0.519779
6763.000000;0.520149
6762.000000;0.520539
6761.000000;0.521365
6760.000000;0.522557
6759.000000;0.523856
6758.000000;0.525159
6757.000000;0.526365
6756.000000;0.527227
6755.000000;0.527650
6754.000000;0.527992
6753.000000;0.528762
6752.000000;0.529994
6751.000000;0.531148
6750.000000;0.531696
6749.000000;0.531721
6748.000000;0.531836
6747.000000;0.532517
6746.000000;0.533588
6745.000000;0.534465
6744.000000;0.534880
6743.000000;0.535180
6742.000000;0.535827
6741.000000;0.536811
6740.000000;0.537786
6739.000000;0.538630
6738.000000;0.539540
6737.000000;0.540624
6736.000000;0.541718
6735.000000;0.542662
6734.000000;0.543467
6733.000000;0.544098
6732.000000;0.544368
6731.000000;0.544259
6730.000000;0.544163
6729.000000;0.544581
6728.000000;0.545594
6727.000000;0.546785
6726.000000;0.547679
6725.000000;0.548193
6724.000000;0.548643
6723.000000;0.549354
6722.000000;0.550306
6721.000000;0.551225
6720.000000;0.551952
6719.000000;0.552618
6718.000000;0.553393
6717.000000;0.554232
6716.000000;0.555010
6715.000000;0.555783
6714.000000;0.556700
6713.000000;0.557723
6712.000000;0.558649
6711.000000;0.559396
6710.000000;0.560078
6709.000000;0.560771
6708.000000;0.561411
6707.000000;0.561959
6706.000000;0.562466
6705.000000;0.562940
6704.000000;0.563306
6703.000000;0.563561
6702.000000;0.563868
6701.000000;0.564442
6700.000000;0.565370
6699.000000;0.566557
6698.000000;0.567735
6697.000000;0.568576
6696.000000;0.568952
6695.000000;0.569135
6694.000000;0.569595
6693.000000;0.570549
6692.000000;0.571792
6691.000000;0.572963
6690.000000;0.573844
6689.000000;0.574409
6688.000000;0.574739
6687.000000;0.574991
6686.000000;0.575321
6685.000000;0.575793
6684.000000;0.576391
6683.000000;0.577127
6682.000000;0.578009
6681.000000;0.578917
6680.000000;0.579665
6679.000000;0.580218
6678.000000;0.580714
6677.000000;0.581223
6676.000000;0.581644
6675.000000;0.581922
6674.000000;0.582223
6673.000000;0.582754
6672.000000;0.583502
6671.000000;0.584290
6670.000000;0.585058
6669.000000;0.585917
6668.000000;0.586918
6667.000000;0.587880
6666.000000;0.588554
6665.000000;0.588917
6664.000000;0.589214
6663.000000;0.589690
6662.000000;0.590337
6661.000000;0.590986
6660.000000;0.591582
6659.000000;0.592234
6658.000000;0.592990
6657.000000;0.593717
6656.000000;0.594293
6655.000000;0.594782
6654.000000;0.595320
6653.000000;0.595937
6652.000000;0.596602
6651.000000;0.597352
6650.000000;0.598180
6649.000000;0.598903
6648.000000;0.599329
6647.000000;0.599535
6646.000000;0.599821
6645.000000;0.600358
6644.000000;0.601055
6643.000000;0.601763
6642.000000;0.602449
6641.000000;0.603131
6640.000000;0.603795
6639.000000;0.604450
6638.000000;0.605153
6637.000000;0.605908
6636.000000;0.606614
6635.000000;0.607156
6634.000000;0.607496
6633.000000;0.607667
6632.000000;0.607749
6631.000000;0.607861
6630.000000;0.608112
6629.000000;0.608522
6628.000000;0.609057
6627.000000;0.609706
6626.000000;0.610458
6625.000000;0.611223
6624.000000;0.611881
6623.000000;0.612402
6622.000000;0.612829
6621.000000;0.613189
6620.000000;0.613542
6619.000000;0.614079
6618.000000;0.614980
6617.000000;0.616140
6616.000000;0.617189
6615.000000;0.617843
6614.000000;0.618128
6613.000000;0.618229
6612.000000;0.618276
6611.000000;0.618372
6610.000000;0.618682
6609.000000;0.619333
6608.000000;0.620267
6607.000000;0.621284
6606.000000;0.622199
6605.000000;0.622904
6604.000000;0.623358
6603.000000;0.623604
6602.000000;0.623782
6601.000000;0.624038
6600.000000;0.624413
6599.000000;0.624841
6598.000000;0.625248
6597.000000;0.625628
6596.000000;0.626039
6595.000000;0.626552
6594.000000;0.627163
6593.000000;0.627781
6592.000000;0.628322
6591.000000;0.628804
6590.000000;0.629302
6589.000000;0.629829
6588.000000;0.630345
6587.000000;0.630840
6586.000000;0.631354
6585.000000;0.631883
6584.000000;0.632378
6583.000000;0.632836
6582.000000;0.633311
6581.000000;0.633814
6580.000000;0.634286
6579.000000;0.634700
6578.000000;0.635102
6577.000000;0.635510
6576.000000;0.635867
6575.000000;0.636162
6574.000000;0.636507
6573.000000;0.637005
6572.000000;0.637608
6571.000000;0.638175
6570.000000;0.638650
6569.000000;0.639104
6568.000000;0.639600
6567.000000;0.640091
6566.000000;0.640488
6565.000000;0.640782
6564.000000;0.641076
6563.000000;0.641475
6562.000000;0.641983
6561.000000;0.642508
6560.000000;0.642989
6559.000000;0.643452
6558.000000;0.643936
6557.000000;0.644420
6556.000000;0.644888
6555.000000;0.645412
6554.000000;0.646063
6553.000000;0.646751
6552.000000;0.647252
6551.000000;0.647441
6550.000000;0.647435
6549.000000;0.647469
6548.000000;0.647706
6547.000000;0.648165
6546.000000;0.648765
6545.000000;0.649380
6544.000000;0.649911
6543.000000;0.650353
6542.000000;0.650765
6541.000000;0.651159
6540.000000;0.651485
6539.000000;0.651733
6538.000000;0.652001
6537.000000;0.652377
6536.000000;0.652821
6535.000000;0.653215
6534.000000;0.653507
6533.000000;0.653762
6532.000000;0.654073
6531.000000;0.654492
6530.000000;0.655010
6529.000000;0.655571
6528.000000;0.656097
6527.000000;0.656531
6526.000000;0.656885
6525.000000;0.657214
6524.000000;0.657560
6523.000000;0.657912
6522.000000;0.658238
6521.000000;0.658540
6520.000000;0.658858
6519.000000;0.659231
6518.000000;0.659638
6517.000000;0.660012
6516.000000;0.660322
6515.000000;0.660609
6514.000000;0.660936
6513.000000;0.661328
6512.000000;0.661770
6511.000000;0.662230
6510.000000;0.662640
6509.000000;0.662921
6508.000000;0.663080
6507.000000;0.663248
6506.000000;0.663563
6505.000000;0.664009
6504.000000;0.664470
6503.000000;0.664889
6502.000000;0.665303
6501.000000;0.665708
6500.000000;0.666028
6499.000000;0.666238
6498.000000;0.666450
6497.000000;0.666790
6496.000000;0.667243
6495.000000;0.667668
6494.000000;0.667938
6493.000000;0.668049
6492.000000;0.668121
6491.000000;0.668321
6490.000000;0.668726
6489.000000;0.669241
6488.000000;0.669691
6487.000000;0.670010
6486.000000;0.670280
6485.000000;0.670579
6484.000000;0.670879
6483.000000;0.671123
6482.000000;0.671348
6481.000000;0.671637
6480.000000;0.672005
6479.000000;0.672398
6478.000000;0.672772
6477.000000;0.673111
6476.000000;0.673402
6475.000000;0.673637
6474.000000;0.673846
6473.000000;0.674058
6472.000000;0.674263
6471.000000;0.674446
6470.000000;0.674650
6469.000000;0.674934
6468.000000;0.675285
6467.000000;0.675632
6466.000000;0.675944
6465.000000;0.676264
6464.000000;0.676635
6463.000000;0.677036
6462.000000;0.677408
6461.000000;0.677706
6460.000000;0.677925
6459.000000;0.678093
6458.000000;0.678273
6457.000000;0.678524
6456.000000;0.678848
6455.000000;0.679177
6454.000000;0.679445
6453.000000;0.679647
6452.000000;0.679836
6451.000000;0.680071
6450.000000;0.680373
6449.000000;0.680718
6448.000000;0.681044
6447.000000;0.681294
6446.000000;0.681472
6445.000000;0.681645
6444.000000;0.681887
6443.000000;0.682202
6442.000000;0.682526
6441.000000;0.682795
6440.000000;0.683011
6439.000000;0.683227
6438.000000;0.683488
6437.000000;0.683786
6436.000000;0.684081
6435.000000;0.684339
6434.000000;0.684541
6433.000000;0.684671
6432.000000;0.684740
6431.000000;0.684796
6430.000000;0.684903
6429.000000;0.685082
6428.000000;0.685295
6427.000000;0.685494
6426.000000;0.685674
6425.000000;0.685872
6424.000000;0.686115
6423.000000;0.686395
6422.000000;0.686694
6421.000000;0.687025
6420.000000;0.687413
6419.000000;0.687850
6418.000000;0.688260
6417.000000;0.688547
6416.000000;0.688677
6415.000000;0.688715
6414.000000;0.688777
6413.000000;0.688936
6412.000000;0.689182
6411.000000;0.689464
6410.000000;0.689735
6409.000000;0.689975
6408.000000;0.690169
6407.000000;0.690310
6406.000000;0.690408
6405.000000;0.690492
6404.000000;0.690586
6403.000000;0.690700
6402.000000;0.690851
6401.000000;0.691082
6400.000000;0.691424
6399.000000;0.691830
6398.000000;0.692171
6397.000000;0.692351
6396.000000;0.692405
6395.000000;0.692461
6394.000000;0.692587
6393.000000;0.692739
6392.000000;0.692854
6391.000000;0.692956
6390.000000;0.693111
6389.000000;0.693329
6388.000000;0.693552
6387.000000;0.693743
6386.000000;0.693930
6385.000000;0.694143
6384.000000;0.694359
6383.000000;0.694528
6382.000000;0.694637
6381.000000;0.694722
6380.000000;0.694822
6379.000000;0.694944
6378.000000;0.695061
6377.000000;0.695155
6376.000000;0.695246
6375.000000;0.695386
6374.000000;0.695599
6373.000000;0.695857
6372.000000;0.696096
6371.000000;0.696277
6370.000000;0.696405
6369.000000;0.696508
6368.000000;0.696612
6367.000000;0.696738
6366.000000;0.696904
6365.000000;0.697118
6364.000000;0.697351
6363.000000;0.697537
6362.000000;0.697623
6361.000000;0.697618
6360.000000;0.697602
6359.000000;0.697647
6358.000000;0.697757
6357.000000;0.697874
6356.000000;0.697954
6355.000000;0.698006
6354.000000;0.698076
6353.000000;0.698211
6352.000000;0.698433
6351.000000;0.698718
6350.000000;0.698996
6349.000000;0.699205
6348.000000;0.699349
6347.000000;0.699485
6346.000000;0.699654
6345.000000;0.699838
6344.000000;0.699994
6343.000000;0.700089
6342.000000;0.700096
6341.000000;0.700022
6340.000000;0.699940
6339.000000;0.699961
6338.000000;0.700121
6337.000000;0.700336
6336.000000;0.700494
6335.000000;0.700565
6334.000000;0.700605
6333.000000;0.700678
6332.000000;0.700799
6331.000000;0.700936
6330.000000;0.701030
6329.000000;0.701031
6328.000000;0.700961
6327.000000;0.700920
6326.000000;0.700991
6325.000000;0.701155
6324.000000;0.701340
6323.000000;0.701527
6322.000000;0.701757
6321.000000;0.702037
6320.000000;0.702295
6319.000000;0.702440
6318.000000;0.702445
6317.000000;0.702370
6316.000000;0.702313
6315.000000;0.702353
6314.000000;0.702497
6313.000000;0.702681
6312.000000;0.702834
6311.000000;0.702938
6310.000000;0.703017
6309.000000;0.703077
6308.000000;0.703090
6307.000000;0.703034
6306.000000;0.702939
6305.000000;0.702868
6304.000000;0.702885
6303.000000;0.703005
6302.000000;0.703178
6301.000000;0.703324
6300.000000;0.703402
6299.000000;0.703432
6298.000000;0.703450
6297.000000;0.703467
6296.000000;0.703479
6295.000000;0.703499
6294.000000;0.703537
6293.000000;0.703574
6292.000000;0.703592
6291.000000;0.703613
6290.000000;0.703670
6289.000000;0.703766
6288.000000;0.703872
6287.000000;0.703966
6286.000000;0.704035
6285.000000;0.704073
6284.000000;0.704092
6283.000000;0.704127
6282.000000;0.704196
6281.000000;0.704272
6280.000000;0.704323
6279.000000;0.704361
6278.000000;0.704421
6277.000000;0.704504
6276.000000;0.704593
6275.000000;0.704689
6274.000000;0.704790
6273.000000;0.704864
6272.000000;0.704876
6271.000000;0.704849
6270.000000;0.704833
6269.000000;0.704823
6268.000000;0.704780
6267.000000;0.704715
6266.000000;0.704696
6265.000000;0.704755
6264.000000;0.704849
6263.000000;0.704925
6262.000000;0.704981
6261.000000;0.705045
6260.000000;0.705125
6259.000000;0.705206
6258.000000;0.705263
6257.000000;0.705276
6256.000000;0.705251
6255.000000;0.705229
6254.000000;0.705257
6253.000000;0.705316
6252.000000;0.705352
6251.000000;0.705351
6250.000000;0.705367
6249.000000;0.705431
6248.000000;0.705490
6247.000000;0.705476
6246.000000;0.705394
6245.000000;0.705310
6244.000000;0.705272
6243.000000;0.705276
6242.000000;0.705287
6241.000000;0.705280
6240.000000;0.705257
6239.000000;0.705245
6238.000000;0.705275
6237.000000;0.705343
6236.000000;0.705406
6235.000000;0.705433
6234.000000;0.705431
6233.000000;0.705431
6232.000000;0.705444
6231.000000;0.705460
6230.000000;0.705462
6229.000000;0.705452
6228.000000;0.705460
6227.000000;0.705520
6226.000000;0.705618
6225.000000;0.705682
6224.000000;0.705644
6223.000000;0.705512
6222.000000;0.705363
6221.000000;0.705267
6220.000000;0.705233
6219.000000;0.705240
6218.000000;0.705261
6217.000000;0.705272
6216.000000;0.705249
6215.000000;0.705197
6214.000000;0.705151
6213.000000;0.705153
6212.000000;0.705218
6211.000000;0.705334
6210.000000;0.705467
6209.000000;0.705578
6208.000000;0.705646
6207.000000;0.705693
6206.000000;0.705740
6205.000000;0.705763
6204.000000;0.705710
6203.000000;0.705586
6202.000000;0.705464
6201.000000;0.705407
6200.000000;0.705408
6199.000000;0.705432
6198.000000;0.705464
6197.000000;0.705500
6196.000000;0.705523
6195.000000;0.705525
6194.000000;0.705525
6193.000000;0.705545
6192.000000;0.705558
6191.000000;0.705515
6190.000000;0.705405
6189.000000;0.705260
6188.000000;0.705128
6187.000000;0.705042
6186.000000;0.705023
6185.000000;0.705064
6184.000000;0.705120
6183.000000;0.705131
6182.000000;0.705078
6181.000000;0.704998
6180.000000;0.704940
6179.000000;0.704912
6178.000000;0.704887
6177.000000;0.704842
6176.000000;0.704788
6175.000000;0.704760
6174.000000;0.704765
6173.000000;0.704772
6172.000000;0.704753
6171.000000;0.704718
6170.000000;0.704696
6169.000000;0.704693
6168.000000;0.704691
6167.000000;0.704684
6166.000000;0.704695
6165.000000;0.704740
6164.000000;0.704813
6163.000000;0.704889
6162.000000;0.704942
6161.000000;0.704934
6160.000000;0.704840
6159.000000;0.704690
6158.000000;0.704558
6157.000000;0.704496
6156.000000;0.704487
6155.000000;0.704483
6154.000000;0.704462
6153.000000;0.704444
6152.000000;0.704440
6151.000000;0.704434
6150.000000;0.704405
6149.000000;0.704359
6148.000000;0.704325
6147.000000;0.704324
6146.000000;0.704347
6145.000000;0.704355
6144.000000;0.704319
6143.000000;0.704249
6142.000000;0.704178
6141.000000;0.704124
6140.000000;0.704082
6139.000000;0.704041
6138.000000;0.703999
6137.000000;0.703959
6136.000000;0.703917
6135.000000;0.703879
6134.000000;0.703853
6133.000000;0.703837
6132.000000;0.703811
6131.000000;0.703766
6130.000000;0.703718
6129.000000;0.703685
6128.000000;0.703668
6127.000000;0.703659
6126.000000;0.703660
6125.000000;0.703678
6124.000000;0.703704
6123.000000;0.703708
6122.000000;0.703660
6121.000000;0.703560
6120.000000;0.703447
6119.000000;0.703365
6118.000000;0.703325
6117.000000;0.703296
6116.000000;0.703249
6115.000000;0.703189
6114.000000;0.703150
6113.000000;0.703146
6112.000000;0.703164
6111.000000;0.703182
6110.000000;0.703184
6109.000000;0.703167
6108.000000;0.703135
6107.000000;0.703105
6106.000000;0.703099
6105.000000;0.703117
6104.000000;0.703141
6103.000000;0.703149
6102.000000;0.703124
6101.000000;0.703050
6100.000000;0.702931
6099.000000;0.702802
6098.000000;0.702713
6097.000000;0.702684
6096.000000;0.702690
6095.000000;0.702695
6094.000000;0.702669
6093.000000;0.702604
6092.000000;0.702514
6091.000000;0.702448
6090.000000;0.702457
6089.000000;0.702539
6088.000000;0.702641
6087.000000;0.702708
6086.000000;0.702722
6085.000000;0.702692
6084.000000;0.702626
6083.000000;0.702541
6082.000000;0.702467
6081.000000;0.702423
6080.000000;0.702405
6079.000000;0.702400
6078.000000;0.702398
6077.000000;0.702390
6076.000000;0.702354
6075.000000;0.702282
6074.000000;0.702197
6073.000000;0.702137
6072.000000;0.702123
6071.000000;0.702142
6070.000000;0.702163
6069.000000;0.702153
6068.000000;0.702093
6067.000000;0.701987
6066.000000;0.701859
6065.000000;0.701741
6064.000000;0.701664
6063.000000;0.701652
6062.000000;0.701706
6061.000000;0.701791
6060.000000;0.701854
6059.000000;0.701869
6058.000000;0.701841
6057.000000;0.701791
6056.000000;0.701731
6055.000000;0.701677
6054.000000;0.701645
6053.000000;0.701637
6052.000000;0.701630
6051.000000;0.701613
6050.000000;0.701601
6049.000000;0.701624
6048.000000;0.701689
6047.000000;0.701769
6046.000000;0.701831
6045.000000;0.701851
6044.000000;0.701818
6043.000000;0.701739
6042.000000;0.701631
6041.000000;0.701529
6040.000000;0.701473
6039.000000;0.701475
6038.000000;0.701490
6037.000000;0.701448
6036.000000;0.701334
6035.000000;0.701218
6034.000000;0.701179
6033.000000;0.701207
6032.000000;0.701211
6031.000000;0.701125
6030.000000;0.700976
6029.000000;0.700845
6028.000000;0.700787
6027.000000;0.700803
6026.000000;0.700858
6025.000000;0.700897
6024.000000;0.700882
6023.000000;0.700819
6022.000000;0.700765
6021.000000;0.700771
6020.000000;0.700827
6019.000000;0.700883
6018.000000;0.700902
6017.000000;0.700888
6016.000000;0.700870
6015.000000;0.700870
6014.000000;0.700888
6013.000000;0.700905
6012.000000;0.700915
6011.000000;0.700942
6010.000000;0.701014
6009.000000;0.701111
6008.000000;0.701164
6007.000000;0.701116
6006.000000;0.700976
6005.000000;0.700804
6004.000000;0.700647
6003.000000;0.700519
6002.000000;0.700429
6001.000000;0.700401
6000.000000;0.700448
5999.000000;0.700546
5998.000000;0.700634
5997.000000;0.700656
5996.000000;0.700601
5995.000000;0.700507
5994.000000;0.700426
5993.000000;0.700388
5992.000000;0.700382
5991.000000;0.700358
5990.000000;0.700270
5989.000000;0.700113
5988.000000;0.699948
5987.000000;0.699855
5986.000000;0.699860
5985.000000;0.699913
5984.000000;0.699954
5983.000000;0.699972
5982.000000;0.699992
5981.000000;0.700015
5980.000000;0.700019
5979.000000;0.700003
5978.000000;0.699998
5977.000000;0.700026
5976.000000;0.700074
5975.000000;0.700120
5974.000000;0.700167
5973.000000;0.700235
5972.000000;0.700316
5971.000000;0.700367
5970.000000;0.700339
5969.000000;0.700226
5968.000000;0.700079
5967.000000;0.699972
5966.000000;0.699946
5965.000000;0.699982
5964.000000;0.700031
5963.000000;0.700071
5962.000000;0.700098
5961.000000;0.700094
5960.000000;0.700032
5959.000000;0.699925
5958.000000;0.699828
5957.000000;0.699785
5956.000000;0.699781
5955.000000;0.699774
5954.000000;0.699748
5953.000000;0.699728
5952.000000;0.699736
5951.000000;0.699769
5950.000000;0.699802
5949.000000;0.699810
5948.000000;0.699781
5947.000000;0.699729
5946.000000;0.699685
5945.000000;0.699684
5944.000000;0.699741
5943.000000;0.699841
5942.000000;0.699944
5941.000000;0.700000
5940.000000;0.699987
5939.000000;0.699926
5938.000000;0.699863
5937.000000;0.699840
5936.000000;0.699866
5935.000000;0.699924
5934.000000;0.699988
5933.000000;0.700029
5932.000000;0.700032
5931.000000;0.700007
5930.000000;0.699974
5929.000000;0.699948
5928.000000;0.699946
5927.000000;0.699979
5926.000000;0.700038
5925.000000;0.700089
5924.000000;0.700105
5923.000000;0.700093
5922.000000;0.700071
5921.000000;0.700033
5920.000000;0.699956
5919.000000;0.699848
5918.000000;0.699751
5917.000000;0.699697
5916.000000;0.699677
5915.000000;0.699671
5914.000000;0.699669
5913.000000;0.699668
5912.000000;0.699659
5911.000000;0.699632
5910.000000;0.699580
5909.000000;0.699511
5908.000000;0.699453
5907.000000;0.699439
5906.000000;0.699482
5905.000000;0.699551
5904.000000;0.699600
5903.000000;0.699619
5902.000000;0.699632
5901.000000;0.699655
5900.000000;0.699676
5899.000000;0.699674
5898.000000;0.699642
5897.000000;0.699585
5896.000000;0.699524
5895.000000;0.699485
5894.000000;0.699477
5893.000000;0.699471
5892.000000;0.699434
5891.000000;0.699377
5890.000000;0.699336
5889.000000;0.699314
5888.000000;0.699285
5887.000000;0.699240
5886.000000;0.699208
5885.000000;0.699197
5884.000000;0.699178
5883.000000;0.699126
5882.000000;0.699063
5881.000000;0.699035
5880.000000;0.699071
5879.000000;0.699175
5878.000000;0.699322
5877.000000;0.699453
5876.000000;0.699499
5875.000000;0.699453
5874.000000;0.699382
5873.000000;0.699349
5872.000000;0.699345
5871.000000;0.699323
5870.000000;0.699261
5869.000000;0.699171
5868.000000;0.699064
5867.000000;0.698958
5866.000000;0.698889
5865.000000;0.698886
5864.000000;0.698937
5863.000000;0.698992
5862.000000;0.699017
5861.000000;0.699012
5860.000000;0.698993
5859.000000;0.698973
5858.000000;0.698963
5857.000000;0.698964
5856.000000;0.698965
5855.000000;0.698962
5854.000000;0.698964
5853.000000;0.698985
5852.000000;0.699027
5851.000000;0.699077
5850.000000;0.699119
5849.000000;0.699142
5848.000000;0.699141
5847.000000;0.699132
5846.000000;0.699129
5845.000000;0.699117
5844.000000;0.699065
5843.000000;0.698968
5842.000000;0.698868
5841.000000;0.698797
5840.000000;0.698747
5839.000000;0.698693
5838.000000;0.698637
5837.000000;0.698595
5836.000000;0.698571
5835.000000;0.698561
5834.000000;0.698570
5833.000000;0.698608
5832.000000;0.698663
5831.000000;0.698727
5830.000000;0.698802
5829.000000;0.698882
5828.000000;0.698933
5827.000000;0.698932
5826.000000;0.698905
5825.000000;0.698895
5824.000000;0.698904
5823.000000;0.698912
5822.000000;0.698931
5821.000000;0.698993
5820.000000;0.699080
5819.000000;0.699120
5818.000000;0.699064
5817.000000;0.698944
5816.000000;0.698835
5815.000000;0.698781
5814.000000;0.698788
5813.000000;0.698841
5812.000000;0.698914
5811.000000;0.698965
5810.000000;0.698965
5809.000000;0.698922
5808.000000;0.698878
5807.000000;0.698865
5806.000000;0.698889
5805.000000;0.698938
5804.000000;0.698983
5803.000000;0.698981
5802.000000;0.698910
5801.000000;0.698800
5800.000000;0.698719
5799.000000;0.698704
5798.000000;0.698722
5797.000000;0.698718
5796.000000;0.698694
5795.000000;0.698707
5794.000000;0.698782
5793.000000;0.698861
5792.000000;0.698862
5791.000000;0.698774
5790.000000;0.698661
5789.000000;0.698585
5788.000000;0.698555
5787.000000;0.698550
5786.000000;0.698571
5785.000000;0.698633
5784.000000;0.698731
5783.000000;0.698830
5782.000000;0.698894
5781.000000;0.698910
5780.000000;0.698883
5779.000000;0.698831
5778.000000;0.698769
5777.000000;0.698696
5776.000000;0.698608
5775.000000;0.698513
5774.000000;0.698435
5773.000000;0.698388
5772.000000;0.698357
5771.000000;0.698316
5770.000000;0.698260
5769.000000;0.698210
5768.000000;0.698196
5767.000000;0.698234
5766.000000;0.698304
5765.000000;0.698357
5764.000000;0.698336
5763.000000;0.698231
5762.000000;0.698083
5761.000000;0.697950
5760.000000;0.697863
5759.000000;0.697821
5758.000000;0.697811
5757.000000;0.697819
5756.000000;0.697832
5755.000000;0.697845
5754.000000;0.697864
5753.000000;0.697896
5752.000000;0.697931
5751.000000;0.697952
5750.000000;0.697940
5749.000000;0.697892
5748.000000;0.697814
5747.000000;0.697721
5746.000000;0.697624
5745.000000;0.697523
5744.000000;0.697424
5743.000000;0.697353
5742.000000;0.697328
5741.000000;0.697333
5740.000000;0.697327
5739.000000;0.697291
5738.000000;0.697250
5737.000000;0.697232
5736.000000;0.697238
5735.000000;0.697241
5734.000000;0.697222
5733.000000;0.697177
5732.000000;0.697125
5731.000000;0.697106
5730.000000;0.697139
5729.000000;0.697191
5728.000000;0.697207
5727.000000;0.697184
5726.000000;0.697182
5725.000000;0.697222
5724.000000;0.697231
5723.000000;0.697126
5722.000000;0.696934
5721.000000;0.696772
5720.000000;0.696713
5719.000000;0.696717
5718.000000;0.696703
5717.000000;0.696636
5716.000000;0.696547
5715.000000;0.696466
5714.000000;0.696393
5713.000000;0.696300
5712.000000;0.696171
5711.000000;0.696025
5710.000000;0.695916
5709.000000;0.695889
5708.000000;0.695938
5707.000000;0.696011
5706.000000;0.696050
5705.000000;0.696038
5704.000000;0.695992
5703.000000;0.695946
5702.000000;0.695923
5701.000000;0.695917
5700.000000;0.695907
5699.000000;0.695884
5698.000000;0.695864
5697.000000;0.695862
5696.000000;0.695859
5695.000000;0.695822
5694.000000;0.695746
5693.000000;0.695668
5692.000000;0.695622
5691.000000;0.695610
5690.000000;0.695612
5689.000000;0.695610
5688.000000;0.695588
5687.000000;0.695538
5686.000000;0.695462
5685.000000;0.695380
5684.000000;0.695312
5683.000000;0.695258
5682.000000;0.695202
5681.000000;0.695129
5680.000000;0.695046
5679.000000;0.694982
5678.000000;0.694961
5677.000000;0.694982
5676.000000;0.695023
5675.000000;0.695055
5674.000000;0.695063
5673.000000;0.695043
5672.000000;0.695004
5671.000000;0.694962
5670.000000;0.694927
5669.000000;0.694893
5668.000000;0.694859
5667.000000;0.694858
5666.000000;0.694923
5665.000000;0.695034
5664.000000;0.695107
5663.000000;0.695085
5662.000000;0.694998
5661.000000;0.694929
5660.000000;0.694938
5659.000000;0.695024
5658.000000;0.695155
5657.000000;0.695297
5656.000000;0.695414
5655.000000;0.695485
5654.000000;0.695512
5653.000000;0.695494
5652.000000;0.695415
5651.000000;0.695278
5650.000000;0.695141
5649.000000;0.695080
5648.000000;0.695116
5647.000000;0.695191
5646.000000;0.695242
5645.000000;0.695252
5644.000000;0.695250
5643.000000;0.695265
5642.000000;0.695321
5641.000000;0.695423
5640.000000;0.695551
5639.000000;0.695660
5638.000000;0.695713
5637.000000;0.695719
5636.000000;0.695720
5635.000000;0.695749
5634.000000;0.695803
5633.000000;0.695868
5632.000000;0.695950
5631.000000;0.696078
5630.000000;0.696264
5629.000000;0.696473
5628.000000;0.696626
5627.000000;0.696663
5626.000000;0.696592
5625.000000;0.696485
5624.000000;0.696436
5623.000000;0.696508
5622.000000;0.696695
5621.000000;0.696923
5620.000000;0.697102
5619.000000;0.697197
5618.000000;0.697256
5617.000000;0.697349
5616.000000;0.697485
5615.000000;0.697615
5614.000000;0.697688
5613.000000;0.697701
5612.000000;0.697685
5611.000000;0.697683
5610.000000;0.697740
5609.000000;0.697879
5608.000000;0.698068
5607.000000;0.698237
5606.000000;0.698346
5605.000000;0.698421
5604.000000;0.698521
5603.000000;0.698661
5602.000000;0.698803
5601.000000;0.698912
5600.000000;0.698998
5599.000000;0.699104
5598.000000;0.699262
5597.000000;0.699462
5596.000000;0.699660
5595.000000;0.699808
5594.000000;0.699898
5593.000000;0.699962
5592.000000;0.700034
5591.000000;0.700123
5590.000000;0.700227
5589.000000;0.700360
5588.000000;0.700533
5587.000000;0.700720
5586.000000;0.700864
5585.000000;0.700942
5584.000000;0.700997
5583.000000;0.701083
5582.000000;0.701199
5581.000000;0.701316
5580.000000;0.701430
5579.000000;0.701576
5578.000000;0.701758
5577.000000;0.701931
5576.000000;0.702047
5575.000000;0.702110
5574.000000;0.702150
5573.000000;0.702168
5572.000000;0.702154
5571.000000;0.702125
5570.000000;0.702130
5569.000000;0.702210
5568.000000;0.702367
5567.000000;0.702565
5566.000000;0.702754
5565.000000;0.702893
5564.000000;0.702992
5563.000000;0.703105
5562.000000;0.703273
5561.000000;0.703464
5560.000000;0.703608
5559.000000;0.703689
5558.000000;0.703768
5557.000000;0.703905
5556.000000;0.704092
5555.000000;0.704266
5554.000000;0.704369
5553.000000;0.704376
5552.000000;0.704302
5551.000000;0.704200
5550.000000;0.704148
5549.000000;0.704194
5548.000000;0.704326
5547.000000;0.704503
5546.000000;0.704697
5545.000000;0.704882
5544.000000;0.705014
5543.000000;0.705067
5542.000000;0.705076
5541.000000;0.705110
5540.000000;0.705191
5539.000000;0.705274
5538.000000;0.705308
5537.000000;0.705307
5536.000000;0.705333
5535.000000;0.705431
5534.000000;0.705600
5533.000000;0.705803
5532.000000;0.705988
5531.000000;0.706109
5530.000000;0.706148
5529.000000;0.706140
5528.000000;0.706146
5527.000000;0.706209
5526.000000;0.706325
5525.000000;0.706465
5524.000000;0.706601
5523.000000;0.706713
5522.000000;0.706785
5521.000000;0.706825
5520.000000;0.706873
5519.000000;0.706974
5518.000000;0.707121
5517.000000;0.707243
5516.000000;0.707278
5515.000000;0.707229
5514.000000;0.707159
5513.000000;0.707133
5512.000000;0.707182
5511.000000;0.707314
5510.000000;0.707511
5509.000000;0.707725
5508.000000;0.707896
5507.000000;0.707987
5506.000000;0.708001
5505.000000;0.707961
5504.000000;0.707896
5503.000000;0.707851
5502.000000;0.707883
5501.000000;0.708006
5500.000000;0.708155
5499.000000;0.708233
5498.000000;0.708211
5497.000000;0.708169
5496.000000;0.708218
5495.000000;0.708382
5494.000000;0.708578
5493.000000;0.708707
5492.000000;0.708747
5491.000000;0.708744
5490.000000;0.708737
5489.000000;0.708728
5488.000000;0.708710
5487.000000;0.708704
5486.000000;0.708743
5485.000000;0.708849
5484.000000;0.709023
5483.000000;0.709226
5482.000000;0.709391
5481.000000;0.709487
5480.000000;0.709565
5479.000000;0.709724
5478.000000;0.709976
5477.000000;0.710193
5476.000000;0.710240
5475.000000;0.710132
5474.000000;0.710020
5473.000000;0.710010
5472.000000;0.710067
5471.000000;0.710094
5470.000000;0.710058
5469.000000;0.710014
5468.000000;0.710033
5467.000000;0.710132
5466.000000;0.710276
5465.000000;0.710426
5464.000000;0.710583
5463.000000;0.710763
5462.000000;0.710958
5461.000000;0.711131
5460.000000;0.711255
5459.000000;0.711345
5458.000000;0.711430
5457.000000;0.711510
5456.000000;0.711576
5455.000000;0.711637
5454.000000;0.711707
5453.000000;0.711767
5452.000000;0.711791
5451.000000;0.711800
5450.000000;0.711863
5449.000000;0.711989
5448.000000;0.712087
5447.000000;0.712071
5446.000000;0.711996
5445.000000;0.712034
5444.000000;0.712288
5443.000000;0.712672
5442.000000;0.712996
5441.000000;0.713170
5440.000000;0.713268
5439.000000;0.713402
5438.000000;0.713589
5437.000000;0.713736
5436.000000;0.713759
5435.000000;0.713708
5434.000000;0.713729
5433.000000;0.713908
5432.000000;0.714198
5431.000000;0.714488
5430.000000;0.714710
5429.000000;0.714889
5428.000000;0.715088
5427.000000;0.715334
5426.000000;0.715606
5425.000000;0.715863
5424.000000;0.716079
5423.000000;0.716266
5422.000000;0.716449
5421.000000;0.716625
5420.000000;0.716761
5419.000000;0.716853
5418.000000;0.716937
5417.000000;0.717026
5416.000000;0.717067
5415.000000;0.717030
5414.000000;0.716998
5413.000000;0.717117
5412.000000;0.717429
5411.000000;0.717842
5410.000000;0.718242
5409.000000;0.718583
5408.000000;0.718893
5407.000000;0.719223
5406.000000;0.719624
5405.000000;0.720094
5404.000000;0.720551
5403.000000;0.720906
5402.000000;0.721140
5401.000000;0.721294
5400.000000;0.721422
5399.000000;0.721582
5398.000000;0.721876
5397.000000;0.722382
5396.000000;0.723030
5395.000000;0.723611
5394.000000;0.723962
5393.000000;0.724110
5392.000000;0.724220
5391.000000;0.724437
5390.000000;0.724813
5389.000000;0.725316
5388.000000;0.725843
5387.000000;0.726290
5386.000000;0.726650
5385.000000;0.727022
5384.000000;0.727483
5383.000000;0.728014
5382.000000;0.728554
5381.000000;0.729076
5380.000000;0.729569
5379.000000;0.730015
5378.000000;0.730436
5377.000000;0.730924
5376.000000;0.731545
5375.000000;0.732239
5374.000000;0.732890
5373.000000;0.733473
5372.000000;0.734054
5371.000000;0.734674
5370.000000;0.735328
5369.000000;0.736041
5368.000000;0.736877
5367.000000;0.737842
5366.000000;0.738838
5365.000000;0.739741
5364.000000;0.740516
5363.000000;0.741240
5362.000000;0.742003
5361.000000;0.742810
5360.000000;0.743589
5359.000000;0.744295
5358.000000;0.744985
5357.000000;0.745756
5356.000000;0.746619
5355.000000;0.747485
5354.000000;0.748313
5353.000000;0.749191
5352.000000;0.750193
5351.000000;0.751239
5350.000000;0.752218
5349.000000;0.753159
5348.000000;0.754190
5347.000000;0.755315
5346.000000;0.756370
5345.000000;0.757256
5344.000000;0.758128
5343.000000;0.759196
5342.000000;0.760423
5341.000000;0.761577
5340.000000;0.762510
5339.000000;0.763310
5338.000000;0.764197
5337.000000;0.765317
5336.000000;0.766637
5335.000000;0.767947
5334.000000;0.768931
5333.000000;0.769390
5332.000000;0.769499
5331.000000;0.769725
5330.000000;0.770323
5329.000000;0.771027
5328.000000;0.771390
5327.000000;0.771311
5326.000000;0.771033
5325.000000;0.770662
5324.000000;0.769961
5323.000000;0.768695
5322.000000;0.766947
5321.000000;0.764985
5320.000000;0.762904
5319.000000;0.760471
5318.000000;0.757226
5317.000000;0.752753
5316.000000;0.747005
5315.000000;0.740333
5314.000000;0.733000
5313.000000;0.724790
5312.000000;0.715323
5311.000000;0.704534
5310.000000;0.692412
5309.000000;0.678542
5308.000000;0.662559
5307.000000;0.644848
5306.000000;0.625940
5305.000000;0.605386
5304.000000;0.582283
5303.000000;0.556912
5302.000000;0.530986
5301.000000;0.506448
5300.000000;0.484911
5299.000000;0.468218
5298.000000;0.459334
5297.000000;0.462166
5296.000000;0.478110
5295.000000;0.503537
5294.000000;0.533665
5293.000000;0.566021
5292.000000;0.598507
5291.000000;0.629353
5290.000000;0.659276
5289.000000;0.688639
5288.000000;0.714016
5287.000000;0.732185
5286.000000;0.745520
5285.000000;0.759261
5284.000000;0.776182
5283.000000;0.796726
5282.000000;0.820011
5281.000000;0.841462
5280.000000;0.854498
5279.000000;0.858705
5278.000000;0.861160
5277.000000;0.866924
5276.000000;0.873936
5275.000000;0.879434
5274.000000;0.885151
5273.000000;0.892123
5272.000000;0.896714
5271.000000;0.896844
5270.000000;0.896635
5269.000000;0.900061
5268.000000;0.905195
5267.000000;0.909281
5266.000000;0.914531
5265.000000;0.923454
5264.000000;0.932751
5263.000000;0.937171
5262.000000;0.936179
5261.000000;0.932034
5260.000000;0.925366
5259.000000;0.917601
5258.000000;0.913172
5257.000000;0.914457
5256.000000;0.918284
5255.000000;0.920582
5254.000000;0.921052
5253.000000;0.920731
5252.000000;0.919301
5251.000000;0.918151
5250.000000;0.921362
5249.000000;0.929723
5248.000000;0.938031
5247.000000;0.941982
5246.000000;0.943320
5245.000000;0.944274
5244.000000;0.943044
5243.000000;0.939766
5242.000000;0.940357
5241.000000;0.948361
5240.000000;0.957595
5239.000000;0.958750
5238.000000;0.951166
5237.000000;0.941485
5236.000000;0.933972
5235.000000;0.929196
5234.000000;0.928367
5233.000000;0.931925
5232.000000;0.935697
5231.000000;0.934557
5230.000000;0.929487
5229.000000;0.926249
5228.000000;0.927977
5227.000000;0.933076
5226.000000;0.938566
5225.000000;0.941833
5224.000000;0.941139
5223.000000;0.938072
5222.000000;0.937886
5221.000000;0.943948
5220.000000;0.952703
5219.000000;0.956524
5218.000000;0.951789
5217.000000;0.942313
5216.000000;0.934887
5215.000000;0.933551
5214.000000;0.937107
5213.000000;0.940283
5212.000000;0.939203
5211.000000;0.936585
5210.000000;0.938323
5209.000000;0.944738
5208.000000;0.949065
5207.000000;0.946544
5206.000000;0.940641
5205.000000;0.936821
5204.000000;0.935729
5203.000000;0.935492
5202.000000;0.936543
5201.000000;0.940648
5200.000000;0.947023
5199.000000;0.952414
5198.000000;0.954009
5197.000000;0.950760
5196.000000;0.944214
5195.000000;0.939435
5194.000000;0.941784
5193.000000;0.950445
5192.000000;0.957499
5191.000000;0.956737
5190.000000;0.950785
5189.000000;0.946210
5188.000000;0.945444
5187.000000;0.946209
5186.000000;0.946290
5185.000000;0.945207
5184.000000;0.942829
5183.000000;0.939995
5182.000000;0.938994
5181.000000;0.941046
5180.000000;0.944134
5179.000000;0.944916
5178.000000;0.942175
5177.000000;0.937402
5176.000000;0.933612
5175.000000;0.934429
5174.000000;0.941821
5173.000000;0.953035
5172.000000;0.961523
5171.000000;0.962691
5170.000000;0.957285
5169.000000;0.949040
5168.000000;0.941895
5167.000000;0.939131
5166.000000;0.941856
5165.000000;0.947557
5164.000000;0.952077
5163.000000;0.953813
5162.000000;0.954387
5161.000000;0.954838
5160.000000;0.954752
5159.000000;0.955606
5158.000000;0.959601
5157.000000;0.964332
5156.000000;0.963891
5155.000000;0.957013
5154.000000;0.949267
5153.000000;0.945669
5152.000000;0.945966
5151.000000;0.947862
5150.000000;0.949990
5149.000000;0.950317
5148.000000;0.946783
5147.000000;0.941931
5146.000000;0.941964
5145.000000;0.948738
5144.000000;0.956253
5143.000000;0.957523
5142.000000;0.952571
5141.000000;0.946672
5140.000000;0.944025
5139.000000;0.946391
5138.000000;0.954054
5137.000000;0.964496
5136.000000;0.972743
5135.000000;0.976006
5134.000000;0.975509
5133.000000;0.972380
5132.000000;0.966309
5131.000000;0.959845
5130.000000;0.958529
5129.000000;0.963709
5128.000000;0.969317
5127.000000;0.969160
5126.000000;0.964626
5125.000000;0.961235
5124.000000;0.961098
5123.000000;0.962937
5122.000000;0.966101
5121.000000;0.970056
5120.000000;0.971789
5119.000000;0.968246
5118.000000;0.960616
5117.000000;0.953218
5116.000000;0.949618
5115.000000;0.951128
5114.000000;0.956746
5113.000000;0.963092
5112.000000;0.966406
5111.000000;0.965815
5110.000000;0.963285
5109.000000;0.959917
5108.000000;0.954671
5107.000000;0.947857
5106.000000;0.942235
5105.000000;0.939450
5104.000000;0.938639
5103.000000;0.939552
5102.000000;0.943755
5101.000000;0.950803
5100.000000;0.956763
5099.000000;0.958754
5098.000000;0.957860
5097.000000;0.955876
5096.000000;0.952324
5095.000000;0.946854
5094.000000;0.941746
5093.000000;0.939141
5092.000000;0.938600
5091.000000;0.939811
5090.000000;0.944330
5089.000000;0.951742
5088.000000;0.956999
5087.000000;0.955320
5086.000000;0.948347
5085.000000;0.942265
5084.000000;0.941414
5083.000000;0.945806
5082.000000;0.952408
5081.000000;0.956918
5080.000000;0.956421
5079.000000;0.952225
5078.000000;0.948797
5077.000000;0.948763
5076.000000;0.950424
5075.000000;0.950816
5074.000000;0.949032
5073.000000;0.945462
5072.000000;0.940568
5071.000000;0.936553
5070.000000;0.937531
5069.000000;0.945254
5068.000000;0.956088
5067.000000;0.963980
5066.000000;0.965452
5065.000000;0.960713
5064.000000;0.952093
5063.000000;0.943283
5062.000000;0.938014
5061.000000;0.937204
5060.000000;0.938265
5059.000000;0.938337
5058.000000;0.937149
5057.000000;0.936079
5056.000000;0.936209
5055.000000;0.937734
5054.000000;0.939157
5053.000000;0.937067
5052.000000;0.929466
5051.000000;0.919849
5050.000000;0.914836
5049.000000;0.917291
5048.000000;0.923924
5047.000000;0.929511
5046.000000;0.931745
5045.000000;0.931331
5044.000000;0.929724
5043.000000;0.928508
5042.000000;0.928589
5041.000000;0.928554
5040.000000;0.926039
5039.000000;0.921617
5038.000000;0.918724
5037.000000;0.918845
5036.000000;0.919844
5035.000000;0.920072
5034.000000;0.920468
5033.000000;0.920974
5032.000000;0.918894
5031.000000;0.913392
5030.000000;0.908303
5029.000000;0.907427
5028.000000;0.909450
5027.000000;0.910159
5026.000000;0.907926
5025.000000;0.904195
5024.000000;0.900206
5023.000000;0.896197
5022.000000;0.892851
5021.000000;0.891016
5020.000000;0.890167
5019.000000;0.888793
5018.000000;0.886404
5017.000000;0.884370
5016.000000;0.884687
5015.000000;0.887789
5014.000000;0.890824
5013.000000;0.888616
5012.000000;0.878794
5011.000000;0.865554
5010.000000;0.855747
5009.000000;0.852346
5008.000000;0.853249
5007.000000;0.855296
5006.000000;0.857266
5005.000000;0.859104
5004.000000;0.861012
5003.000000;0.863772
5002.000000;0.867243
5001.000000;0.868249
5000.000000;0.863101
4999.000000;0.852759
4998.000000;0.842075
4997.000000;0.833896
4996.000000;0.827415
4995.000000;0.822143
4994.000000;0.819422
4993.000000;0.819126
4992.000000;0.818545
4991.000000;0.816265
4990.000000;0.813991
4989.000000;0.812727
4988.000000;0.810430
4987.000000;0.805532
4986.000000;0.799776
4985.000000;0.795151
4984.000000;0.790907
4983.000000;0.785792
4982.000000;0.780582
4981.000000;0.775971
4980.000000;0.770247
4979.000000;0.761836
4978.000000;0.752588
4977.000000;0.745992
4976.000000;0.743222
4975.000000;0.742287
4974.000000;0.739901
4973.000000;0.733649
4972.000000;0.723946
4971.000000;0.714491
4970.000000;0.709163
4969.000000;0.707951
4968.000000;0.706940
4967.000000;0.702588
4966.000000;0.694982
4965.000000;0.686328
4964.000000;0.678213
4963.000000;0.671610
4962.000000;0.667202
4961.000000;0.664036
4960.000000;0.659539
4959.000000;0.652437
4958.000000;0.644082
4957.000000;0.635966
4956.000000;0.628319
4955.000000;0.622089
4954.000000;0.619352
4953.000000;0.619645
4952.000000;0.618128
4951.000000;0.610468
4950.000000;0.598180
4949.000000;0.586428
4948.000000;0.578333
4947.000000;0.573432
4946.000000;0.569977
4945.000000;0.566437
4944.000000;0.561469
4943.000000;0.554659
4942.000000;0.547376
4941.000000;0.541303
4940.000000;0.536502
4939.000000;0.532038
4938.000000;0.527531
4937.000000;0.522906
4936.000000;0.517399
4935.000000;0.510130
4934.000000;0.501291
4933.000000;0.491894
4932.000000;0.482814
4931.000000;0.474705
4930.000000;0.468262
4929.000000;0.463670
4928.000000;0.460052
4927.000000;0.456096
4926.000000;0.450889
4925.000000;0.443852
4924.000000;0.434854
4923.000000;0.425124
4922.000000;0.417015
4921.000000;0.411664
4920.000000;0.407485
4919.000000;0.401903
4918.000000;0.394186
4917.000000;0.385812
4916.000000;0.378477
4915.000000;0.372542
4914.000000;0.367085
4913.000000;0.360775
4912.000000;0.352825
4911.000000;0.343539
4910.000000;0.334002
4909.000000;0.325112
4908.000000;0.317199
4907.000000;0.310371
4906.000000;0.304437
4905.000000;0.298489
4904.000000;0.291578
4903.000000;0.283959
4902.000000;0.276695
4901.000000;0.269922
4900.000000;0.262581
4899.000000;0.254259
4898.000000;0.246324
4897.000000;0.240515
4896.000000;0.236951
4895.000000;0.234105
4894.000000;0.230295
4893.000000;0.224767
4892.000000;0.217867
4891.000000;0.210649
4890.000000;0.204100
4889.000000;0.198632
4888.000000;0.194286
4887.000000;0.191072
4886.000000;0.188677
4885.000000;0.186105
4884.000000;0.182357
4883.000000;0.177476
4882.000000;0.172367
4881.000000;0.167718
4880.000000;0.163684
4879.000000;0.160386
4878.000000;0.157867
4877.000000;0.155472
4876.000000;0.152035
4875.000000;0.147108
4874.000000;0.141650
4873.000000;0.137225
4872.000000;0.134804
4871.000000;0.134382
4870.000000;0.135356
4869.000000;0.137053
4868.000000;0.138955
4867.000000;0.140553
4866.000000;0.141245
4865.000000;0.140716
4864.000000;0.139467
4863.000000;0.138669
4862.000000;0.139142
4861.000000;0.140637
4860.000000;0.142348
4859.000000;0.143821
4858.000000;0.145137
4857.000000;0.146550
4856.000000;0.148372
4855.000000;0.150962
4854.000000;0.154291
4853.000000;0.157569
4852.000000;0.159907
4851.000000;0.161501
4850.000000;0.163629
4849.000000;0.167156
4848.000000;0.171437
4847.000000;0.175027
4846.000000;0.177270
4845.000000;0.178779
4844.000000;0.180452
4843.000000;0.182581
4842.000000;0.185068
4841.000000;0.188013
4840.000000;0.191703
4839.000000;0.196213
4838.000000;0.201200
4837.000000;0.205963
4836.000000;0.209665
4835.000000;0.211890
4834.000000;0.213181
4833.000000;0.214763
4832.000000;0.217494
4831.000000;0.221223
4830.000000;0.225276
4829.000000;0.229230
4828.000000;0.232945
4827.000000;0.236278
4826.000000;0.239295
4825.000000;0.242460
4824.000000;0.246048
4823.000000;0.249530
4822.000000;0.252203
4821.000000;0.254432
4820.000000;0.257571
4819.000000;0.262406
4818.000000;0.268136
4817.000000;0.273215
4816.000000;0.276812
4815.000000;0.279215
4814.000000;0.281239
4813.000000;0.283678
4812.000000;0.287071
4811.000000;0.291425
4810.000000;0.296036
4809.000000;0.299943
4808.000000;0.302764
4807.000000;0.304974
4806.000000;0.307304
4805.000000;0.310038
4804.000000;0.313036
4803.000000;0.316216
4802.000000;0.319685
4801.000000;0.323342
4800.000000;0.326660
4799.000000;0.329150
4798.000000;0.331005
4797.000000;0.333007
4796.000000;0.335712
4795.000000;0.338918
4794.000000;0.341998
4793.000000;0.344607
4792.000000;0.346909
4791.000000;0.349276
4790.000000;0.351932
4789.000000;0.354820
4788.000000;0.357623
4787.000000;0.359984
4786.000000;0.361894
4785.000000;0.363830
4784.000000;0.366343
4783.000000;0.369516
4782.000000;0.372952
4781.000000;0.376219
4780.000000;0.379133
4779.000000;0.381661
4778.000000;0.383806
4777.000000;0.385696
4776.000000;0.387571
4775.000000;0.389552
4774.000000;0.391546
4773.000000;0.393518
4772.000000;0.395726
4771.000000;0.398461
4770.000000;0.401577
4769.000000;0.404478
4768.000000;0.406675
4767.000000;0.408248
4766.000000;0.409662
4765.000000;0.411202
4764.000000;0.412759
4763.000000;0.414210
4762.000000;0.415782
4761.000000;0.417871
4760.000000;0.420559
4759.000000;0.423503
4758.000000;0.426260
4757.000000;0.428596
4756.000000;0.430492
4755.000000;0.432093
4754.000000;0.433732
4753.000000;0.435787
4752.000000;0.438299
4751.000000;0.440792
4750.000000;0.442675
4749.000000;0.443830
4748.000000;0.444739
4747.000000;0.446002
4746.000000;0.447777
4745.000000;0.449720
4744.000000;0.451427
4743.000000;0.452902
4742.000000;0.454498
4741.000000;0.456365
4740.000000;0.458116
4739.000000;0.459282
4738.000000;0.460038
4737.000000;0.461144
4736.000000;0.463071
4735.000000;0.465469
4734.000000;0.467698
4733.000000;0.469611
4732.000000;0.471521
4731.000000;0.473537
4730.000000;0.475344
4729.000000;0.476648
4728.000000;0.477557
4727.000000;0.478442
4726.000000;0.479602
4725.000000;0.481087
4724.000000;0.482672
4723.000000;0.483969
4722.000000;0.484780
4721.000000;0.485403
4720.000000;0.486408
4719.000000;0.488046
4718.000000;0.490001
4717.000000;0.491762
4716.000000;0.493115
4715.000000;0.494219
4714.000000;0.495364
4713.000000;0.496756
4712.000000;0.498371
4711.000000;0.499922
4710.000000;0.501082
4709.000000;0.501863
4708.000000;0.502661
4707.000000;0.503814
4706.000000;0.505225
4705.000000;0.506536
4704.000000;0.507563
4703.000000;0.508435
4702.000000;0.509345
4701.000000;0.510375
4700.000000;0.511526
4699.000000;0.512776
4698.000000;0.514047
4697.000000;0.515224
4696.000000;0.516236
4695.000000;0.517085
4694.000000;0.517824
4693.000000;0.518586
4692.000000;0.519587
4691.000000;0.520949
4690.000000;0.522487
4689.000000;0.523792
4688.000000;0.524635
4687.000000;0.525230
4686.000000;0.526008
4685.000000;0.527149
4684.000000;0.528426
4683.000000;0.529511
4682.000000;0.530325
4681.000000;0.531027
4680.000000;0.531710
4679.000000;0.532290
4678.000000;0.532720
4677.000000;0.533188
4676.000000;0.533978
4675.000000;0.535165
4674.000000;0.536561
4673.000000;0.537940
4672.000000;0.539200
4671.000000;0.540311
4670.000000;0.541240
4669.000000;0.542004
4668.000000;0.542688
4667.000000;0.543318
4666.000000;0.543814
4665.000000;0.544172
4664.000000;0.544605
4663.000000;0.545372
4662.000000;0.546481
4661.000000;0.547670
4660.000000;0.548704
4659.000000;0.549581
4658.000000;0.550421
4657.000000;0.551238
4656.000000;0.551906
4655.000000;0.552331
4654.000000;0.552614
4653.000000;0.553007
4652.000000;0.553703
4651.000000;0.554645
4650.000000;0.555591
4649.000000;0.556366
4648.000000;0.557002
4647.000000;0.557626
4646.000000;0.558282
4645.000000;0.558940
4644.000000;0.559597
4643.000000;0.560251
4642.000000;0.560812
4641.000000;0.561190
4640.000000;0.561471
4639.000000;0.561885
4638.000000;0.562539
4637.000000;0.563295
4636.000000;0.563976
4635.000000;0.564591
4634.000000;0.565271
4633.000000;0.566050
4632.000000;0.566843
4631.000000;0.567598
4630.000000;0.568361
4629.000000;0.569145
4628.000000;0.569840
4627.000000;0.570307
4626.000000;0.570502
4625.000000;0.570521
4624.000000;0.570540
4623.000000;0.570750
4622.000000;0.571258
4621.000000;0.571991
4620.000000;0.572724
4619.000000;0.573267
4618.000000;0.573621
4617.000000;0.573907
4616.000000;0.574183
4615.000000;0.574416
4614.000000;0.574632
4613.000000;0.575003
4612.000000;0.575681
4611.000000;0.576588
4610.000000;0.577444
4609.000000;0.578022
4608.000000;0.578327
4607.000000;0.578534
4606.000000;0.578826
4605.000000;0.579276
4604.000000;0.579828
4603.000000;0.580335
4602.000000;0.580664
4601.000000;0.580819
4600.000000;0.580964
4599.000000;0.581305
4598.000000;0.581921
4597.000000;0.582693
4596.000000;0.583401
4595.000000;0.583897
4594.000000;0.584246
4593.000000;0.584659
4592.000000;0.585246
4591.000000;0.585853
4590.000000;0.586229
4589.000000;0.586351
4588.000000;0.586470
4587.000000;0.586770
4586.000000;0.587123
4585.000000;0.587303
4584.000000;0.587358
4583.000000;0.587592
4582.000000;0.588158
4581.000000;0.588816
4580.000000;0.589189
4579.000000;0.589166
4578.000000;0.588988
4577.000000;0.588966
4576.000000;0.589210
4575.000000;0.589625
4574.000000;0.590076
4573.000000;0.590493
4572.000000;0.590843
4571.000000;0.591075
4570.000000;0.591168
4569.000000;0.591214
4568.000000;0.591391
4567.000000;0.591789
4566.000000;0.592312
4565.000000;0.592757
4564.000000;0.592989
4563.000000;0.593004
4562.000000;0.592895
4561.000000;0.592797
4560.000000;0.592827
4559.000000;0.593003
4558.000000;0.593229
4557.000000;0.593419
4556.000000;0.593601
4555.000000;0.593836
4554.000000;0.594094
4553.000000;0.594304
4552.000000;0.594500
4551.000000;0.594786
4550.000000;0.595130
4549.000000;0.595341
4548.000000;0.595306
4547.000000;0.595150
4546.000000;0.595071
4545.000000;0.595085
4544.000000;0.595054
4543.000000;0.594910
4542.000000;0.594777
4541.000000;0.594838
4540.000000;0.595152
4539.000000;0.595593
4538.000000;0.595953
4537.000000;0.596112
4536.000000;0.596152
4535.000000;0.596270
4534.000000;0.596565
4533.000000;0.596934
4532.000000;0.597205
4531.000000;0.597330
4530.000000;0.597397
4529.000000;0.597503
4528.000000;0.597689
4527.000000;0.597950
4526.000000;0.598239
4525.000000;0.598438
4524.000000;0.598409
4523.000000;0.598128
4522.000000;0.597721
4521.000000;0.597341
4520.000000;0.597075
4519.000000;0.596996
4518.000000;0.597222
4517.000000;0.597795
4516.000000;0.598510
4515.000000;0.598965
4514.000000;0.598894
4513.000000;0.598408
4512.000000;0.597887
4511.000000;0.597640
4510.000000;0.597726
4509.000000;0.598031
4508.000000;0.598407
4507.000000;0.598712
4506.000000;0.598837
4505.000000;0.598788
4504.000000;0.598729
4503.000000;0.598836
4502.000000;0.599089
4501.000000;0.599257
4500.000000;0.599118
4499.000000;0.598706
4498.000000;0.598342
4497.000000;0.598395
4496.000000;0.598947
4495.000000;0.599672
4494.000000;0.600090
4493.000000;0.600001
4492.000000;0.599625
4491.000000;0.599322
4490.000000;0.599249
4489.000000;0.599331
4488.000000;0.599463
4487.000000;0.599632
4486.000000;0.599840
4485.000000;0.600047
4484.000000;0.600199
4483.000000;0.600273
4482.000000;0.600288
4481.000000;0.600306
4480.000000;0.600375
4479.000000;0.600459
4478.000000;0.600478
4477.000000;0.600447
4476.000000;0.600460
4475.000000;0.600465
4474.000000;0.600218
4473.000000;0.599653
4472.000000;0.599148
4471.000000;0.599170
4470.000000;0.599665
4469.000000;0.600087
4468.000000;0.600071
4467.000000;0.599819
4466.000000;0.599698
4465.000000;0.599716
4464.000000;0.599597
4463.000000;0.599244
4462.000000;0.598890
4461.000000;0.598833
4460.000000;0.599148
4459.000000;0.599603
4458.000000;0.599828
4457.000000;0.599639
4456.000000;0.599283
4455.000000;0.599227
4454.000000;0.599599
4453.000000;0.599976
4452.000000;0.599900
4451.000000;0.599467
4450.000000;0.599189
4449.000000;0.599314
4448.000000;0.599545
4447.000000;0.599447
4446.000000;0.598929
4445.000000;0.598251
4444.000000;0.597721
4443.000000;0.597503
4442.000000;0.597600
4441.000000;0.597894
4440.000000;0.598195
4439.000000;0.598331
4438.000000;0.598238
4437.000000;0.598014
4436.000000;0.597904
4435.000000;0.598152
4434.000000;0.598767
4433.000000;0.599424
4432.000000;0.599712
4431.000000;0.599530
4430.000000;0.599193
4429.000000;0.599079
4428.000000;0.599211
4427.000000;0.599233
4426.000000;0.598843
4425.000000;0.598161
4424.000000;0.597587
4423.000000;0.597294
4422.000000;0.597023
4421.000000;0.596488
4420.000000;0.595858
4419.000000;0.595587
4418.000000;0.595804
4417.000000;0.596115
4416.000000;0.596089
4415.000000;0.595729
4414.000000;0.595351
4413.000000;0.595179
4412.000000;0.595216
4411.000000;0.595329
4410.000000;0.595270
4409.000000;0.594770
4408.000000;0.593845
4407.000000;0.592948
4406.000000;0.592600
4405.000000;0.592906
4404.000000;0.593539
4403.000000;0.594081
4402.000000;0.594198
4401.000000;0.593655
4400.000000;0.592503
4399.000000;0.591229
4398.000000;0.590414
4397.000000;0.590156
4396.000000;0.590043
4395.000000;0.589721
4394.000000;0.589260
4393.000000;0.588848
4392.000000;0.588433
4391.000000;0.587794
4390.000000;0.586808
4389.000000;0.585545
4388.000000;0.584226
4387.000000;0.583166
4386.000000;0.582584
4385.000000;0.582353
4384.000000;0.582116
4383.000000;0.581717
4382.000000;0.581286
4381.000000;0.580759
4380.000000;0.579692
4379.000000;0.577931
4378.000000;0.576226
4377.000000;0.575654
4376.000000;0.576322
4375.000000;0.577011
4374.000000;0.576380
4373.000000;0.574345
4372.000000;0.571985
4371.000000;0.570256
4370.000000;0.569132
4369.000000;0.567957
4368.000000;0.566318
4367.000000;0.564419
4366.000000;0.562789
4365.000000;0.561846
4364.000000;0.561643
4363.000000;0.561833
4362.000000;0.561808
4361.000000;0.561019
4360.000000;0.559306
4359.000000;0.557004
4358.000000;0.554740
4357.000000;0.553118
4356.000000;0.552417
4355.000000;0.552371
4354.000000;0.552255
4353.000000;0.551387
4352.000000;0.549670
4351.000000;0.547564
4350.000000;0.545600
4349.000000;0.544042
4348.000000;0.542945
4347.000000;0.542251
4346.000000;0.541742
4345.000000;0.541111
4344.000000;0.540199
4343.000000;0.539052
4342.000000;0.537693
4341.000000;0.536020
4340.000000;0.534025
4339.000000;0.531948
4338.000000;0.530071
4337.000000;0.528539
4336.000000;0.527478
4335.000000;0.527008
4334.000000;0.526944
4333.000000;0.526703
4332.000000;0.525673
4331.000000;0.523540
4330.000000;0.520281
4329.000000;0.516286
4328.000000;0.512622
4327.000000;0.510607
4326.000000;0.510626
4325.000000;0.511675
4324.000000;0.512464
4323.000000;0.512589
4322.000000;0.512134
4321.000000;0.510692
4320.000000;0.507803
4319.000000;0.504185
4318.000000;0.501438
4317.000000;0.500304
4316.000000;0.500064
4315.000000;0.499806
4314.000000;0.499414
4313.000000;0.498879
4312.000000;0.497546
4311.000000;0.494965
4310.000000;0.491954
4309.000000;0.489828
4308.000000;0.488822
4307.000000;0.488026
4306.000000;0.486736
4305.000000;0.485185
4304.000000;0.483914
4303.000000;0.483018
4302.000000;0.482163
4301.000000;0.480960
4300.000000;0.479228
4299.000000;0.477211
4298.000000;0.475581
4297.000000;0.474792
4296.000000;0.474353
4295.000000;0.473275
4294.000000;0.471420
4293.000000;0.470008
4292.000000;0.470451
4291.000000;0.472811
4290.000000;0.475702
4289.000000;0.477645
4288.000000;0.478265
4287.000000;0.478227
4286.000000;0.478325
4285.000000;0.478839
4284.000000;0.479718
4283.000000;0.481067
4282.000000;0.483156
4281.000000;0.485911
4280.000000;0.488515
4279.000000;0.489886
4278.000000;0.489687
4277.000000;0.488583
4276.000000;0.487679
4275.000000;0.487995
4274.000000;0.490303
4273.000000;0.495187
4272.000000;0.502960
4271.000000;0.513140
4270.000000;0.523857
4269.000000;0.532321
4268.000000;0.536826
4267.000000;0.538614
4266.000000;0.540933
4265.000000;0.545715
4264.000000;0.551838
4263.000000;0.556651
4262.000000;0.558976
4261.000000;0.560614
4260.000000;0.564779
4259.000000;0.573656
4258.000000;0.586842
4257.000000;0.600838
4256.000000;0.610967
4255.000000;0.615559
4254.000000;0.617902
4253.000000;0.622808
4252.000000;0.631445
4251.000000;0.640340
4250.000000;0.645877
4249.000000;0.649031
4248.000000;0.654175
4247.000000;0.664283
4246.000000;0.678108
4245.000000;0.692165
4244.000000;0.704148
4243.000000;0.713985
4242.000000;0.722362
4241.000000;0.729443
4240.000000;0.735154
4239.000000;0.739806
4238.000000;0.744213
4237.000000;0.749852
4236.000000;0.758801
4235.000000;0.772393
4234.000000;0.789218
4233.000000;0.805150
4232.000000;0.816603
4231.000000;0.824196
4230.000000;0.832246
4229.000000;0.844088
4228.000000;0.858791
4227.000000;0.872069
4226.000000;0.879998
4225.000000;0.883022
4224.000000;0.886424
4223.000000;0.896032
4222.000000;0.912982
4221.000000;0.932147
4220.000000;0.945911
4219.000000;0.950612
4218.000000;0.949564
4217.000000;0.949955
4216.000000;0.957751
4215.000000;0.974072
4214.000000;0.993891
4213.000000;1.008798
4212.000000;1.013847
4211.000000;1.012149
4210.000000;1.011605
4209.000000;1.018136
4208.000000;1.033845
4207.000000;1.057752
4206.000000;1.083592
4205.000000;1.100911
4204.000000;1.103671
4203.000000;1.096704
4202.000000;1.091047
4201.000000;1.094443
4200.000000;1.107511
4199.000000;1.125738
4198.000000;1.141754
4197.000000;1.148182
4196.000000;1.144655
4195.000000;1.141037
4194.000000;1.148565
4193.000000;1.169966
4192.000000;1.198722
4191.000000;1.223696
4190.000000;1.235707
4189.000000;1.234589
4188.000000;1.228058
4187.000000;1.224425
4186.000000;1.228259
4185.000000;1.238654
4184.000000;1.249383
4183.000000;1.253323
4182.000000;1.249765
4181.000000;1.245623
4180.000000;1.250291
4179.000000;1.271410
4178.000000;1.310187
4177.000000;1.355839
4176.000000;1.386983
4175.000000;1.390192
4174.000000;1.378633
4173.000000;1.375002
4172.000000;1.388844
4171.000000;1.414901
4170.000000;1.438724
4169.000000;1.447493
4168.000000;1.442694
4167.000000;1.437827
4166.000000;1.444457
4165.000000;1.464934
4164.000000;1.495750
4163.000000;1.529191
4162.000000;1.549253
4161.000000;1.542421
4160.000000;1.514808
4159.000000;1.484291
4158.000000;1.465339
4157.000000;1.462973
4156.000000;1.473940
4155.000000;1.493003
4154.000000;1.516672
4153.000000;1.539164
4152.000000;1.549665
4151.000000;1.542965
4150.000000;1.530398
4149.000000;1.530738
4148.000000;1.553091
4147.000000;1.585311
4146.000000;1.595978
4145.000000;1.571761
4144.000000;1.542160
4143.000000;1.541682
4142.000000;1.580109
4141.000000;1.640372
4140.000000;1.691603
4139.000000;1.709522
4138.000000;1.693831
4137.000000;1.666544
4136.000000;1.641913
4135.000000;1.623731
4134.000000;1.620997
4133.000000;1.641679
4132.000000;1.679459
4131.000000;1.714602
4130.000000;1.720770
4129.000000;1.697191
4128.000000;1.677665
4127.000000;1.690013
4126.000000;1.744919
4125.000000;1.830766
4124.000000;1.905845
4123.000000;1.923783
4122.000000;1.892610
4121.000000;1.860798
4120.000000;1.852048
4119.000000;1.860930
4118.000000;1.871343
4117.000000;1.866298
4116.000000;1.837099
4115.000000;1.802487
4114.000000;1.798963
4113.000000;1.849444
4112.000000;1.947576
4111.000000;2.039008
4110.000000;2.047021
4109.000000;1.989211
4108.000000;1.938891
4107.000000;1.922303
4106.000000;1.918983
4105.000000;1.904719
4104.000000;1.882028
4103.000000;1.870349
4102.000000;1.885888
4101.000000;1.919250
4100.000000;1.943055
4099.000000;1.928874
4098.000000;1.894302
4097.000000;1.884864
4096.000000;1.918447
4095.000000;1.982730
4094.000000;2.016558
4093.000000;1.966863
4092.000000;1.890461
4091.000000;1.861757
4090.000000;1.897212
4089.000000;1.966118
4088.000000;2.026519
4087.000000;2.063854
4086.000000;2.055397
4085.000000;2.002059
4084.000000;1.964519
4083.000000;1.953282
4082.000000;1.956410
4081.000000;1.991463
4080.000000;2.049255
4079.000000;2.058402
4078.000000;1.997024
4077.000000;1.933558
4076.000000;1.919490
4075.000000;1.971223
4074.000000;2.067712
4073.000000;2.141312
4072.000000;2.137715
4071.000000;2.099689
4070.000000;2.080365
4069.000000;2.067963
4068.000000;2.040110
4067.000000;2.022825
4066.000000;2.048378
4065.000000;2.099797
4064.000000;2.092947
4063.000000;1.990838
4062.000000;1.910094
4061.000000;1.913860
4060.000000;2.008154
4059.000000;2.178793
4058.000000;2.319341
4057.000000;2.261022
4056.000000;2.106817
4055.000000;1.987967
4054.000000;1.946528
4053.000000;1.966371
4052.000000;2.001502
4051.000000;2.020751
4050.000000;2.045587
4049.000000;2.106649
4048.000000;2.188025
4047.000000;2.227631
4046.000000;2.196012
4045.000000;2.143800
4044.000000;2.115917
4043.000000;2.114491
4042.000000;2.124049
4041.000000;2.127973
4040.000000;2.118273
4039.000000;2.092214
4038.000000;2.060058
4037.000000;2.065256
4036.000000;2.143757
4035.000000;2.261368
4034.000000;2.301041
4033.000000;2.230713
4032.000000;2.120810
4031.000000;2.033227
4030.000000;1.977179
4029.000000;1.945617
4028.000000;1.943924
4027.000000;1.988535
4026.000000;2.100722
4025.000000;2.304812
4024.000000;2.538632
4023.000000;2.467387
4022.000000;2.223501
4021.000000;2.066463
4020.000000;2.015537
4019.000000;2.048526
4018.000000;2.129713
4017.000000;2.231420
4016.000000;2.327174
4015.000000;2.383158
4014.000000;2.411456
4013.000000;2.420239
4012.000000;2.423862
4011.000000;2.407420
4010.000000;2.311332
4009.000000;2.176846
4008.000000;2.077834
4007.000000;2.056911
4006.000000;2.124460
4005.000000;2.206914
4004.000000;2.180174
4003.000000;2.097544
4002.000000;2.029905
4001.000000;2.009832
4000.000000;2.049902
3999.000000;2.146983
3998.000000;2.269516
3997.000000;2.343022
3996.000000;2.353837
3995.000000;2.355904
3994.000000;2.377661
3993.000000;2.442458
3992.000000;2.510347
3991.000000;2.489030
3990.000000;2.446909
3989.000000;2.462993
3988.000000;2.404065
3987.000000;2.236940
3986.000000;2.165256
3985.000000;2.243212
3984.000000;2.457935
3983.000000;2.714722
3982.000000;3.047985
3981.000000;2.834139
3980.000000;2.501512
3979.000000;2.404128
3978.000000;2.399766
3977.000000;2.313651
3976.000000;2.148072
3975.000000;2.031965
3974.000000;1.998054
3973.000000;2.037541
3972.000000;2.100050
3971.000000;2.106309
3970.000000;2.080553
3969.000000;2.094076
3968.000000;2.166383
3967.000000;2.317770
3966.000000;2.601396
3965.000000;2.802107
3964.000000;2.760388
3963.000000;2.781587
3962.000000;2.875219
3961.000000;3.217973
3960.000000;3.431976
3959.000000;3.249485
3958.000000;2.754060
3957.000000;2.450261
3956.000000;2.304941
3955.000000;2.255721
3954.000000;2.261490
3953.000000;2.287272
3952.000000;2.341303
3951.000000;2.466280
3950.000000;2.794800
3949.000000;3.209260
3948.000000;2.598804
3947.000000;2.342139
3946.000000;2.191510
3945.000000;2.150796
3944.000000;2.167058
3943.000000;2.193224
3942.000000;2.215978
3941.000000;2.238197
3940.000000;2.251629
3939.000000;2.284271
3938.000000;2.344062
3937.000000;2.409915
3936.000000;2.468756
3935.000000;2.512086
3934.000000;2.591153
3933.000000;2.814701
3932.000000;3.002437
3931.000000;2.693698
3930.000000;2.509481
3929.000000;2.455681
3928.000000;2.526840
3927.000000;2.769374
3926.000000;3.057766
3925.000000;2.759975
3924.000000;2.476910
3923.000000;2.284334
3922.000000;2.167991
3921.000000;2.109956
3920.000000;2.112944
3919.000000;2.181572
3918.000000;2.254646
3917.000000;2.237982
3916.000000;2.216296
3915.000000;2.277766
3914.000000;2.420789
3913.000000;2.581961
3912.000000;2.627050
3911.000000;2.542738
3910.000000;2.432751
3909.000000;2.342900
3908.000000;2.309610
3907.000000;2.356319
3906.000000;2.626817
3905.000000;2.606840
3904.000000;2.120013
3903.000000;1.896979
3902.000000;1.861221
3901.000000;1.958436
3900.000000;2.158427
3899.000000;2.544207
3898.000000;3.457515
3897.000000;2.834108
3896.000000;2.732673
3895.000000;2.732863
3894.000000;2.720526
3893.000000;2.660572
3892.000000;2.652154
3891.000000;2.758282
3890.000000;2.747969
3889.000000;2.536759
3888.000000;2.393347
3887.000000;2.813549
3886.000000;2.638291
3885.000000;2.194269
3884.000000;2.152071
3883.000000;2.257663
3882.000000;2.730010
3881.000000;2.570836
3880.000000;2.303187
3879.000000;2.424861
3878.000000;2.914446
3877.000000;2.748067
3876.000000;2.698713
3875.000000;2.737609
3874.000000;2.768190
3873.000000;2.952867
3872.000000;2.915833
3871.000000;2.636369
3870.000000;2.451298
3869.000000;2.430021
3868.000000;2.800387
3867.000000;2.809935
3866.000000;2.481637
3865.000000;2.463023
3864.000000;2.451958
3863.000000;2.500371
3862.000000;2.756231
3861.000000;2.949953
3860.000000;2.602272
3859.000000;2.440972
3858.000000;2.447358
3857.000000;2.560513
3856.000000;2.962255
3855.000000;2.989155
3854.000000;2.612839
3853.000000;2.522479
3852.000000;2.609143
3851.000000;2.788548
3850.000000;2.884080
3849.000000;2.559301
3848.000000;2.354035
3847.000000;2.311584
3846.000000;2.406820
3845.000000;2.644693
3844.000000;2.940501
3843.000000;3.221351
3842.000000;2.962730
3841.000000;2.845556
3840.000000;2.935321
3839.000000;3.006104
3838.000000;2.891797
3837.000000;2.696044
3836.000000;2.486402
3835.000000;2.324324
3834.000000;2.324545
3833.000000;2.639670
3832.000000;2.733629
3831.000000;2.418685
3830.000000;2.350151
3829.000000;2.427546
3828.000000;2.529944
3827.000000;2.540711
3826.000000;2.546686
3825.000000;2.555386
3824.000000;2.534910
3823.000000;2.530830
3822.000000;2.483528
3821.000000;2.377737
3820.000000;2.344500
3819.000000;2.465737
3818.000000;2.689325
3817.000000;2.870667
3816.000000;2.849978
3815.000000;2.652423
3814.000000;2.475112
3813.000000;2.381805
3812.000000;2.364199
3811.000000;2.421799
3810.000000;2.578365
3809.000000;2.779507
3808.000000;2.880811
3807.000000;2.940527
3806.000000;2.845392
3805.000000;2.704089
3804.000000;2.758592
3803.000000;2.918452
3802.000000;2.926385
3801.000000;2.832781
3800.000000;2.818573
3799.000000;3.224254
3798.000000;3.110162
3797.000000;2.724806
3796.000000;2.729541
3795.000000;3.034605
3794.000000;2.930402
3793.000000;2.824187
3792.000000;2.823887
3791.000000;2.749637
3790.000000;2.657002
3789.000000;2.648508
3788.000000;2.634898
3787.000000;2.605997
3786.000000;2.633610
3785.000000;3.011697
3784.000000;3.165240
3783.000000;2.556557
3782.000000;2.603989
3781.000000;2.892871
3780.000000;3.016671
3779.000000;2.658328
3778.000000;2.449195
3777.000000;2.363377
3776.000000;2.693108
3775.000000;2.702408
3774.000000;2.266951
3773.000000;2.174807
3772.000000;2.364382
3771.000000;2.841722
3770.000000;2.418901
3769.000000;2.355079
3768.000000;2.610156
3767.000000;2.903832
3766.000000;2.812095
3765.000000;2.575392
3764.000000;2.451560
3763.000000;2.355446
3762.000000;2.297220
3761.000000;2.335531
3760.000000;2.412945
3759.000000;2.439646
3758.000000;2.431485
3757.000000;2.443482
3756.000000;2.724064
3755.000000;3.221581
3754.000000;2.912661
3753.000000;2.930682
3752.000000;3.170686
3751.000000;3.216409
3750.000000;3.063143
3749.000000;3.211543
3748.000000;3.032628
3747.000000;2.617735
3746.000000;2.456077
3745.000000;2.524413
3744.000000;2.652050
3743.000000;2.469567
3742.000000;2.389914
3741.000000;2.438332
3740.000000;2.559852
3739.000000;2.704844
3738.000000;2.897859
3737.000000;2.773871
3736.000000;2.605869
3735.000000;2.675818
3734.000000;2.450385
3733.000000;2.261529
3732.000000;2.263934
3731.000000;2.270835
3730.000000;2.227171
3729.000000;2.245888
3728.000000;2.349529
3727.000000;2.344240
3726.000000;2.210302
3725.000000;2.179434
3724.000000;2.298863
3723.000000;2.624394
3722.000000;3.220858
3721.000000;2.995453
3720.000000;2.851015
3719.000000;2.882986
3718.000000;3.326628
3717.000000;2.788000
3716.000000;2.423932
3715.000000;2.359045
3714.000000;2.566479
3713.000000;3.563782
3712.000000;2.664483
3711.000000;2.453069
3710.000000;2.469974
3709.000000;2.537731
3708.000000;2.398419
3707.000000;2.368980
3706.000000;2.449040
3705.000000;2.613619
3704.000000;2.827057
3703.000000;2.813164
3702.000000;2.618421
3701.000000;2.567208
3700.000000;2.913153
3699.000000;2.838118
3698.000000;2.594688
3697.000000;2.688594
3696.000000;2.815936
3695.000000;3.215513
3694.000000;2.900829
3693.000000;2.677898
3692.000000;2.854418
3691.000000;3.234319
3690.000000;2.934463
3689.000000;2.627158
3688.000000;2.462203
3687.000000;2.442923
3686.000000;2.606680
3685.000000;2.716997
3684.000000;2.695715
3683.000000;3.026923
3682.000000;2.772748
3681.000000;2.475763
3680.000000;2.443969
3679.000000;2.570243
3678.000000;2.896492
3677.000000;3.126656
3676.000000;2.766176
3675.000000;2.423962
3674.000000;2.275712
3673.000000;2.304069
3672.000000;2.442115
3671.000000;2.776077
3670.000000;2.922696
3669.000000;2.514673
3668.000000;2.469515
3667.000000;2.666607
3666.000000;2.733980
3665.000000;2.518677
3664.000000;2.319016
3663.000000;2.233836
3662.000000;2.284226
3661.000000;2.524134
3660.000000;3.172207
3659.000000;2.389414
3658.000000;2.217754
3657.000000;2.367960
3656.000000;2.876740
3655.000000;2.382084
3654.000000;2.214920
3653.000000;2.213100
3652.000000;2.434355
3651.000000;2.971260
3650.000000;3.259900
3649.000000;3.070401
3648.000000;3.293508
3647.000000;3.442829
3646.000000;3.091450
3645.000000;2.827420
3644.000000;2.536076
3643.000000;2.424549
3642.000000;2.473970
3641.000000;2.650085
3640.000000;2.828361
3639.000000;2.874923
3638.000000;2.768129
3637.000000;2.605961
3636.000000;2.458330
3635.000000;2.342448
3634.000000;2.282541
3633.000000;2.281936
3632.000000;2.321514
3631.000000;2.279168
3630.000000;2.112202
3629.000000;1.998963
3628.000000;2.031662
3627.000000;2.238539
3626.000000;2.535107
3625.000000;2.508795
3624.000000;2.331860
3623.000000;2.265813
3622.000000;2.283146
3621.000000;2.359690
3620.000000;2.524355
3619.000000;2.896853
3618.000000;2.767374
3617.000000;2.731418
3616.000000;3.097628
3615.000000;2.785802
3614.000000;2.697020
3613.000000;2.689077
3612.000000;2.433493
3611.000000;2.385805
3610.000000;2.375969
3609.000000;2.231166
3608.000000;2.141688
3607.000000;2.176881
3606.000000;2.369205
3605.000000;2.692892
3604.000000;2.650578
3603.000000;2.581906
3602.000000;2.550044
3601.000000;2.536201
3600.000000;2.614407
3599.000000;2.758828
3598.000000;2.875638
3597.000000;2.812219
3596.000000;2.543180
3595.000000;2.316931
3594.000000;2.214945
3593.000000;2.232652
3592.000000;2.353069
3591.000000;2.334865
3590.000000;2.181415
3589.000000;2.276206
3588.000000;2.559363
3587.000000;2.304017
3586.000000;2.173470
3585.000000;2.315260
3584.000000;2.885505
3583.000000;2.825126
3582.000000;2.478064
3581.000000;2.417967
3580.000000;2.423987
3579.000000;2.361888
3578.000000;2.241993
3577.000000;2.168187
3576.000000;2.171756
3575.000000;2.254186
3574.000000;2.400331
3573.000000;2.603127
3572.000000;2.893087
3571.000000;2.898871
3570.000000;2.556372
3569.000000;2.366968
3568.000000;2.304166
3567.000000;2.418933
3566.000000;2.894746
3565.000000;2.635352
3564.000000;2.302942
3563.000000;2.269305
3562.000000;2.318948
3561.000000;2.373165
3560.000000;2.230813
3559.000000;2.158331
3558.000000;2.272918
3557.000000;2.530402
3556.000000;2.392205
3555.000000;2.186621
3554.000000;2.128042
3553.000000;2.167701
3552.000000;2.330558
3551.000000;2.828146
3550.000000;2.514699
3549.000000;2.230088
3548.000000;2.219212
3547.000000;2.460520
3546.000000;2.773797
3545.000000;2.374779
3544.000000;2.225010
3543.000000;2.215778
3542.000000;2.305853
3541.000000;2.483290
3540.000000;2.616242
3539.000000;2.739788
3538.000000;2.692064
3537.000000;2.391566
3536.000000;2.244939
3535.000000;2.210154
3534.000000;2.267039
3533.000000;2.515709
3532.000000;2.580034
3531.000000;2.420560
3530.000000;2.438545
3529.000000;2.577331
3528.000000;2.822160
3527.000000;3.469147
3526.000000;2.806799
3525.000000;2.635685
3524.000000;2.845239
3523.000000;2.919827
3522.000000;2.532026
3521.000000;2.351054
3520.000000;2.232724
3519.000000;2.163908
3518.000000;2.121913
3517.000000;2.102016
3516.000000;2.168718
3515.000000;2.469275
3514.000000;2.460525
3513.000000;2.206666
3512.000000;2.314882
3511.000000;2.436111
3510.000000;2.323200
3509.000000;2.221139
3508.000000;2.228818
3507.000000;2.442412
3506.000000;2.790163
3505.000000;2.479326
3504.000000;2.240149
3503.000000;2.168427
3502.000000;2.233883
3501.000000;2.548509
3500.000000;2.774279
3499.000000;2.635422
3498.000000;2.602619
3497.000000;2.514050
3496.000000;2.287170
3495.000000;2.084294
3494.000000;2.039603
3493.000000;2.206187
3492.000000;2.673977
3491.000000;2.789846
3490.000000;2.534762
3489.000000;2.435425
3488.000000;2.347805
3487.000000;2.446240
3486.000000;2.722876
3485.000000;2.561034
3484.000000;2.424758
3483.000000;2.789554
3482.000000;2.747841
3481.000000;2.416054
3480.000000;2.463996
3479.000000;2.672858
3478.000000;2.873107
3477.000000;2.948038
3476.000000;3.127774
3475.000000;2.992501
3474.000000;2.618918
3473.000000;2.361338
3472.000000;2.140541
3471.000000;1.988877
3470.000000;1.911868
3469.000000;1.899220
3468.000000;1.967460
3467.000000;2.164281
3466.000000;2.570870
3465.000000;2.796438
3464.000000;2.665341
3463.000000;2.641070
3462.000000;2.452413
3461.000000;2.340016
3460.000000;2.258911
3459.000000;2.185836
3458.000000;2.215411
3457.000000;2.433737
3456.000000;2.762833
3455.000000;2.517213
3454.000000;2.215056
3453.000000;2.081384
3452.000000;2.090328
3451.000000;2.200416
3450.000000;2.239038
3449.000000;2.210564
3448.000000;2.202670
3447.000000;2.221124
3446.000000;2.292967
3445.000000;2.391594
3444.000000;2.408124
3443.000000;2.337976
3442.000000;2.286868
3441.000000;2.285951
3440.000000;2.289899
3439.000000;2.252408
3438.000000;2.178795
3437.000000;2.141564
3436.000000;2.203765
3435.000000;2.420960
3434.000000;2.704736
3433.000000;2.577220
3432.000000;2.357767
3431.000000;2.262811
3430.000000;2.319727
3429.000000;2.486979
3428.000000;2.507842
3427.000000;2.429253
3426.000000;2.522255
3425.000000;2.872045
3424.000000;2.592741
3423.000000;2.386982
3422.000000;2.429348
3421.000000;2.581440
3420.000000;2.708341
3419.000000;2.687644
3418.000000;2.696756
3417.000000;2.686552
3416.000000;2.562761
3415.000000;2.431441
3414.000000;2.380349
3413.000000;2.383832
3412.000000;2.412399
3411.000000;2.490390
3410.000000;2.563421
3409.000000;2.611602
3408.000000;2.572922
3407.000000;2.414888
3406.000000;2.338879
3405.000000;2.397568
3404.000000;2.823286
3403.000000;3.076929
3402.000000;2.562250
3401.000000;2.364566
3400.000000;2.172043
3399.000000;2.029129
3398.000000;1.972126
3397.000000;2.008179
3396.000000;2.134294
3395.000000;2.342262
3394.000000;2.537867
3393.000000;2.606241
3392.000000;2.498107
3391.000000;2.339826
3390.000000;2.240094
3389.000000;2.178877
3388.000000;2.128183
3387.000000;2.075187
3386.000000;2.030237
3385.000000;2.011194
3384.000000;2.053863
3383.000000;2.180082
3382.000000;2.378961
3381.000000;2.496255
3380.000000;2.431473
3379.000000;2.352058
3378.000000;2.459208
3377.000000;2.820192
3376.000000;2.398307
3375.000000;2.142724
3374.000000;2.188207
3373.000000;2.310448
3372.000000;2.263329
3371.000000;2.112892
3370.000000;2.011437
3369.000000;1.984515
3368.000000;2.060094
3367.000000;2.187725
3366.000000;2.128765
3365.000000;2.021932
3364.000000;2.034502
3363.000000;2.204338
3362.000000;2.642131
3361.000000;2.771702
3360.000000;2.498051
3359.000000;2.399759
3358.000000;2.254577
3357.000000;2.143878
3356.000000;2.090412
3355.000000;2.068251
3354.000000;2.082158
3353.000000;2.139480
3352.000000;2.334749
3351.000000;2.617068
3350.000000;2.320451
3349.000000;2.108623
3348.000000;2.155724
3347.000000;2.391153
3346.000000;2.304909
3345.000000;2.113714
3344.000000;2.121476
3343.000000;2.263250
3342.000000;2.526305
3341.000000;2.502429
3340.000000;2.276442
3339.000000;2.116787
3338.000000;2.028979
3337.000000;2.052938
3336.000000;2.199881
3335.000000;2.243105
3334.000000;2.110503
3333.000000;2.071097
3332.000000;2.136905
3331.000000;2.279676
3330.000000;2.398254
3329.000000;2.426698
3328.000000;2.521079
3327.000000;2.672715
3326.000000;2.701150
3325.000000;2.588800
3324.000000;2.475625
3323.000000;2.425847
3322.000000;2.424293
3321.000000;2.424066
3320.000000;2.420976
3319.000000;2.627121
3318.000000;2.839023
3317.000000;2.490265
3316.000000;2.479338
3315.000000;2.580290
3314.000000;2.231486
3313.000000;2.002547
3312.000000;1.905812
3311.000000;1.887601
3310.000000;1.938691
3309.000000;2.037520
3308.000000;2.225204
3307.000000;2.510309
3306.000000;2.327551
3305.000000;2.164507
3304.000000;2.198369
3303.000000;2.247597
3302.000000;2.167466
3301.000000;2.116945
3300.000000;2.186065
3299.000000;2.436150
3298.000000;2.948469
3297.000000;2.723449
3296.000000;2.445476
3295.000000;2.444501
3294.000000;2.433779
3293.000000;2.335382
3292.000000;2.350416
3291.000000;2.552802
3290.000000;2.412292
3289.000000;2.177500
3288.000000;2.086523
3287.000000;2.094022
3286.000000;2.270692
3285.000000;2.691596
3284.000000;2.828267
3283.000000;3.000202
3282.000000;3.048168
3281.000000;2.927836
3280.000000;2.631228
3279.000000;2.469412
3278.000000;2.409870
3277.000000;2.425093
3276.000000;2.531266
3275.000000;2.342396
3274.000000;2.197246
3273.000000;2.275402
3272.000000;2.559140
3271.000000;2.664146
3270.000000;2.350608
3269.000000;2.248371
3268.000000;2.311435
3267.000000;2.517703
3266.000000;2.946779
3265.000000;2.616948
3264.000000;2.451362
3263.000000;2.598299
3262.000000;2.384013
3261.000000;2.294627
3260.000000;2.872119
3259.000000;2.339162
3258.000000;1.945802
3257.000000;1.832414
3256.000000;1.835198
3255.000000;1.965480
3254.000000;2.250900
3253.000000;2.241428
3252.000000;2.063180
3251.000000;2.120729
3250.000000;2.362106
3249.000000;2.385716
3248.000000;2.212990
3247.000000;2.194951
3246.000000;2.343767
3245.000000;2.606862
3244.000000;2.473851
3243.000000;2.273340
3242.000000;2.221733
3241.000000;2.453871
3240.000000;2.702275
3239.000000;2.238437
3238.000000;2.049042
3237.000000;2.052304
3236.000000;2.130130
3235.000000;2.202502
3234.000000;2.206664
3233.000000;2.283803
3232.000000;2.748196
3231.000000;2.703111
3230.000000;2.455407
3229.000000;2.674472
3228.000000;2.562993
3227.000000;2.312097
3226.000000;2.311200
3225.000000;2.512069
3224.000000;2.557260
3223.000000;2.212806
3222.000000;2.044000
3221.000000;2.007908
3220.000000;2.050912
3219.000000;2.141865
3218.000000;2.255347
3217.000000;2.399187
3216.000000;2.534104
3215.000000;2.504686
3214.000000;2.366194
3213.000000;2.189200
3212.000000;2.075027
3211.000000;2.099056
3210.000000;2.251465
3209.000000;2.315388
3208.000000;2.382088
3207.000000;3.095020
3206.000000;2.688556
3205.000000;2.459620
3204.000000;2.588068
3203.000000;2.675451
3202.000000;2.630407
3201.000000;2.374782
3200.000000;2.257877
3199.000000;2.308969
3198.000000;2.458154
3197.000000;2.539788
3196.000000;2.367904
3195.000000;2.157898
3194.000000;2.029635
3193.000000;1.971952
3192.000000;1.990530
3191.000000;2.153404
3190.000000;2.328616
3189.000000;2.196051
3188.000000;2.109529
3187.000000;2.180987
3186.000000;2.338352
3185.000000;2.213350
3184.000000;2.017160
3183.000000;2.000665
3182.000000;2.149810
3181.000000;2.358029
3180.000000;2.451264
3179.000000;2.577946
3178.000000;2.831099
3177.000000;2.977548
3176.000000;2.823247
3175.000000;2.962679
3174.000000;2.531104
3173.000000;2.207486
3172.000000;2.134836
3171.000000;2.296715
3170.000000;2.800378
3169.000000;2.540837
3168.000000;2.238087
3167.000000;2.197558
3166.000000;2.223125
3165.000000;2.208707
3164.000000;2.197691
3163.000000;2.294945
3162.000000;2.660670
3161.000000;3.004263
3160.000000;2.610948
3159.000000;2.315996
3158.000000;2.052918
3157.000000;1.931677
3156.000000;1.943786
3155.000000;2.088665
3154.000000;2.542350
3153.000000;2.477586
3152.000000;2.216673
3151.000000;2.238853
3150.000000;2.421144
3149.000000;2.566920
3148.000000;2.257778
3147.000000;2.078914
3146.000000;2.060575
3145.000000;2.128692
3144.000000;2.318584
3143.000000;2.762485
3142.000000;2.492630
3141.000000;2.125338
3140.000000;2.028601
3139.000000;2.043800
3138.000000;2.171765
3137.000000;2.465544
3136.000000;2.565177
3135.000000;2.355678
3134.000000;2.278047
3133.000000;2.402091
3132.000000;2.721452
3131.000000;2.440914
3130.000000;2.233929
3129.000000;2.267718
3128.000000;2.398408
3127.000000;2.462125
3126.000000;2.377920
3125.000000;2.382625
3124.000000;2.370646
3123.000000;2.355028
3122.000000;2.666767
3121.000000;2.665644
3120.000000;2.231479
3119.000000;2.129762
3118.000000;2.188187
3117.000000;2.362254
3116.000000;2.635192
3115.000000;2.587724
3114.000000;2.344427
3113.000000;2.241905
3112.000000;2.345170
3111.000000;2.428510
3110.000000;2.154099
3109.000000;1.995335
3108.000000;1.985348
3107.000000;2.084736
3106.000000;2.373657
3105.000000;2.557188
3104.000000;2.321031
3103.000000;2.218668
3102.000000;2.248532
3101.000000;2.488086
3100.000000;2.514808
3099.000000;2.192564
3098.000000;2.072112
3097.000000;2.164836
3096.000000;2.626710
3095.000000;2.587168
3094.000000;2.268880
3093.000000;2.271500
3092.000000;2.407462
3091.000000;2.575677
3090.000000;2.719165
3089.000000;2.871118
3088.000000;2.918406
3087.000000;2.884679
3086.000000;2.685827
3085.000000;2.417875
3084.000000;2.298387
3083.000000;2.353889
3082.000000;2.515746
3081.000000;2.504618
3080.000000;2.411764
3079.000000;2.448024
3078.000000;2.585761
3077.000000;2.504728
3076.000000;2.228039
3075.000000;2.045762
3074.000000;1.962900
3073.000000;1.962968
3072.000000;1.977582
3071.000000;1.977082
3070.000000;2.038012
3069.000000;2.247494
3068.000000;2.712031
3067.000000;2.579146
3066.000000;2.285445
3065.000000;2.218098
3064.000000;2.247678
3063.000000;2.320277
3062.000000;2.374655
3061.000000;2.322527
3060.000000;2.241053
3059.000000;2.202755
3058.000000;2.417713
3057.000000;2.786118
3056.000000;2.309737
3055.000000;2.111293
3054.000000;2.179746
3053.000000;2.721595
3052.000000;2.538596
3051.000000;2.136119
3050.000000;2.154539
3049.000000;2.321712
3048.000000;2.870137
3047.000000;2.927202
3046.000000;2.457456
3045.000000;2.346512
3044.000000;2.377235
3043.000000;2.638593
3042.000000;3.099721
3041.000000;2.623500
3040.000000;2.390068
3039.000000;2.328501
3038.000000;2.330497
3037.000000;2.502404
3036.000000;2.686241
3035.000000;2.285907
3034.000000;2.042992
3033.000000;1.954009
3032.000000;1.968254
3031.000000;2.088394
3030.000000;2.279899
3029.000000;2.610184
3028.000000;2.692030
3027.000000;2.465064
3026.000000;2.551994
3025.000000;2.505911
3024.000000;2.312558
3023.000000;2.296627
3022.000000;2.446802
3021.000000;2.485168
3020.000000;2.260303
3019.000000;2.128970
3018.000000;2.122073
3017.000000;2.202760
3016.000000;2.462331
3015.000000;2.703609
3014.000000;2.368745
3013.000000;2.230238
3012.000000;2.225821
3011.000000;2.254613
3010.000000;2.288255
3009.000000;2.282219
3008.000000;2.230490
3007.000000;2.162986
3006.000000;2.131864
3005.000000;2.124530
3004.000000;2.102375
3003.000000;2.084428
3002.000000;2.120661
3001.000000;2.148026
3000.000000;2.083145
2999.000000;2.031144
2998.000000;2.084455
2997.000000;2.362002
2996.000000;2.634329
2995.000000;2.345916
2994.000000;2.238066
2993.000000;2.331318
2992.000000;2.400202
2991.000000;2.507490
2990.000000;3.080674
2989.000000;2.716032
2988.000000;2.239871
2987.000000;2.006520
2986.000000;1.930725
2985.000000;2.025839
2984.000000;2.265048
2983.000000;2.653093
2982.000000;2.762389
2981.000000;2.357289
2980.000000;2.219432
2979.000000;2.293814
2978.000000;2.459458
2977.000000;2.509443
2976.000000;2.587425
2975.000000;2.644132
2974.000000;2.542007
2973.000000;2.660673
2972.000000;2.946012
2971.000000;2.544891
2970.000000;2.290868
2969.000000;2.250079
2968.000000;2.355863
2967.000000;2.682637
2966.000000;2.517913
2965.000000;2.223161
2964.000000;2.107902
2963.000000;2.093061
2962.000000;2.153765
2961.000000;2.206145
2960.000000;2.296535
2959.000000;2.591397
2958.000000;2.551966
2957.000000;2.642300
2956.000000;2.885016
2955.000000;2.215436
2954.000000;2.080784
2953.000000;2.168627
2952.000000;2.289070
2951.000000;2.252806
2950.000000;2.202762
2949.000000;2.329170
2948.000000;2.355407
2947.000000;2.277686
2946.000000;2.435875
2945.000000;2.575250
2944.000000;2.778399
2943.000000;2.525243
2942.000000;2.081138
2941.000000;1.933843
2940.000000;1.897412
2939.000000;1.895197
2938.000000;1.925060
2937.000000;2.001019
2936.000000;2.131176
2935.000000;2.328634
2934.000000;2.619329
2933.000000;2.764702
2932.000000;2.733783
2931.000000;2.660988
2930.000000;2.444180
2929.000000;2.295671
2928.000000;2.241101
2927.000000;2.198000
2926.000000;2.129378
2925.000000;2.105252
2924.000000;2.184998
2923.000000;2.450989
2922.000000;2.982756
2921.000000;2.716484
2920.000000;2.435042
2919.000000;2.368024
2918.000000;2.248077
2917.000000;2.130585
2916.000000;2.070505
2915.000000;2.093265
2914.000000;2.316901
2913.000000;2.523679
2912.000000;2.335412
2911.000000;2.215011
2910.000000;2.139659
2909.000000;2.108388
2908.000000;2.136491
2907.000000;2.187063
2906.000000;2.250752
2905.000000;2.305604
2904.000000;2.317764
2903.000000;2.240606
2902.000000;2.073613
2901.000000;1.897611
2900.000000;1.809051
2899.000000;1.840012
2898.000000;1.980340
2897.000000;2.212580
2896.000000;2.471248
2895.000000;2.568114
2894.000000;2.446721
2893.000000;2.500542
2892.000000;2.877549
2891.000000;2.569250
2890.000000;2.425709
2889.000000;2.591263
2888.000000;2.440139
2887.000000;2.250729
2886.000000;2.173630
2885.000000;2.141370
2884.000000;2.142553
2883.000000;2.161381
2882.000000;2.138763
2881.000000;2.070226
2880.000000;2.022521
2879.000000;2.029735
2878.000000;2.109587
2877.000000;2.247640
2876.000000;2.408766
2875.000000;2.431606
2874.000000;2.229364
2873.000000;2.057781
2872.000000;1.990433
2871.000000;2.042543
2870.000000;2.224056
2869.000000;2.632703
2868.000000;2.914359
2867.000000;2.613274
2866.000000;2.447337
2865.000000;2.399165
2864.000000;2.707794
2863.000000;2.466007
2862.000000;2.122662
2861.000000;2.035956
2860.000000;2.015048
2859.000000;2.107936
2858.000000;2.225608
2857.000000;2.173367
2856.000000;2.219786
2855.000000;2.430952
2854.000000;2.327281
2853.000000;2.184810
2852.000000;2.170161
2851.000000;2.193756
2850.000000;2.190480
2849.000000;2.278417
2848.000000;2.422403
2847.000000;2.133419
2846.000000;1.969403
2845.000000;2.059626
2844.000000;2.401696
2843.000000;2.504089
2842.000000;2.250884
2841.000000;2.139902
2840.000000;2.019393
2839.000000;1.902743
2838.000000;1.833172
2837.000000;1.836254
2836.000000;1.951327
2835.000000;2.380169
2834.000000;2.736812
2833.000000;2.462812
2832.000000;2.546603
2831.000000;2.467210
2830.000000;2.387056
2829.000000;2.245088
2828.000000;2.157816
2827.000000;2.248781
2826.000000;2.216082
2825.000000;2.094953
2824.000000;2.096301
2823.000000;2.314879
2822.000000;2.475518
2821.000000;2.099153
2820.000000;1.884955
2819.000000;1.789441
2818.000000;1.800858
2817.000000;1.979272
2816.000000;2.094163
2815.000000;1.947917
2814.000000;1.910895
2813.000000;2.008894
2812.000000;2.174962
2811.000000;2.342824
2810.000000;2.436198
2809.000000;2.349331
2808.000000;2.137191
2807.000000;2.029806
2806.000000;2.045090
2805.000000;2.036799
2804.000000;1.868864
2803.000000;1.771997
2802.000000;1.798821
2801.000000;2.040634
2800.000000;2.586365
2799.000000;2.156755
2798.000000;2.026833
2797.000000;2.191624
2796.000000;2.324496
2795.000000;2.264993
2794.000000;2.488452
2793.000000;2.768960
2792.000000;2.240301
2791.000000;2.074937
2790.000000;2.000189
2789.000000;2.002816
2788.000000;2.045868
2787.000000;2.083191
2786.000000;2.144843
2785.000000;2.170532
2784.000000;2.174516
2783.000000;2.335836
2782.000000;2.980554
2781.000000;2.949694
2780.000000;2.648561
2779.000000;2.887662
2778.000000;3.068074
2777.000000;2.541212
2776.000000;2.327761
2775.000000;2.318313
2774.000000;2.296813
2773.000000;2.294709
2772.000000;2.335178
2771.000000;2.280155
2770.000000;2.152669
2769.000000;2.122033
2768.000000;2.134279
2767.000000;2.084133
2766.000000;2.077113
2765.000000;2.140058
2764.000000;2.265070
2763.000000;2.384165
2762.000000;2.338310
2761.000000;2.248098
2760.000000;2.103720
2759.000000;1.998606
2758.000000;1.993123
2757.000000;1.948058
2756.000000;1.873972
2755.000000;1.877101
2754.000000;2.083197
2753.000000;2.430447
2752.000000;2.183023
2751.000000;2.030704
2750.000000;2.195023
2749.000000;2.534322
2748.000000;2.277845
2747.000000;2.176573
2746.000000;2.338382
2745.000000;2.363526
2744.000000;2.413576
2743.000000;2.641106
2742.000000;2.685136
2741.000000;2.382199
2740.000000;2.130678
2739.000000;2.019942
2738.000000;2.043010
2737.000000;2.179227
2736.000000;2.296771
2735.000000;2.238542
2734.000000;2.138168
2733.000000;2.071392
2732.000000;1.999671
2731.000000;1.988412
2730.000000;2.125770
2729.000000;2.240724
2728.000000;2.224292
2727.000000;2.134514
2726.000000;1.930839
2725.000000;1.820397
2724.000000;1.873886
2723.000000;2.074752
2722.000000;2.372556
2721.000000;2.511719
2720.000000;2.282882
2719.000000;2.102628
2718.000000;2.040258
2717.000000;2.068494
2716.000000;2.194531
2715.000000;2.338975
2714.000000;2.294885
2713.000000;2.047815
2712.000000;1.845674
2711.000000;1.771750
2710.000000;1.801308
2709.000000;1.848342
2708.000000;1.817012
2707.000000;1.779110
2706.000000;1.811422
2705.000000;1.917719
2704.000000;1.991315
2703.000000;2.083242
2702.000000;2.584351
2701.000000;2.510704
2700.000000;2.115666
2699.000000;2.019191
2698.000000;1.962256
2697.000000;1.973262
2696.000000;2.118843
2695.000000;2.371392
2694.000000;2.139771
2693.000000;1.950441
2692.000000;1.915696
2691.000000;1.865071
2690.000000;1.838751
2689.000000;1.935928
2688.000000;2.004210
2687.000000;1.896075
2686.000000;1.862156
2685.000000;2.117184
2684.000000;2.648176
2683.000000;2.149323
2682.000000;1.943017
2681.000000;1.878595
2680.000000;1.861485
2679.000000;1.937975
2678.000000;2.092344
2677.000000;2.320159
2676.000000;2.513318
2675.000000;2.879457
2674.000000;2.324238
2673.000000;1.978047
2672.000000;1.960061
2671.000000;1.894459
2670.000000;1.733777
2669.000000;1.678953
2668.000000;1.756967
2667.000000;1.911934
2666.000000;2.046826
2665.000000;2.059484
2664.000000;2.275646
2663.000000;2.751693
2662.000000;2.147990
2661.000000;2.163565
2660.000000;2.339349
2659.000000;2.009462
2658.000000;2.054484
2657.000000;2.124068
2656.000000;1.806377
2655.000000;1.668537
2654.000000;1.676877
2653.000000;1.750926
2652.000000;1.838051
2651.000000;1.981518
2650.000000;2.114353
2649.000000;1.924961
2648.000000;1.761422
2647.000000;1.768511
2646.000000;2.032950
2645.000000;2.403456
2644.000000;1.974885
2643.000000;1.886695
2642.000000;2.345759
2641.000000;2.200744
2640.000000;1.799026
2639.000000;1.704052
2638.000000;1.722556
2637.000000;1.742607
2636.000000;1.719043
2635.000000;1.704508
2634.000000;1.728718
2633.000000;1.753963
2632.000000;1.655164
2631.000000;1.545599
2630.000000;1.558258
2629.000000;1.721712
2628.000000;2.099311
2627.000000;2.546777
2626.000000;2.262847
2625.000000;1.948654
2624.000000;1.836825
2623.000000;1.967618
2622.000000;2.349009
2621.000000;2.500136
2620.000000;2.086554
2619.000000;1.859604
2618.000000;1.807424
2617.000000;1.788838
2616.000000;1.792006
2615.000000;1.951247
2614.000000;2.369946
2613.000000;2.867761
2612.000000;2.718460
2611.000000;2.232873
2610.000000;2.008718
2609.000000;1.966247
2608.000000;2.104946
2607.000000;2.232051
2606.000000;2.013430
2605.000000;1.939138
2604.000000;2.066647
2603.000000;2.524453
2602.000000;2.472252
2601.000000;1.985680
2600.000000;1.873913
2599.000000;1.929927
2598.000000;2.138502
2597.000000;2.327648
2596.000000;2.340652
2595.000000;2.311127
2594.000000;2.302734
2593.000000;2.291502
2592.000000;2.032074
2591.000000;1.837726
2590.000000;1.723586
2589.000000;1.613137
2588.000000;1.568731
2587.000000;1.646499
2586.000000;1.887199
2585.000000;2.055998
2584.000000;1.959225
2583.000000;1.958094
2582.000000;2.193084
2581.000000;2.442841
2580.000000;2.155863
2579.000000;2.292447
2578.000000;2.249734
2577.000000;1.893459
2576.000000;1.891355
2575.000000;2.125000
2574.000000;2.440304
2573.000000;2.368262
2572.000000;2.356178
2571.000000;2.734558
2570.000000;2.592271
2569.000000;2.128615
2568.000000;1.948653
2567.000000;1.906054
2566.000000;2.058998
2565.000000;2.538623
2564.000000;2.527494
2563.000000;2.094551
2562.000000;1.774027
2561.000000;1.611763
2560.000000;1.608565
2559.000000;1.697028
2558.000000;1.813174
2557.000000;1.853746
2556.000000;1.783276
2555.000000;1.742102
2554.000000;1.855074
2553.000000;2.286321
2552.000000;2.392485
2551.000000;2.068923
2550.000000;2.086751
2549.000000;2.051952
2548.000000;2.016581
2547.000000;2.043306
2546.000000;2.008719
2545.000000;1.917094
2544.000000;1.797283
2543.000000;1.740692
2542.000000;1.768764
2541.000000;2.090342
2540.000000;2.373925
2539.000000;1.972670
2538.000000;1.857854
2537.000000;2.029540
2536.000000;2.629697
2535.000000;2.115278
2534.000000;1.816151
2533.000000;1.829207
2532.000000;1.953911
2531.000000;2.003470
2530.000000;1.890853
2529.000000;1.834790
2528.000000;1.781002
2527.000000;1.728021
2526.000000;1.700900
2525.000000;1.709872
2524.000000;1.786914
2523.000000;1.851322
2522.000000;1.803995
2521.000000;1.886835
2520.000000;2.325862
2519.000000;2.149099
2518.000000;1.840812
2517.000000;1.861691
2516.000000;2.014670
2515.000000;2.350829
2514.000000;2.340251
2513.000000;2.112610
2512.000000;2.095463
2511.000000;2.161990
2510.000000;2.216058
2509.000000;2.342618
2508.000000;2.495843
2507.000000;2.097461
2506.000000;1.915235
2505.000000;1.951336
2504.000000;2.120598
2503.000000;2.388758
2502.000000;2.264652
2501.000000;1.986416
2500.000000;1.812795
2499.000000;1.743905
2498.000000;1.762982
2497.000000;1.822590
2496.000000;1.941421
2495.000000;2.050136
2494.000000;1.999890
2493.000000;1.982689
2492.000000;2.069711
2491.000000;2.260260
2490.000000;2.343437
2489.000000;2.283255
2488.000000;2.288991
2487.000000;2.033582
2486.000000;1.804036
2485.000000;1.738424
2484.000000;1.779179
2483.000000;1.857863
2482.000000;1.907827
2481.000000;1.916921
2480.000000;1.966750
2479.000000;2.205999
2478.000000;2.361188
2477.000000;2.116211
2476.000000;1.954504
2475.000000;1.861168
2474.000000;1.783973
2473.000000;1.771844
2472.000000;1.839118
2471.000000;2.212087
2470.000000;2.883123
2469.000000;2.168297
2468.000000;2.017471
2467.000000;1.967922
2466.000000;1.950343
2465.000000;2.066296
2464.000000;2.499578
2463.000000;2.274737
2462.000000;1.904413
2461.000000;1.875445
2460.000000;1.971457
2459.000000;2.330387
2458.000000;2.547468
2457.000000;2.171793
2456.000000;2.223505
2455.000000;2.573258
2454.000000;2.087426
2453.000000;1.831900
2452.000000;1.813659
2451.000000;1.875812
2450.000000;2.039110
2449.000000;2.312177
2448.000000;2.553976
2447.000000;2.404037
2446.000000;2.634185
2445.000000;3.008323
2444.000000;2.172954
2443.000000;1.879237
2442.000000;1.820977
2441.000000;1.927553
2440.000000;2.027273
2439.000000;2.291971
2438.000000;2.745887
2437.000000;2.264214
2436.000000;2.193525
2435.000000;2.271292
2434.000000;2.253456
2433.000000;2.095077
2432.000000;1.914888
2431.000000;1.873659
2430.000000;1.955286
2429.000000;1.969613
2428.000000;1.974372
2427.000000;2.137424
2426.000000;2.498560
2425.000000;3.380905
2424.000000;2.876134
2423.000000;2.463856
2422.000000;2.102498
2421.000000;1.897656
2420.000000;1.879381
2419.000000;1.960890
2418.000000;2.130766
2417.000000;2.300393
2416.000000;2.203142
2415.000000;2.032565
2414.000000;2.162600
2413.000000;2.399113
2412.000000;2.062432
2411.000000;1.886209
2410.000000;1.853701
2409.000000;1.882154
2408.000000;2.016388
2407.000000;2.290516
2406.000000;2.497598
2405.000000;2.277450
2404.000000;2.189645
2403.000000;2.222581
2402.000000;2.187116
2401.000000;2.093950
2400.000000;2.022900
2399.000000;2.004709
2398.000000;2.082774
2397.000000;2.410153
2396.000000;2.455928
2395.000000;2.094942
2394.000000;2.005961
2393.000000;2.002267
2392.000000;1.964167
2391.000000;1.947753
2390.000000;2.041218
2389.000000;2.314940
2388.000000;2.333104
2387.000000;2.010262
2386.000000;1.836101
2385.000000;1.781508
2384.000000;1.802250
2383.000000;1.867781
2382.000000;1.907697
2381.000000;1.900704
2380.000000;1.939669
2379.000000;2.042594
2378.000000;2.039658
2377.000000;2.014180
2376.000000;1.923643
2375.000000;1.750275
2374.000000;1.615531
2373.000000;1.652394
2372.000000;2.007755
2371.000000;2.117305
2370.000000;1.784106
2369.000000;1.879462
2368.000000;2.458340
2367.000000;2.146629
2366.000000;1.823944
2365.000000;1.731427
2364.000000;1.762543
2363.000000;1.936531
2362.000000;2.147194
2361.000000;2.261417
2360.000000;2.139541
2359.000000;1.958833
2358.000000;1.825143
2357.000000;1.796807
2356.000000;1.898541
2355.000000;2.196518
2354.000000;2.088261
2353.000000;1.837025
2352.000000;1.720564
2351.000000;1.792212
2350.000000;2.550567
2349.000000;2.276852
2348.000000;1.928641
2347.000000;2.168049
2346.000000;1.945785
2345.000000;1.925975
2344.000000;2.153092
2343.000000;2.014978
2342.000000;1.835168
2341.000000;1.688030
2340.000000;1.676549
2339.000000;1.769501
2338.000000;1.855085
2337.000000;1.905720
2336.000000;2.024664
2335.000000;2.142948
2334.000000;2.067013
2333.000000;2.168742
2332.000000;2.304258
2331.000000;2.077654
2330.000000;2.012180
2329.000000;1.964006
2328.000000;1.810844
2327.000000;1.727420
2326.000000;1.711020
2325.000000;1.726740
2324.000000;1.782891
2323.000000;1.812034
2322.000000;1.735657
2321.000000;1.604035
2320.000000;1.534129
2319.000000;1.550339
2318.000000;1.734486
2317.000000;1.983546
2316.000000;1.753886
2315.000000;1.779927
2314.000000;1.965762
2313.000000;1.732478
2312.000000;1.655336
2311.000000;1.686642
2310.000000;1.608694
2309.000000;1.486000
2308.000000;1.403214
2307.000000;1.376663
2306.000000;1.421267
2305.000000;1.565566
2304.000000;1.986218
2303.000000;2.602722
2302.000000;2.271263
2301.000000;2.308035
2300.000000;2.106385
2299.000000;1.920749
2298.000000;1.808470
2297.000000;1.745822
2296.000000;1.781425
2295.000000;1.789385
2294.000000;1.772621
2293.000000;1.883589
2292.000000;2.249763
2291.000000;2.704929
2290.000000;2.690435
2289.000000;2.157437
2288.000000;1.818373
2287.000000;1.693432
2286.000000;1.684183
2285.000000;1.749521
2284.000000;1.858971
2283.000000;1.957285
2282.000000;1.937458
2281.000000;1.842724
2280.000000;1.778895
2279.000000;1.795276
2278.000000;1.872928
2277.000000;1.927664
2276.000000;1.933642
2275.000000;2.029381
2274.000000;2.371642
2273.000000;2.302858
2272.000000;2.042701
2271.000000;2.033727
2270.000000;2.066301
2269.000000;2.087469
2268.000000;2.144916
2267.000000;2.391226
2266.000000;2.577898
2265.000000;2.341585
2264.000000;2.225810
2263.000000;2.183577
2262.000000;2.192535
2261.000000;2.303822
2260.000000;2.434873
2259.000000;2.439615
2258.000000;2.462675
2257.000000;2.303522
2256.000000;2.103489
2255.000000;2.088399
2254.000000;2.068330
2253.000000;1.842374
2252.000000;1.652702
2251.000000;1.608836
2250.000000;1.707276
2249.000000;1.851370
2248.000000;2.071097
2247.000000;2.455731
2246.000000;2.084869
2245.000000;1.839262
2244.000000;1.846329
2243.000000;1.902779
2242.000000;1.877792
2241.000000;1.768518
2240.000000;1.703649
2239.000000;1.735677
2238.000000;1.861559
2237.000000;2.002428
2236.000000;1.993966
2235.000000;1.903506
2234.000000;1.858336
2233.000000;1.932247
2232.000000;2.138015
2231.000000;2.064208
2230.000000;1.855094
2229.000000;1.766575
2228.000000;1.732505
2227.000000;1.763361
2226.000000;1.879964
2225.000000;2.104391
2224.000000;2.285940
2223.000000;2.087444
2222.000000;1.981641
2221.000000;1.949329
2220.000000;2.019605
2219.000000;2.478670
2218.000000;2.087522
2217.000000;1.737766
2216.000000;1.734795
2215.000000;1.924381
2214.000000;2.150610
2213.000000;2.023065
2212.000000;2.016708
2211.000000;2.114797
2210.000000;1.988592
2209.000000;1.925219
2208.000000;1.967739
2207.000000;1.906114
2206.000000;1.748760
2205.000000;1.699962
2204.000000;1.791515
2203.000000;2.025408
2202.000000;2.317566
2201.000000;2.394876
2200.000000;2.300259
2199.000000;2.160823
2198.000000;2.224930
2197.000000;2.082180
2196.000000;1.807811
2195.000000;1.763484
2194.000000;1.928587
2193.000000;2.254460
2192.000000;2.242241
2191.000000;2.088275
2190.000000;2.170186
2189.000000;2.297401
2188.000000;2.152812
2187.000000;2.004241
2186.000000;1.968756
2185.000000;1.935002
2184.000000;1.878414
2183.000000;1.852602
2182.000000;1.934867
2181.000000;2.160270
2180.000000;2.392870
2179.000000;2.298468
2178.000000;2.057405
2177.000000;1.863233
2176.000000;1.737348
2175.000000;1.668158
2174.000000;1.651128
2173.000000;1.709583
2172.000000;1.838781
2171.000000;2.020107
2170.000000;2.275651
2169.000000;2.536064
2168.000000;2.272594
2167.000000;1.973211
2166.000000;1.886182
2165.000000;1.832347
2164.000000;1.741709
2163.000000;1.735054
2162.000000;1.791714
2161.000000;1.764494
2160.000000;1.705385
2159.000000;1.679792
2158.000000;1.684015
2157.000000;1.758373
2156.000000;1.886855
2155.000000;1.970658
2154.000000;1.952548
2153.000000;1.890905
2152.000000;1.836780
2151.000000;1.818473
2150.000000;1.858926
2149.000000;1.942122
2148.000000;1.956608
2147.000000;1.846849
2146.000000;1.744000
2145.000000;1.712693
2144.000000;1.771389
2143.000000;1.903899
2142.000000;2.066064
2141.000000;2.137584
2140.000000;2.091343
2139.000000;2.094940
2138.000000;2.206449
2137.000000;2.759030
2136.000000;2.562520
2135.000000;2.092981
2134.000000;2.000195
2133.000000;2.097995
2132.000000;2.667162
2131.000000;2.564612
2130.000000;2.139942
2129.000000;2.008957
2128.000000;1.963122
2127.000000;2.004438
2126.000000;2.103889
2125.000000;2.292247
2124.000000;2.057825
2123.000000;1.786697
2122.000000;1.718713
2121.000000;1.773211
2120.000000;1.888603
2119.000000;1.918747
2118.000000;1.856064
2117.000000;1.828469
2116.000000;1.861174
2115.000000;1.980763
2114.000000;2.207957
2113.000000;2.353004
2112.000000;2.186273
2111.000000;2.002327
2110.000000;1.968988
2109.000000;2.040573
2108.000000;2.048566
2107.000000;2.051807
2106.000000;2.184391
2105.000000;2.427406
2104.000000;2.535313
2103.000000;2.235079
2102.000000;1.994439
2101.000000;1.912105
2100.000000;1.983680
2099.000000;2.140000
2098.000000;2.486225
2097.000000;3.088568
2096.000000;2.355563
2095.000000;2.161347
2094.000000;2.092009
2093.000000;2.231333
2092.000000;2.590164
2091.000000;2.103264
2090.000000;1.841691
2089.000000;1.739145
2088.000000;1.710743
2087.000000;1.751334
2086.000000;1.898843
2085.000000;2.173896
2084.000000;2.134895
2083.000000;2.001331
2082.000000;1.849839
2081.000000;1.733775
2080.000000;1.662887
2079.000000;1.566728
2078.000000;1.527221
2077.000000;1.648310
2076.000000;2.089492
2075.000000;2.078352
2074.000000;1.726505
2073.000000;1.640770
2072.000000;1.646973
2071.000000;1.689761
2070.000000;1.793718
2069.000000;1.908505
2068.000000;1.771561
2067.000000;1.632472
2066.000000;1.615843
2065.000000;1.668228
2064.000000;1.738151
2063.000000;1.793307
2062.000000;1.884236
2061.000000;2.047669
2060.000000;2.201222
2059.000000;2.069534
2058.000000;1.813597
2057.000000;1.658876
2056.000000;1.625226
2055.000000;1.691019
2054.000000;1.852529
2053.000000;1.930964
2052.000000;1.728513
2051.000000;1.595409
2050.000000;1.596755
2049.000000;1.712113
2048.000000;1.966522
2047.000000;2.035827
2046.000000;1.892115
2045.000000;1.872992
2044.000000;1.917114
2043.000000;1.933256
2042.000000;1.939916
2041.000000;2.093050
2040.000000;2.360973
2039.000000;2.260249
2038.000000;2.095519
2037.000000;1.972670
2036.000000;1.825284
2035.000000;1.696565
2034.000000;1.624933
2033.000000;1.612887
2032.000000;1.610462
2031.000000;1.604497
2030.000000;1.627854
2029.000000;1.678905
2028.000000;1.746414
2027.000000;1.837710
2026.000000;1.952199
2025.000000;2.100135
2024.000000;2.182239
2023.000000;2.093856
2022.000000;1.973681
2021.000000;1.856297
2020.000000;1.782354
2019.000000;1.797243
2018.000000;1.849855
2017.000000;1.901879
2016.000000;1.925763
2015.000000;2.062073
2014.000000;2.238138
2013.000000;1.943785
2012.000000;1.748480
2011.000000;1.671960
2010.000000;1.613584
2009.000000;1.586277
2008.000000;1.592534
2007.000000;1.621604
2006.000000;1.666940
2005.000000;1.754126
2004.000000;1.859344
2003.000000;1.925104
2002.000000;1.937342
2001.000000;1.910156
2000.000000;1.901955
1999.000000;1.960877
1998.000000;2.042040
1997.000000;2.045026
1996.000000;2.047394
1995.000000;2.103831
1994.000000;2.028186
1993.000000;1.822120
1992.000000;1.731493
1991.000000;1.742459
1990.000000;1.966699
1989.000000;2.381841
1988.000000;1.994950
1987.000000;1.856248
1986.000000;1.903157
1985.000000;2.135939
1984.000000;2.628900
1983.000000;2.149936
1982.000000;1.815993
1981.000000;1.654811
1980.000000;1.623653
1979.000000;1.760925
1978.000000;2.010433
1977.000000;1.979608
1976.000000;1.835601
1975.000000;1.826366
1974.000000;1.873220
1973.000000;2.043976
1972.000000;2.230260
1971.000000;1.918736
1970.000000;1.688745
1969.000000;1.616587
1968.000000;1.631704
1967.000000;1.686360
1966.000000;1.776128
1965.000000;1.897175
1964.000000;2.201564
1963.000000;3.016689
1962.000000;2.214179
1961.000000;1.864810
1960.000000;1.705803
1959.000000;1.634141
1958.000000;1.652578
1957.000000;1.703923
1956.000000;1.786407
1955.000000;1.895650
1954.000000;2.047705
1953.000000;2.571575
1952.000000;2.604816
1951.000000;2.019185
1950.000000;1.843527
1949.000000;1.723628
1948.000000;1.612328
1947.000000;1.547326
1946.000000;1.550743
1945.000000;1.696511
1944.000000;2.007522
1943.000000;1.897562
1942.000000;1.697703
1941.000000;1.708793
1940.000000;1.955932
1939.000000;2.206215
1938.000000;1.867802
1937.000000;1.700273
1936.000000;1.625427
1935.000000;1.593359
1934.000000;1.638857
1933.000000;1.722702
1932.000000;1.780128
1931.000000;1.752246
1930.000000;1.659843
1929.000000;1.549784
1928.000000;1.469774
1927.000000;1.467501
1926.000000;1.547622
1925.000000;1.783647
1924.000000;2.253382
1923.000000;1.889034
1922.000000;1.597756
1921.000000;1.600831
1920.000000;1.743614
1919.000000;2.073008
1918.000000;2.450451
1917.000000;2.144888
1916.000000;2.158170
1915.000000;2.350483
1914.000000;1.964039
1913.000000;1.727137
1912.000000;1.625805
1911.000000;1.613382
1910.000000;1.731901
1909.000000;1.825743
1908.000000;1.730985
1907.000000;1.644539
1906.000000;1.679026
1905.000000;1.824818
1904.000000;1.867629
1903.000000;1.824286
1902.000000;1.982334
1901.000000;2.457979
1900.000000;2.284283
1899.000000;1.846725
1898.000000;1.642969
1897.000000;1.513548
1896.000000;1.450845
1895.000000;1.441918
1894.000000;1.467689
1893.000000;1.524821
1892.000000;1.581077
1891.000000;1.606341
1890.000000;1.626441
1889.000000;1.701079
1888.000000;1.885317
1887.000000;1.967597
1886.000000;1.759249
1885.000000;1.619867
1884.000000;1.614985
1883.000000;1.729071
1882.000000;2.006759
1881.000000;2.288140
1880.000000;2.169780
1879.000000;2.259869
1878.000000;2.138443
1877.000000;1.774370
1876.000000;1.622775
1875.000000;1.579311
1874.000000;1.600395
1873.000000;1.673853
1872.000000;1.777966
1871.000000;1.927489
1870.000000;2.117922
1869.000000;2.154635
1868.000000;2.028756
1867.000000;1.806068
1866.000000;1.654574
1865.000000;1.570417
1864.000000;1.558288
1863.000000;1.609860
1862.000000;1.788915
1861.000000;2.451423
1860.000000;2.089384
1859.000000;1.694216
1858.000000;1.573762
1857.000000;1.495661
1856.000000;1.482981
1855.000000;1.521586
1854.000000;1.589345
1853.000000;1.650491
1852.000000;1.706965
1851.000000;1.769288
1850.000000;1.800979
1849.000000;1.760731
1848.000000;1.692478
1847.000000;1.635111
1846.000000;1.614016
1845.000000;1.639459
1844.000000;1.661205
1843.000000;1.625916
1842.000000;1.653751
1841.000000;1.838273
1840.000000;1.868586
1839.000000;1.631258
1838.000000;1.452531
1837.000000;1.374940
1836.000000;1.359380
1835.000000;1.361633
1834.000000;1.407773
1833.000000;1.491065
1832.000000;1.548813
1831.000000;1.605139
1830.000000;1.638849
1829.000000;1.625521
1828.000000;1.665221
1827.000000;1.734856
1826.000000;1.802089
1825.000000;1.914445
1824.000000;1.880159
1823.000000;1.790471
1822.000000;1.822638
1821.000000;1.886110
1820.000000;1.930659
1819.000000;2.025642
1818.000000;2.307038
1817.000000;2.092195
1816.000000;1.670911
1815.000000;1.477704
1814.000000;1.389626
1813.000000;1.361811
1812.000000;1.401210
1811.000000;1.515972
1810.000000;1.701256
1809.000000;1.853481
1808.000000;1.698457
1807.000000;1.531442
1806.000000;1.535572
1805.000000;1.619953
1804.000000;1.681569
1803.000000;1.744301
1802.000000;1.825929
1801.000000;1.917075
1800.000000;2.077611
1799.000000;2.486264
1798.000000;2.389354
1797.000000;1.978971
1796.000000;1.948283
1795.000000;1.912893
1794.000000;1.704317
1793.000000;1.534888
1792.000000;1.437816
1791.000000;1.418079
1790.000000;1.465993
1789.000000;1.572575
1788.000000;1.714478
1787.000000;1.872907
1786.000000;1.945629
1785.000000;1.826396
1784.000000;1.716250
1783.000000;1.707914
1782.000000;1.777561
1781.000000;1.800438
1780.000000;1.708638
1779.000000;1.579802
1778.000000;1.497519
1777.000000;1.561376
1776.000000;1.744934
1775.000000;1.965413
1774.000000;2.158954
1773.000000;2.232012
1772.000000;2.341535
1771.000000;1.981960
1770.000000;1.681535
1769.000000;1.592311
1768.000000;1.631622
1767.000000;1.717244
1766.000000;2.139568
1765.000000;2.374482
1764.000000;1.748334
1763.000000;1.647904
1762.000000;1.618549
1761.000000;1.605251
1760.000000;1.676092
1759.000000;1.840898
1758.000000;1.863889
1757.000000;1.625798
1756.000000;1.431131
1755.000000;1.293448
1754.000000;1.233380
1753.000000;1.284242
1752.000000;1.423373
1751.000000;1.626458
1750.000000;1.925849
1749.000000;1.757760
1748.000000;1.500713
1747.000000;1.443232
1746.000000;1.506715
1745.000000;1.614221
1744.000000;1.492377
1743.000000;1.316124
1742.000000;1.282943
1741.000000;1.376807
1740.000000;1.542794
1739.000000;1.710388
1738.000000;1.681869
1737.000000;1.582348
1736.000000;1.628906
1735.000000;1.792831
1734.000000;1.945506
1733.000000;2.004559
1732.000000;2.150489
1731.000000;1.733971
1730.000000;1.475518
1729.000000;1.461971
1728.000000;1.604918
1727.000000;2.028272
1726.000000;1.794114
1725.000000;1.570007
1724.000000;1.591519
1723.000000;1.703389
1722.000000;2.016867
1721.000000;1.785171
1720.000000;1.538170
1719.000000;1.546323
1718.000000;1.775784
1717.000000;1.981310
1716.000000;1.661503
1715.000000;1.561241
1714.000000;1.651568
1713.000000;1.887778
1712.000000;2.148021
1711.000000;2.011293
1710.000000;1.905027
1709.000000;1.883458
1708.000000;1.970170
1707.000000;2.142061
1706.000000;1.956669
1705.000000;1.711607
1704.000000;1.600326
1703.000000;1.620502
1702.000000;1.730335
1701.000000;1.863680
1700.000000;1.873470
1699.000000;1.960500
1698.000000;2.275706
1697.000000;1.748279
1696.000000;1.517963
1695.000000;1.520427
1694.000000;1.576328
1693.000000;1.643903
1692.000000;1.594807
1691.000000;1.490447
1690.000000;1.383195
1689.000000;1.316709
1688.000000;1.309305
1687.000000;1.380928
1686.000000;1.522757
1685.000000;1.758730
1684.000000;2.351408
1683.000000;2.487102
1682.000000;2.143654
1681.000000;2.245166
1680.000000;2.198853
1679.000000;2.033595
1678.000000;1.845986
1677.000000;1.726309
1676.000000;1.702505
1675.000000;1.798555
1674.000000;1.766218
1673.000000;1.477103
1672.000000;1.327409
1671.000000;1.310916
1670.000000;1.342376
1669.000000;1.415948
1668.000000;1.495679
1667.000000;1.529930
1666.000000;1.582239
1665.000000;1.747471
1664.000000;1.991669
1663.000000;1.953637
1662.000000;1.680977
1661.000000;1.473935
1660.000000;1.360885
1659.000000;1.328290
1658.000000;1.359768
1657.000000;1.405089
1656.000000;1.426240
1655.000000;1.440263
1654.000000;1.599877
1653.000000;1.974203
1652.000000;1.567653
1651.000000;1.276100
1650.000000;1.272604
1649.000000;1.354041
1648.000000;1.376617
1647.000000;1.336720
1646.000000;1.346615
1645.000000;1.384858
1644.000000;1.434505
1643.000000;1.472579
1642.000000;1.433675
1641.000000;1.419866
1640.000000;1.676414
1639.000000;2.124643
1638.000000;1.600338
1637.000000;1.373048
1636.000000;1.316442
1635.000000;1.312491
1634.000000;1.275597
1633.000000;1.237558
1632.000000;1.289412
1631.000000;1.370937
1630.000000;1.466072
1629.000000;1.623394
1628.000000;1.979174
1627.000000;2.433747
1626.000000;2.012582
1625.000000;1.731141
1624.000000;1.767548
1623.000000;1.841121
1622.000000;1.831559
1621.000000;1.992895
1620.000000;1.592865
1619.000000;1.300827
1618.000000;1.223913
1617.000000;1.246706
1616.000000;1.347670
1615.000000;1.537784
1614.000000;2.008672
1613.000000;1.908242
1612.000000;1.519785
1611.000000;1.446407
1610.000000;1.486162
1609.000000;1.537770
1608.000000;1.625466
1607.000000;2.049198
1606.000000;2.331674
1605.000000;1.876044
1604.000000;1.827296
1603.000000;1.563032
1602.000000;1.324389
1601.000000;1.229793
1600.000000;1.245376
1599.000000;1.389624
1598.000000;1.567463
1597.000000;1.545193
1596.000000;1.499017
1595.000000;1.580255
1594.000000;1.612037
1593.000000;1.615324
1592.000000;1.919835
1591.000000;2.088170
1590.000000;1.655487
1589.000000;1.575629
1588.000000;1.676545
1587.000000;1.740117
1586.000000;1.710935
1585.000000;1.679884
1584.000000;1.833968
1583.000000;1.811409
1582.000000;1.478414
1581.000000;1.295116
1580.000000;1.198089
1579.000000;1.164730
1578.000000;1.231363
1577.000000;1.366467
1576.000000;1.440563
1575.000000;1.438057
1574.000000;1.531928
1573.000000;2.036714
1572.000000;2.109035
1571.000000;1.701653
1570.000000;1.643392
1569.000000;1.596484
1568.000000;1.787176
1567.000000;1.699484
1566.000000;1.365624
1565.000000;1.274299
1564.000000;1.324474
1563.000000;1.468732
1562.000000;1.620541
1561.000000;1.644567
1560.000000;1.481295
1559.000000;1.304657
1558.000000;1.250002
1557.000000;1.272687
1556.000000;1.306853
1555.000000;1.316912
1554.000000;1.339983
1553.000000;1.425029
1552.000000;1.628731
1551.000000;2.104044
1550.000000;1.868148
1549.000000;1.432904
1548.000000;1.273093
1547.000000;1.210240
1546.000000;1.199268
1545.000000;1.207332
1544.000000;1.254105
1543.000000;1.290605
1542.000000;1.203011
1541.000000;1.127311
1540.000000;1.197007
1539.000000;1.436900
1538.000000;1.471257
1537.000000;1.263535
1536.000000;1.203737
1535.000000;1.262642
1534.000000;1.349262
1533.000000;1.439929
1532.000000;1.543358
1531.000000;1.596129
1530.000000;1.573128
1529.000000;1.640483
1528.000000;1.675586
1527.000000;1.497584
1526.000000;1.384763
1525.000000;1.399525
1524.000000;1.415150
1523.000000;1.413631
1522.000000;1.537281
1521.000000;1.556094
1520.000000;1.438180
1519.000000;1.474772
1518.000000;1.585490
1517.000000;1.619502
1516.000000;1.643032
1515.000000;1.684613
1514.000000;1.602143
1513.000000;1.496626
1512.000000;1.482089
1511.000000;1.555705
1510.000000;1.770409
1509.000000;1.773351
1508.000000;1.392489
1507.000000;1.263711
1506.000000;1.347443
1505.000000;1.643391
1504.000000;2.109289
1503.000000;1.671344
1502.000000;1.497439
1501.000000;1.445891
1500.000000;1.408783
1499.000000;1.394626
1498.000000;1.368869
1497.000000;1.296807
1496.000000;1.209464
1495.000000;1.187080
1494.000000;1.223658
1493.000000;1.250236
1492.000000;1.220401
1491.000000;1.174753
1490.000000;1.154670
1489.000000;1.172962
1488.000000;1.219653
1487.000000;1.284930
1486.000000;1.427222
1485.000000;1.607836
1484.000000;1.483586
1483.000000;1.299652
1482.000000;1.188950
1481.000000;1.161120
1480.000000;1.250330
1479.000000;1.535246
1478.000000;1.922770
1477.000000;1.662750
1476.000000;1.553441
1475.000000;1.656003
1474.000000;1.706362
1473.000000;1.817578
1472.000000;2.163100
1471.000000;1.677510
1470.000000;1.369945
1469.000000;1.246528
1468.000000;1.142107
1467.000000;1.107778
1466.000000;1.167945
1465.000000;1.271125
1464.000000;1.335691
1463.000000;1.351019
1462.000000;1.365801
1461.000000;1.402508
1460.000000;1.417471
1459.000000;1.434140
1458.000000;1.405270
1457.000000;1.265182
1456.000000;1.134390
1455.000000;1.070492
1454.000000;1.080862
1453.000000;1.142174
1452.000000;1.200741
1451.000000;1.207385
1450.000000;1.210747
1449.000000;1.262502
1448.000000;1.504064
1447.000000;1.906186
1446.000000;1.670376
1445.000000;1.541579
1444.000000;1.660802
1443.000000;2.025271
1442.000000;1.689858
1441.000000;1.361918
1440.000000;1.345922
1439.000000;1.516359
1438.000000;1.692150
1437.000000;1.599279
1436.000000;1.506686
1435.000000;1.482345
1434.000000;1.442461
1433.000000;1.311337
1432.000000;1.228426
1431.000000;1.271133
1430.000000;1.507353
1429.000000;1.743829
1428.000000;1.390736
1427.000000;1.207258
1426.000000;1.172755
1425.000000;1.230732
1424.000000;1.359318
1423.000000;1.622957
1422.000000;2.168351
1421.000000;1.683215
1420.000000;1.413804
1419.000000;1.373409
1418.000000;1.460968
1417.000000;1.749826
1416.000000;2.057072
1415.000000;1.879010
1414.000000;1.750069
1413.000000;1.844068
1412.000000;2.091987
1411.000000;1.708000
1410.000000;1.436580
1409.000000;1.382546
1408.000000;1.500655
1407.000000;2.123455
1406.000000;2.009855
1405.000000;1.711359
1404.000000;1.823485
1403.000000;1.681043
1402.000000;1.432444
1401.000000;1.270850
1400.000000;1.182022
1399.000000;1.170292
1398.000000;1.239726
1397.000000;1.426336
1396.000000;1.606231
1395.000000;1.388841
1394.000000;1.202158
1393.000000;1.130801
1392.000000;1.118511
1391.000000;1.141946
1390.000000;1.179562
1389.000000;1.231069
1388.000000;1.279687
1387.000000;1.351356
1386.000000;1.408070
1385.000000;1.308687
1384.000000;1.224360
1383.000000;1.256123
1382.000000;1.325389
1381.000000;1.375138
1380.000000;1.409501
1379.000000;1.415028
1378.000000;1.374656
1377.000000;1.325338
1376.000000;1.264660
1375.000000;1.220196
1374.000000;1.228775
1373.000000;1.268540
1372.000000;1.302434
1371.000000;1.287980
1370.000000;1.219573
1369.000000;1.156299
1368.000000;1.145828
1367.000000;1.180435
1366.000000;1.198555
1365.000000;1.168850
1364.000000;1.131842
1363.000000;1.127926
1362.000000;1.174462
1361.000000;1.288448
1360.000000;1.462279
1359.000000;1.492321
1358.000000;1.388189
1357.000000;1.376788
1356.000000;1.450873
1355.000000;1.470755
1354.000000;1.362915
1353.000000;1.269787
1352.000000;1.234610
1351.000000;1.192771
1350.000000;1.120884
1349.000000;1.065477
1348.000000;1.063321
1347.000000;1.095521
1346.000000;1.118333
1345.000000;1.161530
1344.000000;1.286690
1343.000000;1.505716
1342.000000;1.776503
1341.000000;1.990099
1340.000000;2.063841
1339.000000;1.929680
1338.000000;1.645875
1337.000000;1.435346
1336.000000;1.374484
1335.000000;1.431769
1334.000000;1.491479
1333.000000;1.468219
1332.000000;1.448544
1331.000000;1.532279
1330.000000;1.556614
1329.000000;1.458563
1328.000000;1.444477
1327.000000;1.481815
1326.000000;1.462034
1325.000000;1.467032
1324.000000;1.593599
1323.000000;1.883884
1322.000000;2.552797
1321.000000;2.135517
1320.000000;1.792137
1319.000000;1.700311
1318.000000;1.572300
1317.000000;1.378309
1316.000000;1.225199
1315.000000;1.152372
1314.000000;1.140176
1313.000000;1.161675
1312.000000;1.186297
1311.000000;1.211020
1310.000000;1.262966
1309.000000;1.386330
1308.000000;1.610304
1307.000000;1.701911
1306.000000;1.625433
1305.000000;1.685742
1304.000000;1.832578
1303.000000;1.892590
1302.000000;1.797328
1301.000000;1.662239
1300.000000;1.561886
1299.000000;1.548096
1298.000000;1.640097
1297.000000;1.674203
1296.000000;1.588417
1295.000000;1.548324
1294.000000;1.592742
1293.000000;1.704348
1292.000000;1.899347
1291.000000;2.308536
1290.000000;2.198463
1289.000000;1.705751
1288.000000;1.460987
1287.000000;1.320723
1286.000000;1.253292
1285.000000;1.281011
1284.000000;1.303631
1283.000000;1.188681
1282.000000;1.112055
1281.000000;1.162386
1280.000000;1.292892
1279.000000;1.454621
1278.000000;1.618569
1277.000000;1.660197
1276.000000;1.615533
1275.000000;1.581803
1274.000000;1.466320
1273.000000;1.357265
1272.000000;1.337293
1271.000000;1.424325
1270.000000;1.562824
1269.000000;1.729675
1268.000000;2.202177
1267.000000;1.862442
1266.000000;1.481639
1265.000000;1.328490
1264.000000;1.250780
1263.000000;1.262040
1262.000000;1.376595
1261.000000;1.559468
1260.000000;1.705318
1259.000000;1.752923
1258.000000;1.683618
1257.000000;1.540268
1256.000000;1.423014
1255.000000;1.421388
1254.000000;1.733155
1253.000000;2.092899
1252.000000;1.632201
1251.000000;1.510729
1250.000000;1.534894
1249.000000;1.525938
1248.000000;1.425146
1247.000000;1.354652
1246.000000;1.407117
1245.000000;1.445220
1244.000000;1.404163
1243.000000;1.412932
1242.000000;1.410211
1241.000000;1.314989
1240.000000;1.243497
1239.000000;1.261977
1238.000000;1.347887
1237.000000;1.447123
1236.000000;1.537413
1235.000000;1.599251
1234.000000;1.524475
1233.000000;1.356027
1232.000000;1.205646
1231.000000;1.098601
1230.000000;1.051332
1229.000000;1.063772
1228.000000;1.121947
1227.000000;1.221157
1226.000000;1.371292
1225.000000;1.567360
1224.000000;1.690107
1223.000000;1.725605
1222.000000;1.830222
1221.000000;1.807244
1220.000000;1.706536
1219.000000;1.685548
1218.000000;1.634569
1217.000000;1.616076
1216.000000;1.702968
1215.000000;1.916025
1214.000000;2.214890
1213.000000;1.958829
1212.000000;1.610525
1211.000000;1.387652
1210.000000;1.272085
1209.000000;1.266661
1208.000000;1.363345
1207.000000;1.537794
1206.000000;1.732714
1205.000000;1.886408
1204.000000;2.035820
1203.000000;2.026736
1202.000000;1.766727
1201.000000;1.571186
1200.000000;1.438850
