Criado como novo conjunto de dados;"2706_e01_daniel.spp","97026.9 Secs"
cm-1;Abs
10000.000000;0.860457
9999.000000;0.859804
9998.000000;0.859658
9997.000000;0.859766
9996.000000;0.859673
9995.000000;0.859411
9994.000000;0.859425
9993.000000;0.860001
9992.000000;0.860717
9991.000000;0.860973
9990.000000;0.860702
9989.000000;0.860299
9988.000000;0.859922
9987.000000;0.859388
9986.000000;0.858721
9985.000000;0.858320
9984.000000;0.858430
9983.000000;0.858788
9982.000000;0.858961
9981.000000;0.858794
9980.000000;0.858403
9979.000000;0.857992
9978.000000;0.857826
9977.000000;0.858134
9976.000000;0.858850
9975.000000;0.859607
9974.000000;0.860123
9973.000000;0.860406
9972.000000;0.860464
9971.000000;0.860086
9970.000000;0.859174
9969.000000;0.858121
9968.000000;0.857535
9967.000000;0.857624
9966.000000;0.858067
9965.000000;0.858415
9964.000000;0.858428
9963.000000;0.858083
9962.000000;0.857572
9961.000000;0.857317
9960.000000;0.857721
9959.000000;0.858707
9958.000000;0.859628
9957.000000;0.859799
9956.000000;0.859136
9955.000000;0.858181
9954.000000;0.857547
9953.000000;0.857424
9952.000000;0.857603
9951.000000;0.857811
9950.000000;0.857894
9949.000000;0.857726
9948.000000;0.857181
9947.000000;0.856342
9946.000000;0.855639
9945.000000;0.855540
9944.000000;0.856064
9943.000000;0.856737
9942.000000;0.857096
9941.000000;0.857126
9940.000000;0.857140
9939.000000;0.857339
9938.000000;0.857602
9937.000000;0.857654
9936.000000;0.857340
9935.000000;0.856764
9934.000000;0.856201
9933.000000;0.855827
9932.000000;0.855557
9931.000000;0.855197
9930.000000;0.854769
9929.000000;0.854555
9928.000000;0.854789
9927.000000;0.855417
9926.000000;0.856201
9925.000000;0.856898
9924.000000;0.857275
9923.000000;0.857108
9922.000000;0.856354
9921.000000;0.855274
9920.000000;0.854276
9919.000000;0.853655
9918.000000;0.853492
9917.000000;0.853663
9916.000000;0.853862
9915.000000;0.853810
9914.000000;0.853581
9913.000000;0.853612
9912.000000;0.854207
9911.000000;0.855141
9910.000000;0.855908
9909.000000;0.856239
9908.000000;0.856169
9907.000000;0.855725
9906.000000;0.854888
9905.000000;0.853886
9904.000000;0.853199
9903.000000;0.853117
9902.000000;0.853439
9901.000000;0.853755
9900.000000;0.853889
9899.000000;0.853966
9898.000000;0.854145
9897.000000;0.854407
9896.000000;0.854553
9895.000000;0.854357
9894.000000;0.853741
9893.000000;0.852884
9892.000000;0.852133
9891.000000;0.851771
9890.000000;0.851862
9889.000000;0.852283
9888.000000;0.852836
9887.000000;0.853332
9886.000000;0.853652
9885.000000;0.853760
9884.000000;0.853691
9883.000000;0.853529
9882.000000;0.853397
9881.000000;0.853384
9880.000000;0.853415
9879.000000;0.853258
9878.000000;0.852756
9877.000000;0.852005
9876.000000;0.851258
9875.000000;0.850742
9874.000000;0.850623
9873.000000;0.850975
9872.000000;0.851612
9871.000000;0.852058
9870.000000;0.851935
9869.000000;0.851365
9868.000000;0.850791
9867.000000;0.850465
9866.000000;0.850322
9865.000000;0.850289
9864.000000;0.850417
9863.000000;0.850652
9862.000000;0.850788
9861.000000;0.850766
9860.000000;0.850777
9859.000000;0.850934
9858.000000;0.851065
9857.000000;0.850982
9856.000000;0.850772
9855.000000;0.850645
9854.000000;0.850653
9853.000000;0.850737
9852.000000;0.850898
9851.000000;0.851079
9850.000000;0.851009
9849.000000;0.850434
9848.000000;0.849520
9847.000000;0.848770
9846.000000;0.848487
9845.000000;0.848496
9844.000000;0.848451
9843.000000;0.848283
9842.000000;0.848214
9841.000000;0.848368
9840.000000;0.848557
9839.000000;0.848536
9838.000000;0.848411
9837.000000;0.848593
9836.000000;0.849265
9835.000000;0.850039
9834.000000;0.850316
9833.000000;0.849934
9832.000000;0.849248
9831.000000;0.848631
9830.000000;0.848173
9829.000000;0.847884
9828.000000;0.847863
9827.000000;0.848084
9826.000000;0.848279
9825.000000;0.848229
9824.000000;0.848027
9823.000000;0.847873
9822.000000;0.847797
9821.000000;0.847758
9820.000000;0.847824
9819.000000;0.848040
9818.000000;0.848264
9817.000000;0.848387
9816.000000;0.848568
9815.000000;0.848981
9814.000000;0.849424
9813.000000;0.849524
9812.000000;0.849257
9811.000000;0.848934
9810.000000;0.848705
9809.000000;0.848391
9808.000000;0.847866
9807.000000;0.847248
9806.000000;0.846629
9805.000000;0.845939
9804.000000;0.845211
9803.000000;0.844710
9802.000000;0.844603
9801.000000;0.844738
9800.000000;0.844943
9799.000000;0.845312
9798.000000;0.845933
9797.000000;0.846503
9796.000000;0.846550
9795.000000;0.845989
9794.000000;0.845217
9793.000000;0.844616
9792.000000;0.844234
9791.000000;0.844010
9790.000000;0.844057
9789.000000;0.844520
9788.000000;0.845262
9787.000000;0.845896
9786.000000;0.846197
9785.000000;0.846337
9784.000000;0.846615
9783.000000;0.847011
9782.000000;0.847145
9781.000000;0.846686
9780.000000;0.845713
9779.000000;0.844630
9778.000000;0.843824
9777.000000;0.843482
9776.000000;0.843610
9775.000000;0.844063
9774.000000;0.844559
9773.000000;0.844824
9772.000000;0.844781
9771.000000;0.844551
9770.000000;0.844255
9769.000000;0.843927
9768.000000;0.843639
9767.000000;0.843574
9766.000000;0.843881
9765.000000;0.844459
9764.000000;0.844935
9763.000000;0.844853
9762.000000;0.843972
9761.000000;0.842524
9760.000000;0.841192
9759.000000;0.840691
9758.000000;0.841180
9757.000000;0.842110
9756.000000;0.842722
9755.000000;0.842720
9754.000000;0.842422
9753.000000;0.842279
9752.000000;0.842372
9751.000000;0.842400
9750.000000;0.842105
9749.000000;0.841590
9748.000000;0.841184
9747.000000;0.841047
9746.000000;0.841013
9745.000000;0.840845
9744.000000;0.840545
9743.000000;0.840329
9742.000000;0.840355
9741.000000;0.840603
9740.000000;0.840962
9739.000000;0.841328
9738.000000;0.841607
9737.000000;0.841727
9736.000000;0.841716
9735.000000;0.841705
9734.000000;0.841834
9733.000000;0.842148
9732.000000;0.842549
9731.000000;0.842795
9730.000000;0.842602
9729.000000;0.841887
9728.000000;0.840920
9727.000000;0.840138
9726.000000;0.839785
9725.000000;0.839788
9724.000000;0.839933
9723.000000;0.840057
9722.000000;0.840070
9721.000000;0.839946
9720.000000;0.839749
9719.000000;0.839584
9718.000000;0.839502
9717.000000;0.839514
9716.000000;0.839658
9715.000000;0.839951
9714.000000;0.840255
9713.000000;0.840353
9712.000000;0.840189
9711.000000;0.839924
9710.000000;0.839743
9709.000000;0.839713
9708.000000;0.839842
9707.000000;0.840070
9706.000000;0.840177
9705.000000;0.839922
9704.000000;0.839367
9703.000000;0.838876
9702.000000;0.838679
9701.000000;0.838618
9700.000000;0.838459
9699.000000;0.838243
9698.000000;0.838160
9697.000000;0.838228
9696.000000;0.838373
9695.000000;0.838674
9694.000000;0.839248
9693.000000;0.839916
9692.000000;0.840275
9691.000000;0.840140
9690.000000;0.839710
9689.000000;0.839279
9688.000000;0.838961
9687.000000;0.838748
9686.000000;0.838652
9685.000000;0.838670
9684.000000;0.838732
9683.000000;0.838752
9682.000000;0.838692
9681.000000;0.838544
9680.000000;0.838327
9679.000000;0.838089
9678.000000;0.837835
9677.000000;0.837513
9676.000000;0.837171
9675.000000;0.837078
9674.000000;0.837455
9673.000000;0.838072
9672.000000;0.838346
9671.000000;0.837962
9670.000000;0.837244
9669.000000;0.836767
9668.000000;0.836753
9667.000000;0.836970
9666.000000;0.837121
9665.000000;0.837118
9664.000000;0.837037
9663.000000;0.836957
9662.000000;0.836924
9661.000000;0.836961
9660.000000;0.837091
9659.000000;0.837311
9658.000000;0.837514
9657.000000;0.837439
9656.000000;0.836851
9655.000000;0.835870
9654.000000;0.835006
9653.000000;0.834720
9652.000000;0.834970
9651.000000;0.835321
9650.000000;0.835423
9649.000000;0.835258
9648.000000;0.834937
9647.000000;0.834500
9646.000000;0.833992
9645.000000;0.833580
9644.000000;0.833417
9643.000000;0.833478
9642.000000;0.833611
9641.000000;0.833726
9640.000000;0.833814
9639.000000;0.833851
9638.000000;0.833792
9637.000000;0.833687
9636.000000;0.833682
9635.000000;0.833870
9634.000000;0.834191
9633.000000;0.834515
9632.000000;0.834754
9631.000000;0.834851
9630.000000;0.834731
9629.000000;0.834369
9628.000000;0.833896
9627.000000;0.833569
9626.000000;0.833576
9625.000000;0.833883
9624.000000;0.834279
9623.000000;0.834562
9622.000000;0.834644
9621.000000;0.834531
9620.000000;0.834251
9619.000000;0.833851
9618.000000;0.833437
9617.000000;0.833155
9616.000000;0.833074
9615.000000;0.833096
9614.000000;0.833010
9613.000000;0.832675
9612.000000;0.832178
9611.000000;0.831794
9610.000000;0.831760
9609.000000;0.832060
9608.000000;0.832433
9607.000000;0.832612
9606.000000;0.832554
9605.000000;0.832409
9604.000000;0.832258
9603.000000;0.831984
9602.000000;0.831499
9601.000000;0.831020
9600.000000;0.830952
9599.000000;0.831416
9598.000000;0.832035
9597.000000;0.832330
9596.000000;0.832237
9595.000000;0.832091
9594.000000;0.832116
9593.000000;0.832144
9592.000000;0.831884
9591.000000;0.831320
9590.000000;0.830716
9589.000000;0.830348
9588.000000;0.830340
9587.000000;0.830688
9586.000000;0.831285
9585.000000;0.831928
9584.000000;0.832414
9583.000000;0.832633
9582.000000;0.832534
9581.000000;0.832078
9580.000000;0.831359
9579.000000;0.830706
9578.000000;0.830460
9577.000000;0.830611
9576.000000;0.830794
9575.000000;0.830711
9574.000000;0.830440
9573.000000;0.830261
9572.000000;0.830310
9571.000000;0.830532
9570.000000;0.830825
9569.000000;0.831078
9568.000000;0.831113
9567.000000;0.830804
9566.000000;0.830255
9565.000000;0.829735
9564.000000;0.829410
9563.000000;0.829241
9562.000000;0.829152
9561.000000;0.829180
9560.000000;0.829405
9559.000000;0.829825
9558.000000;0.830316
9557.000000;0.830681
9556.000000;0.830721
9555.000000;0.830382
9554.000000;0.829845
9553.000000;0.829381
9552.000000;0.829093
9551.000000;0.828898
9550.000000;0.828770
9549.000000;0.828825
9548.000000;0.829093
9547.000000;0.829371
9546.000000;0.829454
9545.000000;0.829404
9544.000000;0.829403
9543.000000;0.829441
9542.000000;0.829328
9541.000000;0.828988
9540.000000;0.828531
9539.000000;0.828035
9538.000000;0.827492
9537.000000;0.826991
9536.000000;0.826756
9535.000000;0.826894
9534.000000;0.827226
9533.000000;0.827463
9532.000000;0.827445
9531.000000;0.827160
9530.000000;0.826684
9529.000000;0.826224
9528.000000;0.826071
9527.000000;0.826344
9526.000000;0.826849
9525.000000;0.827290
9524.000000;0.827563
9523.000000;0.827727
9522.000000;0.827789
9521.000000;0.827701
9520.000000;0.827498
9519.000000;0.827291
9518.000000;0.827119
9517.000000;0.826948
9516.000000;0.826816
9515.000000;0.826814
9514.000000;0.826932
9513.000000;0.827017
9512.000000;0.826946
9511.000000;0.826751
9510.000000;0.826553
9509.000000;0.826455
9508.000000;0.826501
9507.000000;0.826663
9506.000000;0.826834
9505.000000;0.826893
9504.000000;0.826789
9503.000000;0.826513
9502.000000;0.826050
9501.000000;0.825467
9500.000000;0.825013
9499.000000;0.824962
9498.000000;0.825302
9497.000000;0.825661
9496.000000;0.825610
9495.000000;0.825024
9494.000000;0.824167
9493.000000;0.823478
9492.000000;0.823274
9491.000000;0.823546
9490.000000;0.824016
9489.000000;0.824428
9488.000000;0.824752
9487.000000;0.825058
9486.000000;0.825274
9485.000000;0.825258
9484.000000;0.825054
9483.000000;0.824843
9482.000000;0.824626
9481.000000;0.824196
9480.000000;0.823521
9479.000000;0.822895
9478.000000;0.822560
9477.000000;0.822375
9476.000000;0.822097
9475.000000;0.821825
9474.000000;0.821924
9473.000000;0.822523
9472.000000;0.823320
9471.000000;0.823875
9470.000000;0.823960
9469.000000;0.823623
9468.000000;0.823099
9467.000000;0.822697
9466.000000;0.822636
9465.000000;0.822910
9464.000000;0.823328
9463.000000;0.823685
9462.000000;0.823834
9461.000000;0.823678
9460.000000;0.823232
9459.000000;0.822688
9458.000000;0.822301
9457.000000;0.822167
9456.000000;0.822192
9455.000000;0.822257
9454.000000;0.822334
9453.000000;0.822425
9452.000000;0.822518
9451.000000;0.822614
9450.000000;0.822716
9449.000000;0.822762
9448.000000;0.822661
9447.000000;0.822441
9446.000000;0.822241
9445.000000;0.822128
9444.000000;0.821982
9443.000000;0.821647
9442.000000;0.821132
9441.000000;0.820610
9440.000000;0.820271
9439.000000;0.820201
9438.000000;0.820342
9437.000000;0.820528
9436.000000;0.820582
9435.000000;0.820475
9434.000000;0.820362
9433.000000;0.820439
9432.000000;0.820763
9431.000000;0.821215
9430.000000;0.821581
9429.000000;0.821680
9428.000000;0.821474
9427.000000;0.821084
9426.000000;0.820671
9425.000000;0.820270
9424.000000;0.819798
9423.000000;0.819272
9422.000000;0.818921
9421.000000;0.818972
9420.000000;0.819352
9419.000000;0.819686
9418.000000;0.819668
9417.000000;0.819360
9416.000000;0.819100
9415.000000;0.819130
9414.000000;0.819392
9413.000000;0.819672
9412.000000;0.819865
9411.000000;0.820032
9410.000000;0.820192
9409.000000;0.820180
9408.000000;0.819785
9407.000000;0.819028
9406.000000;0.818229
9405.000000;0.817757
9404.000000;0.817741
9403.000000;0.818012
9402.000000;0.818288
9401.000000;0.818405
9400.000000;0.818395
9399.000000;0.818387
9398.000000;0.818484
9397.000000;0.818730
9396.000000;0.819107
9395.000000;0.819489
9394.000000;0.819642
9393.000000;0.819401
9392.000000;0.818895
9391.000000;0.818478
9390.000000;0.818361
9389.000000;0.818403
9388.000000;0.818360
9387.000000;0.818193
9386.000000;0.818006
9385.000000;0.817762
9384.000000;0.817304
9383.000000;0.816678
9382.000000;0.816192
9381.000000;0.816100
9380.000000;0.816370
9379.000000;0.816818
9378.000000;0.817304
9377.000000;0.817695
9376.000000;0.817801
9375.000000;0.817547
9374.000000;0.817130
9373.000000;0.816840
9372.000000;0.816760
9371.000000;0.816759
9370.000000;0.816745
9369.000000;0.816769
9368.000000;0.816875
9367.000000;0.816958
9366.000000;0.816850
9365.000000;0.816495
9364.000000;0.816037
9363.000000;0.815740
9362.000000;0.815792
9361.000000;0.816118
9360.000000;0.816424
9359.000000;0.816482
9358.000000;0.816349
9357.000000;0.816248
9356.000000;0.816306
9355.000000;0.816483
9354.000000;0.816680
9353.000000;0.816786
9352.000000;0.816664
9351.000000;0.816285
9350.000000;0.815869
9349.000000;0.815703
9348.000000;0.815774
9347.000000;0.815758
9346.000000;0.815462
9345.000000;0.815098
9344.000000;0.814992
9343.000000;0.815161
9342.000000;0.815340
9341.000000;0.815367
9340.000000;0.815335
9339.000000;0.815391
9338.000000;0.815507
9337.000000;0.815499
9336.000000;0.815187
9335.000000;0.814563
9334.000000;0.813877
9333.000000;0.813512
9332.000000;0.813636
9331.000000;0.813979
9330.000000;0.814078
9329.000000;0.813786
9328.000000;0.813399
9327.000000;0.813255
9326.000000;0.813365
9325.000000;0.813516
9324.000000;0.813595
9323.000000;0.813656
9322.000000;0.813740
9321.000000;0.813804
9320.000000;0.813820
9319.000000;0.813818
9318.000000;0.813786
9317.000000;0.813650
9316.000000;0.813406
9315.000000;0.813194
9314.000000;0.813154
9313.000000;0.813264
9312.000000;0.813381
9311.000000;0.813424
9310.000000;0.813450
9309.000000;0.813532
9308.000000;0.813608
9307.000000;0.813528
9306.000000;0.813211
9305.000000;0.812744
9304.000000;0.812296
9303.000000;0.811979
9302.000000;0.811818
9301.000000;0.811813
9300.000000;0.811975
9299.000000;0.812265
9298.000000;0.812542
9297.000000;0.812622
9296.000000;0.812418
9295.000000;0.812053
9294.000000;0.811784
9293.000000;0.811783
9292.000000;0.811954
9291.000000;0.812028
9290.000000;0.811889
9289.000000;0.811746
9288.000000;0.811881
9287.000000;0.812261
9286.000000;0.812528
9285.000000;0.812392
9284.000000;0.811931
9283.000000;0.811420
9282.000000;0.810984
9281.000000;0.810575
9280.000000;0.810217
9279.000000;0.810098
9278.000000;0.810361
9277.000000;0.810891
9276.000000;0.811365
9275.000000;0.811504
9274.000000;0.811257
9273.000000;0.810778
9272.000000;0.810282
9271.000000;0.809907
9270.000000;0.809692
9269.000000;0.809639
9268.000000;0.809726
9267.000000;0.809863
9266.000000;0.809923
9265.000000;0.809859
9264.000000;0.809749
9263.000000;0.809648
9262.000000;0.809484
9261.000000;0.809188
9260.000000;0.808868
9259.000000;0.808721
9258.000000;0.808799
9257.000000;0.808974
9256.000000;0.809148
9255.000000;0.809353
9254.000000;0.809599
9253.000000;0.809759
9252.000000;0.809682
9251.000000;0.809375
9250.000000;0.808996
9249.000000;0.808708
9248.000000;0.808570
9247.000000;0.808506
9246.000000;0.808383
9245.000000;0.808156
9244.000000;0.807944
9243.000000;0.807881
9242.000000;0.807927
9241.000000;0.807941
9240.000000;0.807930
9239.000000;0.808052
9238.000000;0.808306
9237.000000;0.808422
9236.000000;0.808207
9235.000000;0.807852
9234.000000;0.807728
9233.000000;0.807922
9232.000000;0.808178
9231.000000;0.808259
9230.000000;0.808201
9229.000000;0.808212
9228.000000;0.808421
9227.000000;0.808780
9226.000000;0.809084
9225.000000;0.809082
9224.000000;0.808676
9223.000000;0.808050
9222.000000;0.807530
9221.000000;0.807304
9220.000000;0.807331
9219.000000;0.807463
9218.000000;0.807553
9217.000000;0.807486
9216.000000;0.807246
9215.000000;0.806999
9214.000000;0.806974
9213.000000;0.807194
9212.000000;0.807439
9211.000000;0.807502
9210.000000;0.807376
9209.000000;0.807144
9208.000000;0.806809
9207.000000;0.806374
9206.000000;0.805967
9205.000000;0.805759
9204.000000;0.805774
9203.000000;0.805890
9202.000000;0.806008
9201.000000;0.806123
9200.000000;0.806226
9199.000000;0.806254
9198.000000;0.806180
9197.000000;0.806061
9196.000000;0.805950
9195.000000;0.805793
9194.000000;0.805480
9193.000000;0.805000
9192.000000;0.804499
9191.000000;0.804183
9190.000000;0.804162
9189.000000;0.804376
9188.000000;0.804659
9187.000000;0.804874
9186.000000;0.804985
9185.000000;0.805035
9184.000000;0.805066
9183.000000;0.805078
9182.000000;0.805032
9181.000000;0.804887
9180.000000;0.804640
9179.000000;0.804366
9178.000000;0.804181
9177.000000;0.804163
9176.000000;0.804285
9175.000000;0.804439
9174.000000;0.804529
9173.000000;0.804533
9172.000000;0.804479
9171.000000;0.804383
9170.000000;0.804221
9169.000000;0.803973
9168.000000;0.803673
9167.000000;0.803393
9166.000000;0.803185
9165.000000;0.803084
9164.000000;0.803130
9163.000000;0.803333
9162.000000;0.803583
9161.000000;0.803685
9160.000000;0.803552
9159.000000;0.803327
9158.000000;0.803242
9157.000000;0.803385
9156.000000;0.803645
9155.000000;0.803850
9154.000000;0.803885
9153.000000;0.803724
9152.000000;0.803444
9151.000000;0.803216
9150.000000;0.803179
9149.000000;0.803273
9148.000000;0.803292
9147.000000;0.803110
9146.000000;0.802809
9145.000000;0.802556
9144.000000;0.802441
9143.000000;0.802444
9142.000000;0.802492
9141.000000;0.802499
9140.000000;0.802409
9139.000000;0.802267
9138.000000;0.802181
9137.000000;0.802173
9136.000000;0.802138
9135.000000;0.802002
9134.000000;0.801829
9133.000000;0.801723
9132.000000;0.801679
9131.000000;0.801623
9130.000000;0.801556
9129.000000;0.801562
9128.000000;0.801700
9127.000000;0.801948
9126.000000;0.802220
9125.000000;0.802370
9124.000000;0.802225
9123.000000;0.801742
9122.000000;0.801122
9121.000000;0.800698
9120.000000;0.800669
9119.000000;0.800992
9118.000000;0.801483
9117.000000;0.801920
9116.000000;0.802080
9115.000000;0.801831
9114.000000;0.801278
9113.000000;0.800721
9112.000000;0.800390
9111.000000;0.800245
9110.000000;0.800102
9109.000000;0.799899
9108.000000;0.799751
9107.000000;0.799771
9106.000000;0.799907
9105.000000;0.799997
9104.000000;0.799943
9103.000000;0.799798
9102.000000;0.799687
9101.000000;0.799663
9100.000000;0.799667
9099.000000;0.799626
9098.000000;0.799546
9097.000000;0.799480
9096.000000;0.799429
9095.000000;0.799354
9094.000000;0.799261
9093.000000;0.799208
9092.000000;0.799196
9091.000000;0.799135
9090.000000;0.798976
9089.000000;0.798822
9088.000000;0.798846
9087.000000;0.799103
9086.000000;0.799460
9085.000000;0.799706
9084.000000;0.799717
9083.000000;0.799538
9082.000000;0.799339
9081.000000;0.799271
9080.000000;0.799325
9079.000000;0.799325
9078.000000;0.799100
9077.000000;0.798650
9076.000000;0.798148
9075.000000;0.797808
9074.000000;0.797756
9073.000000;0.797971
9072.000000;0.798281
9071.000000;0.798451
9070.000000;0.798355
9069.000000;0.798081
9068.000000;0.797857
9067.000000;0.797855
9066.000000;0.798087
9065.000000;0.798427
9064.000000;0.798685
9063.000000;0.798698
9062.000000;0.798428
9061.000000;0.798022
9060.000000;0.797707
9059.000000;0.797632
9058.000000;0.797787
9057.000000;0.798060
9056.000000;0.798282
9055.000000;0.798270
9054.000000;0.797932
9053.000000;0.797362
9052.000000;0.796786
9051.000000;0.796375
9050.000000;0.796154
9049.000000;0.796092
9048.000000;0.796167
9047.000000;0.796298
9046.000000;0.796328
9045.000000;0.796198
9044.000000;0.796063
9043.000000;0.796120
9042.000000;0.796339
9041.000000;0.796482
9040.000000;0.796382
9039.000000;0.796116
9038.000000;0.795873
9037.000000;0.795757
9036.000000;0.795753
9035.000000;0.795817
9034.000000;0.795909
9033.000000;0.795976
9032.000000;0.795981
9031.000000;0.795934
9030.000000;0.795884
9029.000000;0.795871
9028.000000;0.795895
9027.000000;0.795929
9026.000000;0.795917
9025.000000;0.795790
9024.000000;0.795490
9023.000000;0.795011
9022.000000;0.794422
9021.000000;0.793871
9020.000000;0.793542
9019.000000;0.793544
9018.000000;0.793841
9017.000000;0.794264
9016.000000;0.794621
9015.000000;0.794783
9014.000000;0.794732
9013.000000;0.794570
9012.000000;0.794467
9011.000000;0.794520
9010.000000;0.794652
9009.000000;0.794677
9008.000000;0.794489
9007.000000;0.794167
9006.000000;0.793885
9005.000000;0.793759
9004.000000;0.793789
9003.000000;0.793892
9002.000000;0.793969
9001.000000;0.793968
9000.000000;0.793921
8999.000000;0.793889
8998.000000;0.793886
8997.000000;0.793886
8996.000000;0.793890
8995.000000;0.793934
8994.000000;0.794009
8993.000000;0.794041
8992.000000;0.793986
8991.000000;0.793903
8990.000000;0.793873
8989.000000;0.793900
8988.000000;0.793918
8987.000000;0.793878
8986.000000;0.793807
8985.000000;0.793768
8984.000000;0.793812
8983.000000;0.793919
8982.000000;0.793994
8981.000000;0.793929
8980.000000;0.793695
8979.000000;0.793362
8978.000000;0.793035
8977.000000;0.792811
8976.000000;0.792767
8975.000000;0.792904
8974.000000;0.793084
8973.000000;0.793127
8972.000000;0.792986
8971.000000;0.792782
8970.000000;0.792619
8969.000000;0.792478
8968.000000;0.792330
8967.000000;0.792242
8966.000000;0.792256
8965.000000;0.792267
8964.000000;0.792137
8963.000000;0.791892
8962.000000;0.791674
8961.000000;0.791544
8960.000000;0.791458
8959.000000;0.791399
8958.000000;0.791405
8957.000000;0.791443
8956.000000;0.791394
8955.000000;0.791220
8954.000000;0.791048
8953.000000;0.791011
8952.000000;0.791079
8951.000000;0.791108
8950.000000;0.791018
8949.000000;0.790879
8948.000000;0.790828
8947.000000;0.790930
8946.000000;0.791096
8945.000000;0.791147
8944.000000;0.790979
8943.000000;0.790673
8942.000000;0.790428
8941.000000;0.790377
8940.000000;0.790496
8939.000000;0.790660
8938.000000;0.790761
8937.000000;0.790769
8936.000000;0.790740
8935.000000;0.790730
8934.000000;0.790705
8933.000000;0.790533
8932.000000;0.790137
8931.000000;0.789633
8930.000000;0.789285
8929.000000;0.789299
8928.000000;0.789661
8927.000000;0.790129
8926.000000;0.790363
8925.000000;0.790158
8924.000000;0.789637
8923.000000;0.789160
8922.000000;0.788977
8921.000000;0.789008
8920.000000;0.789026
8919.000000;0.788981
8918.000000;0.789003
8917.000000;0.789151
8916.000000;0.789338
8915.000000;0.789470
8914.000000;0.789534
8913.000000;0.789523
8912.000000;0.789406
8911.000000;0.789220
8910.000000;0.789043
8909.000000;0.788867
8908.000000;0.788621
8907.000000;0.788350
8906.000000;0.788224
8905.000000;0.788310
8904.000000;0.788469
8903.000000;0.788546
8902.000000;0.788525
8901.000000;0.788439
8900.000000;0.788255
8899.000000;0.787968
8898.000000;0.787682
8897.000000;0.787493
8896.000000;0.787360
8895.000000;0.787205
8894.000000;0.787059
8893.000000;0.787017
8892.000000;0.787108
8891.000000;0.787301
8890.000000;0.787556
8889.000000;0.787777
8888.000000;0.787808
8887.000000;0.787612
8886.000000;0.787389
8885.000000;0.787380
8884.000000;0.787595
8883.000000;0.787840
8882.000000;0.787964
8881.000000;0.787940
8880.000000;0.787759
8879.000000;0.787427
8878.000000;0.787080
8877.000000;0.786918
8876.000000;0.786983
8875.000000;0.787099
8874.000000;0.787113
8873.000000;0.787082
8872.000000;0.787145
8871.000000;0.787276
8870.000000;0.787280
8869.000000;0.787022
8868.000000;0.786608
8867.000000;0.786311
8866.000000;0.786317
8865.000000;0.786552
8864.000000;0.786773
8863.000000;0.786813
8862.000000;0.786688
8861.000000;0.786480
8860.000000;0.786205
8859.000000;0.785884
8858.000000;0.785656
8857.000000;0.785688
8856.000000;0.785983
8855.000000;0.786332
8854.000000;0.786490
8853.000000;0.786365
8852.000000;0.786057
8851.000000;0.785781
8850.000000;0.785707
8849.000000;0.785825
8848.000000;0.785945
8847.000000;0.785889
8846.000000;0.785672
8845.000000;0.785453
8844.000000;0.785332
8843.000000;0.785272
8842.000000;0.785193
8841.000000;0.785073
8840.000000;0.784962
8839.000000;0.784959
8838.000000;0.785156
8837.000000;0.785541
8836.000000;0.785945
8835.000000;0.786156
8834.000000;0.786101
8833.000000;0.785874
8832.000000;0.785597
8831.000000;0.785320
8830.000000;0.785018
8829.000000;0.784645
8828.000000;0.784200
8827.000000;0.783800
8826.000000;0.783655
8825.000000;0.783877
8824.000000;0.784319
8823.000000;0.784674
8822.000000;0.784752
8821.000000;0.784590
8820.000000;0.784317
8819.000000;0.784017
8818.000000;0.783762
8817.000000;0.783659
8816.000000;0.783783
8815.000000;0.784082
8814.000000;0.784376
8813.000000;0.784458
8812.000000;0.784228
8811.000000;0.783792
8810.000000;0.783393
8809.000000;0.783186
8808.000000;0.783093
8807.000000;0.782952
8806.000000;0.782761
8805.000000;0.782675
8804.000000;0.782767
8803.000000;0.782917
8802.000000;0.782955
8801.000000;0.782825
8800.000000;0.782585
8799.000000;0.782343
8798.000000;0.782224
8797.000000;0.782312
8796.000000;0.782573
8795.000000;0.782899
8794.000000;0.783217
8793.000000;0.783482
8792.000000;0.783585
8791.000000;0.783412
8790.000000;0.783038
8789.000000;0.782708
8788.000000;0.782547
8787.000000;0.782415
8786.000000;0.782131
8785.000000;0.781761
8784.000000;0.781546
8783.000000;0.781623
8782.000000;0.781902
8781.000000;0.782175
8780.000000;0.782271
8779.000000;0.782153
8778.000000;0.781952
8777.000000;0.781874
8776.000000;0.781992
8775.000000;0.782166
8774.000000;0.782216
8773.000000;0.782126
8772.000000;0.781995
8771.000000;0.781850
8770.000000;0.781624
8769.000000;0.781302
8768.000000;0.780985
8767.000000;0.780787
8766.000000;0.780735
8765.000000;0.780774
8764.000000;0.780813
8763.000000;0.780790
8762.000000;0.780729
8761.000000;0.780724
8760.000000;0.780800
8759.000000;0.780818
8758.000000;0.780622
8757.000000;0.780269
8756.000000;0.780016
8755.000000;0.780043
8754.000000;0.780253
8753.000000;0.780406
8752.000000;0.780387
8751.000000;0.780284
8750.000000;0.780234
8749.000000;0.780272
8748.000000;0.780360
8747.000000;0.780508
8746.000000;0.780766
8745.000000;0.781087
8744.000000;0.781276
8743.000000;0.781174
8742.000000;0.780871
8741.000000;0.780633
8740.000000;0.780594
8739.000000;0.780605
8738.000000;0.780451
8737.000000;0.780128
8736.000000;0.779815
8735.000000;0.779651
8734.000000;0.779620
8733.000000;0.779639
8732.000000;0.779645
8731.000000;0.779605
8730.000000;0.779506
8729.000000;0.779362
8728.000000;0.779195
8727.000000;0.779020
8726.000000;0.778880
8725.000000;0.778858
8724.000000;0.779005
8723.000000;0.779253
8722.000000;0.779469
8721.000000;0.779583
8720.000000;0.779609
8719.000000;0.779575
8718.000000;0.779503
8717.000000;0.779455
8716.000000;0.779485
8715.000000;0.779542
8714.000000;0.779493
8713.000000;0.779274
8712.000000;0.778972
8711.000000;0.778729
8710.000000;0.778612
8709.000000;0.778610
8708.000000;0.778676
8707.000000;0.778745
8706.000000;0.778764
8705.000000;0.778751
8704.000000;0.778783
8703.000000;0.778866
8702.000000;0.778876
8701.000000;0.778680
8700.000000;0.778327
8699.000000;0.778039
8698.000000;0.778013
8697.000000;0.778239
8696.000000;0.778518
8695.000000;0.778643
8694.000000;0.778556
8693.000000;0.778390
8692.000000;0.778332
8691.000000;0.778444
8690.000000;0.778592
8689.000000;0.778575
8688.000000;0.778324
8687.000000;0.777972
8686.000000;0.777717
8685.000000;0.777639
8684.000000;0.777669
8683.000000;0.777712
8682.000000;0.777740
8681.000000;0.777766
8680.000000;0.777767
8679.000000;0.777706
8678.000000;0.777597
8677.000000;0.777489
8676.000000;0.777397
8675.000000;0.777290
8674.000000;0.777172
8673.000000;0.777095
8672.000000;0.777062
8671.000000;0.776969
8670.000000;0.776723
8669.000000;0.776362
8668.000000;0.776015
8667.000000;0.775766
8666.000000;0.775633
8665.000000;0.775651
8664.000000;0.775868
8663.000000;0.776227
8662.000000;0.776564
8661.000000;0.776747
8660.000000;0.776796
8659.000000;0.776791
8658.000000;0.776722
8657.000000;0.776504
8656.000000;0.776117
8655.000000;0.775687
8654.000000;0.775389
8653.000000;0.775317
8652.000000;0.775446
8651.000000;0.775687
8650.000000;0.775943
8649.000000;0.776125
8648.000000;0.776149
8647.000000;0.775968
8646.000000;0.775626
8645.000000;0.775279
8644.000000;0.775109
8643.000000;0.775171
8642.000000;0.775332
8641.000000;0.775380
8640.000000;0.775219
8639.000000;0.774957
8638.000000;0.774786
8637.000000;0.774798
8636.000000;0.774934
8635.000000;0.775074
8634.000000;0.775136
8633.000000;0.775062
8632.000000;0.774808
8631.000000;0.774406
8630.000000;0.774022
8629.000000;0.773864
8628.000000;0.773977
8627.000000;0.774179
8626.000000;0.774245
8625.000000;0.774109
8624.000000;0.773882
8623.000000;0.773699
8622.000000;0.773624
8621.000000;0.773642
8620.000000;0.773681
8619.000000;0.773640
8618.000000;0.773456
8617.000000;0.773172
8616.000000;0.772905
8615.000000;0.772733
8614.000000;0.772640
8613.000000;0.772588
8612.000000;0.772570
8611.000000;0.772579
8610.000000;0.772571
8609.000000;0.772502
8608.000000;0.772374
8607.000000;0.772204
8606.000000;0.771981
8605.000000;0.771705
8604.000000;0.771452
8603.000000;0.771334
8602.000000;0.771394
8601.000000;0.771571
8600.000000;0.771763
8599.000000;0.771882
8598.000000;0.771852
8597.000000;0.771652
8596.000000;0.771385
8595.000000;0.771219
8594.000000;0.771204
8593.000000;0.771188
8592.000000;0.770996
8591.000000;0.770659
8590.000000;0.770382
8589.000000;0.770302
8588.000000;0.770360
8587.000000;0.770405
8586.000000;0.770339
8585.000000;0.770147
8584.000000;0.769887
8583.000000;0.769678
8582.000000;0.769638
8581.000000;0.769733
8580.000000;0.769776
8579.000000;0.769636
8578.000000;0.769407
8577.000000;0.769282
8576.000000;0.769314
8575.000000;0.769379
8574.000000;0.769354
8573.000000;0.769242
8572.000000;0.769100
8571.000000;0.768961
8570.000000;0.768849
8569.000000;0.768792
8568.000000;0.768783
8567.000000;0.768752
8566.000000;0.768628
8565.000000;0.768395
8564.000000;0.768092
8563.000000;0.767787
8562.000000;0.767561
8561.000000;0.767448
8560.000000;0.767402
8559.000000;0.767356
8558.000000;0.767320
8557.000000;0.767349
8556.000000;0.767425
8555.000000;0.767452
8554.000000;0.767401
8553.000000;0.767358
8552.000000;0.767378
8551.000000;0.767377
8550.000000;0.767239
8549.000000;0.766997
8548.000000;0.766808
8547.000000;0.766766
8546.000000;0.766806
8545.000000;0.766793
8544.000000;0.766650
8543.000000;0.766391
8542.000000;0.766070
8541.000000;0.765740
8540.000000;0.765444
8539.000000;0.765235
8538.000000;0.765175
8537.000000;0.765290
8536.000000;0.765514
8535.000000;0.765724
8534.000000;0.765830
8533.000000;0.765827
8532.000000;0.765759
8531.000000;0.765677
8530.000000;0.765603
8529.000000;0.765521
8528.000000;0.765386
8527.000000;0.765187
8526.000000;0.765006
8525.000000;0.764926
8524.000000;0.764899
8523.000000;0.764793
8522.000000;0.764583
8521.000000;0.764404
8520.000000;0.764356
8519.000000;0.764363
8518.000000;0.764303
8517.000000;0.764184
8516.000000;0.764094
8515.000000;0.764046
8514.000000;0.763975
8513.000000;0.763869
8512.000000;0.763774
8511.000000;0.763691
8510.000000;0.763578
8509.000000;0.763471
8508.000000;0.763474
8507.000000;0.763592
8506.000000;0.763661
8505.000000;0.763506
8504.000000;0.763149
8503.000000;0.762793
8502.000000;0.762616
8501.000000;0.762592
8500.000000;0.762526
8499.000000;0.762267
8498.000000;0.761892
8497.000000;0.761630
8496.000000;0.761621
8495.000000;0.761793
8494.000000;0.761990
8493.000000;0.762152
8492.000000;0.762279
8491.000000;0.762311
8490.000000;0.762167
8489.000000;0.761901
8488.000000;0.761703
8487.000000;0.761717
8486.000000;0.761884
8485.000000;0.761994
8484.000000;0.761878
8483.000000;0.761548
8482.000000;0.761202
8481.000000;0.761048
8480.000000;0.761101
8479.000000;0.761162
8478.000000;0.761045
8477.000000;0.760765
8476.000000;0.760449
8475.000000;0.760148
8474.000000;0.759844
8473.000000;0.759606
8472.000000;0.759576
8471.000000;0.759782
8470.000000;0.760078
8469.000000;0.760301
8468.000000;0.760398
8467.000000;0.760379
8466.000000;0.760245
8465.000000;0.760034
8464.000000;0.759853
8463.000000;0.759785
8462.000000;0.759823
8461.000000;0.759906
8460.000000;0.759967
8459.000000;0.759917
8458.000000;0.759662
8457.000000;0.759207
8456.000000;0.758703
8455.000000;0.758325
8454.000000;0.758149
8453.000000;0.758146
8452.000000;0.758252
8451.000000;0.758385
8450.000000;0.758454
8449.000000;0.758424
8448.000000;0.758329
8447.000000;0.758221
8446.000000;0.758120
8445.000000;0.758041
8444.000000;0.758009
8443.000000;0.757996
8442.000000;0.757914
8441.000000;0.757728
8440.000000;0.757522
8439.000000;0.757416
8438.000000;0.757441
8437.000000;0.757542
8436.000000;0.757657
8435.000000;0.757726
8434.000000;0.757677
8433.000000;0.757484
8432.000000;0.757231
8431.000000;0.757039
8430.000000;0.756940
8429.000000;0.756864
8428.000000;0.756733
8427.000000;0.756536
8426.000000;0.756331
8425.000000;0.756202
8424.000000;0.756201
8423.000000;0.756284
8422.000000;0.756317
8421.000000;0.756202
8420.000000;0.755971
8419.000000;0.755724
8418.000000;0.755494
8417.000000;0.755243
8416.000000;0.754970
8415.000000;0.754765
8414.000000;0.754734
8413.000000;0.754893
8412.000000;0.755136
8411.000000;0.755293
8410.000000;0.755251
8409.000000;0.755062
8408.000000;0.754910
8407.000000;0.754920
8406.000000;0.754997
8405.000000;0.754938
8404.000000;0.754694
8403.000000;0.754433
8402.000000;0.754343
8401.000000;0.754428
8400.000000;0.754544
8399.000000;0.754575
8398.000000;0.754502
8397.000000;0.754354
8396.000000;0.754174
8395.000000;0.754020
8394.000000;0.753940
8393.000000;0.753919
8392.000000;0.753900
8391.000000;0.753865
8390.000000;0.753838
8389.000000;0.753803
8388.000000;0.753686
8387.000000;0.753456
8386.000000;0.753208
8385.000000;0.753068
8384.000000;0.753038
8383.000000;0.752989
8382.000000;0.752814
8381.000000;0.752547
8380.000000;0.752315
8379.000000;0.752227
8378.000000;0.752308
8377.000000;0.752486
8376.000000;0.752612
8375.000000;0.752567
8374.000000;0.752379
8373.000000;0.752219
8372.000000;0.752231
8371.000000;0.752391
8370.000000;0.752564
8369.000000;0.752634
8368.000000;0.752528
8367.000000;0.752194
8366.000000;0.751677
8365.000000;0.751174
8364.000000;0.750901
8363.000000;0.750859
8362.000000;0.750839
8361.000000;0.750684
8360.000000;0.750470
8359.000000;0.750377
8358.000000;0.750449
8357.000000;0.750583
8356.000000;0.750670
8355.000000;0.750683
8354.000000;0.750627
8353.000000;0.750495
8352.000000;0.750301
8351.000000;0.750105
8350.000000;0.749967
8349.000000;0.749888
8348.000000;0.749807
8347.000000;0.749674
8346.000000;0.749514
8345.000000;0.749403
8344.000000;0.749377
8343.000000;0.749391
8342.000000;0.749366
8341.000000;0.749269
8340.000000;0.749111
8339.000000;0.748927
8338.000000;0.748776
8337.000000;0.748742
8336.000000;0.748844
8335.000000;0.748962
8334.000000;0.748947
8333.000000;0.748804
8332.000000;0.748687
8331.000000;0.748687
8330.000000;0.748703
8329.000000;0.748591
8328.000000;0.748361
8327.000000;0.748140
8326.000000;0.747998
8325.000000;0.747890
8324.000000;0.747763
8323.000000;0.747644
8322.000000;0.747592
8321.000000;0.747615
8320.000000;0.747648
8319.000000;0.747604
8318.000000;0.747451
8317.000000;0.747237
8316.000000;0.747050
8315.000000;0.746944
8314.000000;0.746904
8313.000000;0.746894
8312.000000;0.746887
8311.000000;0.746860
8310.000000;0.746794
8309.000000;0.746709
8308.000000;0.746656
8307.000000;0.746637
8306.000000;0.746585
8305.000000;0.746458
8304.000000;0.746308
8303.000000;0.746222
8302.000000;0.746192
8301.000000;0.746119
8300.000000;0.745934
8299.000000;0.745679
8298.000000;0.745487
8297.000000;0.745471
8296.000000;0.745632
8295.000000;0.745839
8294.000000;0.745924
8293.000000;0.745828
8292.000000;0.745654
8291.000000;0.745535
8290.000000;0.745495
8289.000000;0.745451
8288.000000;0.745318
8287.000000;0.745086
8286.000000;0.744800
8285.000000;0.744520
8284.000000;0.744307
8283.000000;0.744199
8282.000000;0.744197
8281.000000;0.744290
8280.000000;0.744467
8279.000000;0.744682
8278.000000;0.744835
8277.000000;0.744825
8276.000000;0.744627
8275.000000;0.744304
8274.000000;0.743945
8273.000000;0.743619
8272.000000;0.743381
8271.000000;0.743274
8270.000000;0.743321
8269.000000;0.743508
8268.000000;0.743776
8267.000000;0.744015
8266.000000;0.744097
8265.000000;0.743967
8264.000000;0.743694
8263.000000;0.743419
8262.000000;0.743248
8261.000000;0.743193
8260.000000;0.743189
8259.000000;0.743157
8258.000000;0.743058
8257.000000;0.742916
8256.000000;0.742761
8255.000000;0.742579
8254.000000;0.742358
8253.000000;0.742177
8252.000000;0.742167
8251.000000;0.742356
8250.000000;0.742611
8249.000000;0.742771
8248.000000;0.742793
8247.000000;0.742712
8246.000000;0.742543
8245.000000;0.742291
8244.000000;0.742029
8243.000000;0.741849
8242.000000;0.741754
8241.000000;0.741676
8240.000000;0.741589
8239.000000;0.741545
8238.000000;0.741569
8237.000000;0.741608
8236.000000;0.741583
8235.000000;0.741438
8234.000000;0.741156
8233.000000;0.740771
8232.000000;0.740392
8231.000000;0.740144
8230.000000;0.740065
8229.000000;0.740096
8228.000000;0.740173
8227.000000;0.740264
8226.000000;0.740331
8225.000000;0.740321
8224.000000;0.740240
8223.000000;0.740164
8222.000000;0.740153
8221.000000;0.740179
8220.000000;0.740199
8219.000000;0.740221
8218.000000;0.740271
8217.000000;0.740303
8216.000000;0.740220
8215.000000;0.739990
8214.000000;0.739706
8213.000000;0.739511
8212.000000;0.739453
8211.000000;0.739455
8210.000000;0.739410
8209.000000;0.739311
8208.000000;0.739255
8207.000000;0.739309
8206.000000;0.739419
8205.000000;0.739488
8204.000000;0.739484
8203.000000;0.739446
8202.000000;0.739375
8201.000000;0.739223
8200.000000;0.738989
8199.000000;0.738771
8198.000000;0.738672
8197.000000;0.738675
8196.000000;0.738666
8195.000000;0.738563
8194.000000;0.738414
8193.000000;0.738335
8192.000000;0.738357
8191.000000;0.738360
8190.000000;0.738181
8189.000000;0.737815
8188.000000;0.737455
8187.000000;0.737294
8186.000000;0.737308
8185.000000;0.737307
8184.000000;0.737168
8183.000000;0.736962
8182.000000;0.736847
8181.000000;0.736896
8180.000000;0.737065
8179.000000;0.737259
8178.000000;0.737403
8177.000000;0.737446
8176.000000;0.737358
8175.000000;0.737132
8174.000000;0.736818
8173.000000;0.736554
8172.000000;0.736502
8171.000000;0.736699
8170.000000;0.736973
8169.000000;0.737086
8168.000000;0.736949
8167.000000;0.736683
8166.000000;0.736437
8165.000000;0.736251
8164.000000;0.736080
8163.000000;0.735882
8162.000000;0.735650
8161.000000;0.735415
8160.000000;0.735269
8159.000000;0.735308
8158.000000;0.735529
8157.000000;0.735787
8156.000000;0.735919
8155.000000;0.735872
8154.000000;0.735696
8153.000000;0.735463
8152.000000;0.735235
8151.000000;0.735079
8150.000000;0.735020
8149.000000;0.734997
8148.000000;0.734912
8147.000000;0.734730
8146.000000;0.734516
8145.000000;0.734377
8144.000000;0.734394
8143.000000;0.734575
8142.000000;0.734830
8141.000000;0.734999
8140.000000;0.734970
8139.000000;0.734779
8138.000000;0.734566
8137.000000;0.734430
8136.000000;0.734367
8135.000000;0.734312
8134.000000;0.734227
8133.000000;0.734113
8132.000000;0.733988
8131.000000;0.733858
8130.000000;0.733720
8129.000000;0.733570
8128.000000;0.733424
8127.000000;0.733323
8126.000000;0.733292
8125.000000;0.733305
8124.000000;0.733299
8123.000000;0.733222
8122.000000;0.733076
8121.000000;0.732908
8120.000000;0.732788
8119.000000;0.732769
8118.000000;0.732857
8117.000000;0.732993
8116.000000;0.733082
8115.000000;0.733050
8114.000000;0.732891
8113.000000;0.732683
8112.000000;0.732537
8111.000000;0.732504
8110.000000;0.732523
8109.000000;0.732478
8108.000000;0.732322
8107.000000;0.732113
8106.000000;0.731937
8105.000000;0.731835
8104.000000;0.731804
8103.000000;0.731842
8102.000000;0.731937
8101.000000;0.732045
8100.000000;0.732111
8099.000000;0.732117
8098.000000;0.732067
8097.000000;0.731952
8096.000000;0.731761
8095.000000;0.731524
8094.000000;0.731307
8093.000000;0.731144
8092.000000;0.731014
8091.000000;0.730883
8090.000000;0.730752
8089.000000;0.730650
8088.000000;0.730609
8087.000000;0.730646
8086.000000;0.730731
8085.000000;0.730783
8084.000000;0.730716
8083.000000;0.730530
8082.000000;0.730338
8081.000000;0.730273
8080.000000;0.730361
8079.000000;0.730495
8078.000000;0.730522
8077.000000;0.730363
8076.000000;0.730063
8075.000000;0.729741
8074.000000;0.729506
8073.000000;0.729386
8072.000000;0.729350
8071.000000;0.729371
8070.000000;0.729451
8069.000000;0.729563
8068.000000;0.729614
8067.000000;0.729516
8066.000000;0.729306
8065.000000;0.729144
8064.000000;0.729146
8063.000000;0.729249
8062.000000;0.729285
8061.000000;0.729173
8060.000000;0.729000
8059.000000;0.728894
8058.000000;0.728867
8057.000000;0.728816
8056.000000;0.728664
8055.000000;0.728446
8054.000000;0.728256
8053.000000;0.728147
8052.000000;0.728091
8051.000000;0.728032
8050.000000;0.727953
8049.000000;0.727898
8048.000000;0.727932
8047.000000;0.728067
8046.000000;0.728246
8045.000000;0.728381
8044.000000;0.728414
8043.000000;0.728329
8042.000000;0.728163
8041.000000;0.728003
8040.000000;0.727941
8039.000000;0.727982
8038.000000;0.728020
8037.000000;0.727939
8036.000000;0.727730
8035.000000;0.727478
8034.000000;0.727263
8033.000000;0.727103
8032.000000;0.727003
8031.000000;0.726979
8030.000000;0.727022
8029.000000;0.727085
8028.000000;0.727119
8027.000000;0.727109
8026.000000;0.727064
8025.000000;0.727009
8024.000000;0.726992
8023.000000;0.727034
8022.000000;0.727070
8021.000000;0.727000
8020.000000;0.726816
8019.000000;0.726632
8018.000000;0.726539
8017.000000;0.726483
8016.000000;0.726355
8015.000000;0.726151
8014.000000;0.725990
8013.000000;0.725967
8012.000000;0.726065
8011.000000;0.726202
8010.000000;0.726317
8009.000000;0.726367
8008.000000;0.726311
8007.000000;0.726135
8006.000000;0.725887
8005.000000;0.725666
8004.000000;0.725555
8003.000000;0.725564
8002.000000;0.725621
8001.000000;0.725621
8000.000000;0.725512
7999.000000;0.725332
7998.000000;0.725160
7997.000000;0.725040
7996.000000;0.724963
7995.000000;0.724914
7994.000000;0.724886
7993.000000;0.724860
7992.000000;0.724803
7991.000000;0.724694
7990.000000;0.724551
7989.000000;0.724406
7988.000000;0.724282
7987.000000;0.724199
7986.000000;0.724167
7985.000000;0.724172
7984.000000;0.724182
7983.000000;0.724183
7982.000000;0.724196
7981.000000;0.724239
7980.000000;0.724284
7979.000000;0.724282
7978.000000;0.724209
7977.000000;0.724088
7976.000000;0.723957
7975.000000;0.723842
7974.000000;0.723756
7973.000000;0.723700
7972.000000;0.723647
7971.000000;0.723548
7970.000000;0.723385
7969.000000;0.723212
7968.000000;0.723114
7967.000000;0.723121
7966.000000;0.723172
7965.000000;0.723187
7964.000000;0.723145
7963.000000;0.723068
7962.000000;0.722967
7961.000000;0.722824
7960.000000;0.722655
7959.000000;0.722527
7958.000000;0.722501
7957.000000;0.722565
7956.000000;0.722651
7955.000000;0.722688
7954.000000;0.722640
7953.000000;0.722508
7952.000000;0.722333
7951.000000;0.722170
7950.000000;0.722056
7949.000000;0.721983
7948.000000;0.721923
7947.000000;0.721864
7946.000000;0.721806
7945.000000;0.721750
7944.000000;0.721701
7943.000000;0.721679
7942.000000;0.721692
7941.000000;0.721700
7940.000000;0.721635
7939.000000;0.721468
7938.000000;0.721261
7937.000000;0.721131
7936.000000;0.721149
7935.000000;0.721263
7934.000000;0.721326
7933.000000;0.721222
7932.000000;0.720977
7931.000000;0.720735
7930.000000;0.720629
7929.000000;0.720676
7928.000000;0.720799
7927.000000;0.720905
7926.000000;0.720924
7925.000000;0.720824
7924.000000;0.720631
7923.000000;0.720436
7922.000000;0.720339
7921.000000;0.720362
7920.000000;0.720434
7919.000000;0.720482
7918.000000;0.720494
7917.000000;0.720494
7916.000000;0.720472
7915.000000;0.720378
7914.000000;0.720187
7913.000000;0.719937
7912.000000;0.719711
7911.000000;0.719567
7910.000000;0.719501
7909.000000;0.719472
7908.000000;0.719452
7907.000000;0.719444
7906.000000;0.719462
7905.000000;0.719495
7904.000000;0.719511
7903.000000;0.719493
7902.000000;0.719451
7901.000000;0.719412
7900.000000;0.719396
7899.000000;0.719403
7898.000000;0.719403
7897.000000;0.719345
7896.000000;0.719205
7895.000000;0.719020
7894.000000;0.718863
7893.000000;0.718763
7892.000000;0.718683
7891.000000;0.718574
7890.000000;0.718453
7889.000000;0.718395
7888.000000;0.718455
7887.000000;0.718610
7886.000000;0.718772
7885.000000;0.718839
7884.000000;0.718756
7883.000000;0.718545
7882.000000;0.718285
7881.000000;0.718049
7880.000000;0.717854
7879.000000;0.717677
7878.000000;0.717506
7877.000000;0.717374
7876.000000;0.717317
7875.000000;0.717318
7874.000000;0.717313
7873.000000;0.717265
7872.000000;0.717207
7871.000000;0.717215
7870.000000;0.717318
7869.000000;0.717466
7868.000000;0.717573
7867.000000;0.717579
7866.000000;0.717479
7865.000000;0.717288
7864.000000;0.717038
7863.000000;0.716791
7862.000000;0.716631
7861.000000;0.716601
7860.000000;0.716647
7859.000000;0.716657
7858.000000;0.716577
7857.000000;0.716466
7856.000000;0.716418
7855.000000;0.716445
7854.000000;0.716470
7853.000000;0.716436
7852.000000;0.716361
7851.000000;0.716299
7850.000000;0.716255
7849.000000;0.716186
7848.000000;0.716060
7847.000000;0.715899
7846.000000;0.715765
7845.000000;0.715715
7844.000000;0.715744
7843.000000;0.715778
7842.000000;0.715722
7841.000000;0.715551
7840.000000;0.715339
7839.000000;0.715186
7838.000000;0.715131
7837.000000;0.715144
7836.000000;0.715191
7835.000000;0.715261
7834.000000;0.715334
7833.000000;0.715368
7832.000000;0.715334
7831.000000;0.715247
7830.000000;0.715133
7829.000000;0.715006
7828.000000;0.714867
7827.000000;0.714732
7826.000000;0.714631
7825.000000;0.714583
7824.000000;0.714582
7823.000000;0.714595
7822.000000;0.714573
7821.000000;0.714478
7820.000000;0.714317
7819.000000;0.714146
7818.000000;0.714028
7817.000000;0.713987
7816.000000;0.713989
7815.000000;0.713972
7814.000000;0.713897
7813.000000;0.713785
7812.000000;0.713707
7811.000000;0.713715
7810.000000;0.713790
7809.000000;0.713873
7808.000000;0.713922
7807.000000;0.713925
7806.000000;0.713853
7805.000000;0.713672
7804.000000;0.713406
7803.000000;0.713159
7802.000000;0.713026
7801.000000;0.713002
7800.000000;0.713002
7799.000000;0.712957
7798.000000;0.712864
7797.000000;0.712758
7796.000000;0.712658
7795.000000;0.712569
7794.000000;0.712498
7793.000000;0.712453
7792.000000;0.712432
7791.000000;0.712420
7790.000000;0.712414
7789.000000;0.712428
7788.000000;0.712476
7787.000000;0.712542
7786.000000;0.712578
7785.000000;0.712544
7784.000000;0.712434
7783.000000;0.712257
7782.000000;0.712021
7781.000000;0.711755
7780.000000;0.711532
7779.000000;0.711432
7778.000000;0.711463
7777.000000;0.711560
7776.000000;0.711648
7775.000000;0.711702
7774.000000;0.711728
7773.000000;0.711732
7772.000000;0.711717
7771.000000;0.711682
7770.000000;0.711614
7769.000000;0.711502
7768.000000;0.711369
7767.000000;0.711252
7766.000000;0.711154
7765.000000;0.711039
7764.000000;0.710890
7763.000000;0.710745
7762.000000;0.710643
7761.000000;0.710574
7760.000000;0.710523
7759.000000;0.710502
7758.000000;0.710512
7757.000000;0.710493
7756.000000;0.710373
7755.000000;0.710160
7754.000000;0.709943
7753.000000;0.709798
7752.000000;0.709738
7751.000000;0.709741
7750.000000;0.709782
7749.000000;0.709827
7748.000000;0.709839
7747.000000;0.709815
7746.000000;0.709772
7745.000000;0.709711
7744.000000;0.709610
7743.000000;0.709466
7742.000000;0.709321
7741.000000;0.709226
7740.000000;0.709192
7739.000000;0.709185
7738.000000;0.709149
7737.000000;0.709053
7736.000000;0.708925
7735.000000;0.708841
7734.000000;0.708852
7733.000000;0.708919
7732.000000;0.708957
7731.000000;0.708927
7730.000000;0.708857
7729.000000;0.708779
7728.000000;0.708679
7727.000000;0.708542
7726.000000;0.708401
7725.000000;0.708310
7724.000000;0.708284
7723.000000;0.708275
7722.000000;0.708225
7721.000000;0.708118
7720.000000;0.707996
7719.000000;0.707921
7718.000000;0.707901
7717.000000;0.707869
7716.000000;0.707759
7715.000000;0.707588
7714.000000;0.707444
7713.000000;0.707388
7712.000000;0.707396
7711.000000;0.707415
7710.000000;0.707412
7709.000000;0.707380
7708.000000;0.707310
7707.000000;0.707205
7706.000000;0.707091
7705.000000;0.706986
7704.000000;0.706882
7703.000000;0.706771
7702.000000;0.706688
7701.000000;0.706668
7700.000000;0.706697
7699.000000;0.706717
7698.000000;0.706695
7697.000000;0.706654
7696.000000;0.706641
7695.000000;0.706677
7694.000000;0.706744
7693.000000;0.706793
7692.000000;0.706762
7691.000000;0.706606
7690.000000;0.706336
7689.000000;0.706032
7688.000000;0.705802
7687.000000;0.705708
7686.000000;0.705734
7685.000000;0.705799
7684.000000;0.705818
7683.000000;0.705756
7682.000000;0.705631
7681.000000;0.705491
7680.000000;0.705365
7679.000000;0.705249
7678.000000;0.705124
7677.000000;0.705004
7676.000000;0.704938
7675.000000;0.704963
7674.000000;0.705042
7673.000000;0.705090
7672.000000;0.705070
7671.000000;0.705032
7670.000000;0.705039
7669.000000;0.705072
7668.000000;0.705056
7667.000000;0.704955
7666.000000;0.704808
7665.000000;0.704672
7664.000000;0.704557
7663.000000;0.704443
7662.000000;0.704311
7661.000000;0.704165
7660.000000;0.704038
7659.000000;0.703982
7658.000000;0.704017
7657.000000;0.704077
7656.000000;0.704050
7655.000000;0.703899
7654.000000;0.703699
7653.000000;0.703554
7652.000000;0.703483
7651.000000;0.703447
7650.000000;0.703426
7649.000000;0.703434
7648.000000;0.703460
7647.000000;0.703461
7646.000000;0.703433
7645.000000;0.703422
7644.000000;0.703445
7643.000000;0.703426
7642.000000;0.703279
7641.000000;0.703026
7640.000000;0.702802
7639.000000;0.702718
7638.000000;0.702756
7637.000000;0.702806
7636.000000;0.702782
7635.000000;0.702678
7634.000000;0.702530
7633.000000;0.702379
7632.000000;0.702277
7631.000000;0.702262
7630.000000;0.702309
7629.000000;0.702323
7628.000000;0.702231
7627.000000;0.702059
7626.000000;0.701905
7625.000000;0.701834
7624.000000;0.701839
7623.000000;0.701879
7622.000000;0.701907
7621.000000;0.701885
7620.000000;0.701808
7619.000000;0.701731
7618.000000;0.701706
7617.000000;0.701704
7616.000000;0.701640
7615.000000;0.701480
7614.000000;0.701285
7613.000000;0.701130
7612.000000;0.701026
7611.000000;0.700962
7610.000000;0.700954
7609.000000;0.701002
7608.000000;0.701048
7607.000000;0.701037
7606.000000;0.701006
7605.000000;0.701033
7604.000000;0.701115
7603.000000;0.701140
7602.000000;0.701016
7601.000000;0.700768
7600.000000;0.700493
7599.000000;0.700264
7598.000000;0.700097
7597.000000;0.699979
7596.000000;0.699889
7595.000000;0.699803
7594.000000;0.699706
7593.000000;0.699600
7592.000000;0.699510
7591.000000;0.699458
7590.000000;0.699453
7589.000000;0.699488
7588.000000;0.699558
7587.000000;0.699662
7586.000000;0.699788
7585.000000;0.699883
7584.000000;0.699870
7583.000000;0.699719
7582.000000;0.699487
7581.000000;0.699289
7580.000000;0.699199
7579.000000;0.699192
7578.000000;0.699174
7577.000000;0.699077
7576.000000;0.698918
7575.000000;0.698782
7574.000000;0.698743
7573.000000;0.698798
7572.000000;0.698883
7571.000000;0.698931
7570.000000;0.698898
7569.000000;0.698766
7568.000000;0.698558
7567.000000;0.698365
7566.000000;0.698295
7565.000000;0.698380
7564.000000;0.698527
7563.000000;0.698619
7562.000000;0.698607
7561.000000;0.698507
7560.000000;0.698338
7559.000000;0.698121
7558.000000;0.697919
7557.000000;0.697816
7556.000000;0.697839
7555.000000;0.697934
7554.000000;0.698007
7553.000000;0.697985
7552.000000;0.697847
7551.000000;0.697646
7550.000000;0.697491
7549.000000;0.697449
7548.000000;0.697478
7547.000000;0.697485
7546.000000;0.697450
7545.000000;0.697445
7544.000000;0.697525
7543.000000;0.697642
7542.000000;0.697703
7541.000000;0.697665
7540.000000;0.697562
7539.000000;0.697456
7538.000000;0.697385
7537.000000;0.697338
7536.000000;0.697267
7535.000000;0.697139
7534.000000;0.696989
7533.000000;0.696890
7532.000000;0.696872
7531.000000;0.696883
7530.000000;0.696860
7529.000000;0.696793
7528.000000;0.696713
7527.000000;0.696652
7526.000000;0.696626
7525.000000;0.696630
7524.000000;0.696632
7523.000000;0.696587
7522.000000;0.696481
7521.000000;0.696354
7520.000000;0.696256
7519.000000;0.696188
7518.000000;0.696128
7517.000000;0.696074
7516.000000;0.696035
7515.000000;0.696008
7514.000000;0.695977
7513.000000;0.695931
7512.000000;0.695871
7511.000000;0.695803
7510.000000;0.695739
7509.000000;0.695683
7508.000000;0.695623
7507.000000;0.695542
7506.000000;0.695465
7505.000000;0.695448
7504.000000;0.695504
7503.000000;0.695567
7502.000000;0.695572
7501.000000;0.695523
7500.000000;0.695479
7499.000000;0.695444
7498.000000;0.695359
7497.000000;0.695200
7496.000000;0.695016
7495.000000;0.694886
7494.000000;0.694837
7493.000000;0.694835
7492.000000;0.694818
7491.000000;0.694750
7490.000000;0.694653
7489.000000;0.694587
7488.000000;0.694583
7487.000000;0.694621
7486.000000;0.694664
7485.000000;0.694712
7484.000000;0.694767
7483.000000;0.694798
7482.000000;0.694766
7481.000000;0.694685
7480.000000;0.694606
7479.000000;0.694552
7478.000000;0.694515
7477.000000;0.694493
7476.000000;0.694499
7475.000000;0.694504
7474.000000;0.694456
7473.000000;0.694355
7472.000000;0.694267
7471.000000;0.694237
7470.000000;0.694233
7469.000000;0.694198
7468.000000;0.694115
7467.000000;0.693992
7466.000000;0.693828
7465.000000;0.693640
7464.000000;0.693490
7463.000000;0.693443
7462.000000;0.693492
7461.000000;0.693576
7460.000000;0.693643
7459.000000;0.693679
7458.000000;0.693677
7457.000000;0.693630
7456.000000;0.693552
7455.000000;0.693487
7454.000000;0.693464
7453.000000;0.693474
7452.000000;0.693477
7451.000000;0.693426
7450.000000;0.693294
7449.000000;0.693115
7448.000000;0.692982
7447.000000;0.692977
7446.000000;0.693083
7445.000000;0.693186
7444.000000;0.693194
7443.000000;0.693124
7442.000000;0.693064
7441.000000;0.693052
7440.000000;0.693038
7439.000000;0.692965
7438.000000;0.692864
7437.000000;0.692826
7436.000000;0.692893
7435.000000;0.693015
7434.000000;0.693109
7433.000000;0.693145
7432.000000;0.693121
7431.000000;0.693024
7430.000000;0.692839
7429.000000;0.692614
7428.000000;0.692449
7427.000000;0.692404
7426.000000;0.692445
7425.000000;0.692496
7424.000000;0.692512
7423.000000;0.692478
7422.000000;0.692393
7421.000000;0.692277
7420.000000;0.692182
7419.000000;0.692157
7418.000000;0.692201
7417.000000;0.692273
7416.000000;0.692332
7415.000000;0.692354
7414.000000;0.692322
7413.000000;0.692245
7412.000000;0.692173
7411.000000;0.692154
7410.000000;0.692175
7409.000000;0.692176
7408.000000;0.692129
7407.000000;0.692075
7406.000000;0.692062
7405.000000;0.692081
7404.000000;0.692088
7403.000000;0.692058
7402.000000;0.691997
7401.000000;0.691898
7400.000000;0.691734
7399.000000;0.691511
7398.000000;0.691304
7397.000000;0.691220
7396.000000;0.691310
7395.000000;0.691515
7394.000000;0.691708
7393.000000;0.691788
7392.000000;0.691736
7391.000000;0.691609
7390.000000;0.691473
7389.000000;0.691359
7388.000000;0.691262
7387.000000;0.691170
7386.000000;0.691091
7385.000000;0.691050
7384.000000;0.691062
7383.000000;0.691125
7382.000000;0.691239
7381.000000;0.691396
7380.000000;0.691539
7379.000000;0.691570
7378.000000;0.691437
7377.000000;0.691212
7376.000000;0.691043
7375.000000;0.691006
7374.000000;0.691047
7373.000000;0.691065
7372.000000;0.691034
7371.000000;0.691013
7370.000000;0.691054
7369.000000;0.691147
7368.000000;0.691239
7367.000000;0.691287
7366.000000;0.691288
7365.000000;0.691275
7364.000000;0.691277
7363.000000;0.691288
7362.000000;0.691278
7361.000000;0.691246
7360.000000;0.691216
7359.000000;0.691185
7358.000000;0.691115
7357.000000;0.690997
7356.000000;0.690906
7355.000000;0.690929
7354.000000;0.691051
7353.000000;0.691159
7352.000000;0.691169
7351.000000;0.691116
7350.000000;0.691095
7349.000000;0.691144
7348.000000;0.691226
7347.000000;0.691270
7346.000000;0.691232
7345.000000;0.691114
7344.000000;0.690960
7343.000000;0.690841
7342.000000;0.690819
7341.000000;0.690899
7340.000000;0.691031
7339.000000;0.691145
7338.000000;0.691192
7337.000000;0.691185
7336.000000;0.691169
7335.000000;0.691172
7334.000000;0.691182
7333.000000;0.691169
7332.000000;0.691125
7331.000000;0.691067
7330.000000;0.691013
7329.000000;0.690980
7328.000000;0.690979
7327.000000;0.691015
7326.000000;0.691073
7325.000000;0.691135
7324.000000;0.691204
7323.000000;0.691286
7322.000000;0.691334
7321.000000;0.691279
7320.000000;0.691120
7319.000000;0.690941
7318.000000;0.690824
7317.000000;0.690782
7316.000000;0.690788
7315.000000;0.690829
7314.000000;0.690922
7313.000000;0.691079
7312.000000;0.691275
7311.000000;0.691454
7310.000000;0.691548
7309.000000;0.691535
7308.000000;0.691477
7307.000000;0.691482
7306.000000;0.691596
7305.000000;0.691748
7304.000000;0.691835
7303.000000;0.691843
7302.000000;0.691832
7301.000000;0.691835
7300.000000;0.691836
7299.000000;0.691820
7298.000000;0.691807
7297.000000;0.691824
7296.000000;0.691881
7295.000000;0.691965
7294.000000;0.692043
7293.000000;0.692075
7292.000000;0.692034
7291.000000;0.691940
7290.000000;0.691842
7289.000000;0.691794
7288.000000;0.691843
7287.000000;0.692025
7286.000000;0.692321
7285.000000;0.692618
7284.000000;0.692790
7283.000000;0.692808
7282.000000;0.692741
7281.000000;0.692655
7280.000000;0.692566
7279.000000;0.692496
7278.000000;0.692500
7277.000000;0.692600
7276.000000;0.692734
7275.000000;0.692825
7274.000000;0.692865
7273.000000;0.692900
7272.000000;0.692958
7271.000000;0.693034
7270.000000;0.693129
7269.000000;0.693260
7268.000000;0.693426
7267.000000;0.693588
7266.000000;0.693678
7265.000000;0.693649
7264.000000;0.693535
7263.000000;0.693459
7262.000000;0.693546
7261.000000;0.693806
7260.000000;0.694110
7259.000000;0.694322
7258.000000;0.694417
7257.000000;0.694455
7256.000000;0.694487
7255.000000;0.694520
7254.000000;0.694555
7253.000000;0.694592
7252.000000;0.694619
7251.000000;0.694634
7250.000000;0.694678
7249.000000;0.694805
7248.000000;0.695008
7247.000000;0.695223
7246.000000;0.695403
7245.000000;0.695552
7244.000000;0.695679
7243.000000;0.695773
7242.000000;0.695833
7241.000000;0.695888
7240.000000;0.695952
7239.000000;0.696020
7238.000000;0.696099
7237.000000;0.696217
7236.000000;0.696380
7235.000000;0.696545
7234.000000;0.696673
7233.000000;0.696799
7232.000000;0.697013
7231.000000;0.697319
7230.000000;0.697587
7229.000000;0.697676
7228.000000;0.697587
7227.000000;0.697472
7226.000000;0.697501
7225.000000;0.697710
7224.000000;0.697965
7223.000000;0.698102
7222.000000;0.698091
7221.000000;0.698059
7220.000000;0.698143
7219.000000;0.698351
7218.000000;0.698583
7217.000000;0.698773
7216.000000;0.698962
7215.000000;0.699219
7214.000000;0.699522
7213.000000;0.699757
7212.000000;0.699856
7211.000000;0.699862
7210.000000;0.699872
7209.000000;0.699929
7208.000000;0.699989
7207.000000;0.699993
7206.000000;0.699941
7205.000000;0.699911
7204.000000;0.700013
7203.000000;0.700309
7202.000000;0.700754
7201.000000;0.701204
7200.000000;0.701503
7199.000000;0.701587
7198.000000;0.701536
7197.000000;0.701517
7196.000000;0.701651
7195.000000;0.701912
7194.000000;0.702146
7193.000000;0.702241
7192.000000;0.702267
7191.000000;0.702395
7190.000000;0.702680
7189.000000;0.702979
7188.000000;0.703114
7187.000000;0.703079
7186.000000;0.703005
7185.000000;0.702975
7184.000000;0.702967
7183.000000;0.702966
7182.000000;0.703030
7181.000000;0.703217
7180.000000;0.703486
7179.000000;0.703726
7178.000000;0.703894
7177.000000;0.704048
7176.000000;0.704268
7175.000000;0.704574
7174.000000;0.704922
7173.000000;0.705224
7172.000000;0.705384
7171.000000;0.705350
7170.000000;0.705181
7169.000000;0.705033
7168.000000;0.705059
7167.000000;0.705288
7166.000000;0.705623
7165.000000;0.705964
7164.000000;0.706280
7163.000000;0.706546
7162.000000;0.706699
7161.000000;0.706726
7160.000000;0.706754
7159.000000;0.706928
7158.000000;0.707216
7157.000000;0.707442
7156.000000;0.707536
7155.000000;0.707625
7154.000000;0.707847
7153.000000;0.708148
7152.000000;0.708363
7151.000000;0.708430
7150.000000;0.708418
7149.000000;0.708418
7148.000000;0.708467
7147.000000;0.708563
7146.000000;0.708677
7145.000000;0.708766
7144.000000;0.708821
7143.000000;0.708875
7142.000000;0.708917
7141.000000;0.708874
7140.000000;0.708732
7139.000000;0.708618
7138.000000;0.708647
7137.000000;0.708743
7136.000000;0.708786
7135.000000;0.708869
7134.000000;0.709189
7133.000000;0.709657
7132.000000;0.709856
7131.000000;0.709512
7130.000000;0.708840
7129.000000;0.708281
7128.000000;0.708038
7127.000000;0.708036
7126.000000;0.708211
7125.000000;0.708556
7124.000000;0.708890
7123.000000;0.708869
7122.000000;0.708372
7121.000000;0.707700
7120.000000;0.707243
7119.000000;0.707038
7118.000000;0.706833
7117.000000;0.706527
7116.000000;0.706333
7115.000000;0.706443
7114.000000;0.706708
7113.000000;0.706769
7112.000000;0.706407
7111.000000;0.705655
7110.000000;0.704648
7109.000000;0.703519
7108.000000;0.702442
7107.000000;0.701612
7106.000000;0.701101
7105.000000;0.700809
7104.000000;0.700648
7103.000000;0.700647
7102.000000;0.700786
7101.000000;0.700827
7100.000000;0.700467
7099.000000;0.699649
7098.000000;0.698624
7097.000000;0.697725
7096.000000;0.697143
7095.000000;0.696864
7094.000000;0.696663
7093.000000;0.696237
7092.000000;0.695491
7091.000000;0.694702
7090.000000;0.694196
7089.000000;0.693873
7088.000000;0.693234
7087.000000;0.691976
7086.000000;0.690380
7085.000000;0.688995
7084.000000;0.688078
7083.000000;0.687466
7082.000000;0.686849
7081.000000;0.686004
7080.000000;0.684886
7079.000000;0.683700
7078.000000;0.682793
7077.000000;0.682291
7076.000000;0.681842
7075.000000;0.680887
7074.000000;0.679185
7073.000000;0.677028
7072.000000;0.674976
7071.000000;0.673490
7070.000000;0.672709
7069.000000;0.672366
7068.000000;0.671922
7067.000000;0.670952
7066.000000;0.669470
7065.000000;0.667830
7064.000000;0.666333
7063.000000;0.665018
7062.000000;0.663760
7061.000000;0.662415
7060.000000;0.660881
7059.000000;0.659201
7058.000000;0.657608
7057.000000;0.656320
7056.000000;0.655210
7055.000000;0.653811
7054.000000;0.651782
7053.000000;0.649365
7052.000000;0.647290
7051.000000;0.646172
7050.000000;0.645930
7049.000000;0.645736
7048.000000;0.644647
7047.000000;0.642423
7046.000000;0.639705
7045.000000;0.637349
7044.000000;0.635658
7043.000000;0.634384
7042.000000;0.633226
7041.000000;0.632019
7040.000000;0.630507
7039.000000;0.628358
7038.000000;0.625636
7037.000000;0.622991
7036.000000;0.621120
7035.000000;0.620076
7034.000000;0.619266
7033.000000;0.618033
7032.000000;0.616155
7031.000000;0.613849
7030.000000;0.611499
7029.000000;0.609408
7028.000000;0.607638
7027.000000;0.606013
7026.000000;0.604308
7025.000000;0.602441
7024.000000;0.600452
7023.000000;0.598373
7022.000000;0.596249
7021.000000;0.594258
7020.000000;0.592585
7019.000000;0.591114
7018.000000;0.589409
7017.000000;0.587152
7016.000000;0.584543
7015.000000;0.582124
7014.000000;0.580293
7013.000000;0.579082
7012.000000;0.578283
7011.000000;0.577532
7010.000000;0.576282
7009.000000;0.574054
7008.000000;0.570865
7007.000000;0.567247
7006.000000;0.563734
7005.000000;0.560578
7004.000000;0.558015
7003.000000;0.556419
7002.000000;0.555839
7001.000000;0.555578
7000.000000;0.554652
6999.000000;0.552659
6998.000000;0.549972
6997.000000;0.547205
6996.000000;0.544784
6995.000000;0.542933
6994.000000;0.541602
6993.000000;0.540317
6992.000000;0.538408
6991.000000;0.535512
6990.000000;0.531761
6989.000000;0.527657
6988.000000;0.524008
6987.000000;0.521716
6986.000000;0.521016
6985.000000;0.520910
6984.000000;0.519922
6983.000000;0.517578
6982.000000;0.514688
6981.000000;0.512094
6980.000000;0.509784
6979.000000;0.507445
6978.000000;0.505192
6977.000000;0.503248
6976.000000;0.501394
6975.000000;0.499287
6974.000000;0.497016
6973.000000;0.494828
6972.000000;0.492564
6971.000000;0.489868
6970.000000;0.486841
6969.000000;0.483998
6968.000000;0.481619
6967.000000;0.479526
6966.000000;0.477504
6965.000000;0.475609
6964.000000;0.473974
6963.000000;0.472508
6962.000000;0.470876
6961.000000;0.468828
6960.000000;0.466533
6959.000000;0.464508
6958.000000;0.463078
6957.000000;0.462018
6956.000000;0.460939
6955.000000;0.459843
6954.000000;0.458850
6953.000000;0.457546
6952.000000;0.455223
6951.000000;0.451916
6950.000000;0.448575
6949.000000;0.445984
6948.000000;0.443985
6947.000000;0.442040
6946.000000;0.440030
6945.000000;0.438116
6944.000000;0.436265
6943.000000;0.434346
6942.000000;0.432438
6941.000000;0.430674
6940.000000;0.429013
6939.000000;0.427424
6938.000000;0.425992
6937.000000;0.424633
6936.000000;0.423067
6935.000000;0.421266
6934.000000;0.419496
6933.000000;0.417762
6932.000000;0.415735
6931.000000;0.413528
6930.000000;0.411900
6929.000000;0.411179
6928.000000;0.410535
6927.000000;0.408958
6926.000000;0.406596
6925.000000;0.404554
6924.000000;0.403654
6923.000000;0.403848
6922.000000;0.404490
6921.000000;0.404656
6920.000000;0.403544
6919.000000;0.401068
6918.000000;0.397908
6917.000000;0.394715
6916.000000;0.391614
6915.000000;0.388855
6914.000000;0.387303
6913.000000;0.387494
6912.000000;0.388568
6911.000000;0.388907
6910.000000;0.387760
6909.000000;0.385633
6908.000000;0.383261
6907.000000;0.380967
6906.000000;0.379001
6905.000000;0.377719
6904.000000;0.377153
6903.000000;0.376835
6902.000000;0.376225
6901.000000;0.375034
6900.000000;0.373179
6899.000000;0.370830
6898.000000;0.368502
6897.000000;0.366727
6896.000000;0.365575
6895.000000;0.364758
6894.000000;0.364167
6893.000000;0.363959
6892.000000;0.364138
6891.000000;0.364320
6890.000000;0.363977
6889.000000;0.362788
6888.000000;0.360924
6887.000000;0.359133
6886.000000;0.358276
6885.000000;0.358537
6884.000000;0.359251
6883.000000;0.359675
6882.000000;0.359593
6881.000000;0.358995
6880.000000;0.357652
6879.000000;0.355487
6878.000000;0.353082
6877.000000;0.351280
6876.000000;0.350337
6875.000000;0.349845
6874.000000;0.349383
6873.000000;0.348934
6872.000000;0.348741
6871.000000;0.348893
6870.000000;0.348980
6869.000000;0.348177
6868.000000;0.346073
6867.000000;0.343524
6866.000000;0.342136
6865.000000;0.342597
6864.000000;0.343947
6863.000000;0.344828
6862.000000;0.344911
6861.000000;0.344636
6860.000000;0.344169
6859.000000;0.343306
6858.000000;0.342146
6857.000000;0.341198
6856.000000;0.340891
6855.000000;0.341365
6854.000000;0.342474
6853.000000;0.343582
6852.000000;0.343695
6851.000000;0.342366
6850.000000;0.340321
6849.000000;0.338799
6848.000000;0.338507
6847.000000;0.339476
6846.000000;0.341438
6845.000000;0.343697
6844.000000;0.345048
6843.000000;0.344663
6842.000000;0.343061
6841.000000;0.341650
6840.000000;0.341340
6839.000000;0.341983
6838.000000;0.342956
6837.000000;0.343679
6836.000000;0.343734
6835.000000;0.343140
6834.000000;0.342513
6833.000000;0.342526
6832.000000;0.343231
6831.000000;0.344259
6830.000000;0.345408
6829.000000;0.346560
6828.000000;0.347296
6827.000000;0.347267
6826.000000;0.346834
6825.000000;0.346693
6824.000000;0.346901
6823.000000;0.346865
6822.000000;0.346338
6821.000000;0.345830
6820.000000;0.345993
6819.000000;0.347028
6818.000000;0.348726
6817.000000;0.350607
6816.000000;0.352008
6815.000000;0.352545
6814.000000;0.352618
6813.000000;0.353024
6812.000000;0.353949
6811.000000;0.354748
6810.000000;0.354829
6809.000000;0.354398
6808.000000;0.354176
6807.000000;0.354671
6806.000000;0.355878
6805.000000;0.357453
6804.000000;0.359037
6803.000000;0.360478
6802.000000;0.361756
6801.000000;0.362652
6800.000000;0.362807
6799.000000;0.362368
6798.000000;0.362255
6797.000000;0.363248
6796.000000;0.364955
6795.000000;0.366234
6794.000000;0.366588
6793.000000;0.366628
6792.000000;0.367197
6791.000000;0.368568
6790.000000;0.370581
6789.000000;0.372939
6788.000000;0.375108
6787.000000;0.376432
6786.000000;0.376757
6785.000000;0.376677
6784.000000;0.376850
6783.000000;0.377282
6782.000000;0.377526
6781.000000;0.377382
6780.000000;0.377115
6779.000000;0.377119
6778.000000;0.377627
6777.000000;0.378645
6776.000000;0.379972
6775.000000;0.381333
6774.000000;0.382604
6773.000000;0.383835
6772.000000;0.384956
6771.000000;0.385645
6770.000000;0.385693
6769.000000;0.385434
6768.000000;0.385578
6767.000000;0.386572
6766.000000;0.388212
6765.000000;0.389864
6764.000000;0.391043
6763.000000;0.391781
6762.000000;0.392469
6761.000000;0.393381
6760.000000;0.394445
6759.000000;0.395500
6758.000000;0.396610
6757.000000;0.397896
6756.000000;0.399144
6755.000000;0.399892
6754.000000;0.400049
6753.000000;0.400191
6752.000000;0.401007
6751.000000;0.402532
6750.000000;0.404120
6749.000000;0.405161
6748.000000;0.405674
6747.000000;0.406129
6746.000000;0.406798
6745.000000;0.407441
6744.000000;0.407679
6743.000000;0.407575
6742.000000;0.407688
6741.000000;0.408468
6740.000000;0.409750
6739.000000;0.410959
6738.000000;0.411785
6737.000000;0.412445
6736.000000;0.413288
6735.000000;0.414317
6734.000000;0.415246
6733.000000;0.415903
6732.000000;0.416421
6731.000000;0.417028
6730.000000;0.417808
6729.000000;0.418697
6728.000000;0.419626
6727.000000;0.420565
6726.000000;0.421452
6725.000000;0.422188
6724.000000;0.422741
6723.000000;0.423209
6722.000000;0.423719
6721.000000;0.424319
6720.000000;0.425015
6719.000000;0.425838
6718.000000;0.426753
6717.000000;0.427593
6716.000000;0.428239
6715.000000;0.428857
6714.000000;0.429776
6713.000000;0.431080
6712.000000;0.432471
6711.000000;0.433610
6710.000000;0.434417
6709.000000;0.434962
6708.000000;0.435261
6707.000000;0.435392
6706.000000;0.435624
6705.000000;0.436181
6704.000000;0.436965
6703.000000;0.437601
6702.000000;0.437902
6701.000000;0.438059
6700.000000;0.438389
6699.000000;0.439023
6698.000000;0.439867
6697.000000;0.440741
6696.000000;0.441491
6695.000000;0.442073
6694.000000;0.442570
6693.000000;0.443104
6692.000000;0.443704
6691.000000;0.444343
6690.000000;0.445040
6689.000000;0.445832
6688.000000;0.446649
6687.000000;0.447359
6686.000000;0.447961
6685.000000;0.448621
6684.000000;0.449454
6683.000000;0.450373
6682.000000;0.451194
6681.000000;0.451839
6680.000000;0.452379
6679.000000;0.452945
6678.000000;0.453621
6677.000000;0.454386
6676.000000;0.455097
6675.000000;0.455593
6674.000000;0.455861
6673.000000;0.456065
6672.000000;0.456385
6671.000000;0.456876
6670.000000;0.457490
6669.000000;0.458188
6668.000000;0.458963
6667.000000;0.459802
6666.000000;0.460664
6665.000000;0.461509
6664.000000;0.462281
6663.000000;0.462913
6662.000000;0.463366
6661.000000;0.463691
6660.000000;0.464012
6659.000000;0.464432
6658.000000;0.464958
6657.000000;0.465504
6656.000000;0.465965
6655.000000;0.466326
6654.000000;0.466692
6653.000000;0.467226
6652.000000;0.468033
6651.000000;0.469069
6650.000000;0.470138
6649.000000;0.470989
6648.000000;0.471481
6647.000000;0.471707
6646.000000;0.471933
6645.000000;0.472348
6644.000000;0.472903
6643.000000;0.473423
6642.000000;0.473831
6641.000000;0.474209
6640.000000;0.474641
6639.000000;0.475105
6638.000000;0.475531
6637.000000;0.475908
6636.000000;0.476285
6635.000000;0.476715
6634.000000;0.477251
6633.000000;0.477923
6632.000000;0.478688
6631.000000;0.479404
6630.000000;0.479945
6629.000000;0.480331
6628.000000;0.480706
6627.000000;0.481162
6626.000000;0.481626
6625.000000;0.481964
6624.000000;0.482154
6623.000000;0.482344
6622.000000;0.482716
6621.000000;0.483346
6620.000000;0.484167
6619.000000;0.485039
6618.000000;0.485806
6617.000000;0.486349
6616.000000;0.486656
6615.000000;0.486847
6614.000000;0.487076
6613.000000;0.487379
6612.000000;0.487670
6611.000000;0.487894
6610.000000;0.488146
6609.000000;0.488572
6608.000000;0.489205
6607.000000;0.489952
6606.000000;0.490702
6605.000000;0.491381
6604.000000;0.491924
6603.000000;0.492289
6602.000000;0.492532
6601.000000;0.492812
6600.000000;0.493241
6599.000000;0.493774
6598.000000;0.494274
6597.000000;0.494673
6596.000000;0.495012
6595.000000;0.495351
6594.000000;0.495706
6593.000000;0.496104
6592.000000;0.496594
6591.000000;0.497168
6590.000000;0.497701
6589.000000;0.498075
6588.000000;0.498338
6587.000000;0.498660
6586.000000;0.499113
6585.000000;0.499592
6584.000000;0.499995
6583.000000;0.500387
6582.000000;0.500905
6581.000000;0.501543
6580.000000;0.502159
6579.000000;0.502663
6578.000000;0.503089
6577.000000;0.503460
6576.000000;0.503709
6575.000000;0.503793
6574.000000;0.503805
6573.000000;0.503897
6572.000000;0.504141
6571.000000;0.504518
6570.000000;0.504987
6569.000000;0.505503
6568.000000;0.506001
6567.000000;0.506432
6566.000000;0.506801
6565.000000;0.507128
6564.000000;0.507413
6563.000000;0.507661
6562.000000;0.507923
6561.000000;0.508262
6560.000000;0.508700
6559.000000;0.509217
6558.000000;0.509783
6557.000000;0.510340
6556.000000;0.510808
6555.000000;0.511168
6554.000000;0.511505
6553.000000;0.511916
6552.000000;0.512376
6551.000000;0.512772
6550.000000;0.513038
6549.000000;0.513218
6548.000000;0.513397
6547.000000;0.513630
6546.000000;0.513941
6545.000000;0.514312
6544.000000;0.514688
6543.000000;0.515026
6542.000000;0.515350
6541.000000;0.515707
6540.000000;0.516090
6539.000000;0.516459
6538.000000;0.516819
6537.000000;0.517203
6536.000000;0.517591
6535.000000;0.517904
6534.000000;0.518107
6533.000000;0.518260
6532.000000;0.518450
6531.000000;0.518724
6530.000000;0.519096
6529.000000;0.519552
6528.000000;0.520023
6527.000000;0.520417
6526.000000;0.520709
6525.000000;0.520957
6524.000000;0.521214
6523.000000;0.521469
6522.000000;0.521705
6521.000000;0.521951
6520.000000;0.522237
6519.000000;0.522529
6518.000000;0.522788
6517.000000;0.523050
6516.000000;0.523393
6515.000000;0.523833
6514.000000;0.524292
6513.000000;0.524680
6512.000000;0.524970
6511.000000;0.525185
6510.000000;0.525355
6509.000000;0.525506
6508.000000;0.525669
6507.000000;0.525881
6506.000000;0.526167
6505.000000;0.526515
6504.000000;0.526890
6503.000000;0.527260
6502.000000;0.527599
6501.000000;0.527869
6500.000000;0.528027
6499.000000;0.528094
6498.000000;0.528188
6497.000000;0.528433
6496.000000;0.528825
6495.000000;0.529238
6494.000000;0.529565
6493.000000;0.529817
6492.000000;0.530060
6491.000000;0.530312
6490.000000;0.530540
6489.000000;0.530721
6488.000000;0.530873
6487.000000;0.531053
6486.000000;0.531318
6485.000000;0.531686
6484.000000;0.532099
6483.000000;0.532470
6482.000000;0.532770
6481.000000;0.533054
6480.000000;0.533362
6479.000000;0.533642
6478.000000;0.533819
6477.000000;0.533916
6476.000000;0.534037
6475.000000;0.534257
6474.000000;0.534538
6473.000000;0.534799
6472.000000;0.535006
6471.000000;0.535190
6470.000000;0.535395
6469.000000;0.535627
6468.000000;0.535858
6467.000000;0.536048
6466.000000;0.536190
6465.000000;0.536314
6464.000000;0.536470
6463.000000;0.536692
6462.000000;0.536977
6461.000000;0.537293
6460.000000;0.537606
6459.000000;0.537905
6458.000000;0.538197
6457.000000;0.538480
6456.000000;0.538733
6455.000000;0.538930
6454.000000;0.539073
6453.000000;0.539182
6452.000000;0.539288
6451.000000;0.539436
6450.000000;0.539673
6449.000000;0.539996
6448.000000;0.540310
6447.000000;0.540513
6446.000000;0.540622
6445.000000;0.540772
6444.000000;0.541051
6443.000000;0.541394
6442.000000;0.541664
6441.000000;0.541800
6440.000000;0.541850
6439.000000;0.541886
6438.000000;0.541946
6437.000000;0.542054
6436.000000;0.542235
6435.000000;0.542497
6434.000000;0.542814
6433.000000;0.543140
6432.000000;0.543430
6431.000000;0.543657
6430.000000;0.543836
6429.000000;0.543999
6428.000000;0.544156
6427.000000;0.544277
6426.000000;0.544351
6425.000000;0.544428
6424.000000;0.544577
6423.000000;0.544797
6422.000000;0.545020
6421.000000;0.545200
6420.000000;0.545366
6419.000000;0.545574
6418.000000;0.545826
6417.000000;0.546052
6416.000000;0.546173
6415.000000;0.546182
6414.000000;0.546176
6413.000000;0.546270
6412.000000;0.546487
6411.000000;0.546733
6410.000000;0.546918
6409.000000;0.547052
6408.000000;0.547201
6407.000000;0.547375
6406.000000;0.547523
6405.000000;0.547636
6404.000000;0.547777
6403.000000;0.548000
6402.000000;0.548288
6401.000000;0.548582
6400.000000;0.548836
6399.000000;0.549015
6398.000000;0.549105
6397.000000;0.549144
6396.000000;0.549213
6395.000000;0.549353
6394.000000;0.549523
6393.000000;0.549652
6392.000000;0.549733
6391.000000;0.549812
6390.000000;0.549922
6389.000000;0.550052
6388.000000;0.550176
6387.000000;0.550284
6386.000000;0.550392
6385.000000;0.550537
6384.000000;0.550756
6383.000000;0.551034
6382.000000;0.551292
6381.000000;0.551459
6380.000000;0.551550
6379.000000;0.551627
6378.000000;0.551717
6377.000000;0.551782
6376.000000;0.551806
6375.000000;0.551843
6374.000000;0.551956
6373.000000;0.552138
6372.000000;0.552324
6371.000000;0.552474
6370.000000;0.552603
6369.000000;0.552744
6368.000000;0.552895
6367.000000;0.553034
6366.000000;0.553144
6365.000000;0.553234
6364.000000;0.553318
6363.000000;0.553406
6362.000000;0.553494
6361.000000;0.553568
6360.000000;0.553609
6359.000000;0.553627
6358.000000;0.553664
6357.000000;0.553768
6356.000000;0.553936
6355.000000;0.554106
6354.000000;0.554215
6353.000000;0.554258
6352.000000;0.554292
6351.000000;0.554372
6350.000000;0.554503
6349.000000;0.554650
6348.000000;0.554778
6347.000000;0.554880
6346.000000;0.554967
6345.000000;0.555050
6344.000000;0.555130
6343.000000;0.555200
6342.000000;0.555244
6341.000000;0.555248
6340.000000;0.555219
6339.000000;0.555193
6338.000000;0.555214
6337.000000;0.555300
6336.000000;0.555437
6335.000000;0.555607
6334.000000;0.555797
6333.000000;0.555984
6332.000000;0.556118
6331.000000;0.556170
6330.000000;0.556172
6329.000000;0.556196
6328.000000;0.556277
6327.000000;0.556379
6326.000000;0.556449
6325.000000;0.556473
6324.000000;0.556478
6323.000000;0.556496
6322.000000;0.556553
6321.000000;0.556664
6320.000000;0.556823
6319.000000;0.556986
6318.000000;0.557106
6317.000000;0.557175
6316.000000;0.557215
6315.000000;0.557251
6314.000000;0.557294
6313.000000;0.557340
6312.000000;0.557381
6311.000000;0.557395
6310.000000;0.557362
6309.000000;0.557292
6308.000000;0.557224
6307.000000;0.557205
6306.000000;0.557268
6305.000000;0.557414
6304.000000;0.557608
6303.000000;0.557789
6302.000000;0.557913
6301.000000;0.557976
6300.000000;0.558004
6299.000000;0.558010
6298.000000;0.557996
6297.000000;0.557959
6296.000000;0.557906
6295.000000;0.557844
6294.000000;0.557801
6293.000000;0.557828
6292.000000;0.557953
6291.000000;0.558133
6290.000000;0.558289
6289.000000;0.558386
6288.000000;0.558452
6287.000000;0.558518
6286.000000;0.558567
6285.000000;0.558568
6284.000000;0.558530
6283.000000;0.558497
6282.000000;0.558507
6281.000000;0.558567
6280.000000;0.558652
6279.000000;0.558726
6278.000000;0.558766
6277.000000;0.558791
6276.000000;0.558846
6275.000000;0.558932
6274.000000;0.559000
6273.000000;0.559008
6272.000000;0.558981
6271.000000;0.558976
6270.000000;0.559013
6269.000000;0.559068
6268.000000;0.559111
6267.000000;0.559135
6266.000000;0.559142
6265.000000;0.559136
6264.000000;0.559133
6263.000000;0.559149
6262.000000;0.559168
6261.000000;0.559165
6260.000000;0.559136
6259.000000;0.559100
6258.000000;0.559066
6257.000000;0.559032
6256.000000;0.559009
6255.000000;0.559027
6254.000000;0.559091
6253.000000;0.559165
6252.000000;0.559211
6251.000000;0.559228
6250.000000;0.559236
6249.000000;0.559242
6248.000000;0.559238
6247.000000;0.559228
6246.000000;0.559241
6245.000000;0.559297
6244.000000;0.559375
6243.000000;0.559420
6242.000000;0.559395
6241.000000;0.559317
6240.000000;0.559246
6239.000000;0.559234
6238.000000;0.559288
6237.000000;0.559381
6236.000000;0.559483
6235.000000;0.559566
6234.000000;0.559609
6233.000000;0.559605
6232.000000;0.559575
6231.000000;0.559548
6230.000000;0.559531
6229.000000;0.559515
6228.000000;0.559498
6227.000000;0.559492
6226.000000;0.559494
6225.000000;0.559487
6224.000000;0.559461
6223.000000;0.559425
6222.000000;0.559391
6221.000000;0.559365
6220.000000;0.559343
6219.000000;0.559325
6218.000000;0.559304
6217.000000;0.559276
6216.000000;0.559249
6215.000000;0.559241
6214.000000;0.559254
6213.000000;0.559265
6212.000000;0.559259
6211.000000;0.559249
6210.000000;0.559268
6209.000000;0.559331
6208.000000;0.559421
6207.000000;0.559490
6206.000000;0.559496
6205.000000;0.559432
6204.000000;0.559340
6203.000000;0.559270
6202.000000;0.559242
6201.000000;0.559235
6200.000000;0.559224
6199.000000;0.559196
6198.000000;0.559145
6197.000000;0.559074
6196.000000;0.559009
6195.000000;0.558999
6194.000000;0.559063
6193.000000;0.559160
6192.000000;0.559221
6191.000000;0.559212
6190.000000;0.559151
6189.000000;0.559073
6188.000000;0.558998
6187.000000;0.558926
6186.000000;0.558853
6185.000000;0.558789
6184.000000;0.558754
6183.000000;0.558755
6182.000000;0.558774
6181.000000;0.558780
6180.000000;0.558768
6179.000000;0.558751
6178.000000;0.558731
6177.000000;0.558693
6176.000000;0.558644
6175.000000;0.558627
6174.000000;0.558673
6173.000000;0.558757
6172.000000;0.558826
6171.000000;0.558858
6170.000000;0.558868
6169.000000;0.558852
6168.000000;0.558779
6167.000000;0.558638
6166.000000;0.558477
6165.000000;0.558367
6164.000000;0.558348
6163.000000;0.558407
6162.000000;0.558488
6161.000000;0.558524
6160.000000;0.558479
6159.000000;0.558380
6158.000000;0.558290
6157.000000;0.558256
6156.000000;0.558271
6155.000000;0.558294
6154.000000;0.558289
6153.000000;0.558257
6152.000000;0.558226
6151.000000;0.558229
6150.000000;0.558277
6149.000000;0.558336
6148.000000;0.558361
6147.000000;0.558338
6146.000000;0.558297
6145.000000;0.558267
6144.000000;0.558247
6143.000000;0.558215
6142.000000;0.558162
6141.000000;0.558097
6140.000000;0.558038
6139.000000;0.557994
6138.000000;0.557964
6137.000000;0.557930
6136.000000;0.557877
6135.000000;0.557803
6134.000000;0.557734
6133.000000;0.557690
6132.000000;0.557671
6131.000000;0.557662
6130.000000;0.557657
6129.000000;0.557660
6128.000000;0.557663
6127.000000;0.557647
6126.000000;0.557603
6125.000000;0.557542
6124.000000;0.557482
6123.000000;0.557438
6122.000000;0.557417
6121.000000;0.557422
6120.000000;0.557446
6119.000000;0.557474
6118.000000;0.557484
6117.000000;0.557451
6116.000000;0.557374
6115.000000;0.557288
6114.000000;0.557242
6113.000000;0.557246
6112.000000;0.557265
6111.000000;0.557260
6110.000000;0.557233
6109.000000;0.557204
6108.000000;0.557168
6107.000000;0.557100
6106.000000;0.557004
6105.000000;0.556919
6104.000000;0.556871
6103.000000;0.556841
6102.000000;0.556799
6101.000000;0.556741
6100.000000;0.556686
6099.000000;0.556649
6098.000000;0.556634
6097.000000;0.556650
6096.000000;0.556701
6095.000000;0.556765
6094.000000;0.556800
6093.000000;0.556773
6092.000000;0.556685
6091.000000;0.556569
6090.000000;0.556471
6089.000000;0.556419
6088.000000;0.556408
6087.000000;0.556403
6086.000000;0.556378
6085.000000;0.556339
6084.000000;0.556309
6083.000000;0.556292
6082.000000;0.556273
6081.000000;0.556245
6080.000000;0.556231
6079.000000;0.556257
6078.000000;0.556310
6077.000000;0.556344
6076.000000;0.556318
6075.000000;0.556237
6074.000000;0.556146
6073.000000;0.556084
6072.000000;0.556055
6071.000000;0.556029
6070.000000;0.555971
6069.000000;0.555870
6068.000000;0.555745
6067.000000;0.555625
6066.000000;0.555539
6065.000000;0.555500
6064.000000;0.555504
6063.000000;0.555532
6062.000000;0.555565
6061.000000;0.555589
6060.000000;0.555599
6059.000000;0.555594
6058.000000;0.555573
6057.000000;0.555535
6056.000000;0.555479
6055.000000;0.555406
6054.000000;0.555326
6053.000000;0.555252
6052.000000;0.555199
6051.000000;0.555170
6050.000000;0.555166
6049.000000;0.555193
6048.000000;0.555244
6047.000000;0.555294
6046.000000;0.555304
6045.000000;0.555266
6044.000000;0.555219
6043.000000;0.555213
6042.000000;0.555256
6041.000000;0.555302
6040.000000;0.555288
6039.000000;0.555200
6038.000000;0.555082
6037.000000;0.555001
6036.000000;0.554983
6035.000000;0.554989
6034.000000;0.554956
6033.000000;0.554869
6032.000000;0.554773
6031.000000;0.554715
6030.000000;0.554699
6029.000000;0.554703
6028.000000;0.554720
6027.000000;0.554751
6026.000000;0.554774
6025.000000;0.554745
6024.000000;0.554652
6023.000000;0.554537
6022.000000;0.554454
6021.000000;0.554414
6020.000000;0.554400
6019.000000;0.554401
6018.000000;0.554427
6017.000000;0.554479
6016.000000;0.554535
6015.000000;0.554566
6014.000000;0.554560
6013.000000;0.554525
6012.000000;0.554481
6011.000000;0.554454
6010.000000;0.554460
6009.000000;0.554497
6008.000000;0.554540
6007.000000;0.554566
6006.000000;0.554559
6005.000000;0.554513
6004.000000;0.554431
6003.000000;0.554333
6002.000000;0.554250
6001.000000;0.554198
6000.000000;0.554166
5999.000000;0.554132
5998.000000;0.554090
5997.000000;0.554052
5996.000000;0.554022
5995.000000;0.553984
5994.000000;0.553923
5993.000000;0.553850
5992.000000;0.553798
5991.000000;0.553788
5990.000000;0.553805
5989.000000;0.553817
5988.000000;0.553804
5987.000000;0.553774
5986.000000;0.553742
5985.000000;0.553713
5984.000000;0.553688
5983.000000;0.553679
5982.000000;0.553699
5981.000000;0.553751
5980.000000;0.553821
5979.000000;0.553892
5978.000000;0.553945
5977.000000;0.553959
5976.000000;0.553916
5975.000000;0.553834
5974.000000;0.553763
5973.000000;0.553754
5972.000000;0.553813
5971.000000;0.553900
5970.000000;0.553970
5969.000000;0.554007
5968.000000;0.554015
5967.000000;0.553999
5966.000000;0.553965
5965.000000;0.553932
5964.000000;0.553912
5963.000000;0.553893
5962.000000;0.553840
5961.000000;0.553745
5960.000000;0.553641
5959.000000;0.553567
5958.000000;0.553527
5957.000000;0.553494
5956.000000;0.553450
5955.000000;0.553409
5954.000000;0.553391
5953.000000;0.553402
5952.000000;0.553431
5951.000000;0.553457
5950.000000;0.553458
5949.000000;0.553428
5948.000000;0.553383
5947.000000;0.553356
5946.000000;0.553356
5945.000000;0.553363
5944.000000;0.553353
5943.000000;0.553322
5942.000000;0.553289
5941.000000;0.553273
5940.000000;0.553281
5939.000000;0.553307
5938.000000;0.553337
5937.000000;0.553365
5936.000000;0.553402
5935.000000;0.553456
5934.000000;0.553506
5933.000000;0.553514
5932.000000;0.553474
5931.000000;0.553423
5930.000000;0.553401
5929.000000;0.553410
5928.000000;0.553429
5927.000000;0.553446
5926.000000;0.553466
5925.000000;0.553481
5924.000000;0.553475
5923.000000;0.553447
5922.000000;0.553418
5921.000000;0.553397
5920.000000;0.553377
5919.000000;0.553351
5918.000000;0.553314
5917.000000;0.553258
5916.000000;0.553167
5915.000000;0.553044
5914.000000;0.552917
5913.000000;0.552822
5912.000000;0.552771
5911.000000;0.552757
5910.000000;0.552764
5909.000000;0.552775
5908.000000;0.552769
5907.000000;0.552739
5906.000000;0.552701
5905.000000;0.552679
5904.000000;0.552687
5903.000000;0.552715
5902.000000;0.552749
5901.000000;0.552774
5900.000000;0.552776
5899.000000;0.552745
5898.000000;0.552681
5897.000000;0.552608
5896.000000;0.552564
5895.000000;0.552562
5894.000000;0.552573
5893.000000;0.552549
5892.000000;0.552481
5891.000000;0.552400
5890.000000;0.552337
5889.000000;0.552275
5888.000000;0.552191
5887.000000;0.552103
5886.000000;0.552054
5885.000000;0.552053
5884.000000;0.552067
5883.000000;0.552067
5882.000000;0.552062
5881.000000;0.552063
5880.000000;0.552061
5879.000000;0.552048
5878.000000;0.552037
5877.000000;0.552044
5876.000000;0.552062
5875.000000;0.552078
5874.000000;0.552092
5873.000000;0.552105
5872.000000;0.552109
5871.000000;0.552089
5870.000000;0.552050
5869.000000;0.552003
5868.000000;0.551955
5867.000000;0.551920
5866.000000;0.551922
5865.000000;0.551965
5864.000000;0.552011
5863.000000;0.552007
5862.000000;0.551947
5861.000000;0.551874
5860.000000;0.551829
5859.000000;0.551815
5858.000000;0.551805
5857.000000;0.551773
5856.000000;0.551711
5855.000000;0.551635
5854.000000;0.551575
5853.000000;0.551559
5852.000000;0.551580
5851.000000;0.551607
5850.000000;0.551604
5849.000000;0.551569
5848.000000;0.551533
5847.000000;0.551530
5846.000000;0.551561
5845.000000;0.551583
5844.000000;0.551552
5843.000000;0.551473
5842.000000;0.551396
5841.000000;0.551356
5840.000000;0.551335
5839.000000;0.551304
5838.000000;0.551269
5837.000000;0.551261
5836.000000;0.551280
5835.000000;0.551286
5834.000000;0.551254
5833.000000;0.551203
5832.000000;0.551168
5831.000000;0.551156
5830.000000;0.551155
5829.000000;0.551159
5828.000000;0.551174
5827.000000;0.551203
5826.000000;0.551232
5825.000000;0.551237
5824.000000;0.551207
5823.000000;0.551153
5822.000000;0.551102
5821.000000;0.551077
5820.000000;0.551068
5819.000000;0.551055
5818.000000;0.551036
5817.000000;0.551038
5816.000000;0.551074
5815.000000;0.551118
5814.000000;0.551131
5813.000000;0.551096
5812.000000;0.551040
5811.000000;0.550995
5810.000000;0.550973
5809.000000;0.550964
5808.000000;0.550953
5807.000000;0.550941
5806.000000;0.550931
5805.000000;0.550924
5804.000000;0.550911
5803.000000;0.550878
5802.000000;0.550817
5801.000000;0.550737
5800.000000;0.550659
5799.000000;0.550610
5798.000000;0.550604
5797.000000;0.550629
5796.000000;0.550665
5795.000000;0.550703
5794.000000;0.550743
5793.000000;0.550775
5792.000000;0.550779
5791.000000;0.550751
5790.000000;0.550724
5789.000000;0.550735
5788.000000;0.550789
5787.000000;0.550844
5786.000000;0.550861
5785.000000;0.550830
5784.000000;0.550769
5783.000000;0.550704
5782.000000;0.550649
5781.000000;0.550599
5780.000000;0.550538
5779.000000;0.550458
5778.000000;0.550373
5777.000000;0.550302
5776.000000;0.550245
5775.000000;0.550193
5774.000000;0.550149
5773.000000;0.550118
5772.000000;0.550079
5771.000000;0.549996
5770.000000;0.549872
5769.000000;0.549762
5768.000000;0.549721
5767.000000;0.549742
5766.000000;0.549772
5765.000000;0.549768
5764.000000;0.549725
5763.000000;0.549656
5762.000000;0.549578
5761.000000;0.549515
5760.000000;0.549486
5759.000000;0.549487
5758.000000;0.549482
5757.000000;0.549434
5756.000000;0.549347
5755.000000;0.549258
5754.000000;0.549205
5753.000000;0.549194
5752.000000;0.549195
5751.000000;0.549174
5750.000000;0.549133
5749.000000;0.549100
5748.000000;0.549093
5747.000000;0.549086
5746.000000;0.549039
5745.000000;0.548942
5744.000000;0.548827
5743.000000;0.548732
5742.000000;0.548661
5741.000000;0.548598
5740.000000;0.548533
5739.000000;0.548471
5738.000000;0.548416
5737.000000;0.548359
5736.000000;0.548300
5735.000000;0.548251
5734.000000;0.548228
5733.000000;0.548225
5732.000000;0.548214
5731.000000;0.548171
5730.000000;0.548098
5729.000000;0.548012
5728.000000;0.547922
5727.000000;0.547834
5726.000000;0.547757
5725.000000;0.547702
5724.000000;0.547664
5723.000000;0.547617
5722.000000;0.547545
5721.000000;0.547459
5720.000000;0.547385
5719.000000;0.547329
5718.000000;0.547282
5717.000000;0.547234
5716.000000;0.547189
5715.000000;0.547155
5714.000000;0.547130
5713.000000;0.547101
5712.000000;0.547050
5711.000000;0.546964
5710.000000;0.546844
5709.000000;0.546724
5708.000000;0.546646
5707.000000;0.546624
5706.000000;0.546624
5705.000000;0.546596
5704.000000;0.546529
5703.000000;0.546471
5702.000000;0.546468
5701.000000;0.546504
5700.000000;0.546518
5699.000000;0.546463
5698.000000;0.546353
5697.000000;0.546243
5696.000000;0.546167
5695.000000;0.546115
5694.000000;0.546065
5693.000000;0.546003
5692.000000;0.545936
5691.000000;0.545875
5690.000000;0.545829
5689.000000;0.545800
5688.000000;0.545783
5687.000000;0.545759
5686.000000;0.545705
5685.000000;0.545612
5684.000000;0.545498
5683.000000;0.545399
5682.000000;0.545345
5681.000000;0.545326
5680.000000;0.545303
5679.000000;0.545248
5678.000000;0.545174
5677.000000;0.545115
5676.000000;0.545094
5675.000000;0.545103
5674.000000;0.545125
5673.000000;0.545149
5672.000000;0.545163
5671.000000;0.545153
5670.000000;0.545111
5669.000000;0.545044
5668.000000;0.544979
5667.000000;0.544948
5666.000000;0.544965
5665.000000;0.544998
5664.000000;0.544983
5663.000000;0.544883
5662.000000;0.544740
5661.000000;0.544639
5660.000000;0.544618
5659.000000;0.544635
5658.000000;0.544625
5657.000000;0.544577
5656.000000;0.544529
5655.000000;0.544516
5654.000000;0.544524
5653.000000;0.544512
5652.000000;0.544450
5651.000000;0.544346
5650.000000;0.544247
5649.000000;0.544201
5648.000000;0.544219
5647.000000;0.544260
5646.000000;0.544265
5645.000000;0.544210
5644.000000;0.544116
5643.000000;0.544029
5642.000000;0.543986
5641.000000;0.544009
5640.000000;0.544102
5639.000000;0.544237
5638.000000;0.544368
5637.000000;0.544443
5636.000000;0.544436
5635.000000;0.544360
5634.000000;0.544271
5633.000000;0.544228
5632.000000;0.544248
5631.000000;0.544303
5630.000000;0.544362
5629.000000;0.544426
5628.000000;0.544507
5627.000000;0.544589
5626.000000;0.544638
5625.000000;0.544649
5624.000000;0.544657
5623.000000;0.544695
5622.000000;0.544747
5621.000000;0.544764
5620.000000;0.544734
5619.000000;0.544693
5618.000000;0.544691
5617.000000;0.544734
5616.000000;0.544790
5615.000000;0.544823
5614.000000;0.544828
5613.000000;0.544827
5612.000000;0.544844
5611.000000;0.544886
5610.000000;0.544953
5609.000000;0.545041
5608.000000;0.545144
5607.000000;0.545252
5606.000000;0.545346
5605.000000;0.545409
5604.000000;0.545431
5603.000000;0.545419
5602.000000;0.545398
5601.000000;0.545400
5600.000000;0.545443
5599.000000;0.545518
5598.000000;0.545599
5597.000000;0.545666
5596.000000;0.545722
5595.000000;0.545773
5594.000000;0.545816
5593.000000;0.545846
5592.000000;0.545873
5591.000000;0.545926
5590.000000;0.546023
5589.000000;0.546151
5588.000000;0.546268
5587.000000;0.546334
5586.000000;0.546344
5585.000000;0.546327
5584.000000;0.546325
5583.000000;0.546357
5582.000000;0.546411
5581.000000;0.546465
5580.000000;0.546509
5579.000000;0.546551
5578.000000;0.546601
5577.000000;0.546662
5576.000000;0.546727
5575.000000;0.546787
5574.000000;0.546834
5573.000000;0.546861
5572.000000;0.546872
5571.000000;0.546890
5570.000000;0.546934
5569.000000;0.546995
5568.000000;0.547036
5567.000000;0.547042
5566.000000;0.547045
5565.000000;0.547099
5564.000000;0.547221
5563.000000;0.547366
5562.000000;0.547466
5561.000000;0.547488
5560.000000;0.547456
5559.000000;0.547431
5558.000000;0.547458
5557.000000;0.547528
5556.000000;0.547590
5555.000000;0.547602
5554.000000;0.547574
5553.000000;0.547556
5552.000000;0.547591
5551.000000;0.547672
5550.000000;0.547763
5549.000000;0.547822
5548.000000;0.547841
5547.000000;0.547839
5546.000000;0.547845
5545.000000;0.547860
5544.000000;0.547858
5543.000000;0.547823
5542.000000;0.547786
5541.000000;0.547798
5540.000000;0.547863
5539.000000;0.547935
5538.000000;0.547978
5537.000000;0.548011
5536.000000;0.548074
5535.000000;0.548165
5534.000000;0.548245
5533.000000;0.548292
5532.000000;0.548327
5531.000000;0.548376
5530.000000;0.548429
5529.000000;0.548458
5528.000000;0.548450
5527.000000;0.548420
5526.000000;0.548390
5525.000000;0.548370
5524.000000;0.548355
5523.000000;0.548331
5522.000000;0.548290
5521.000000;0.548251
5520.000000;0.548247
5519.000000;0.548302
5518.000000;0.548402
5517.000000;0.548498
5516.000000;0.548551
5515.000000;0.548566
5514.000000;0.548566
5513.000000;0.548559
5512.000000;0.548531
5511.000000;0.548489
5510.000000;0.548466
5509.000000;0.548486
5508.000000;0.548540
5507.000000;0.548605
5506.000000;0.548678
5505.000000;0.548771
5504.000000;0.548863
5503.000000;0.548914
5502.000000;0.548910
5501.000000;0.548885
5500.000000;0.548881
5499.000000;0.548906
5498.000000;0.548930
5497.000000;0.548928
5496.000000;0.548916
5495.000000;0.548935
5494.000000;0.548997
5493.000000;0.549077
5492.000000;0.549131
5491.000000;0.549144
5490.000000;0.549137
5489.000000;0.549134
5488.000000;0.549139
5487.000000;0.549138
5486.000000;0.549125
5485.000000;0.549116
5484.000000;0.549130
5483.000000;0.549188
5482.000000;0.549298
5481.000000;0.549439
5480.000000;0.549554
5479.000000;0.549602
5478.000000;0.549605
5477.000000;0.549617
5476.000000;0.549647
5475.000000;0.549646
5474.000000;0.549570
5473.000000;0.549428
5472.000000;0.549270
5471.000000;0.549154
5470.000000;0.549114
5469.000000;0.549153
5468.000000;0.549250
5467.000000;0.549383
5466.000000;0.549530
5465.000000;0.549661
5464.000000;0.549748
5463.000000;0.549789
5462.000000;0.549811
5461.000000;0.549835
5460.000000;0.549854
5459.000000;0.549860
5458.000000;0.549858
5457.000000;0.549862
5456.000000;0.549867
5455.000000;0.549855
5454.000000;0.549804
5453.000000;0.549715
5452.000000;0.549642
5451.000000;0.549662
5450.000000;0.549791
5449.000000;0.549944
5448.000000;0.550025
5447.000000;0.550034
5446.000000;0.550045
5445.000000;0.550120
5444.000000;0.550253
5443.000000;0.550394
5442.000000;0.550494
5441.000000;0.550526
5440.000000;0.550496
5439.000000;0.550439
5438.000000;0.550387
5437.000000;0.550349
5436.000000;0.550339
5435.000000;0.550378
5434.000000;0.550452
5433.000000;0.550496
5432.000000;0.550480
5431.000000;0.550464
5430.000000;0.550535
5429.000000;0.550710
5428.000000;0.550920
5427.000000;0.551077
5426.000000;0.551148
5425.000000;0.551183
5424.000000;0.551248
5423.000000;0.551339
5422.000000;0.551384
5421.000000;0.551335
5420.000000;0.551235
5419.000000;0.551170
5418.000000;0.551166
5417.000000;0.551183
5416.000000;0.551204
5415.000000;0.551289
5414.000000;0.551494
5413.000000;0.551784
5412.000000;0.552050
5411.000000;0.552231
5410.000000;0.552354
5409.000000;0.552472
5408.000000;0.552598
5407.000000;0.552725
5406.000000;0.552844
5405.000000;0.552953
5404.000000;0.553055
5403.000000;0.553169
5402.000000;0.553291
5401.000000;0.553387
5400.000000;0.553452
5399.000000;0.553547
5398.000000;0.553744
5397.000000;0.554035
5396.000000;0.554329
5395.000000;0.554543
5394.000000;0.554669
5393.000000;0.554765
5392.000000;0.554872
5391.000000;0.554999
5390.000000;0.555161
5389.000000;0.555376
5388.000000;0.555639
5387.000000;0.555920
5386.000000;0.556164
5385.000000;0.556316
5384.000000;0.556383
5383.000000;0.556452
5382.000000;0.556625
5381.000000;0.556908
5380.000000;0.557213
5379.000000;0.557473
5378.000000;0.557713
5377.000000;0.557995
5376.000000;0.558328
5375.000000;0.558657
5374.000000;0.558926
5373.000000;0.559136
5372.000000;0.559323
5371.000000;0.559526
5370.000000;0.559771
5369.000000;0.560055
5368.000000;0.560344
5367.000000;0.560614
5366.000000;0.560884
5365.000000;0.561192
5364.000000;0.561542
5363.000000;0.561897
5362.000000;0.562224
5361.000000;0.562531
5360.000000;0.562860
5359.000000;0.563245
5358.000000;0.563683
5357.000000;0.564128
5356.000000;0.564540
5355.000000;0.564933
5354.000000;0.565374
5353.000000;0.565893
5352.000000;0.566423
5351.000000;0.566887
5350.000000;0.567321
5349.000000;0.567816
5348.000000;0.568320
5347.000000;0.568642
5346.000000;0.568692
5345.000000;0.568657
5344.000000;0.568824
5343.000000;0.569226
5342.000000;0.569602
5341.000000;0.569737
5340.000000;0.569701
5339.000000;0.569747
5338.000000;0.570072
5337.000000;0.570646
5336.000000;0.571230
5335.000000;0.571565
5334.000000;0.571542
5333.000000;0.571234
5332.000000;0.570811
5331.000000;0.570412
5330.000000;0.570067
5329.000000;0.569726
5328.000000;0.569321
5327.000000;0.568768
5326.000000;0.567936
5325.000000;0.566684
5324.000000;0.564943
5323.000000;0.562796
5322.000000;0.560466
5321.000000;0.558155
5320.000000;0.555847
5319.000000;0.553233
5318.000000;0.549879
5317.000000;0.545521
5316.000000;0.540246
5315.000000;0.534374
5314.000000;0.528128
5313.000000;0.521391
5312.000000;0.513758
5311.000000;0.504711
5310.000000;0.493762
5309.000000;0.480714
5308.000000;0.465997
5307.000000;0.450392
5306.000000;0.433927
5305.000000;0.415478
5304.000000;0.394238
5303.000000;0.371398
5302.000000;0.349862
5301.000000;0.332475
5300.000000;0.320831
5299.000000;0.315383
5298.000000;0.317015
5297.000000;0.327876
5296.000000;0.348197
5295.000000;0.374832
5294.000000;0.406648
5293.000000;0.446108
5292.000000;0.492242
5291.000000;0.538576
5290.000000;0.579917
5289.000000;0.615390
5288.000000;0.644948
5287.000000;0.669319
5286.000000;0.692627
5285.000000;0.718924
5284.000000;0.746645
5283.000000;0.771131
5282.000000;0.791275
5281.000000;0.809024
5280.000000;0.824384
5279.000000;0.836492
5278.000000;0.847551
5277.000000;0.860304
5276.000000;0.873439
5275.000000;0.883674
5274.000000;0.890100
5273.000000;0.893135
5272.000000;0.893032
5271.000000;0.893120
5270.000000;0.899688
5269.000000;0.914271
5268.000000;0.930041
5267.000000;0.940340
5266.000000;0.946661
5265.000000;0.952792
5264.000000;0.957213
5263.000000;0.957089
5262.000000;0.954072
5261.000000;0.950221
5260.000000;0.943512
5259.000000;0.933024
5258.000000;0.923474
5257.000000;0.919320
5256.000000;0.919479
5255.000000;0.921681
5254.000000;0.926650
5253.000000;0.934095
5252.000000;0.940170
5251.000000;0.943763
5250.000000;0.949283
5249.000000;0.957519
5248.000000;0.960694
5247.000000;0.953530
5246.000000;0.942902
5245.000000;0.938528
5244.000000;0.941118
5243.000000;0.945761
5242.000000;0.950916
5241.000000;0.956972
5240.000000;0.960412
5239.000000;0.957346
5238.000000;0.950043
5237.000000;0.943463
5236.000000;0.939010
5235.000000;0.936912
5234.000000;0.939523
5233.000000;0.946202
5232.000000;0.949864
5231.000000;0.945596
5230.000000;0.938470
5229.000000;0.935536
5228.000000;0.935244
5227.000000;0.931723
5226.000000;0.925703
5225.000000;0.923621
5224.000000;0.928553
5223.000000;0.938358
5222.000000;0.950424
5221.000000;0.962281
5220.000000;0.969137
5219.000000;0.967679
5218.000000;0.961112
5217.000000;0.954723
5216.000000;0.949505
5215.000000;0.944733
5214.000000;0.942671
5213.000000;0.945516
5212.000000;0.950530
5211.000000;0.952987
5210.000000;0.952649
5209.000000;0.952781
5208.000000;0.954307
5207.000000;0.955674
5206.000000;0.956414
5205.000000;0.956288
5204.000000;0.953531
5203.000000;0.948270
5202.000000;0.944705
5201.000000;0.945950
5200.000000;0.949697
5199.000000;0.952461
5198.000000;0.955126
5197.000000;0.959774
5196.000000;0.964151
5195.000000;0.964517
5194.000000;0.961550
5193.000000;0.958174
5192.000000;0.953874
5191.000000;0.946663
5190.000000;0.938724
5189.000000;0.934816
5188.000000;0.936840
5187.000000;0.943606
5186.000000;0.953417
5185.000000;0.963351
5184.000000;0.968449
5183.000000;0.966363
5182.000000;0.960948
5181.000000;0.956899
5180.000000;0.953647
5179.000000;0.948273
5178.000000;0.941623
5177.000000;0.937068
5176.000000;0.935164
5175.000000;0.933919
5174.000000;0.932930
5173.000000;0.933244
5172.000000;0.934563
5171.000000;0.936612
5170.000000;0.941626
5169.000000;0.951239
5168.000000;0.961929
5167.000000;0.967373
5166.000000;0.965409
5165.000000;0.959421
5164.000000;0.953654
5163.000000;0.950663
5162.000000;0.951379
5161.000000;0.953992
5160.000000;0.954042
5159.000000;0.948768
5158.000000;0.940394
5157.000000;0.932929
5156.000000;0.928122
5155.000000;0.926790
5154.000000;0.930914
5153.000000;0.940753
5152.000000;0.951830
5151.000000;0.958419
5150.000000;0.959173
5149.000000;0.956193
5148.000000;0.950665
5147.000000;0.943422
5146.000000;0.937512
5145.000000;0.935832
5144.000000;0.937272
5143.000000;0.938565
5142.000000;0.939484
5141.000000;0.942894
5140.000000;0.949766
5139.000000;0.957150
5138.000000;0.961263
5137.000000;0.960787
5136.000000;0.957191
5135.000000;0.953230
5134.000000;0.950869
5133.000000;0.949648
5132.000000;0.947671
5131.000000;0.944884
5130.000000;0.943813
5129.000000;0.946151
5128.000000;0.950616
5127.000000;0.955040
5126.000000;0.958429
5125.000000;0.960150
5124.000000;0.959170
5123.000000;0.955652
5122.000000;0.951905
5121.000000;0.950054
5120.000000;0.950138
5119.000000;0.951441
5118.000000;0.953585
5117.000000;0.955418
5116.000000;0.955350
5115.000000;0.953964
5114.000000;0.953743
5113.000000;0.955014
5112.000000;0.954994
5111.000000;0.952498
5110.000000;0.950310
5109.000000;0.950540
5108.000000;0.950964
5107.000000;0.948482
5106.000000;0.943544
5105.000000;0.938598
5104.000000;0.934945
5103.000000;0.933737
5102.000000;0.937184
5101.000000;0.945843
5100.000000;0.956281
5099.000000;0.963874
5098.000000;0.967241
5097.000000;0.967941
5096.000000;0.967234
5095.000000;0.965331
5094.000000;0.962120
5093.000000;0.956684
5092.000000;0.947942
5091.000000;0.937355
5090.000000;0.929109
5089.000000;0.926090
5088.000000;0.927154
5087.000000;0.929474
5086.000000;0.931953
5085.000000;0.935393
5084.000000;0.941096
5083.000000;0.949541
5082.000000;0.958309
5081.000000;0.961886
5080.000000;0.956970
5079.000000;0.948020
5078.000000;0.943868
5077.000000;0.948730
5076.000000;0.959075
5075.000000;0.969128
5074.000000;0.976441
5073.000000;0.980177
5072.000000;0.978132
5071.000000;0.969877
5070.000000;0.959810
5069.000000;0.953342
5068.000000;0.952140
5067.000000;0.954545
5066.000000;0.957970
5065.000000;0.959466
5064.000000;0.956979
5063.000000;0.951944
5062.000000;0.948212
5061.000000;0.947466
5060.000000;0.947937
5059.000000;0.948505
5058.000000;0.950652
5057.000000;0.954253
5056.000000;0.955311
5055.000000;0.950746
5054.000000;0.942588
5053.000000;0.935003
5052.000000;0.930373
5051.000000;0.930022
5050.000000;0.934575
5049.000000;0.940868
5048.000000;0.942012
5047.000000;0.934673
5046.000000;0.923891
5045.000000;0.917000
5044.000000;0.916095
5043.000000;0.918818
5042.000000;0.922884
5041.000000;0.926820
5040.000000;0.928784
5039.000000;0.927933
5038.000000;0.925209
5037.000000;0.920393
5036.000000;0.911213
5035.000000;0.898379
5034.000000;0.888344
5033.000000;0.887408
5032.000000;0.894868
5031.000000;0.903990
5030.000000;0.908876
5029.000000;0.908741
5028.000000;0.905976
5027.000000;0.902927
5026.000000;0.900822
5025.000000;0.899298
5024.000000;0.896934
5023.000000;0.893746
5022.000000;0.892117
5021.000000;0.893439
5020.000000;0.895009
5019.000000;0.892813
5018.000000;0.886882
5017.000000;0.881318
5016.000000;0.879452
5015.000000;0.881021
5014.000000;0.883402
5013.000000;0.883792
5012.000000;0.880421
5011.000000;0.873424
5010.000000;0.865051
5009.000000;0.858174
5008.000000;0.854444
5007.000000;0.853726
5006.000000;0.854107
5005.000000;0.852453
5004.000000;0.846629
5003.000000;0.837762
5002.000000;0.829261
5001.000000;0.823385
5000.000000;0.819906
4999.000000;0.817888
4998.000000;0.816854
4997.000000;0.815604
4996.000000;0.811801
4995.000000;0.804438
4994.000000;0.795581
4993.000000;0.788258
4992.000000;0.783610
4991.000000;0.780767
4990.000000;0.778231
4989.000000;0.774687
4988.000000;0.769815
4987.000000;0.765096
4986.000000;0.762578
4985.000000;0.762350
4984.000000;0.762304
4983.000000;0.760568
4982.000000;0.756867
4981.000000;0.751445
4980.000000;0.744635
4979.000000;0.737828
4978.000000;0.732650
4977.000000;0.728459
4976.000000;0.722633
4975.000000;0.714277
4974.000000;0.705779
4973.000000;0.699757
4972.000000;0.696542
4971.000000;0.695228
4970.000000;0.694805
4969.000000;0.693268
4968.000000;0.688131
4967.000000;0.679526
4966.000000;0.670722
4965.000000;0.664099
4964.000000;0.658786
4963.000000;0.653405
4962.000000;0.648903
4961.000000;0.646695
4960.000000;0.645373
4959.000000;0.641543
4958.000000;0.633558
4957.000000;0.622835
4956.000000;0.612232
4955.000000;0.604335
4954.000000;0.600135
4953.000000;0.597721
4952.000000;0.593188
4951.000000;0.584440
4950.000000;0.573369
4949.000000;0.563394
4948.000000;0.556151
4947.000000;0.551233
4946.000000;0.547430
4945.000000;0.543054
4944.000000;0.536522
4943.000000;0.528052
4942.000000;0.519782
4941.000000;0.513195
4940.000000;0.507505
4939.000000;0.501497
4938.000000;0.495611
4937.000000;0.490805
4936.000000;0.486517
4935.000000;0.481177
4934.000000;0.474006
4933.000000;0.465182
4932.000000;0.455008
4931.000000;0.444221
4930.000000;0.434422
4929.000000;0.426815
4928.000000;0.420936
4927.000000;0.415475
4926.000000;0.409691
4925.000000;0.403320
4924.000000;0.396078
4923.000000;0.388292
4922.000000;0.381235
4921.000000;0.375631
4920.000000;0.370446
4919.000000;0.364107
4918.000000;0.356341
4917.000000;0.348004
4916.000000;0.339714
4915.000000;0.331549
4914.000000;0.323523
4913.000000;0.315456
4912.000000;0.306736
4911.000000;0.297055
4910.000000;0.287114
4909.000000;0.277974
4908.000000;0.270084
4907.000000;0.263462
4906.000000;0.258131
4905.000000;0.253561
4904.000000;0.248324
4903.000000;0.241270
4902.000000;0.232667
4901.000000;0.223544
4900.000000;0.214390
4899.000000;0.205235
4898.000000;0.196662
4897.000000;0.189756
4896.000000;0.184880
4895.000000;0.181018
4894.000000;0.176497
4893.000000;0.170155
4892.000000;0.162138
4891.000000;0.153944
4890.000000;0.147463
4889.000000;0.143509
4888.000000;0.141217
4887.000000;0.138942
4886.000000;0.135707
4885.000000;0.131679
4884.000000;0.127523
4883.000000;0.123593
4882.000000;0.119688
4881.000000;0.115379
4880.000000;0.110507
4879.000000;0.105361
4878.000000;0.100475
4877.000000;0.096368
4876.000000;0.093275
4875.000000;0.090843
4874.000000;0.088238
4873.000000;0.084870
4872.000000;0.081076
4871.000000;0.077888
4870.000000;0.076115
4869.000000;0.075878
4868.000000;0.076832
4867.000000;0.078316
4866.000000;0.079381
4865.000000;0.079217
4864.000000;0.077697
4863.000000;0.075406
4862.000000;0.073113
4861.000000;0.071446
4860.000000;0.070944
4859.000000;0.071797
4858.000000;0.073426
4857.000000;0.074903
4856.000000;0.076094
4855.000000;0.077991
4854.000000;0.081499
4853.000000;0.086119
4852.000000;0.090300
4851.000000;0.093052
4850.000000;0.094838
4849.000000;0.096757
4848.000000;0.099189
4847.000000;0.101586
4846.000000;0.103376
4845.000000;0.104598
4844.000000;0.105666
4843.000000;0.106982
4842.000000;0.108984
4841.000000;0.112088
4840.000000;0.116147
4839.000000;0.120275
4838.000000;0.123693
4837.000000;0.126592
4836.000000;0.129698
4835.000000;0.133191
4834.000000;0.136577
4833.000000;0.139533
4832.000000;0.142258
4831.000000;0.144950
4830.000000;0.147521
4829.000000;0.150012
4828.000000;0.152739
4827.000000;0.155761
4826.000000;0.158703
4825.000000;0.161373
4824.000000;0.164071
4823.000000;0.166996
4822.000000;0.169819
4821.000000;0.172297
4820.000000;0.174919
4819.000000;0.178384
4818.000000;0.182605
4817.000000;0.186755
4816.000000;0.190210
4815.000000;0.193046
4814.000000;0.195680
4813.000000;0.198415
4812.000000;0.201383
4811.000000;0.204570
4810.000000;0.207729
4809.000000;0.210504
4808.000000;0.212789
4807.000000;0.214838
4806.000000;0.216961
4805.000000;0.219233
4804.000000;0.221581
4803.000000;0.223980
4802.000000;0.226450
4801.000000;0.229010
4800.000000;0.231710
4799.000000;0.234651
4798.000000;0.237790
4797.000000;0.240766
4796.000000;0.243122
4795.000000;0.244805
4794.000000;0.246334
4793.000000;0.248325
4792.000000;0.250907
4791.000000;0.253692
4790.000000;0.256282
4789.000000;0.258584
4788.000000;0.260656
4787.000000;0.262508
4786.000000;0.264234
4785.000000;0.266166
4784.000000;0.268635
4783.000000;0.271564
4782.000000;0.274472
4781.000000;0.276916
4780.000000;0.278846
4779.000000;0.280570
4778.000000;0.282471
4777.000000;0.284745
4776.000000;0.287253
4775.000000;0.289618
4774.000000;0.291578
4773.000000;0.293274
4772.000000;0.295082
4771.000000;0.297155
4770.000000;0.299284
4769.000000;0.301215
4768.000000;0.302965
4767.000000;0.304674
4766.000000;0.306267
4765.000000;0.307470
4764.000000;0.308199
4763.000000;0.308819
4762.000000;0.309882
4761.000000;0.311621
4760.000000;0.313765
4759.000000;0.315881
4758.000000;0.317815
4757.000000;0.319724
4756.000000;0.321745
4755.000000;0.323794
4754.000000;0.325726
4753.000000;0.327525
4752.000000;0.329227
4751.000000;0.330764
4750.000000;0.332070
4749.000000;0.333264
4748.000000;0.334577
4747.000000;0.336074
4746.000000;0.337579
4745.000000;0.338922
4744.000000;0.340138
4743.000000;0.341380
4742.000000;0.342738
4741.000000;0.344194
4740.000000;0.345684
4739.000000;0.347139
4738.000000;0.348526
4737.000000;0.349905
4736.000000;0.351425
4735.000000;0.353181
4734.000000;0.355080
4733.000000;0.356857
4732.000000;0.358230
4731.000000;0.359104
4730.000000;0.359677
4729.000000;0.360314
4728.000000;0.361282
4727.000000;0.362550
4726.000000;0.363870
4725.000000;0.365017
4724.000000;0.365924
4723.000000;0.366644
4722.000000;0.367282
4721.000000;0.367972
4720.000000;0.368816
4719.000000;0.369793
4718.000000;0.370780
4717.000000;0.371720
4716.000000;0.372717
4715.000000;0.373938
4714.000000;0.375424
4713.000000;0.377028
4712.000000;0.378508
4711.000000;0.379663
4710.000000;0.380440
4709.000000;0.380972
4708.000000;0.381482
4707.000000;0.382120
4706.000000;0.382873
4705.000000;0.383639
4704.000000;0.384368
4703.000000;0.385122
4702.000000;0.386018
4701.000000;0.387124
4700.000000;0.388366
4699.000000;0.389541
4698.000000;0.390460
4697.000000;0.391110
4696.000000;0.391654
4695.000000;0.392271
4694.000000;0.393014
4693.000000;0.393865
4692.000000;0.394837
4691.000000;0.395961
4690.000000;0.397178
4689.000000;0.398322
4688.000000;0.399253
4687.000000;0.399950
4686.000000;0.400465
4685.000000;0.400840
4684.000000;0.401117
4683.000000;0.401402
4682.000000;0.401852
4681.000000;0.402551
4680.000000;0.403410
4679.000000;0.404236
4678.000000;0.404902
4677.000000;0.405445
4676.000000;0.406027
4675.000000;0.406797
4674.000000;0.407780
4673.000000;0.408860
4672.000000;0.409848
4671.000000;0.410616
4670.000000;0.411190
4669.000000;0.411706
4668.000000;0.412267
4667.000000;0.412861
4666.000000;0.413405
4665.000000;0.413854
4664.000000;0.414253
4663.000000;0.414688
4662.000000;0.415202
4661.000000;0.415760
4660.000000;0.416296
4659.000000;0.416801
4658.000000;0.417354
4657.000000;0.418020
4656.000000;0.418734
4655.000000;0.419311
4654.000000;0.419630
4653.000000;0.419793
4652.000000;0.420055
4651.000000;0.420605
4650.000000;0.421414
4649.000000;0.422251
4648.000000;0.422866
4647.000000;0.423165
4646.000000;0.423280
4645.000000;0.423455
4644.000000;0.423830
4643.000000;0.424339
4642.000000;0.424805
4641.000000;0.425144
4640.000000;0.425433
4639.000000;0.425818
4638.000000;0.426367
4637.000000;0.427033
4636.000000;0.427703
4635.000000;0.428290
4634.000000;0.428780
4633.000000;0.429217
4632.000000;0.429639
4631.000000;0.430032
4630.000000;0.430350
4629.000000;0.430594
4628.000000;0.430852
4627.000000;0.431237
4626.000000;0.431752
4625.000000;0.432242
4624.000000;0.432532
4623.000000;0.432660
4622.000000;0.432897
4621.000000;0.433444
4620.000000;0.434153
4619.000000;0.434650
4618.000000;0.434769
4617.000000;0.434734
4616.000000;0.434873
4615.000000;0.435256
4614.000000;0.435728
4613.000000;0.436182
4612.000000;0.436631
4611.000000;0.437037
4610.000000;0.437252
4609.000000;0.437202
4608.000000;0.437030
4607.000000;0.436969
4606.000000;0.437120
4605.000000;0.437419
4604.000000;0.437768
4603.000000;0.438140
4602.000000;0.438556
4601.000000;0.439011
4600.000000;0.439451
4599.000000;0.439811
4598.000000;0.440094
4597.000000;0.440396
4596.000000;0.440810
4595.000000;0.441302
4594.000000;0.441726
4593.000000;0.441964
4592.000000;0.442032
4591.000000;0.442020
4590.000000;0.441997
4589.000000;0.442000
4588.000000;0.442077
4587.000000;0.442264
4586.000000;0.442538
4585.000000;0.442832
4584.000000;0.443096
4583.000000;0.443331
4582.000000;0.443556
4581.000000;0.443775
4580.000000;0.443965
4579.000000;0.444092
4578.000000;0.444135
4577.000000;0.444120
4576.000000;0.444131
4575.000000;0.444265
4574.000000;0.444551
4573.000000;0.444919
4572.000000;0.445237
4571.000000;0.445393
4570.000000;0.445372
4569.000000;0.445271
4568.000000;0.445227
4567.000000;0.445324
4566.000000;0.445546
4565.000000;0.445814
4564.000000;0.446034
4563.000000;0.446136
4562.000000;0.446131
4561.000000;0.446133
4560.000000;0.446283
4559.000000;0.446580
4558.000000;0.446842
4557.000000;0.446887
4556.000000;0.446760
4555.000000;0.446690
4554.000000;0.446826
4553.000000;0.447087
4552.000000;0.447273
4551.000000;0.447285
4550.000000;0.447161
4549.000000;0.446967
4548.000000;0.446739
4547.000000;0.446529
4546.000000;0.446421
4545.000000;0.446458
4544.000000;0.446583
4543.000000;0.446714
4542.000000;0.446841
4541.000000;0.447008
4540.000000;0.447198
4539.000000;0.447303
4538.000000;0.447247
4537.000000;0.447096
4536.000000;0.447021
4535.000000;0.447112
4534.000000;0.447275
4533.000000;0.447331
4532.000000;0.447216
4531.000000;0.447062
4530.000000;0.447058
4529.000000;0.447250
4528.000000;0.447506
4527.000000;0.447675
4526.000000;0.447715
4525.000000;0.447652
4524.000000;0.447466
4523.000000;0.447113
4522.000000;0.446668
4521.000000;0.446343
4520.000000;0.446296
4519.000000;0.446460
4518.000000;0.446630
4517.000000;0.446706
4516.000000;0.446784
4515.000000;0.446968
4514.000000;0.447166
4513.000000;0.447163
4512.000000;0.446904
4511.000000;0.446642
4510.000000;0.446710
4509.000000;0.447147
4508.000000;0.447609
4507.000000;0.447702
4506.000000;0.447365
4505.000000;0.446895
4504.000000;0.446629
4503.000000;0.446659
4502.000000;0.446827
4501.000000;0.446871
4500.000000;0.446591
4499.000000;0.445994
4498.000000;0.445378
4497.000000;0.445162
4496.000000;0.445504
4495.000000;0.446120
4494.000000;0.446555
4493.000000;0.446619
4492.000000;0.446481
4491.000000;0.446362
4490.000000;0.446292
4489.000000;0.446178
4488.000000;0.445995
4487.000000;0.445811
4486.000000;0.445694
4485.000000;0.445687
4484.000000;0.445818
4483.000000;0.446065
4482.000000;0.446306
4481.000000;0.446392
4480.000000;0.446277
4479.000000;0.446047
4478.000000;0.445815
4477.000000;0.445641
4476.000000;0.445529
4475.000000;0.445478
4474.000000;0.445500
4473.000000;0.445613
4472.000000;0.445806
4471.000000;0.446014
4470.000000;0.446117
4469.000000;0.446022
4468.000000;0.445753
4467.000000;0.445456
4466.000000;0.445272
4465.000000;0.445194
4464.000000;0.445082
4463.000000;0.444833
4462.000000;0.444516
4461.000000;0.444289
4460.000000;0.444199
4459.000000;0.444112
4458.000000;0.443913
4457.000000;0.443682
4456.000000;0.443582
4455.000000;0.443593
4454.000000;0.443504
4453.000000;0.443223
4452.000000;0.442959
4451.000000;0.442975
4450.000000;0.443231
4449.000000;0.443415
4448.000000;0.443335
4447.000000;0.443147
4446.000000;0.443123
4445.000000;0.443331
4444.000000;0.443616
4443.000000;0.443823
4442.000000;0.443914
4441.000000;0.443901
4440.000000;0.443765
4439.000000;0.443491
4438.000000;0.443119
4437.000000;0.442751
4436.000000;0.442550
4435.000000;0.442673
4434.000000;0.443102
4433.000000;0.443550
4432.000000;0.443688
4431.000000;0.443478
4430.000000;0.443185
4429.000000;0.442985
4428.000000;0.442720
4427.000000;0.442171
4426.000000;0.441435
4425.000000;0.440841
4424.000000;0.440525
4423.000000;0.440304
4422.000000;0.439996
4421.000000;0.439666
4420.000000;0.439472
4419.000000;0.439427
4418.000000;0.439427
4417.000000;0.439420
4416.000000;0.439417
4415.000000;0.439416
4414.000000;0.439412
4413.000000;0.439433
4412.000000;0.439439
4411.000000;0.439245
4410.000000;0.438676
4409.000000;0.437809
4408.000000;0.436935
4407.000000;0.436278
4406.000000;0.435813
4405.000000;0.435409
4404.000000;0.435061
4403.000000;0.434893
4402.000000;0.434958
4401.000000;0.435074
4400.000000;0.434911
4399.000000;0.434290
4398.000000;0.433388
4397.000000;0.432614
4396.000000;0.432222
4395.000000;0.432103
4394.000000;0.431961
4393.000000;0.431644
4392.000000;0.431219
4391.000000;0.430779
4390.000000;0.430264
4389.000000;0.429513
4388.000000;0.428471
4387.000000;0.427304
4386.000000;0.426290
4385.000000;0.425575
4384.000000;0.425089
4383.000000;0.424706
4382.000000;0.424393
4381.000000;0.424080
4380.000000;0.423502
4379.000000;0.422435
4378.000000;0.421081
4377.000000;0.419942
4376.000000;0.419159
4375.000000;0.418278
4374.000000;0.416911
4373.000000;0.415380
4372.000000;0.414332
4371.000000;0.413841
4370.000000;0.413285
4369.000000;0.412161
4368.000000;0.410712
4367.000000;0.409600
4366.000000;0.409168
4365.000000;0.409143
4364.000000;0.408879
4363.000000;0.407844
4362.000000;0.406041
4361.000000;0.404025
4360.000000;0.402387
4359.000000;0.401187
4358.000000;0.400032
4357.000000;0.398689
4356.000000;0.397353
4355.000000;0.396258
4354.000000;0.395323
4353.000000;0.394356
4352.000000;0.393368
4351.000000;0.392463
4350.000000;0.391566
4349.000000;0.390491
4348.000000;0.389211
4347.000000;0.387880
4346.000000;0.386647
4345.000000;0.385575
4344.000000;0.384639
4343.000000;0.383693
4342.000000;0.382467
4341.000000;0.380743
4340.000000;0.378545
4339.000000;0.376175
4338.000000;0.374112
4337.000000;0.372788
4336.000000;0.372224
4335.000000;0.371881
4334.000000;0.371101
4333.000000;0.369709
4332.000000;0.367955
4331.000000;0.365934
4330.000000;0.363554
4329.000000;0.361135
4328.000000;0.359447
4327.000000;0.358804
4326.000000;0.358543
4325.000000;0.357848
4324.000000;0.356711
4323.000000;0.355560
4322.000000;0.354344
4321.000000;0.352708
4320.000000;0.350891
4319.000000;0.349631
4318.000000;0.349055
4317.000000;0.348354
4316.000000;0.346803
4315.000000;0.344586
4314.000000;0.342348
4313.000000;0.340451
4312.000000;0.338990
4311.000000;0.338057
4310.000000;0.337511
4309.000000;0.336783
4308.000000;0.335425
4307.000000;0.333794
4306.000000;0.332753
4305.000000;0.332685
4304.000000;0.333121
4303.000000;0.333330
4302.000000;0.332984
4301.000000;0.332202
4300.000000;0.331239
4299.000000;0.330297
4298.000000;0.329469
4297.000000;0.328599
4296.000000;0.327241
4295.000000;0.325058
4294.000000;0.322431
4293.000000;0.320469
4292.000000;0.320107
4291.000000;0.321121
4290.000000;0.322303
4289.000000;0.322684
4288.000000;0.322368
4287.000000;0.322077
4286.000000;0.322267
4285.000000;0.322956
4284.000000;0.324135
4283.000000;0.325862
4282.000000;0.328051
4281.000000;0.330618
4280.000000;0.333766
4279.000000;0.337574
4278.000000;0.341362
4277.000000;0.344149
4276.000000;0.345953
4275.000000;0.348011
4274.000000;0.351372
4273.000000;0.355805
4272.000000;0.360613
4271.000000;0.365874
4270.000000;0.372031
4269.000000;0.378587
4268.000000;0.384256
4267.000000;0.388494
4266.000000;0.392097
4265.000000;0.396166
4264.000000;0.401268
4263.000000;0.407738
4262.000000;0.415818
4261.000000;0.424978
4260.000000;0.433821
4259.000000;0.441182
4258.000000;0.446919
4257.000000;0.451537
4256.000000;0.455874
4255.000000;0.461364
4254.000000;0.469531
4253.000000;0.480345
4252.000000;0.491553
4251.000000;0.500657
4250.000000;0.507584
4249.000000;0.514424
4248.000000;0.522764
4247.000000;0.532002
4246.000000;0.540499
4245.000000;0.547628
4244.000000;0.554428
4243.000000;0.562669
4242.000000;0.573422
4241.000000;0.586189
4240.000000;0.599356
4239.000000;0.611607
4238.000000;0.622677
4237.000000;0.632711
4236.000000;0.641677
4235.000000;0.649894
4234.000000;0.658552
4233.000000;0.668800
4232.000000;0.680284
4231.000000;0.691245
4230.000000;0.700336
4229.000000;0.708069
4228.000000;0.715945
4227.000000;0.724524
4226.000000;0.732911
4225.000000;0.740370
4224.000000;0.748133
4223.000000;0.758659
4222.000000;0.772688
4221.000000;0.787601
4220.000000;0.799427
4219.000000;0.806457
4218.000000;0.810395
4217.000000;0.814656
4216.000000;0.822325
4215.000000;0.834739
4214.000000;0.850194
4213.000000;0.864261
4212.000000;0.873737
4211.000000;0.880660
4210.000000;0.890065
4209.000000;0.903742
4208.000000;0.918250
4207.000000;0.929273
4206.000000;0.935994
4205.000000;0.940491
4204.000000;0.945526
4203.000000;0.954256
4202.000000;0.969182
4201.000000;0.989098
4200.000000;1.008735
4199.000000;1.023950
4198.000000;1.035987
4197.000000;1.047678
4196.000000;1.058115
4195.000000;1.065292
4194.000000;1.071673
4193.000000;1.082483
4192.000000;1.099067
4191.000000;1.116866
4190.000000;1.130078
4189.000000;1.137089
4188.000000;1.141012
4187.000000;1.146419
4186.000000;1.156213
4185.000000;1.169427
4184.000000;1.181566
4183.000000;1.189117
4182.000000;1.193061
4181.000000;1.195995
4180.000000;1.197593
4179.000000;1.196439
4178.000000;1.195337
4177.000000;1.199834
4176.000000;1.213288
4175.000000;1.235189
4174.000000;1.260992
4173.000000;1.283033
4172.000000;1.294716
4171.000000;1.297220
4170.000000;1.300117
4169.000000;1.312143
4168.000000;1.332857
4167.000000;1.354931
4166.000000;1.372164
4165.000000;1.381902
4164.000000;1.382854
4163.000000;1.376471
4162.000000;1.369222
4161.000000;1.367964
4160.000000;1.373732
4159.000000;1.383917
4158.000000;1.398956
4157.000000;1.421145
4156.000000;1.446428
4155.000000;1.463832
4154.000000;1.466084
4153.000000;1.459402
4152.000000;1.457296
4151.000000;1.466217
4150.000000;1.485538
4149.000000;1.512780
4148.000000;1.537145
4147.000000;1.538056
4146.000000;1.509980
4145.000000;1.477649
4144.000000;1.469205
4143.000000;1.492341
4142.000000;1.532444
4141.000000;1.563751
4140.000000;1.570488
4139.000000;1.559967
4138.000000;1.552924
4137.000000;1.566321
4136.000000;1.602506
4135.000000;1.644093
4134.000000;1.661922
4133.000000;1.648282
4132.000000;1.629142
4131.000000;1.629197
4130.000000;1.648994
4129.000000;1.672466
4128.000000;1.687535
4127.000000;1.692492
4126.000000;1.690634
4125.000000;1.691634
4124.000000;1.706865
4123.000000;1.733498
4122.000000;1.750541
4121.000000;1.742477
4120.000000;1.719872
4119.000000;1.705072
4118.000000;1.710454
4117.000000;1.738032
4116.000000;1.785790
4115.000000;1.841911
4114.000000;1.880525
4113.000000;1.881459
4112.000000;1.853934
4111.000000;1.821754
4110.000000;1.797631
4109.000000;1.780836
4108.000000;1.771931
4107.000000;1.783345
4106.000000;1.827991
4105.000000;1.896023
4104.000000;1.943719
4103.000000;1.932850
4102.000000;1.884802
4101.000000;1.845661
4100.000000;1.839446
4099.000000;1.864261
4098.000000;1.897490
4097.000000;1.908757
4096.000000;1.891803
4095.000000;1.873581
4094.000000;1.886167
4093.000000;1.942612
4092.000000;2.020678
4091.000000;2.058575
4090.000000;2.017620
4089.000000;1.943690
4088.000000;1.896826
4087.000000;1.893181
4086.000000;1.914394
4085.000000;1.941523
4084.000000;1.975060
4083.000000;2.013003
4082.000000;2.032919
4081.000000;2.016622
4080.000000;1.983614
4079.000000;1.964540
4078.000000;1.975944
4077.000000;2.010775
4076.000000;2.022839
4075.000000;1.997042
4074.000000;1.985462
4073.000000;2.016142
4072.000000;2.064637
4071.000000;2.084150
4070.000000;2.053494
4069.000000;2.016120
4068.000000;2.021253
4067.000000;2.070181
4066.000000;2.138444
4065.000000;2.204923
4064.000000;2.252238
4063.000000;2.258821
4062.000000;2.228688
4061.000000;2.197779
4060.000000;2.193309
4059.000000;2.223009
4058.000000;2.252112
4057.000000;2.210355
4056.000000;2.154918
4055.000000;2.122765
4054.000000;2.068641
4053.000000;2.016656
4052.000000;2.011568
4051.000000;2.048062
4050.000000;2.095421
4049.000000;2.152654
4048.000000;2.247293
4047.000000;2.322892
4046.000000;2.323993
4045.000000;2.309276
4044.000000;2.286337
4043.000000;2.237999
4042.000000;2.192766
4041.000000;2.192996
4040.000000;2.243656
4039.000000;2.308435
4038.000000;2.360620
4037.000000;2.396532
4036.000000;2.414937
4035.000000;2.443206
4034.000000;2.414586
4033.000000;2.315054
4032.000000;2.275106
4031.000000;2.322435
4030.000000;2.427833
4029.000000;2.509428
4028.000000;2.484302
4027.000000;2.437657
4026.000000;2.424380
4025.000000;2.363369
4024.000000;2.234289
4023.000000;2.108475
4022.000000;2.032277
4021.000000;2.023965
4020.000000;2.077680
4019.000000;2.173988
4018.000000;2.279696
4017.000000;2.356403
4016.000000;2.392180
4015.000000;2.383475
4014.000000;2.340900
4013.000000;2.319948
4012.000000;2.358521
4011.000000;2.463176
4010.000000;2.642089
4009.000000;2.905289
4008.000000;2.653695
4007.000000;2.454921
4006.000000;2.481972
4005.000000;2.647733
4004.000000;2.525660
4003.000000;2.333067
4002.000000;2.260546
4001.000000;2.246158
4000.000000;2.236741
3999.000000;2.204834
3998.000000;2.183233
3997.000000;2.223382
3996.000000;2.330263
3995.000000;2.363454
3994.000000;2.232382
3993.000000;2.107890
3992.000000;2.081493
3991.000000;2.146117
3990.000000;2.228539
3989.000000;2.267332
3988.000000;2.263500
3987.000000;2.238498
3986.000000;2.208079
3985.000000;2.169402
3984.000000;2.145881
3983.000000;2.179593
3982.000000;2.277077
3981.000000;2.380570
3980.000000;2.419291
3979.000000;2.402407
3978.000000;2.410959
3977.000000;2.480609
3976.000000;2.525714
3975.000000;2.449628
3974.000000;2.304818
3973.000000;2.186338
3972.000000;2.137575
3971.000000;2.151547
3970.000000;2.185559
3969.000000;2.193258
3968.000000;2.180226
3967.000000;2.190234
3966.000000;2.252973
3965.000000;2.315164
3964.000000;2.314351
3963.000000;2.343672
3962.000000;2.616106
3961.000000;2.782159
3960.000000;2.424041
3959.000000;2.292642
3958.000000;2.278889
3957.000000;2.252751
3956.000000;2.210857
3955.000000;2.207084
3954.000000;2.270014
3953.000000;2.413557
3952.000000;2.674555
3951.000000;2.744771
3950.000000;2.442594
3949.000000;2.221000
3948.000000;2.046677
3947.000000;1.982421
3946.000000;2.058165
3945.000000;2.303551
3944.000000;2.834574
3943.000000;2.950121
3942.000000;2.690416
3941.000000;2.661042
3940.000000;2.684029
3939.000000;2.646089
3938.000000;2.418703
3937.000000;2.310838
3936.000000;2.373715
3935.000000;2.561295
3934.000000;2.648012
3933.000000;2.785858
3932.000000;3.226858
3931.000000;2.726502
3930.000000;2.657540
3929.000000;2.735976
3928.000000;2.579199
3927.000000;2.480510
3926.000000;2.436601
3925.000000;2.378950
3924.000000;2.282120
3923.000000;2.191911
3922.000000;2.153013
3921.000000;2.182889
3920.000000;2.261031
3919.000000;2.422751
3918.000000;2.647859
3917.000000;2.406141
3916.000000;2.171806
3915.000000;2.129942
3914.000000;2.204680
3913.000000;2.391795
3912.000000;2.677427
3911.000000;2.868965
3910.000000;2.630936
3909.000000;2.322087
3908.000000;2.120375
3907.000000;2.613510
3906.000000;3.625414
3905.000000;2.890496
3904.000000;2.674686
3903.000000;2.580390
3902.000000;2.481943
3901.000000;2.513721
3900.000000;2.030354
3899.000000;2.013282
3898.000000;2.110767
3897.000000;2.184852
3896.000000;2.216223
3895.000000;2.119675
3894.000000;2.044594
3893.000000;2.030427
3892.000000;2.019738
3891.000000;1.988244
3890.000000;2.006094
3889.000000;2.008902
3888.000000;1.948244
3887.000000;1.897017
3886.000000;1.877583
3885.000000;1.958413
3884.000000;2.271252
3883.000000;2.711458
3882.000000;2.415686
3881.000000;2.174578
3880.000000;2.100890
3879.000000;2.175177
3878.000000;2.382401
3877.000000;2.532514
3876.000000;2.443226
3875.000000;2.277568
3874.000000;2.262964
3873.000000;2.651743
3872.000000;2.484790
3871.000000;2.153336
3870.000000;1.855504
3869.000000;2.112824
3868.000000;2.221761
3867.000000;2.214889
3866.000000;2.376187
3865.000000;2.539332
3864.000000;2.810502
3863.000000;3.105180
3862.000000;3.066319
3861.000000;2.825769
3860.000000;2.697341
3859.000000;2.585834
3858.000000;2.566316
3857.000000;2.697117
3856.000000;3.068274
3855.000000;3.178656
3854.000000;2.928775
3853.000000;2.968142
3852.000000;2.720103
3851.000000;3.045905
3850.000000;3.167866
3849.000000;2.641169
3848.000000;2.481102
3847.000000;2.527014
3846.000000;2.585261
3845.000000;2.368654
3844.000000;2.216747
3843.000000;2.206635
3842.000000;2.292652
3841.000000;2.420472
3840.000000;2.630235
3839.000000;2.748033
3838.000000;2.577380
3837.000000;2.457152
3836.000000;2.377306
3835.000000;2.355640
3834.000000;2.447533
3833.000000;2.600670
3832.000000;2.648009
3831.000000;2.646128
3830.000000;2.817622
3829.000000;3.542578
3828.000000;3.028877
3827.000000;2.584865
3826.000000;2.419035
3825.000000;2.411764
3824.000000;2.533068
3823.000000;2.651068
3822.000000;2.664147
3821.000000;2.839093
3820.000000;2.946751
3819.000000;2.502022
3818.000000;2.414934
3817.000000;2.348642
3816.000000;2.245905
3815.000000;2.220212
3814.000000;2.381821
3813.000000;2.786546
3812.000000;2.514465
3811.000000;2.255005
3810.000000;2.346299
3809.000000;2.633875
3808.000000;2.802017
3807.000000;2.454478
3806.000000;2.169154
3805.000000;2.124221
3804.000000;2.249983
3803.000000;2.371857
3802.000000;2.402313
3801.000000;2.481013
3800.000000;2.568759
3799.000000;2.606338
3798.000000;2.683572
3797.000000;2.833161
3796.000000;3.004984
3795.000000;2.900099
3794.000000;2.906689
3793.000000;3.084927
3792.000000;2.920840
3791.000000;2.745480
3790.000000;2.709470
3789.000000;3.007102
3788.000000;3.255423
3787.000000;2.633653
3786.000000;2.434284
3785.000000;2.332929
3784.000000;2.318937
3783.000000;2.353423
3782.000000;2.417799
3781.000000;2.536470
3780.000000;2.944856
3779.000000;3.077323
3778.000000;2.532120
3777.000000;2.362309
3776.000000;2.300195
3775.000000;2.293649
3774.000000;2.335319
3773.000000;2.410580
3772.000000;2.453600
3771.000000;2.371113
3770.000000;2.206839
3769.000000;2.110639
3768.000000;2.134214
3767.000000;2.228257
3766.000000;2.383229
3765.000000;2.739261
3764.000000;2.707955
3763.000000;2.572112
3762.000000;2.684909
3761.000000;2.490789
3760.000000;2.247512
3759.000000;2.111513
3758.000000;2.018262
3757.000000;1.983835
3756.000000;2.036971
3755.000000;2.569615
3754.000000;2.798436
3753.000000;2.246358
3752.000000;2.463081
3751.000000;2.588949
3750.000000;2.895892
3749.000000;3.077412
3748.000000;2.600831
3747.000000;2.534980
3746.000000;2.534860
3745.000000;2.440676
3744.000000;2.317791
3743.000000;2.265555
3742.000000;2.261365
3741.000000;2.268078
3740.000000;2.314995
3739.000000;2.465915
3738.000000;2.880905
3737.000000;3.070215
3736.000000;2.589439
3735.000000;2.411101
3734.000000;2.422394
3733.000000;2.297522
3732.000000;2.317323
3731.000000;2.342921
3730.000000;2.508031
3729.000000;2.385585
3728.000000;1.951515
3727.000000;1.786687
3726.000000;1.807359
3725.000000;2.011089
3724.000000;2.317530
3723.000000;2.367562
3722.000000;2.242614
3721.000000;2.209559
3720.000000;2.270018
3719.000000;2.416684
3718.000000;3.343497
3717.000000;2.520468
3716.000000;2.192816
3715.000000;2.236808
3714.000000;2.331703
3713.000000;2.344958
3712.000000;2.293353
3711.000000;2.296107
3710.000000;2.347628
3709.000000;2.346327
3708.000000;2.322319
3707.000000;2.331047
3706.000000;2.395572
3705.000000;2.602311
3704.000000;2.799051
3703.000000;2.691607
3702.000000;2.631506
3701.000000;2.664892
3700.000000;2.629612
3699.000000;2.475008
3698.000000;2.378007
3697.000000;2.391392
3696.000000;2.497624
3695.000000;2.581862
3694.000000;2.714318
3693.000000;3.200140
3692.000000;3.002944
3691.000000;2.924837
3690.000000;3.182590
3689.000000;2.843884
3688.000000;2.562445
3687.000000;2.471159
3686.000000;2.516539
3685.000000;2.601503
3684.000000;2.518078
3683.000000;2.279854
3682.000000;2.085114
3681.000000;1.962616
3680.000000;1.928882
3679.000000;2.071019
3678.000000;2.427045
3677.000000;2.721159
3676.000000;2.986128
3675.000000;2.990576
3674.000000;2.463999
3673.000000;2.610269
3672.000000;2.880213
3671.000000;2.863684
3670.000000;2.720031
3669.000000;2.511350
3668.000000;2.554595
3667.000000;2.759047
3666.000000;3.063234
3665.000000;2.990128
3664.000000;2.710798
3663.000000;2.623856
3662.000000;2.711655
3661.000000;3.115280
3660.000000;3.242620
3659.000000;2.849990
3658.000000;2.648689
3657.000000;2.531188
3656.000000;2.625031
3655.000000;2.875035
3654.000000;2.453997
3653.000000;2.554624
3652.000000;2.705059
3651.000000;2.367723
3650.000000;2.324335
3649.000000;2.444247
3648.000000;2.667698
3647.000000;2.763559
3646.000000;2.617608
3645.000000;2.492725
3644.000000;2.439688
3643.000000;2.449668
3642.000000;2.566211
3641.000000;2.743633
3640.000000;2.572013
3639.000000;2.327113
3638.000000;2.195837
3637.000000;2.162829
3636.000000;2.199557
3635.000000;2.196783
3634.000000;2.089525
3633.000000;1.932225
3632.000000;1.915319
3631.000000;1.982371
3630.000000;1.909721
3629.000000;1.853089
3628.000000;2.087443
3627.000000;2.656701
3626.000000;2.512782
3625.000000;2.305886
3624.000000;2.331223
3623.000000;2.379448
3622.000000;2.245753
3621.000000;2.199444
3620.000000;2.351796
3619.000000;2.795040
3618.000000;3.017689
3617.000000;2.660061
3616.000000;2.539069
3615.000000;2.528434
3614.000000;2.710302
3613.000000;2.330119
3612.000000;2.051326
3611.000000;2.026735
3610.000000;2.080197
3609.000000;2.122387
3608.000000;2.228281
3607.000000;2.557712
3606.000000;2.576718
3605.000000;2.319021
3604.000000;2.324332
3603.000000;2.526745
3602.000000;2.753100
3601.000000;2.686630
3600.000000;2.519388
3599.000000;2.385992
3598.000000;2.334443
3597.000000;2.266359
3596.000000;2.191459
3595.000000;2.205437
3594.000000;2.305699
3593.000000;2.454067
3592.000000;2.519250
3591.000000;2.490071
3590.000000;2.696760
3589.000000;3.028187
3588.000000;2.619255
3587.000000;2.401239
3586.000000;2.386715
3585.000000;2.509407
3584.000000;2.749725
3583.000000;2.751567
3582.000000;2.565913
3581.000000;2.607762
3580.000000;2.749225
3579.000000;2.491063
3578.000000;2.308651
3577.000000;2.279727
3576.000000;2.382124
3575.000000;2.586343
3574.000000;2.600718
3573.000000;2.463990
3572.000000;2.673511
3571.000000;3.101468
3570.000000;2.291433
3569.000000;2.118676
3568.000000;2.120171
3567.000000;2.134289
3566.000000;2.173796
3565.000000;2.217306
3564.000000;2.292062
3563.000000;2.403844
3562.000000;2.585869
3561.000000;2.752056
3560.000000;2.849278
3559.000000;2.767044
3558.000000;2.522410
3557.000000;2.381547
3556.000000;2.401904
3555.000000;2.702539
3554.000000;3.186924
3553.000000;2.955332
3552.000000;3.251672
3551.000000;2.830534
3550.000000;2.404387
3549.000000;2.214653
3548.000000;2.117327
3547.000000;2.126773
3546.000000;2.233366
3545.000000;2.383547
3544.000000;2.446568
3543.000000;2.398515
3542.000000;2.356630
3541.000000;2.450425
3540.000000;2.719021
3539.000000;2.647630
3538.000000;2.457271
3537.000000;2.551185
3536.000000;2.870401
3535.000000;2.798340
3534.000000;2.564709
3533.000000;2.497414
3532.000000;2.513449
3531.000000;2.625761
3530.000000;2.790044
3529.000000;2.748704
3528.000000;2.599075
3527.000000;2.432901
3526.000000;2.501783
3525.000000;3.051585
3524.000000;2.677397
3523.000000;2.348135
3522.000000;2.250170
3521.000000;2.230539
3520.000000;2.300485
3519.000000;2.533821
3518.000000;2.902202
3517.000000;2.720040
3516.000000;2.567706
3515.000000;2.529716
3514.000000;2.643040
3513.000000;2.953445
3512.000000;2.833580
3511.000000;2.628530
3510.000000;2.544858
3509.000000;2.457566
3508.000000;2.435082
3507.000000;2.521257
3506.000000;2.690949
3505.000000;2.914089
3504.000000;2.968019
3503.000000;2.821847
3502.000000;2.583406
3501.000000;2.465194
3500.000000;2.415969
3499.000000;2.528416
3498.000000;2.946257
3497.000000;2.490722
3496.000000;2.192419
3495.000000;2.127154
3494.000000;2.159984
3493.000000;2.245134
3492.000000;2.315010
3491.000000;2.335931
3490.000000;2.343083
3489.000000;2.374825
3488.000000;2.457898
3487.000000;2.929262
3486.000000;2.859463
3485.000000;2.413000
3484.000000;2.412493
3483.000000;2.496774
3482.000000;2.520873
3481.000000;2.457402
3480.000000;2.369622
3479.000000;2.317918
3478.000000;2.314382
3477.000000;2.404988
3476.000000;2.608168
3475.000000;2.654199
3474.000000;2.407934
3473.000000;2.240864
3472.000000;2.195515
3471.000000;2.267451
3470.000000;2.459014
3469.000000;2.600563
3468.000000;2.524628
3467.000000;2.554643
3466.000000;2.673775
3465.000000;2.585449
3464.000000;2.468653
3463.000000;2.394921
3462.000000;2.364408
3461.000000;2.440137
3460.000000;2.746244
3459.000000;3.300561
3458.000000;2.998277
3457.000000;2.760679
3456.000000;2.643166
3455.000000;2.547876
3454.000000;2.518298
3453.000000;2.507558
3452.000000;2.470974
3451.000000;2.413399
3450.000000;2.378049
3449.000000;2.377143
3448.000000;2.391257
3447.000000;2.417876
3446.000000;2.531667
3445.000000;2.630445
3444.000000;2.540328
3443.000000;2.487474
3442.000000;2.493894
3441.000000;2.510139
3440.000000;2.572392
3439.000000;2.682219
3438.000000;2.724239
3437.000000;2.700606
3436.000000;2.733409
3435.000000;3.189952
3434.000000;3.413243
3433.000000;2.632415
3432.000000;2.446864
3431.000000;2.435251
3430.000000;2.541946
3429.000000;2.711203
3428.000000;2.969430
3427.000000;3.449221
3426.000000;3.140968
3425.000000;3.036782
3424.000000;2.931405
3423.000000;2.988226
3422.000000;3.285604
3421.000000;2.739411
3420.000000;2.500060
3419.000000;2.467141
3418.000000;2.507417
3417.000000;2.603317
3416.000000;2.754205
3415.000000;2.852002
3414.000000;2.613192
3413.000000;2.443839
3412.000000;2.423060
3411.000000;2.557572
3410.000000;2.934420
3409.000000;3.021328
3408.000000;2.859419
3407.000000;2.917123
3406.000000;2.796462
3405.000000;2.836256
3404.000000;3.171131
3403.000000;2.837158
3402.000000;2.585405
3401.000000;2.549014
3400.000000;2.621492
3399.000000;2.982925
3398.000000;3.124955
3397.000000;2.705501
3396.000000;2.631277
3395.000000;2.840974
3394.000000;2.863241
3393.000000;2.620852
3392.000000;2.505537
3391.000000;2.470780
3390.000000;2.535833
3389.000000;2.703828
3388.000000;2.811284
3387.000000;2.692629
3386.000000;2.495932
3385.000000;2.357042
3384.000000;2.314373
3383.000000;2.390596
3382.000000;2.638845
3381.000000;3.128282
3380.000000;3.384782
3379.000000;2.963880
3378.000000;2.923619
3377.000000;3.237267
3376.000000;2.763710
3375.000000;2.457664
3374.000000;2.405279
3373.000000;2.468935
3372.000000;2.612980
3371.000000;2.843094
3370.000000;3.034912
3369.000000;3.125621
3368.000000;3.802723
3367.000000;2.921796
3366.000000;2.478122
3365.000000;2.306685
3364.000000;2.243624
3363.000000;2.287476
3362.000000;2.423231
3361.000000;2.595313
3360.000000;2.632189
3359.000000;2.635574
3358.000000;2.764483
3357.000000;2.870986
3356.000000;2.791352
3355.000000;2.663819
3354.000000;2.535135
3353.000000;2.464613
3352.000000;2.552900
3351.000000;2.727425
3350.000000;2.687416
3349.000000;2.772581
3348.000000;2.984863
3347.000000;2.776652
3346.000000;2.758066
3345.000000;2.973791
3344.000000;3.044181
3343.000000;2.682950
3342.000000;2.434122
3341.000000;2.312449
3340.000000;2.399853
3339.000000;2.848177
3338.000000;2.658628
3337.000000;2.449450
3336.000000;2.588466
3335.000000;2.669888
3334.000000;2.556359
3333.000000;2.540464
3332.000000;2.533370
3331.000000;2.472044
3330.000000;2.555583
3329.000000;2.657785
3328.000000;2.591908
3327.000000;2.636708
3326.000000;2.831616
3325.000000;2.853955
3324.000000;2.863308
3323.000000;3.079669
3322.000000;2.964208
3321.000000;2.677860
3320.000000;2.538980
3319.000000;2.469434
3318.000000;2.460203
3317.000000;2.508700
3316.000000;2.616373
3315.000000;2.674534
3314.000000;2.641966
3313.000000;2.618197
3312.000000;2.553351
3311.000000;2.463185
3310.000000;2.507027
3309.000000;2.564251
3308.000000;2.822306
3307.000000;3.621300
3306.000000;2.758619
3305.000000;2.622423
3304.000000;2.795633
3303.000000;2.949673
3302.000000;2.771800
3301.000000;2.516244
3300.000000;2.442992
3299.000000;2.467441
3298.000000;2.460866
3297.000000;2.370923
3296.000000;2.365767
3295.000000;2.681652
3294.000000;2.860827
3293.000000;2.412443
3292.000000;2.274420
3291.000000;2.294684
3290.000000;2.378819
3289.000000;2.433950
3288.000000;2.450408
3287.000000;2.530895
3286.000000;2.696086
3285.000000;2.908056
3284.000000;2.723568
3283.000000;2.477589
3282.000000;2.401578
3281.000000;2.381366
3280.000000;2.350559
3279.000000;2.344876
3278.000000;2.368211
3277.000000;2.373132
3276.000000;2.362411
3275.000000;2.343499
3274.000000;2.326225
3273.000000;2.354509
3272.000000;2.503293
3271.000000;2.961499
3270.000000;3.253579
3269.000000;2.987756
3268.000000;3.034440
3267.000000;2.880025
3266.000000;2.771841
3265.000000;2.673708
3264.000000;2.490781
3263.000000;2.371053
3262.000000;2.370061
3261.000000;2.484376
3260.000000;2.626258
3259.000000;2.959277
3258.000000;3.028292
3257.000000;2.506691
3256.000000;2.316176
3255.000000;2.292460
3254.000000;2.355587
3253.000000;2.465226
3252.000000;2.536780
3251.000000;2.549528
3250.000000;2.521357
3249.000000;2.499356
3248.000000;2.421385
3247.000000;2.288238
3246.000000;2.216275
3245.000000;2.244823
3244.000000;2.359545
3243.000000;2.464927
3242.000000;2.435609
3241.000000;2.399549
3240.000000;2.483682
3239.000000;2.703363
3238.000000;2.850424
3237.000000;2.856758
3236.000000;3.007029
3235.000000;3.068513
3234.000000;2.968556
3233.000000;2.841731
3232.000000;2.727036
3231.000000;2.853106
3230.000000;2.969543
3229.000000;2.693619
3228.000000;2.632358
3227.000000;2.823579
3226.000000;2.647118
3225.000000;2.321898
3224.000000;2.209294
3223.000000;2.242361
3222.000000;2.366284
3221.000000;2.563948
3220.000000;2.822370
3219.000000;2.819605
3218.000000;2.662768
3217.000000;2.641149
3216.000000;2.656404
3215.000000;2.711017
3214.000000;2.726956
3213.000000;2.668275
3212.000000;2.628725
3211.000000;2.627362
3210.000000;2.707855
3209.000000;2.766035
3208.000000;2.889156
3207.000000;3.257174
3206.000000;2.831152
3205.000000;2.729523
3204.000000;3.028414
3203.000000;2.621829
3202.000000;2.417576
3201.000000;2.391169
3200.000000;2.674341
3199.000000;3.374461
3198.000000;2.585738
3197.000000;2.519474
3196.000000;2.769469
3195.000000;3.079741
3194.000000;3.206370
3193.000000;3.081227
3192.000000;2.915987
3191.000000;2.692148
3190.000000;2.648404
3189.000000;2.679316
3188.000000;2.621022
3187.000000;2.515110
3186.000000;2.472784
3185.000000;2.432512
3184.000000;2.385390
3183.000000;2.345043
3182.000000;2.308857
3181.000000;2.292391
3180.000000;2.311693
3179.000000;2.376570
3178.000000;2.404571
3177.000000;2.326753
3176.000000;2.272493
3175.000000;2.301424
3174.000000;2.386882
3173.000000;2.464042
3172.000000;2.474418
3171.000000;2.488880
3170.000000;2.626738
3169.000000;2.783874
3168.000000;2.756657
3167.000000;2.748984
3166.000000;2.662522
3165.000000;2.704061
3164.000000;3.139112
3163.000000;2.914770
3162.000000;2.614535
3161.000000;2.769974
3160.000000;3.017720
3159.000000;2.743397
3158.000000;2.664807
3157.000000;2.949260
3156.000000;3.417603
3155.000000;3.115799
3154.000000;2.775839
3153.000000;2.654377
3152.000000;2.674622
3151.000000;2.663784
3150.000000;2.579614
3149.000000;2.556859
3148.000000;2.617971
3147.000000;2.668872
3146.000000;2.585996
3145.000000;2.426570
3144.000000;2.292716
3143.000000;2.201306
3142.000000;2.156961
3141.000000;2.171683
3140.000000;2.257628
3139.000000;2.412192
3138.000000;2.612191
3137.000000;2.786724
3136.000000;2.754646
3135.000000;2.629935
3134.000000;2.590838
3133.000000;2.748964
3132.000000;2.981636
3131.000000;2.706831
3130.000000;2.496630
3129.000000;2.404198
3128.000000;2.342291
3127.000000;2.354372
3126.000000;2.463268
3125.000000;2.661208
3124.000000;2.987039
3123.000000;3.168671
3122.000000;2.831483
3121.000000;2.684602
3120.000000;2.804045
3119.000000;2.954239
3118.000000;2.801957
3117.000000;2.736326
3116.000000;3.018829
3115.000000;3.440658
3114.000000;2.888668
3113.000000;2.649727
3112.000000;2.506409
3111.000000;2.459860
3110.000000;2.751136
3109.000000;2.843370
3108.000000;2.457602
3107.000000;2.357643
3106.000000;2.371538
3105.000000;2.411392
3104.000000;2.460043
3103.000000;2.550178
3102.000000;2.661302
3101.000000;2.544311
3100.000000;2.417762
3099.000000;2.413875
3098.000000;2.508622
3097.000000;2.628852
3096.000000;2.635862
3095.000000;2.564620
3094.000000;2.532571
3093.000000;2.547249
3092.000000;2.562888
3091.000000;2.528080
3090.000000;2.428506
3089.000000;2.312597
3088.000000;2.220809
3087.000000;2.166483
3086.000000;2.161792
3085.000000;2.195312
3084.000000;2.218686
3083.000000;2.197270
3082.000000;2.177804
3081.000000;2.207825
3080.000000;2.288313
3079.000000;2.348075
3078.000000;2.400220
3077.000000;2.477184
3076.000000;2.620223
3075.000000;3.048673
3074.000000;2.891330
3073.000000;2.545506
3072.000000;2.461122
3071.000000;2.476509
3070.000000;2.559742
3069.000000;2.612045
3068.000000;2.647077
3067.000000;2.799846
3066.000000;2.990765
3065.000000;2.844784
3064.000000;2.626883
3063.000000;2.521217
3062.000000;2.543724
3061.000000;2.726975
3060.000000;2.932532
3059.000000;2.808046
3058.000000;2.665098
3057.000000;2.577532
3056.000000;2.529502
3055.000000;2.536897
3054.000000;2.637996
3053.000000;2.869334
3052.000000;2.627531
3051.000000;2.321306
3050.000000;2.224842
3049.000000;2.258834
3048.000000;2.357811
3047.000000;2.403377
3046.000000;2.390703
3045.000000;2.393070
3044.000000;2.417228
3043.000000;2.498573
3042.000000;2.626183
3041.000000;2.858756
3040.000000;3.426032
3039.000000;3.345903
3038.000000;3.363060
3037.000000;3.678486
3036.000000;3.071043
3035.000000;2.830018
3034.000000;2.752788
3033.000000;2.738347
3032.000000;2.679539
3031.000000;2.554784
3030.000000;2.456258
3029.000000;2.433179
3028.000000;2.516798
3027.000000;2.629445
3026.000000;2.628219
3025.000000;2.647222
3024.000000;2.828608
3023.000000;3.151416
3022.000000;3.138029
3021.000000;2.980102
3020.000000;2.946254
3019.000000;3.005692
3018.000000;3.093377
3017.000000;2.728512
3016.000000;2.422000
3015.000000;2.270696
3014.000000;2.207007
3013.000000;2.197711
3012.000000;2.206188
3011.000000;2.216024
3010.000000;2.226512
3009.000000;2.257117
3008.000000;2.336536
3007.000000;2.591145
3006.000000;2.800900
3005.000000;2.542390
3004.000000;2.516081
3003.000000;2.866968
3002.000000;3.378475
3001.000000;3.165680
3000.000000;3.001348
2999.000000;2.728323
2998.000000;2.598680
2997.000000;2.594467
2996.000000;2.659112
2995.000000;2.782573
2994.000000;2.892101
2993.000000;2.801135
2992.000000;2.694044
2991.000000;2.626901
2990.000000;2.765425
2989.000000;3.482931
2988.000000;2.766571
2987.000000;2.512089
2986.000000;2.552084
2985.000000;2.796228
2984.000000;3.324388
2983.000000;3.000354
2982.000000;2.790611
2981.000000;2.687891
2980.000000;2.557774
2979.000000;2.385729
2978.000000;2.284945
2977.000000;2.311717
2976.000000;2.468227
2975.000000;2.701027
2974.000000;2.772153
2973.000000;2.650795
2972.000000;2.466494
2971.000000;2.343792
2970.000000;2.317668
2969.000000;2.374819
2968.000000;2.440884
2967.000000;2.491017
2966.000000;2.532418
2965.000000;2.701329
2964.000000;3.280627
2963.000000;2.928481
2962.000000;2.703345
2961.000000;2.838767
2960.000000;2.764739
2959.000000;2.469721
2958.000000;2.312346
2957.000000;2.311480
2956.000000;2.487785
2955.000000;2.765992
2954.000000;2.929613
2953.000000;3.175006
2952.000000;2.835318
2951.000000;2.564963
2950.000000;2.527649
2949.000000;2.550590
2948.000000;2.563212
2947.000000;2.567179
2946.000000;2.628940
2945.000000;2.799944
2944.000000;2.888711
2943.000000;2.785524
2942.000000;2.774038
2941.000000;2.681076
2940.000000;2.652773
2939.000000;2.767717
2938.000000;2.894873
2937.000000;3.338410
2936.000000;3.039960
2935.000000;2.677259
2934.000000;2.664668
2933.000000;2.878053
2932.000000;2.961976
2931.000000;2.680621
2930.000000;2.561515
2929.000000;2.548639
2928.000000;2.527541
2927.000000;2.487698
2926.000000;2.445620
2925.000000;2.696298
2924.000000;2.996932
2923.000000;2.429145
2922.000000;2.217032
2921.000000;2.156798
2920.000000;2.156567
2919.000000;2.195362
2918.000000;2.268082
2917.000000;2.423508
2916.000000;2.715896
2915.000000;3.160344
2914.000000;3.147921
2913.000000;3.038249
2912.000000;2.851273
2911.000000;2.681166
2910.000000;2.690048
2909.000000;2.728983
2908.000000;2.581135
2907.000000;2.465047
2906.000000;2.481824
2905.000000;2.678421
2904.000000;3.165126
2903.000000;3.146839
2902.000000;2.864564
2901.000000;2.737788
2900.000000;2.656830
2899.000000;2.615697
2898.000000;2.549258
2897.000000;2.456549
2896.000000;2.375946
2895.000000;2.342283
2894.000000;2.376734
2893.000000;2.493931
2892.000000;2.704872
2891.000000;2.856818
2890.000000;2.751264
2889.000000;2.612519
2888.000000;2.504071
2887.000000;2.417350
2886.000000;2.378422
2885.000000;2.405006
2884.000000;2.496141
2883.000000;2.611003
2882.000000;2.716800
2881.000000;2.833967
2880.000000;2.827309
2879.000000;2.619515
2878.000000;2.423931
2877.000000;2.313748
2876.000000;2.282087
2875.000000;2.313548
2874.000000;2.399905
2873.000000;2.524195
2872.000000;2.699107
2871.000000;2.663493
2870.000000;2.410278
2869.000000;2.309963
2868.000000;2.353574
2867.000000;2.484021
2866.000000;2.627146
2865.000000;2.756475
2864.000000;2.758231
2863.000000;2.523474
2862.000000;2.329355
2861.000000;2.235269
2860.000000;2.234700
2859.000000;2.342934
2858.000000;2.583296
2857.000000;2.959284
2856.000000;3.316426
2855.000000;3.688443
2854.000000;3.504169
2853.000000;3.021894
2852.000000;2.805549
2851.000000;2.686608
2850.000000;2.633544
2849.000000;2.613313
2848.000000;2.537598
2847.000000;2.416175
2846.000000;2.301786
2845.000000;2.244601
2844.000000;2.269813
2843.000000;2.397486
2842.000000;2.818039
2841.000000;3.094489
2840.000000;2.692749
2839.000000;2.617825
2838.000000;2.516604
2837.000000;2.378481
2836.000000;2.264389
2835.000000;2.235089
2834.000000;2.346748
2833.000000;2.604438
2832.000000;2.997408
2831.000000;3.293506
2830.000000;2.816584
2829.000000;2.698510
2828.000000;3.044892
2827.000000;2.844437
2826.000000;2.539258
2825.000000;2.455546
2824.000000;2.466861
2823.000000;2.566944
2822.000000;2.917254
2821.000000;3.030311
2820.000000;2.528800
2819.000000;2.371345
2818.000000;2.316092
2817.000000;2.282200
2816.000000;2.281684
2815.000000;2.324254
2814.000000;2.354400
2813.000000;2.295390
2812.000000;2.247523
2811.000000;2.266576
2810.000000;2.343033
2809.000000;2.461672
2808.000000;2.628255
2807.000000;2.879016
2806.000000;2.986412
2805.000000;2.842707
2804.000000;2.787947
2803.000000;2.729356
2802.000000;2.650653
2801.000000;2.780388
2800.000000;2.844080
2799.000000;2.559139
2798.000000;2.423270
2797.000000;2.332635
2796.000000;2.268183
2795.000000;2.275363
2794.000000;2.278416
2793.000000;2.255871
2792.000000;2.273421
2791.000000;2.356806
2790.000000;2.476451
2789.000000;2.583288
2788.000000;2.608789
2787.000000;2.569993
2786.000000;2.572973
2785.000000;2.712601
2784.000000;3.124656
2783.000000;3.356596
2782.000000;2.990429
2781.000000;2.810493
2780.000000;2.626005
2779.000000;2.476752
2778.000000;2.423984
2777.000000;2.560410
2776.000000;3.075826
2775.000000;2.893138
2774.000000;2.581937
2773.000000;2.507182
2772.000000;2.507593
2771.000000;2.567543
2770.000000;2.669794
2769.000000;2.853909
2768.000000;3.084750
2767.000000;3.076469
2766.000000;2.743984
2765.000000;2.486782
2764.000000;2.369684
2763.000000;2.373443
2762.000000;2.470956
2761.000000;2.596000
2760.000000;2.959802
2759.000000;3.233564
2758.000000;2.711360
2757.000000;2.643616
2756.000000;2.858567
2755.000000;2.807301
2754.000000;2.543208
2753.000000;2.415281
2752.000000;2.348668
2751.000000;2.314907
2750.000000;2.325935
2749.000000;2.402368
2748.000000;2.530022
2747.000000;2.611931
2746.000000;2.665187
2745.000000;2.769382
2744.000000;2.940011
2743.000000;3.165759
2742.000000;3.077283
2741.000000;2.833557
2740.000000;2.788042
2739.000000;2.903552
2738.000000;2.917405
2737.000000;2.896729
2736.000000;3.260847
2735.000000;3.115925
2734.000000;2.756670
2733.000000;2.798897
2732.000000;2.704078
2731.000000;2.524802
2730.000000;2.506443
2729.000000;2.557953
2728.000000;2.555423
2727.000000;2.600381
2726.000000;2.819763
2725.000000;2.708585
2724.000000;2.505255
2723.000000;2.488458
2722.000000;2.635712
2721.000000;3.021862
2720.000000;2.920145
2719.000000;2.706054
2718.000000;2.704285
2717.000000;2.742358
2716.000000;2.730162
2715.000000;2.661474
2714.000000;2.576985
2713.000000;2.523178
2712.000000;2.541837
2711.000000;2.653734
2710.000000;2.814740
2709.000000;2.935518
2708.000000;3.025564
2707.000000;3.119658
2706.000000;3.014732
2705.000000;2.775910
2704.000000;2.650625
2703.000000;2.705414
2702.000000;3.146814
2701.000000;3.122919
2700.000000;2.866380
2699.000000;3.192523
2698.000000;3.037137
2697.000000;2.708598
2696.000000;2.628032
2695.000000;2.600189
2694.000000;2.526248
2693.000000;2.477264
2692.000000;2.530476
2691.000000;2.701173
2690.000000;2.955313
2689.000000;3.013720
2688.000000;2.939186
2687.000000;2.935679
2686.000000;2.968433
2685.000000;3.043558
2684.000000;3.034110
2683.000000;2.885863
2682.000000;2.770775
2681.000000;2.950549
2680.000000;3.289219
2679.000000;2.773709
2678.000000;2.538207
2677.000000;2.550588
2676.000000;2.780266
2675.000000;2.741019
2674.000000;2.468557
2673.000000;2.371266
2672.000000;2.373244
2671.000000;2.461019
2670.000000;2.668110
2669.000000;2.912725
2668.000000;2.801266
2667.000000;2.649343
2666.000000;2.595962
2665.000000;2.543261
2664.000000;2.452529
2663.000000;2.384164
2662.000000;2.459368
2661.000000;2.682307
2660.000000;2.537735
2659.000000;2.344339
2658.000000;2.295111
2657.000000;2.290126
2656.000000;2.307558
2655.000000;2.350026
2654.000000;2.436221
2653.000000;2.605551
2652.000000;3.013901
2651.000000;3.020568
2650.000000;2.594759
2649.000000;2.431344
2648.000000;2.397763
2647.000000;2.475364
2646.000000;2.612985
2645.000000;2.818730
2644.000000;2.858080
2643.000000;2.672086
2642.000000;2.623716
2641.000000;2.696371
2640.000000;2.664163
2639.000000;2.507191
2638.000000;2.403662
2637.000000;2.379492
2636.000000;2.436264
2635.000000;2.597934
2634.000000;2.904161
2633.000000;3.405430
2632.000000;3.626305
2631.000000;3.240552
2630.000000;3.014309
2629.000000;2.886161
2628.000000;2.786117
2627.000000;2.698303
2626.000000;2.668141
2625.000000;2.760400
2624.000000;2.679101
2623.000000;2.456870
2622.000000;2.403307
2621.000000;2.533893
2620.000000;2.851629
2619.000000;2.923942
2618.000000;2.785761
2617.000000;2.773820
2616.000000;2.887182
2615.000000;3.165195
2614.000000;2.932682
2613.000000;2.705328
2612.000000;2.651044
2611.000000;2.675430
2610.000000;2.849639
2609.000000;3.223603
2608.000000;2.871559
2607.000000;2.657828
2606.000000;2.820072
2605.000000;3.386069
2604.000000;2.968294
2603.000000;2.865025
2602.000000;2.797957
2601.000000;3.014454
2600.000000;3.054838
2599.000000;2.482867
2598.000000;2.298658
2597.000000;2.253677
2596.000000;2.325851
2595.000000;2.451693
2594.000000;2.498347
2593.000000;2.485399
2592.000000;2.569803
2591.000000;3.056290
2590.000000;2.782015
2589.000000;2.474932
2588.000000;2.456711
2587.000000;2.511338
2586.000000;2.625675
2585.000000;2.689965
2584.000000;2.503523
2583.000000;2.377504
2582.000000;2.386725
2581.000000;2.473229
2580.000000;2.548334
2579.000000;2.585854
2578.000000;2.613300
2577.000000;2.605831
2576.000000;2.728220
2575.000000;2.888256
2574.000000;2.625986
2573.000000;2.484660
2572.000000;2.521079
2571.000000;2.591780
2570.000000;2.511045
2569.000000;2.414578
2568.000000;2.432447
2567.000000;2.737849
2566.000000;3.084400
2565.000000;2.750800
2564.000000;2.860423
2563.000000;2.831908
2562.000000;2.560242
2561.000000;2.507927
2560.000000;2.619903
2559.000000;3.040860
2558.000000;2.937420
2557.000000;2.666146
2556.000000;2.780930
2555.000000;3.349801
2554.000000;3.392810
2553.000000;2.878493
2552.000000;2.633957
2551.000000;2.643779
2550.000000;2.830056
2549.000000;2.958295
2548.000000;2.872790
2547.000000;2.791495
2546.000000;2.800217
2545.000000;3.127524
2544.000000;3.288480
2543.000000;2.795312
2542.000000;2.660815
2541.000000;2.770645
2540.000000;3.023115
2539.000000;2.669797
2538.000000;2.393336
2537.000000;2.296591
2536.000000;2.287500
2535.000000;2.344795
2534.000000;2.429285
2533.000000;2.516005
2532.000000;2.666142
2531.000000;3.056590
2530.000000;3.649056
2529.000000;3.319000
2528.000000;2.670011
2527.000000;2.453274
2526.000000;2.473135
2525.000000;2.682848
2524.000000;3.180716
2523.000000;3.424530
2522.000000;2.941664
2521.000000;2.880364
2520.000000;2.836357
2519.000000;2.616621
2518.000000;2.443460
2517.000000;2.440277
2516.000000;2.648734
2515.000000;2.908502
2514.000000;2.695667
2513.000000;2.481778
2512.000000;2.392652
2511.000000;2.417701
2510.000000;2.595244
2509.000000;2.666280
2508.000000;2.485893
2507.000000;2.414982
2506.000000;2.500657
2505.000000;2.697509
2504.000000;2.824334
2503.000000;2.844892
2502.000000;2.861272
2501.000000;2.901236
2500.000000;2.924279
2499.000000;2.787684
2498.000000;2.655204
2497.000000;2.590817
2496.000000;2.575331
2495.000000;2.654409
2494.000000;2.764172
2493.000000;2.643446
2492.000000;2.536872
2491.000000;2.577418
2490.000000;2.760420
2489.000000;2.809603
2488.000000;2.618090
2487.000000;2.507835
2486.000000;2.427498
2485.000000;2.354883
2484.000000;2.317847
2483.000000;2.333380
2482.000000;2.381320
2481.000000;2.406550
2480.000000;2.416300
2479.000000;2.463708
2478.000000;2.566082
2477.000000;2.722287
2476.000000;3.011799
2475.000000;3.337249
2474.000000;3.363157
2473.000000;3.341339
2472.000000;2.939284
2471.000000;2.627008
2470.000000;2.449995
2469.000000;2.403346
2468.000000;2.467837
2467.000000;2.642480
2466.000000;3.049003
2465.000000;3.542085
2464.000000;3.382742
2463.000000;3.139533
2462.000000;2.880281
2461.000000;2.939145
2460.000000;2.874117
2459.000000;2.715161
2458.000000;2.764022
2457.000000;2.983433
2456.000000;2.890215
2455.000000;2.658843
2454.000000;2.575517
2453.000000;2.588626
2452.000000;2.591183
2451.000000;2.523853
2450.000000;2.475706
2449.000000;2.493897
2448.000000;2.495238
2447.000000;2.478421
2446.000000;2.564893
2445.000000;2.781618
2444.000000;2.783678
2443.000000;2.601338
2442.000000;2.623766
2441.000000;2.899011
2440.000000;2.702529
2439.000000;2.349658
2438.000000;2.250180
2437.000000;2.260961
2436.000000;2.333568
2435.000000;2.418548
2434.000000;2.528375
2433.000000;2.670070
2432.000000;2.818624
2431.000000;2.899998
2430.000000;2.841947
2429.000000;2.798417
2428.000000;2.788248
2427.000000;2.765734
2426.000000;2.775771
2425.000000;2.702113
2424.000000;2.537174
2423.000000;2.415231
2422.000000;2.350709
2421.000000;2.332267
2420.000000;2.337032
2419.000000;2.358050
2418.000000;2.412935
2417.000000;2.481834
2416.000000;2.507172
2415.000000;2.479176
2414.000000;2.439847
2413.000000;2.434715
2412.000000;2.560515
2411.000000;2.764016
2410.000000;2.654633
2409.000000;2.516219
2408.000000;2.485310
2407.000000;2.475389
2406.000000;2.468898
2405.000000;2.460248
2404.000000;2.448096
2403.000000;2.471722
2402.000000;2.643064
2401.000000;2.941744
2400.000000;2.648793
2399.000000;2.463869
2398.000000;2.443927
2397.000000;2.513988
2396.000000;2.684031
2395.000000;2.778993
2394.000000;2.599467
2393.000000;2.478356
2392.000000;2.505743
2391.000000;2.796359
2390.000000;3.168001
2389.000000;2.724546
2388.000000;2.709588
2387.000000;2.711550
2386.000000;2.587467
2385.000000;2.461810
2384.000000;2.460316
2383.000000;2.566832
2382.000000;2.679991
2381.000000;2.738418
2380.000000;2.882378
2379.000000;3.294226
2378.000000;2.943420
2377.000000;2.667932
2376.000000;2.605848
2375.000000;2.575615
2374.000000;2.578044
2373.000000;2.619388
2372.000000;2.709990
2371.000000;2.840109
2370.000000;2.955443
2369.000000;2.890056
2368.000000;2.685771
2367.000000;2.531978
2366.000000;2.462474
2365.000000;2.455473
2364.000000;2.562284
2363.000000;2.909214
2362.000000;2.978880
2361.000000;2.684052
2360.000000;2.614899
2359.000000;2.617191
2358.000000;3.025369
2357.000000;3.174207
2356.000000;2.534785
2355.000000;2.454386
2354.000000;2.584599
2353.000000;3.048735
2352.000000;3.473004
2351.000000;2.837168
2350.000000;2.527898
2349.000000;2.396748
2348.000000;2.320260
2347.000000;2.310622
2346.000000;2.679209
2345.000000;2.643083
2344.000000;2.306053
2343.000000;2.320516
2342.000000;2.532288
2341.000000;2.852397
2340.000000;3.166463
2339.000000;3.206120
2338.000000;2.995589
2337.000000;3.006972
2336.000000;2.696403
2335.000000;2.433990
2334.000000;2.313755
2333.000000;2.277871
2332.000000;2.306036
2331.000000;2.374574
2330.000000;2.430073
2329.000000;2.460158
2328.000000;2.507701
2327.000000;2.569969
2326.000000;2.614238
2325.000000;2.630466
2324.000000;2.657332
2323.000000;2.741174
2322.000000;2.878433
2321.000000;2.817603
2320.000000;2.621005
2319.000000;2.503789
2318.000000;2.475042
2317.000000;2.513605
2316.000000;2.600126
2315.000000;2.704655
2314.000000;2.746694
2313.000000;2.661753
2312.000000;2.550446
2311.000000;2.519426
2310.000000;2.602715
2309.000000;2.782861
2308.000000;2.932257
2307.000000;3.086708
2306.000000;3.384377
2305.000000;3.073309
2304.000000;2.803550
2303.000000;2.773846
2302.000000;2.890699
2301.000000;3.517117
2300.000000;3.668047
2299.000000;3.066335
2298.000000;2.860452
2297.000000;2.632943
2296.000000;2.561107
2295.000000;2.602975
2294.000000;2.680993
2293.000000;2.736890
2292.000000;2.800742
2291.000000;2.798670
2290.000000;2.663659
2289.000000;2.492895
2288.000000;2.361742
2287.000000;2.295542
2286.000000;2.298053
2285.000000;2.359021
2284.000000;2.499977
2283.000000;2.826224
2282.000000;2.730138
2281.000000;2.425087
2280.000000;2.398603
2279.000000;2.549119
2278.000000;2.656020
2277.000000;2.437440
2276.000000;2.283756
2275.000000;2.250419
2274.000000;2.335187
2273.000000;2.430039
2272.000000;2.395839
2271.000000;2.369653
2270.000000;2.452577
2269.000000;2.624129
2268.000000;2.688533
2267.000000;2.579612
2266.000000;2.519799
2265.000000;2.572544
2264.000000;2.725510
2263.000000;2.942697
2262.000000;3.627586
2261.000000;2.830428
2260.000000;2.647628
2259.000000;2.681599
2258.000000;2.663954
2257.000000;2.617036
2256.000000;2.697020
2255.000000;2.708108
2254.000000;2.530887
2253.000000;2.318755
2252.000000;2.181955
2251.000000;2.133146
2250.000000;2.139744
2249.000000;2.181420
2248.000000;2.253510
2247.000000;2.327390
2246.000000;2.417616
2245.000000;2.564596
2244.000000;3.119040
2243.000000;2.994403
2242.000000;2.652618
2241.000000;2.820747
2240.000000;2.857154
2239.000000;2.489778
2238.000000;2.322685
2237.000000;2.325262
2236.000000;2.441068
2235.000000;2.620210
2234.000000;2.763961
2233.000000;2.842422
2232.000000;2.888667
2231.000000;2.768230
2230.000000;2.595120
2229.000000;2.531451
2228.000000;2.611035
2227.000000;2.787443
2226.000000;2.753379
2225.000000;2.678461
2224.000000;2.762680
2223.000000;3.023439
2222.000000;2.746452
2221.000000;2.402932
2220.000000;2.307177
2219.000000;2.321724
2218.000000;2.440116
2217.000000;2.686430
2216.000000;2.902143
2215.000000;2.743604
2214.000000;2.543719
2213.000000;2.407535
2212.000000;2.390288
2211.000000;2.514895
2210.000000;3.062613
2209.000000;2.922865
2208.000000;2.540443
2207.000000;2.424659
2206.000000;2.454665
2205.000000;2.585093
2204.000000;2.637356
2203.000000;2.634148
2202.000000;2.665366
2201.000000;2.666140
2200.000000;2.867072
2199.000000;3.383055
2198.000000;2.731326
2197.000000;2.503220
2196.000000;2.480299
2195.000000;2.680160
2194.000000;3.226143
2193.000000;2.967334
2192.000000;2.679876
2191.000000;2.675116
2190.000000;2.743497
2189.000000;2.783227
2188.000000;3.109729
2187.000000;3.078635
2186.000000;2.619409
2185.000000;2.496045
2184.000000;2.514190
2183.000000;2.501299
2182.000000;2.426861
2181.000000;2.388186
2180.000000;2.441136
2179.000000;2.617872
2178.000000;2.772662
2177.000000;2.708204
2176.000000;2.700475
2175.000000;2.768112
2174.000000;3.097285
2173.000000;3.034671
2172.000000;2.567863
2171.000000;2.488972
2170.000000;2.525225
2169.000000;2.886535
2168.000000;3.329238
2167.000000;2.813950
2166.000000;2.736986
2165.000000;2.563881
2164.000000;2.400815
2163.000000;2.342256
2162.000000;2.364535
2161.000000;2.430821
2160.000000;2.550431
2159.000000;2.767877
2158.000000;2.864949
2157.000000;2.743420
2156.000000;2.706008
2155.000000;2.704322
2154.000000;2.611501
2153.000000;2.498552
2152.000000;2.460432
2151.000000;2.529092
2150.000000;2.653903
2149.000000;2.586081
2148.000000;2.445717
2147.000000;2.393340
2146.000000;2.423734
2145.000000;2.548821
2144.000000;2.829055
2143.000000;3.084762
2142.000000;3.024109
2141.000000;2.665858
2140.000000;2.365977
2139.000000;2.308116
2138.000000;2.443969
2137.000000;2.904886
2136.000000;2.865658
2135.000000;2.668356
2134.000000;2.627143
2133.000000;2.528201
2132.000000;2.517222
2131.000000;2.545005
2130.000000;2.533367
2129.000000;2.493223
2128.000000;2.518655
2127.000000;2.656665
2126.000000;2.783510
2125.000000;2.762555
2124.000000;2.775306
2123.000000;2.783646
2122.000000;2.715282
2121.000000;2.659238
2120.000000;2.668573
2119.000000;2.792779
2118.000000;3.060936
2117.000000;3.087899
2116.000000;2.776092
2115.000000;2.551953
2114.000000;2.455106
2113.000000;2.456443
2112.000000;2.694978
2111.000000;2.851379
2110.000000;2.489578
2109.000000;2.401095
2108.000000;2.540376
2107.000000;2.979068
2106.000000;2.795370
2105.000000;2.553484
2104.000000;2.572468
2103.000000;2.743315
2102.000000;3.194497
2101.000000;3.065329
2100.000000;2.829371
2099.000000;2.850425
2098.000000;3.074176
2097.000000;3.288587
2096.000000;3.016702
2095.000000;2.827922
2094.000000;2.823100
2093.000000;2.911761
2092.000000;2.666034
2091.000000;2.459027
2090.000000;2.387151
2089.000000;2.417170
2088.000000;2.632566
2087.000000;3.120689
2086.000000;2.753715
2085.000000;2.430762
2084.000000;2.340390
2083.000000;2.377944
2082.000000;2.669021
2081.000000;3.216615
2080.000000;2.947133
2079.000000;2.984342
2078.000000;3.591338
2077.000000;3.143475
2076.000000;2.927755
2075.000000;2.829137
2074.000000;2.757697
2073.000000;2.766951
2072.000000;2.764340
2071.000000;2.732251
2070.000000;2.808239
2069.000000;2.856163
2068.000000;2.576931
2067.000000;2.445239
2066.000000;2.488650
2065.000000;2.665718
2064.000000;2.659843
2063.000000;2.505103
2062.000000;2.500006
2061.000000;2.660740
2060.000000;2.574401
2059.000000;2.354004
2058.000000;2.333239
2057.000000;2.394788
2056.000000;2.484557
2055.000000;2.621506
2054.000000;2.649844
2053.000000;2.583583
2052.000000;2.621133
2051.000000;2.722324
2050.000000;2.746016
2049.000000;2.777648
2048.000000;2.968112
2047.000000;3.770312
2046.000000;3.471196
2045.000000;3.432452
2044.000000;2.991789
2043.000000;2.804384
2042.000000;2.849356
2041.000000;3.106858
2040.000000;2.859677
2039.000000;2.644696
2038.000000;2.611394
2037.000000;2.586660
2036.000000;2.600180
2035.000000;2.758013
2034.000000;3.018814
2033.000000;3.059299
2032.000000;2.825140
2031.000000;2.755854
2030.000000;2.894641
2029.000000;2.752240
2028.000000;2.576507
2027.000000;2.531616
2026.000000;2.426260
2025.000000;2.333136
2024.000000;2.330015
2023.000000;2.333327
2022.000000;2.296936
2021.000000;2.344905
2020.000000;2.550602
2019.000000;3.118629
2018.000000;2.936187
2017.000000;2.643342
2016.000000;2.554453
2015.000000;2.590986
2014.000000;2.751601
2013.000000;2.885424
2012.000000;2.788194
2011.000000;2.793539
2010.000000;2.843586
2009.000000;2.802134
2008.000000;2.754223
2007.000000;2.907798
2006.000000;2.945592
2005.000000;2.535585
2004.000000;2.341793
2003.000000;2.338667
2002.000000;2.543237
2001.000000;2.728768
2000.000000;2.544592
1999.000000;2.380012
1998.000000;2.276945
1997.000000;2.227502
1996.000000;2.237788
1995.000000;2.296310
1994.000000;2.379257
1993.000000;2.462263
1992.000000;2.571838
1991.000000;2.777418
1990.000000;2.819759
1989.000000;2.549316
1988.000000;2.386961
1987.000000;2.313607
1986.000000;2.306638
1985.000000;2.359481
1984.000000;2.473381
1983.000000;2.654134
1982.000000;2.641291
1981.000000;2.384574
1980.000000;2.241062
1979.000000;2.222394
1978.000000;2.311478
1977.000000;2.536630
1976.000000;2.748661
1975.000000;2.535740
1974.000000;2.396742
1973.000000;2.423601
1972.000000;2.534130
1971.000000;2.663854
1970.000000;2.809127
1969.000000;2.646624
1968.000000;2.451334
1967.000000;2.385892
1966.000000;2.400665
1965.000000;2.470086
1964.000000;2.595180
1963.000000;2.754846
1962.000000;2.911121
1961.000000;3.028170
1960.000000;2.868640
1959.000000;2.714991
1958.000000;2.703878
1957.000000;2.764704
1956.000000;2.648221
1955.000000;2.459332
1954.000000;2.350383
1953.000000;2.300760
1952.000000;2.322111
1951.000000;2.413736
1950.000000;2.497593
1949.000000;2.558520
1948.000000;2.667528
1947.000000;2.799521
1946.000000;2.901503
1945.000000;2.817912
1944.000000;2.685326
1943.000000;2.675881
1942.000000;2.880536
1941.000000;3.038755
1940.000000;2.836674
1939.000000;2.856010
1938.000000;3.077910
1937.000000;2.960065
1936.000000;2.771325
1935.000000;2.688122
1934.000000;2.636771
1933.000000;2.606223
1932.000000;2.631961
1931.000000;2.719555
1930.000000;2.807449
1929.000000;2.697501
1928.000000;2.495665
1927.000000;2.410236
1926.000000;2.458905
1925.000000;2.719229
1924.000000;3.146912
1923.000000;2.823995
1922.000000;2.587402
1921.000000;2.493756
1920.000000;2.402877
1919.000000;2.321849
1918.000000;2.288066
1917.000000;2.324541
1916.000000;2.446493
1915.000000;2.696487
1914.000000;3.493033
1913.000000;2.790678
1912.000000;2.618660
1911.000000;2.713927
1910.000000;2.900489
1909.000000;2.824919
1908.000000;2.727932
1907.000000;2.808189
1906.000000;3.063724
1905.000000;3.155452
1904.000000;3.078231
1903.000000;2.946051
1902.000000;3.140900
1901.000000;3.245092
1900.000000;2.818483
1899.000000;2.763670
1898.000000;3.006712
1897.000000;3.132187
1896.000000;2.754256
1895.000000;2.671898
1894.000000;2.747659
1893.000000;2.620732
1892.000000;2.425331
1891.000000;2.364067
1890.000000;2.432895
1889.000000;2.753910
1888.000000;3.100857
1887.000000;2.703764
1886.000000;2.659214
1885.000000;2.726134
1884.000000;2.625230
1883.000000;2.437111
1882.000000;2.318653
1881.000000;2.301356
1880.000000;2.328945
1879.000000;2.343556
1878.000000;2.384077
1877.000000;2.538288
1876.000000;2.968338
1875.000000;3.442232
1874.000000;3.184334
1873.000000;3.067155
1872.000000;2.766279
1871.000000;2.653288
1870.000000;2.617371
1869.000000;2.586447
1868.000000;2.555808
1867.000000;2.573716
1866.000000;2.701132
1865.000000;2.867095
1864.000000;3.478899
1863.000000;2.931310
1862.000000;2.558515
1861.000000;2.511996
1860.000000;2.627863
1859.000000;2.825116
1858.000000;2.892225
1857.000000;2.869413
1856.000000;2.925671
1855.000000;3.166330
1854.000000;2.893790
1853.000000;2.587428
1852.000000;2.466117
1851.000000;2.447877
1850.000000;2.488860
1849.000000;2.518859
1848.000000;2.518114
1847.000000;2.516741
1846.000000;2.511335
1845.000000;2.524105
1844.000000;2.629732
1843.000000;2.869919
1842.000000;3.192072
1841.000000;3.294475
1840.000000;3.468050
1839.000000;3.346118
1838.000000;2.785652
1837.000000;2.572173
1836.000000;2.574962
1835.000000;2.882330
1834.000000;3.074730
1833.000000;2.622912
1832.000000;2.464677
1831.000000;2.446231
1830.000000;2.486085
1829.000000;2.566280
1828.000000;2.692449
1827.000000;2.890341
1826.000000;3.062696
1825.000000;3.104003
1824.000000;2.969018
1823.000000;2.644726
1822.000000;2.441562
1821.000000;2.357144
1820.000000;2.375827
1819.000000;2.481348
1818.000000;2.637993
1817.000000;2.734030
1816.000000;2.727156
1815.000000;2.769579
1814.000000;2.921217
1813.000000;3.270158
1812.000000;3.170608
1811.000000;2.828578
1810.000000;2.672147
1809.000000;2.598319
1808.000000;2.559326
1807.000000;2.536630
1806.000000;2.611350
1805.000000;2.857137
1804.000000;3.167256
1803.000000;3.050524
1802.000000;2.918015
1801.000000;2.953939
1800.000000;2.840832
1799.000000;2.671253
1798.000000;2.629957
1797.000000;2.634589
1796.000000;2.596765
1795.000000;2.477824
1794.000000;2.349526
1793.000000;2.317276
1792.000000;2.408328
1791.000000;2.689847
1790.000000;3.156001
1789.000000;3.025544
1788.000000;2.854373
1787.000000;2.759261
1786.000000;2.642209
1785.000000;2.547240
1784.000000;2.513289
1783.000000;2.582870
1782.000000;2.794605
1781.000000;2.910189
1780.000000;2.663438
1779.000000;2.506371
1778.000000;2.497726
1777.000000;2.646644
1776.000000;2.979021
1775.000000;3.012366
1774.000000;2.907982
1773.000000;2.996962
1772.000000;2.946806
1771.000000;2.805928
1770.000000;2.772349
1769.000000;3.080957
1768.000000;3.017323
1767.000000;2.509924
1766.000000;2.441855
1765.000000;2.514089
1764.000000;2.639790
1763.000000;2.677990
1762.000000;2.718890
1761.000000;2.841586
1760.000000;3.073012
1759.000000;3.120353
1758.000000;2.845812
1757.000000;2.727942
1756.000000;2.736026
1755.000000;2.716590
1754.000000;2.600953
1753.000000;2.481992
1752.000000;2.461745
1751.000000;2.568248
1750.000000;2.724034
1749.000000;2.835079
1748.000000;2.916523
1747.000000;3.083533
1746.000000;3.308217
1745.000000;3.061631
1744.000000;2.904605
1743.000000;2.852683
1742.000000;2.818630
1741.000000;2.784193
1740.000000;2.804311
1739.000000;2.940025
1738.000000;3.110766
1737.000000;3.063605
1736.000000;2.834733
1735.000000;2.728495
1734.000000;3.034352
1733.000000;2.981624
1732.000000;2.777657
1731.000000;2.829959
1730.000000;3.115535
1729.000000;2.912358
1728.000000;2.598295
1727.000000;2.529776
1726.000000;2.639749
1725.000000;2.915210
1724.000000;2.790377
1723.000000;2.651633
1722.000000;2.678576
1721.000000;2.711280
1720.000000;2.688462
1719.000000;2.756857
1718.000000;3.041353
1717.000000;2.978972
1716.000000;2.733167
1715.000000;2.657230
1714.000000;2.671871
1713.000000;2.722091
1712.000000;2.645492
1711.000000;2.546227
1710.000000;2.548971
1709.000000;2.664849
1708.000000;2.890080
1707.000000;3.063301
1706.000000;2.970710
1705.000000;2.861912
1704.000000;2.832770
1703.000000;2.888366
1702.000000;3.069135
1701.000000;3.013877
1700.000000;2.981959
1699.000000;3.030212
1698.000000;3.025169
1697.000000;3.093758
1696.000000;3.189886
1695.000000;2.962278
1694.000000;2.822757
1693.000000;2.785631
1692.000000;2.809680
1691.000000;2.851605
1690.000000;2.798407
1689.000000;2.893725
1688.000000;3.255236
1687.000000;2.785378
1686.000000;2.560649
1685.000000;2.739489
1684.000000;3.203546
1683.000000;3.690557
1682.000000;3.290140
1681.000000;2.911926
1680.000000;2.758364
1679.000000;2.779532
1678.000000;2.934555
1677.000000;3.613977
1676.000000;3.221918
1675.000000;2.855371
1674.000000;2.804291
1673.000000;2.804407
1672.000000;2.845326
1671.000000;2.934433
1670.000000;3.187847
1669.000000;3.558766
1668.000000;2.918290
1667.000000;2.751274
1666.000000;2.879420
1665.000000;3.119412
1664.000000;2.877386
1663.000000;2.733248
1662.000000;2.692245
1661.000000;2.739058
1660.000000;2.937839
1659.000000;2.911504
1658.000000;2.794394
1657.000000;2.827601
1656.000000;2.757350
1655.000000;2.708332
1654.000000;2.830785
1653.000000;2.862377
1652.000000;2.981862
1651.000000;3.325181
1650.000000;3.568149
1649.000000;3.884149
1648.000000;3.841834
1647.000000;3.246480
1646.000000;2.991206
1645.000000;3.188750
1644.000000;3.354929
1643.000000;2.960648
1642.000000;2.774358
1641.000000;2.711550
1640.000000;2.794285
1639.000000;2.959524
1638.000000;3.307617
1637.000000;3.731319
1636.000000;3.024109
1635.000000;2.863551
1634.000000;2.873863
1633.000000;3.173437
1632.000000;3.158722
1631.000000;2.663727
1630.000000;2.522403
1629.000000;2.548438
1628.000000;2.695223
1627.000000;2.927561
1626.000000;3.061510
1625.000000;2.956989
1624.000000;2.768344
1623.000000;2.601056
1622.000000;2.516936
1621.000000;2.534955
1620.000000;2.628757
1619.000000;2.805855
1618.000000;2.725974
1617.000000;2.491867
1616.000000;2.469761
1615.000000;2.623632
1614.000000;2.842787
1613.000000;3.016777
1612.000000;2.837501
1611.000000;2.704146
1610.000000;2.818022
1609.000000;3.121485
1608.000000;3.294962
1607.000000;3.182708
1606.000000;3.005759
1605.000000;2.922864
1604.000000;2.928402
1603.000000;3.032243
1602.000000;3.497201
1601.000000;3.181910
1600.000000;2.748653
1599.000000;2.674458
1598.000000;2.760360
1597.000000;3.025514
1596.000000;3.931534
1595.000000;3.655558
1594.000000;3.326739
1593.000000;3.345868
1592.000000;3.252742
1591.000000;3.213250
1590.000000;2.805603
1589.000000;2.474082
1588.000000;2.300106
1587.000000;2.269773
1586.000000;2.348224
1585.000000;2.662483
1584.000000;3.354177
1583.000000;2.599614
1582.000000;2.613334
1581.000000;2.965569
1580.000000;2.728897
1579.000000;2.507425
1578.000000;2.842670
1577.000000;2.953726
1576.000000;2.429417
1575.000000;2.485384
1574.000000;2.711744
1573.000000;2.944599
1572.000000;3.045940
1571.000000;2.963791
1570.000000;2.918131
1569.000000;2.887627
1568.000000;2.950927
1567.000000;3.065714
1566.000000;3.216691
1565.000000;3.314154
1564.000000;3.117326
1563.000000;2.971735
1562.000000;3.132959
1561.000000;3.057281
1560.000000;3.037861
1559.000000;3.223330
1558.000000;3.533697
1557.000000;3.559620
1556.000000;3.017200
1555.000000;3.001853
1554.000000;3.200159
1553.000000;2.821348
1552.000000;2.633946
1551.000000;2.749584
1550.000000;3.210913
1549.000000;3.225160
1548.000000;3.241207
1547.000000;3.705801
1546.000000;3.470347
1545.000000;3.276083
1544.000000;3.081973
1543.000000;3.007876
1542.000000;3.071808
1541.000000;3.182719
1540.000000;3.621945
1539.000000;2.872197
1538.000000;2.786979
1537.000000;3.442546
1536.000000;3.000892
1535.000000;2.738020
1534.000000;2.835335
1533.000000;3.268855
1532.000000;3.053290
1531.000000;2.724087
1530.000000;2.704545
1529.000000;2.804618
1528.000000;2.941880
1527.000000;3.058502
1526.000000;3.091574
1525.000000;3.074476
1524.000000;2.997691
1523.000000;2.828459
1522.000000;2.669706
1521.000000;2.650372
1520.000000;2.744219
1519.000000;2.771679
1518.000000;2.691354
1517.000000;2.597379
1516.000000;2.569116
1515.000000;2.671502
1514.000000;2.941970
1513.000000;3.127154
1512.000000;2.922511
1511.000000;2.817613
1510.000000;2.896726
1509.000000;3.044098
1508.000000;3.045008
1507.000000;2.968163
1506.000000;3.176360
1505.000000;3.180126
1504.000000;2.827422
1503.000000;2.821241
1502.000000;2.808513
1501.000000;2.717496
1500.000000;2.677473
1499.000000;2.617576
1498.000000;2.580993
1497.000000;2.619256
1496.000000;2.685080
1495.000000;2.693815
1494.000000;2.709968
1493.000000;2.847550
1492.000000;3.088160
1491.000000;3.117023
1490.000000;3.049357
1489.000000;3.165961
1488.000000;3.553002
1487.000000;3.013154
1486.000000;2.693264
1485.000000;2.636199
1484.000000;2.763869
1483.000000;3.120722
1482.000000;2.769196
1481.000000;2.518597
1480.000000;2.450360
1479.000000;2.561242
1478.000000;2.885827
1477.000000;2.727319
1476.000000;2.548319
1475.000000;2.578789
1474.000000;2.779880
1473.000000;3.268644
1472.000000;4.064568
1471.000000;3.588368
1470.000000;3.127086
1469.000000;2.841794
1468.000000;2.756184
1467.000000;2.809400
1466.000000;2.807050
1465.000000;2.734324
1464.000000;2.767550
1463.000000;2.859076
1462.000000;2.767412
1461.000000;2.692391
1460.000000;2.704560
1459.000000;2.798696
1458.000000;2.884150
1457.000000;2.936143
1456.000000;3.473177
1455.000000;2.891509
1454.000000;2.565522
1453.000000;2.461180
1452.000000;2.446352
1451.000000;2.556924
1450.000000;2.710151
1449.000000;2.805371
1448.000000;2.801199
1447.000000;2.754068
1446.000000;2.679532
1445.000000;2.531147
1444.000000;2.352907
1443.000000;2.253174
1442.000000;2.261351
1441.000000;2.345794
1440.000000;2.437152
1439.000000;2.509403
1438.000000;2.555252
1437.000000;2.541224
1436.000000;2.481245
1435.000000;2.477043
1434.000000;2.553607
1433.000000;2.772570
1432.000000;3.323907
1431.000000;3.163420
1430.000000;2.858713
1429.000000;2.770650
1428.000000;2.739453
1427.000000;2.998855
1426.000000;3.355048
1425.000000;2.833063
1424.000000;2.764609
1423.000000;3.096448
1422.000000;3.091858
1421.000000;2.562912
1420.000000;2.413803
1419.000000;2.490413
1418.000000;2.847838
1417.000000;2.907575
1416.000000;2.530434
1415.000000;2.489735
1414.000000;2.503927
1413.000000;2.446921
1412.000000;2.346340
1411.000000;2.289876
1410.000000;2.294204
1409.000000;2.330128
1408.000000;2.410003
1407.000000;2.569466
1406.000000;2.906928
1405.000000;3.053073
1404.000000;2.772576
1403.000000;2.638007
1402.000000;2.603768
1401.000000;2.543425
1400.000000;2.452976
1399.000000;2.432247
1398.000000;2.509634
1397.000000;2.601675
1396.000000;2.609492
1395.000000;2.616043
1394.000000;2.803212
1393.000000;3.065201
1392.000000;2.861253
1391.000000;2.782087
1390.000000;2.895740
1389.000000;2.923543
1388.000000;2.833361
1387.000000;2.824456
1386.000000;2.760787
1385.000000;2.594388
1384.000000;2.470945
1383.000000;2.425118
1382.000000;2.473397
1381.000000;2.563199
1380.000000;2.574388
1379.000000;2.557271
1378.000000;2.651853
1377.000000;2.868393
1376.000000;2.971970
1375.000000;2.889803
1374.000000;3.032432
1373.000000;2.974887
1372.000000;2.471737
1371.000000;2.234491
1370.000000;2.161452
1369.000000;2.201147
1368.000000;2.344674
1367.000000;2.655639
1366.000000;3.089919
1365.000000;3.075739
1364.000000;2.962900
1363.000000;2.679211
1362.000000;2.511597
1361.000000;2.453265
1360.000000;2.426787
1359.000000;2.411646
1358.000000;2.397789
1357.000000;2.399296
1356.000000;2.379384
1355.000000;2.330172
1354.000000;2.288132
1353.000000;2.272695
1352.000000;2.273257
1351.000000;2.281913
1350.000000;2.297782
1349.000000;2.299496
1348.000000;2.271568
1347.000000;2.239755
1346.000000;2.239750
1345.000000;2.290371
1344.000000;2.398177
1343.000000;2.569797
1342.000000;2.740999
1341.000000;2.742669
1340.000000;2.617229
1339.000000;2.503466
1338.000000;2.460668
1337.000000;2.460260
1336.000000;2.417891
1335.000000;2.343543
1334.000000;2.298909
1333.000000;2.265505
1332.000000;2.265333
1331.000000;2.324806
1330.000000;2.576554
1329.000000;3.046303
1328.000000;2.736051
1327.000000;2.543901
1326.000000;2.715895
1325.000000;3.268987
1324.000000;2.726685
1323.000000;2.366241
1322.000000;2.229449
1321.000000;2.167791
1320.000000;2.197023
1319.000000;2.310873
1318.000000;2.538225
1317.000000;2.758515
1316.000000;2.706707
1315.000000;2.535851
1314.000000;2.379777
1313.000000;2.356254
1312.000000;2.491274
1311.000000;2.732763
1310.000000;2.884941
1309.000000;2.638577
1308.000000;2.391518
1307.000000;2.288847
1306.000000;2.283225
1305.000000;2.348560
1304.000000;2.495974
1303.000000;2.630962
1302.000000;2.681183
1301.000000;2.645094
1300.000000;2.652311
1299.000000;2.988735
1298.000000;2.903519
1297.000000;2.550525
1296.000000;2.569209
1295.000000;2.906184
1294.000000;3.006076
1293.000000;2.760828
1292.000000;2.781430
1291.000000;3.043319
1290.000000;2.902134
1289.000000;2.582903
1288.000000;2.493068
1287.000000;2.536851
1286.000000;2.696225
1285.000000;2.961913
1284.000000;3.182559
1283.000000;3.169216
1282.000000;2.869803
1281.000000;2.646562
1280.000000;2.603202
1279.000000;2.790267
1278.000000;3.069686
1277.000000;2.858610
1276.000000;2.738102
1275.000000;2.832325
1274.000000;2.873778
1273.000000;2.890322
1272.000000;3.072121
1271.000000;3.028027
1270.000000;2.798167
1269.000000;2.616526
1268.000000;2.444653
1267.000000;2.348195
1266.000000;2.339843
1265.000000;2.400853
1264.000000;2.502652
1263.000000;2.637512
1262.000000;2.832557
1261.000000;3.121415
1260.000000;3.122704
1259.000000;2.786079
1258.000000;2.553066
1257.000000;2.439268
1256.000000;2.436206
1255.000000;2.561254
1254.000000;2.985115
1253.000000;2.950284
1252.000000;2.582246
1251.000000;2.579786
1250.000000;2.772639
1249.000000;3.086641
1248.000000;2.930678
1247.000000;2.710304
1246.000000;2.673884
1245.000000;2.750778
1244.000000;2.902042
1243.000000;2.764706
1242.000000;2.530681
1241.000000;2.423817
1240.000000;2.469931
1239.000000;2.556023
1238.000000;2.530541
1237.000000;2.535819
1236.000000;2.549127
1235.000000;2.591087
1234.000000;2.719360
1233.000000;3.051418
1232.000000;3.577636
1231.000000;2.869688
1230.000000;2.904253
1229.000000;3.057486
1228.000000;2.518792
1227.000000;2.266555
1226.000000;2.172886
1225.000000;2.168570
1224.000000;2.237009
1223.000000;2.366321
1222.000000;2.531109
1221.000000;2.664707
1220.000000;2.757235
1219.000000;2.746179
1218.000000;2.640035
1217.000000;2.572838
1216.000000;2.529515
1215.000000;2.443400
1214.000000;2.366755
1213.000000;2.364745
1212.000000;2.406512
1211.000000;2.487150
1210.000000;2.582614
1209.000000;2.474408
1208.000000;2.332566
1207.000000;2.300621
1206.000000;2.328313
1205.000000;2.389488
1204.000000;2.416614
1203.000000;2.354702
1202.000000;2.225819
1201.000000;2.150545
1200.000000;2.114009
