Criado como novo conjunto de dados;"2706_e01_daniel.spp","80286.0 Secs"
cm-1;Abs
10000.000000;0.820285
9999.000000;0.820330
9998.000000;0.820844
9997.000000;0.821432
9996.000000;0.821424
9995.000000;0.820839
9994.000000;0.820257
9993.000000;0.820077
9992.000000;0.820122
9991.000000;0.820169
9990.000000;0.820276
9989.000000;0.820578
9988.000000;0.821075
9987.000000;0.821744
9986.000000;0.822494
9985.000000;0.822912
9984.000000;0.822461
9983.000000;0.821113
9982.000000;0.819513
9981.000000;0.818361
9980.000000;0.817816
9979.000000;0.817562
9978.000000;0.817242
9977.000000;0.816788
9976.000000;0.816525
9975.000000;0.816911
9974.000000;0.817947
9973.000000;0.818917
9972.000000;0.819019
9971.000000;0.818231
9970.000000;0.817256
9969.000000;0.816664
9968.000000;0.816478
9967.000000;0.816560
9966.000000;0.816905
9965.000000;0.817366
9964.000000;0.817496
9963.000000;0.816986
9962.000000;0.816089
9961.000000;0.815423
9960.000000;0.815440
9959.000000;0.816148
9958.000000;0.817172
9957.000000;0.818009
9956.000000;0.818340
9955.000000;0.818171
9954.000000;0.817640
9953.000000;0.816844
9952.000000;0.816040
9951.000000;0.815776
9950.000000;0.816389
9949.000000;0.817387
9948.000000;0.817709
9947.000000;0.816759
9946.000000;0.814983
9945.000000;0.813391
9944.000000;0.812760
9943.000000;0.813230
9942.000000;0.814279
9941.000000;0.815020
9940.000000;0.814881
9939.000000;0.814171
9938.000000;0.813736
9937.000000;0.814003
9936.000000;0.814605
9935.000000;0.814941
9934.000000;0.814759
9933.000000;0.814122
9932.000000;0.813204
9931.000000;0.812342
9930.000000;0.812020
9929.000000;0.812482
9928.000000;0.813444
9927.000000;0.814320
9926.000000;0.814710
9925.000000;0.814646
9924.000000;0.814476
9923.000000;0.814498
9922.000000;0.814615
9921.000000;0.814365
9920.000000;0.813501
9919.000000;0.812496
9918.000000;0.812132
9917.000000;0.812569
9916.000000;0.813099
9915.000000;0.812948
9914.000000;0.812094
9913.000000;0.811167
9912.000000;0.810747
9911.000000;0.810945
9910.000000;0.811500
9909.000000;0.812069
9908.000000;0.812456
9907.000000;0.812623
9906.000000;0.812515
9905.000000;0.812014
9904.000000;0.811166
9903.000000;0.810305
9902.000000;0.809691
9901.000000;0.809184
9900.000000;0.808590
9899.000000;0.808241
9898.000000;0.808763
9897.000000;0.810178
9896.000000;0.811609
9895.000000;0.812051
9894.000000;0.811222
9893.000000;0.809575
9892.000000;0.807838
9891.000000;0.806716
9890.000000;0.806649
9889.000000;0.807488
9888.000000;0.808554
9887.000000;0.809259
9886.000000;0.809531
9885.000000;0.809516
9884.000000;0.809169
9883.000000;0.808469
9882.000000;0.807817
9881.000000;0.807753
9880.000000;0.808287
9879.000000;0.808779
9878.000000;0.808593
9877.000000;0.807712
9876.000000;0.806688
9875.000000;0.806124
9874.000000;0.806206
9873.000000;0.806604
9872.000000;0.806771
9871.000000;0.806454
9870.000000;0.805935
9869.000000;0.805724
9868.000000;0.806045
9867.000000;0.806659
9866.000000;0.807138
9865.000000;0.807188
9864.000000;0.806763
9863.000000;0.806025
9862.000000;0.805280
9861.000000;0.804860
9860.000000;0.804980
9859.000000;0.805634
9858.000000;0.806587
9857.000000;0.807414
9856.000000;0.807648
9855.000000;0.807054
9854.000000;0.805859
9853.000000;0.804671
9852.000000;0.804041
9851.000000;0.804053
9850.000000;0.804365
9849.000000;0.804658
9848.000000;0.805006
9847.000000;0.805713
9846.000000;0.806826
9845.000000;0.807891
9844.000000;0.808261
9843.000000;0.807643
9842.000000;0.806369
9841.000000;0.805135
9840.000000;0.804463
9839.000000;0.804345
9838.000000;0.804365
9837.000000;0.804160
9836.000000;0.803727
9835.000000;0.803293
9834.000000;0.803046
9833.000000;0.803058
9832.000000;0.803328
9831.000000;0.803685
9830.000000;0.803756
9829.000000;0.803281
9828.000000;0.802466
9827.000000;0.801792
9826.000000;0.801493
9825.000000;0.801431
9824.000000;0.801480
9823.000000;0.801722
9822.000000;0.802152
9821.000000;0.802451
9820.000000;0.802262
9819.000000;0.801570
9818.000000;0.800682
9817.000000;0.799987
9816.000000;0.799814
9815.000000;0.800298
9814.000000;0.801196
9813.000000;0.801995
9812.000000;0.802372
9811.000000;0.802390
9810.000000;0.802164
9809.000000;0.801601
9808.000000;0.800707
9807.000000;0.799929
9806.000000;0.799837
9805.000000;0.800514
9804.000000;0.801498
9803.000000;0.802281
9802.000000;0.802649
9801.000000;0.802565
9800.000000;0.802012
9799.000000;0.801077
9798.000000;0.800050
9797.000000;0.799288
9796.000000;0.798939
9795.000000;0.798825
9794.000000;0.798646
9793.000000;0.798344
9792.000000;0.798235
9791.000000;0.798632
9790.000000;0.799365
9789.000000;0.799889
9788.000000;0.799885
9787.000000;0.799568
9786.000000;0.799349
9785.000000;0.799439
9784.000000;0.799793
9783.000000;0.800182
9782.000000;0.800170
9781.000000;0.799344
9780.000000;0.797813
9779.000000;0.796324
9778.000000;0.795700
9777.000000;0.796235
9776.000000;0.797626
9775.000000;0.799230
9774.000000;0.800283
9773.000000;0.800251
9772.000000;0.799262
9771.000000;0.798016
9770.000000;0.797108
9769.000000;0.796637
9768.000000;0.796519
9767.000000;0.796741
9766.000000;0.797037
9765.000000;0.796797
9764.000000;0.795760
9763.000000;0.794511
9762.000000;0.793824
9761.000000;0.793768
9760.000000;0.793916
9759.000000;0.794169
9758.000000;0.794748
9757.000000;0.795448
9756.000000;0.795560
9755.000000;0.794723
9754.000000;0.793386
9753.000000;0.792294
9752.000000;0.791898
9751.000000;0.792302
9750.000000;0.793325
9749.000000;0.794426
9748.000000;0.794954
9747.000000;0.794727
9746.000000;0.794155
9745.000000;0.793670
9744.000000;0.793310
9743.000000;0.793002
9742.000000;0.792928
9741.000000;0.793315
9740.000000;0.794000
9739.000000;0.794460
9738.000000;0.794284
9737.000000;0.793539
9736.000000;0.792726
9735.000000;0.792399
9734.000000;0.792715
9733.000000;0.793285
9732.000000;0.793530
9731.000000;0.793245
9730.000000;0.792755
9729.000000;0.792537
9728.000000;0.792798
9727.000000;0.793396
9726.000000;0.793963
9725.000000;0.794072
9724.000000;0.793486
9723.000000;0.792425
9722.000000;0.791524
9721.000000;0.791382
9720.000000;0.792093
9719.000000;0.793178
9718.000000;0.793969
9717.000000;0.794102
9716.000000;0.793662
9715.000000;0.792922
9714.000000;0.792037
9713.000000;0.791101
9712.000000;0.790374
9711.000000;0.790163
9710.000000;0.790442
9709.000000;0.790796
9708.000000;0.790875
9707.000000;0.790738
9706.000000;0.790663
9705.000000;0.790822
9704.000000;0.791245
9703.000000;0.791861
9702.000000;0.792372
9701.000000;0.792327
9700.000000;0.791577
9699.000000;0.790501
9698.000000;0.789586
9697.000000;0.788983
9696.000000;0.788671
9695.000000;0.788773
9694.000000;0.789360
9693.000000;0.790124
9692.000000;0.790585
9691.000000;0.790567
9690.000000;0.790164
9689.000000;0.789420
9688.000000;0.788455
9687.000000;0.787771
9686.000000;0.787903
9685.000000;0.788678
9684.000000;0.789235
9683.000000;0.788949
9682.000000;0.788049
9681.000000;0.787232
9680.000000;0.786938
9679.000000;0.787136
9678.000000;0.787511
9677.000000;0.787667
9676.000000;0.787377
9675.000000;0.786794
9674.000000;0.786330
9673.000000;0.786229
9672.000000;0.786369
9671.000000;0.786484
9670.000000;0.786424
9669.000000;0.786166
9668.000000;0.785762
9667.000000;0.785381
9666.000000;0.785253
9665.000000;0.785445
9664.000000;0.785762
9663.000000;0.785917
9662.000000;0.785748
9661.000000;0.785324
9660.000000;0.784952
9659.000000;0.785032
9658.000000;0.785729
9657.000000;0.786749
9656.000000;0.787562
9655.000000;0.787870
9654.000000;0.787778
9653.000000;0.787526
9652.000000;0.787212
9651.000000;0.786796
9650.000000;0.786221
9649.000000;0.785492
9648.000000;0.784711
9647.000000;0.784038
9646.000000;0.783537
9645.000000;0.783121
9644.000000;0.782722
9643.000000;0.782452
9642.000000;0.782457
9641.000000;0.782682
9640.000000;0.782905
9639.000000;0.782983
9638.000000;0.782943
9637.000000;0.782898
9636.000000;0.783008
9635.000000;0.783419
9634.000000;0.784068
9633.000000;0.784584
9632.000000;0.784551
9631.000000;0.783873
9630.000000;0.782814
9629.000000;0.781818
9628.000000;0.781354
9627.000000;0.781717
9626.000000;0.782718
9625.000000;0.783733
9624.000000;0.784276
9623.000000;0.784428
9622.000000;0.784451
9621.000000;0.784213
9620.000000;0.783417
9619.000000;0.782274
9618.000000;0.781444
9617.000000;0.781231
9616.000000;0.781291
9615.000000;0.781281
9614.000000;0.781410
9613.000000;0.782034
9612.000000;0.782950
9611.000000;0.783439
9610.000000;0.783010
9609.000000;0.781900
9608.000000;0.780820
9607.000000;0.780293
9606.000000;0.780244
9605.000000;0.780200
9604.000000;0.779849
9603.000000;0.779370
9602.000000;0.779184
9601.000000;0.779486
9600.000000;0.780076
9599.000000;0.780563
9598.000000;0.780635
9597.000000;0.780249
9596.000000;0.779711
9595.000000;0.779464
9594.000000;0.779618
9593.000000;0.779794
9592.000000;0.779585
9591.000000;0.779093
9590.000000;0.778758
9589.000000;0.778767
9588.000000;0.778927
9587.000000;0.779077
9586.000000;0.779300
9585.000000;0.779640
9584.000000;0.779887
9583.000000;0.779769
9582.000000;0.779247
9581.000000;0.778541
9580.000000;0.777984
9579.000000;0.777825
9578.000000;0.778019
9577.000000;0.778217
9576.000000;0.778136
9575.000000;0.777933
9574.000000;0.778032
9573.000000;0.778567
9572.000000;0.779193
9571.000000;0.779496
9570.000000;0.779374
9569.000000;0.778991
9568.000000;0.778534
9567.000000;0.778110
9566.000000;0.777735
9565.000000;0.777362
9564.000000;0.777000
9563.000000;0.776815
9562.000000;0.776945
9561.000000;0.777214
9560.000000;0.777245
9559.000000;0.776913
9558.000000;0.776527
9557.000000;0.776475
9556.000000;0.776812
9555.000000;0.777231
9554.000000;0.777313
9553.000000;0.776770
9552.000000;0.775651
9551.000000;0.774418
9550.000000;0.773728
9549.000000;0.773986
9548.000000;0.775059
9547.000000;0.776372
9546.000000;0.777212
9545.000000;0.777085
9544.000000;0.776005
9543.000000;0.774558
9542.000000;0.773555
9541.000000;0.773478
9540.000000;0.774171
9539.000000;0.775015
9538.000000;0.775364
9537.000000;0.774953
9536.000000;0.774061
9535.000000;0.773289
9534.000000;0.773083
9533.000000;0.773416
9532.000000;0.773935
9531.000000;0.774340
9530.000000;0.774567
9529.000000;0.774694
9528.000000;0.774779
9527.000000;0.774803
9526.000000;0.774685
9525.000000;0.774399
9524.000000;0.774083
9523.000000;0.773936
9522.000000;0.773976
9521.000000;0.774025
9520.000000;0.773991
9519.000000;0.773980
9518.000000;0.774001
9517.000000;0.773807
9516.000000;0.773226
9515.000000;0.772510
9514.000000;0.772091
9513.000000;0.772093
9512.000000;0.772282
9511.000000;0.772421
9510.000000;0.772484
9509.000000;0.772552
9508.000000;0.772673
9507.000000;0.772770
9506.000000;0.772622
9505.000000;0.772121
9504.000000;0.771619
9503.000000;0.771723
9502.000000;0.772509
9501.000000;0.773262
9500.000000;0.773364
9499.000000;0.773108
9498.000000;0.773126
9497.000000;0.773261
9496.000000;0.772717
9495.000000;0.771320
9494.000000;0.769954
9493.000000;0.769510
9492.000000;0.769945
9491.000000;0.770605
9490.000000;0.771035
9489.000000;0.771138
9488.000000;0.770880
9487.000000;0.770282
9486.000000;0.769620
9485.000000;0.769302
9484.000000;0.769499
9483.000000;0.769960
9482.000000;0.770190
9481.000000;0.769825
9480.000000;0.768986
9479.000000;0.768229
9478.000000;0.767993
9477.000000;0.768144
9476.000000;0.768252
9475.000000;0.768223
9474.000000;0.768296
9473.000000;0.768451
9472.000000;0.768301
9471.000000;0.767734
9470.000000;0.767228
9469.000000;0.767260
9468.000000;0.767714
9467.000000;0.768146
9466.000000;0.768371
9465.000000;0.768487
9464.000000;0.768537
9463.000000;0.768459
9462.000000;0.768282
9461.000000;0.768117
9460.000000;0.768013
9459.000000;0.767977
9458.000000;0.768015
9457.000000;0.767982
9456.000000;0.767589
9455.000000;0.766774
9454.000000;0.765913
9453.000000;0.765482
9452.000000;0.765591
9451.000000;0.766042
9450.000000;0.766624
9449.000000;0.767113
9448.000000;0.767161
9447.000000;0.766571
9446.000000;0.765682
9445.000000;0.765144
9444.000000;0.765266
9443.000000;0.765796
9442.000000;0.766311
9441.000000;0.766579
9440.000000;0.766512
9439.000000;0.766081
9438.000000;0.765449
9437.000000;0.765006
9436.000000;0.765076
9435.000000;0.765617
9434.000000;0.766274
9433.000000;0.766658
9432.000000;0.766563
9431.000000;0.766041
9430.000000;0.765383
9429.000000;0.764974
9428.000000;0.765038
9427.000000;0.765484
9426.000000;0.765986
9425.000000;0.766203
9424.000000;0.765930
9423.000000;0.765164
9422.000000;0.764119
9421.000000;0.763174
9420.000000;0.762697
9419.000000;0.762853
9418.000000;0.763506
9417.000000;0.764264
9416.000000;0.764650
9415.000000;0.764342
9414.000000;0.763396
9413.000000;0.762310
9412.000000;0.761748
9411.000000;0.762041
9410.000000;0.762909
9409.000000;0.763675
9408.000000;0.763803
9407.000000;0.763222
9406.000000;0.762228
9405.000000;0.761210
9404.000000;0.760533
9403.000000;0.760481
9402.000000;0.761092
9401.000000;0.762003
9400.000000;0.762617
9399.000000;0.762551
9398.000000;0.761963
9397.000000;0.761389
9396.000000;0.761231
9395.000000;0.761390
9394.000000;0.761399
9393.000000;0.760925
9392.000000;0.760105
9391.000000;0.759358
9390.000000;0.758975
9389.000000;0.758987
9388.000000;0.759360
9387.000000;0.760046
9386.000000;0.760778
9385.000000;0.761054
9384.000000;0.760574
9383.000000;0.759651
9382.000000;0.758976
9381.000000;0.758989
9380.000000;0.759561
9379.000000;0.760258
9378.000000;0.760742
9377.000000;0.760915
9376.000000;0.760823
9375.000000;0.760525
9374.000000;0.760095
9373.000000;0.759704
9372.000000;0.759641
9371.000000;0.760070
9370.000000;0.760716
9369.000000;0.760975
9368.000000;0.760538
9367.000000;0.759806
9366.000000;0.759470
9365.000000;0.759695
9364.000000;0.759945
9363.000000;0.759647
9362.000000;0.758847
9361.000000;0.758090
9360.000000;0.757793
9359.000000;0.757887
9358.000000;0.757996
9357.000000;0.757850
9356.000000;0.757489
9355.000000;0.757141
9354.000000;0.756991
9353.000000;0.757074
9352.000000;0.757357
9351.000000;0.757785
9350.000000;0.758195
9349.000000;0.758274
9348.000000;0.757785
9347.000000;0.756865
9346.000000;0.756001
9345.000000;0.755635
9344.000000;0.755816
9343.000000;0.756241
9342.000000;0.756589
9341.000000;0.756764
9340.000000;0.756847
9339.000000;0.756897
9338.000000;0.756856
9337.000000;0.756635
9336.000000;0.756246
9335.000000;0.755797
9334.000000;0.755396
9333.000000;0.755089
9332.000000;0.754837
9331.000000;0.754535
9330.000000;0.754125
9329.000000;0.753780
9328.000000;0.753863
9327.000000;0.754543
9326.000000;0.755485
9325.000000;0.756100
9324.000000;0.756105
9323.000000;0.755700
9322.000000;0.755222
9321.000000;0.754841
9320.000000;0.754652
9319.000000;0.754771
9318.000000;0.755178
9317.000000;0.755562
9316.000000;0.755527
9315.000000;0.754918
9314.000000;0.753946
9313.000000;0.753068
9312.000000;0.752727
9311.000000;0.753025
9310.000000;0.753555
9309.000000;0.753742
9308.000000;0.753417
9307.000000;0.752938
9306.000000;0.752713
9305.000000;0.752830
9304.000000;0.753201
9303.000000;0.753782
9302.000000;0.754488
9301.000000;0.755088
9300.000000;0.755417
9299.000000;0.755528
9298.000000;0.755479
9297.000000;0.755151
9296.000000;0.754464
9295.000000;0.753640
9294.000000;0.753018
9293.000000;0.752716
9292.000000;0.752613
9291.000000;0.752520
9290.000000;0.752261
9289.000000;0.751772
9288.000000;0.751274
9287.000000;0.751145
9286.000000;0.751430
9285.000000;0.751701
9284.000000;0.751630
9283.000000;0.751481
9282.000000;0.751707
9281.000000;0.752244
9280.000000;0.752531
9279.000000;0.752169
9278.000000;0.751266
9277.000000;0.750231
9276.000000;0.749515
9275.000000;0.749482
9274.000000;0.750187
9273.000000;0.751230
9272.000000;0.752027
9271.000000;0.752221
9270.000000;0.751723
9269.000000;0.750621
9268.000000;0.749336
9267.000000;0.748660
9266.000000;0.749135
9265.000000;0.750364
9264.000000;0.751312
9263.000000;0.751359
9262.000000;0.750752
9261.000000;0.750027
9260.000000;0.749431
9259.000000;0.749029
9258.000000;0.748934
9257.000000;0.749141
9256.000000;0.749352
9255.000000;0.749238
9254.000000;0.748784
9253.000000;0.748266
9252.000000;0.747974
9251.000000;0.748009
9250.000000;0.748228
9249.000000;0.748354
9248.000000;0.748231
9247.000000;0.748000
9246.000000;0.747892
9245.000000;0.747893
9244.000000;0.747783
9243.000000;0.747497
9242.000000;0.747236
9241.000000;0.747179
9240.000000;0.747278
9239.000000;0.747397
9238.000000;0.747475
9237.000000;0.747509
9236.000000;0.747508
9235.000000;0.747507
9234.000000;0.747539
9233.000000;0.747579
9232.000000;0.747591
9231.000000;0.747578
9230.000000;0.747460
9229.000000;0.747032
9228.000000;0.746229
9227.000000;0.745358
9226.000000;0.744822
9225.000000;0.744698
9224.000000;0.744803
9223.000000;0.745088
9222.000000;0.745623
9221.000000;0.746208
9220.000000;0.746370
9219.000000;0.745873
9218.000000;0.744983
9217.000000;0.744148
9216.000000;0.743655
9215.000000;0.743637
9214.000000;0.744090
9213.000000;0.744750
9212.000000;0.745178
9211.000000;0.745140
9210.000000;0.744765
9209.000000;0.744281
9208.000000;0.743810
9207.000000;0.743468
9206.000000;0.743417
9205.000000;0.743677
9204.000000;0.744073
9203.000000;0.744446
9202.000000;0.744747
9201.000000;0.744873
9200.000000;0.744671
9199.000000;0.744219
9198.000000;0.743872
9197.000000;0.743871
9196.000000;0.744072
9195.000000;0.744186
9194.000000;0.744097
9193.000000;0.743808
9192.000000;0.743318
9191.000000;0.742762
9190.000000;0.742482
9189.000000;0.742679
9188.000000;0.743090
9187.000000;0.743250
9186.000000;0.743029
9185.000000;0.742729
9184.000000;0.742652
9183.000000;0.742744
9182.000000;0.742712
9181.000000;0.742399
9180.000000;0.741967
9179.000000;0.741738
9178.000000;0.741865
9177.000000;0.742168
9176.000000;0.742311
9175.000000;0.742105
9174.000000;0.741601
9173.000000;0.740971
9172.000000;0.740393
9171.000000;0.740015
9170.000000;0.739890
9169.000000;0.739958
9168.000000;0.740187
9167.000000;0.740678
9166.000000;0.741445
9165.000000;0.742161
9164.000000;0.742348
9163.000000;0.741884
9162.000000;0.741123
9161.000000;0.740472
9160.000000;0.740067
9159.000000;0.739908
9158.000000;0.740064
9157.000000;0.740543
9156.000000;0.741073
9155.000000;0.741217
9154.000000;0.740722
9153.000000;0.739750
9152.000000;0.738783
9151.000000;0.738306
9150.000000;0.738469
9149.000000;0.739011
9148.000000;0.739542
9147.000000;0.739884
9146.000000;0.740052
9145.000000;0.740031
9144.000000;0.739775
9143.000000;0.739378
9142.000000;0.739002
9141.000000;0.738627
9140.000000;0.738125
9139.000000;0.737621
9138.000000;0.737492
9137.000000;0.737843
9136.000000;0.738228
9135.000000;0.738116
9134.000000;0.737509
9133.000000;0.736906
9132.000000;0.736725
9131.000000;0.736932
9130.000000;0.737215
9129.000000;0.737367
9128.000000;0.737447
9127.000000;0.737607
9126.000000;0.737807
9125.000000;0.737781
9124.000000;0.737353
9123.000000;0.736751
9122.000000;0.736444
9121.000000;0.736656
9120.000000;0.737168
9119.000000;0.737584
9118.000000;0.737673
9117.000000;0.737437
9116.000000;0.737014
9115.000000;0.736601
9114.000000;0.736347
9113.000000;0.736248
9112.000000;0.736184
9111.000000;0.736072
9110.000000;0.735915
9109.000000;0.735710
9108.000000;0.735449
9107.000000;0.735216
9106.000000;0.735134
9105.000000;0.735183
9104.000000;0.735198
9103.000000;0.735065
9102.000000;0.734808
9101.000000;0.734493
9100.000000;0.734164
9099.000000;0.733916
9098.000000;0.733867
9097.000000;0.734007
9096.000000;0.734205
9095.000000;0.734364
9094.000000;0.734457
9093.000000;0.734418
9092.000000;0.734153
9091.000000;0.733738
9090.000000;0.733427
9089.000000;0.733433
9088.000000;0.733751
9087.000000;0.734234
9086.000000;0.734681
9085.000000;0.734882
9084.000000;0.734713
9083.000000;0.734235
9082.000000;0.733629
9081.000000;0.733045
9080.000000;0.732615
9079.000000;0.732514
9078.000000;0.732762
9077.000000;0.733000
9076.000000;0.732758
9075.000000;0.732005
9074.000000;0.731233
9073.000000;0.730926
9072.000000;0.731152
9071.000000;0.731682
9070.000000;0.732219
9069.000000;0.732442
9068.000000;0.732122
9067.000000;0.731398
9066.000000;0.730779
9065.000000;0.730689
9064.000000;0.731104
9063.000000;0.731699
9062.000000;0.732184
9061.000000;0.732391
9060.000000;0.732224
9059.000000;0.731710
9058.000000;0.731004
9057.000000;0.730263
9056.000000;0.729635
9055.000000;0.729382
9054.000000;0.729763
9053.000000;0.730650
9052.000000;0.731440
9051.000000;0.731570
9050.000000;0.731047
9049.000000;0.730324
9048.000000;0.729786
9047.000000;0.729517
9046.000000;0.729440
9045.000000;0.729466
9044.000000;0.729516
9043.000000;0.729525
9042.000000;0.729462
9041.000000;0.729300
9040.000000;0.729048
9039.000000;0.728808
9038.000000;0.728721
9037.000000;0.728810
9036.000000;0.728977
9035.000000;0.729178
9034.000000;0.729437
9033.000000;0.729641
9032.000000;0.729526
9031.000000;0.729013
9030.000000;0.728423
9029.000000;0.728203
9028.000000;0.728510
9027.000000;0.729129
9026.000000;0.729702
9025.000000;0.729924
9024.000000;0.729668
9023.000000;0.729061
9022.000000;0.728398
9021.000000;0.727889
9020.000000;0.727575
9019.000000;0.727479
9018.000000;0.727671
9017.000000;0.728046
9016.000000;0.728252
9015.000000;0.728036
9014.000000;0.727575
9013.000000;0.727274
9012.000000;0.727308
9011.000000;0.727503
9010.000000;0.727608
9009.000000;0.727502
9008.000000;0.727167
9007.000000;0.726648
9006.000000;0.726094
9005.000000;0.725736
9004.000000;0.725740
9003.000000;0.726078
9002.000000;0.726501
9001.000000;0.726665
9000.000000;0.726383
8999.000000;0.725803
8998.000000;0.725273
8997.000000;0.724991
8996.000000;0.724892
8995.000000;0.724879
8994.000000;0.724999
8993.000000;0.725281
8992.000000;0.725546
8991.000000;0.725536
8990.000000;0.725215
8989.000000;0.724803
8988.000000;0.724551
8987.000000;0.724535
8986.000000;0.724635
8985.000000;0.724642
8984.000000;0.724431
8983.000000;0.724105
8982.000000;0.723930
8981.000000;0.724083
8980.000000;0.724493
8979.000000;0.724965
8978.000000;0.725359
8977.000000;0.725603
8976.000000;0.725611
8975.000000;0.725306
8974.000000;0.724728
8973.000000;0.724087
8972.000000;0.723674
8971.000000;0.723687
8970.000000;0.724037
8969.000000;0.724344
8968.000000;0.724240
8967.000000;0.723703
8966.000000;0.723021
8965.000000;0.722444
8964.000000;0.722009
8963.000000;0.721713
8962.000000;0.721643
8961.000000;0.721831
8960.000000;0.722121
8959.000000;0.722286
8958.000000;0.722230
8957.000000;0.722028
8956.000000;0.721853
8955.000000;0.721905
8954.000000;0.722277
8953.000000;0.722832
8952.000000;0.723294
8951.000000;0.723508
8950.000000;0.723517
8949.000000;0.723391
8948.000000;0.723140
8947.000000;0.722829
8946.000000;0.722581
8945.000000;0.722378
8944.000000;0.722070
8943.000000;0.721685
8942.000000;0.721520
8941.000000;0.721729
8940.000000;0.721970
8939.000000;0.721717
8938.000000;0.720885
8937.000000;0.719963
8936.000000;0.719541
8935.000000;0.719815
8934.000000;0.720514
8933.000000;0.721143
8932.000000;0.721297
8931.000000;0.720901
8930.000000;0.720203
8929.000000;0.719570
8928.000000;0.719294
8927.000000;0.719512
8926.000000;0.720156
8925.000000;0.720876
8924.000000;0.721170
8923.000000;0.720762
8922.000000;0.719869
8921.000000;0.719014
8920.000000;0.718592
8919.000000;0.718647
8918.000000;0.718947
8917.000000;0.719185
8916.000000;0.719168
8915.000000;0.718913
8914.000000;0.718589
8913.000000;0.718366
8912.000000;0.718352
8911.000000;0.718609
8910.000000;0.719056
8909.000000;0.719370
8908.000000;0.719213
8907.000000;0.718673
8906.000000;0.718294
8905.000000;0.718491
8904.000000;0.719077
8903.000000;0.719518
8902.000000;0.719546
8901.000000;0.719344
8900.000000;0.719191
8899.000000;0.719179
8898.000000;0.719263
8897.000000;0.719381
8896.000000;0.719438
8895.000000;0.719287
8894.000000;0.718831
8893.000000;0.718131
8892.000000;0.717392
8891.000000;0.716870
8890.000000;0.716746
8889.000000;0.717032
8888.000000;0.717537
8887.000000;0.717967
8886.000000;0.718057
8885.000000;0.717696
8884.000000;0.717004
8883.000000;0.716299
8882.000000;0.715904
8881.000000;0.715935
8880.000000;0.716273
8879.000000;0.716697
8878.000000;0.716965
8877.000000;0.716853
8876.000000;0.716305
8875.000000;0.715603
8874.000000;0.715223
8873.000000;0.715380
8872.000000;0.715772
8871.000000;0.715883
8870.000000;0.715485
8869.000000;0.714798
8868.000000;0.714240
8867.000000;0.714094
8866.000000;0.714345
8865.000000;0.714738
8864.000000;0.714970
8863.000000;0.714914
8862.000000;0.714654
8861.000000;0.714341
8860.000000;0.714090
8859.000000;0.713980
8858.000000;0.714041
8857.000000;0.714180
8856.000000;0.714234
8855.000000;0.714153
8854.000000;0.714072
8853.000000;0.714134
8852.000000;0.714334
8851.000000;0.714547
8850.000000;0.714647
8849.000000;0.714559
8848.000000;0.714298
8847.000000;0.714007
8846.000000;0.713852
8845.000000;0.713831
8844.000000;0.713763
8843.000000;0.713527
8842.000000;0.713213
8841.000000;0.712968
8840.000000;0.712800
8839.000000;0.712624
8838.000000;0.712429
8837.000000;0.712321
8836.000000;0.712419
8835.000000;0.712761
8834.000000;0.713228
8833.000000;0.713553
8832.000000;0.713493
8831.000000;0.713063
8830.000000;0.712531
8829.000000;0.712153
8828.000000;0.711982
8827.000000;0.711942
8826.000000;0.711978
8825.000000;0.712067
8824.000000;0.712183
8823.000000;0.712303
8822.000000;0.712385
8821.000000;0.712329
8820.000000;0.712063
8819.000000;0.711667
8818.000000;0.711341
8817.000000;0.711216
8816.000000;0.711307
8815.000000;0.711619
8814.000000;0.712118
8813.000000;0.712575
8812.000000;0.712648
8811.000000;0.712216
8810.000000;0.711500
8809.000000;0.710809
8808.000000;0.710301
8807.000000;0.710050
8806.000000;0.710112
8805.000000;0.710413
8804.000000;0.710720
8803.000000;0.710847
8802.000000;0.710752
8801.000000;0.710415
8800.000000;0.709822
8799.000000;0.709191
8798.000000;0.708950
8797.000000;0.709285
8796.000000;0.709853
8795.000000;0.710164
8794.000000;0.710115
8793.000000;0.709955
8792.000000;0.709848
8791.000000;0.709736
8790.000000;0.709591
8789.000000;0.709552
8788.000000;0.709743
8787.000000;0.710094
8786.000000;0.710360
8785.000000;0.710298
8784.000000;0.709887
8783.000000;0.709433
8782.000000;0.709325
8781.000000;0.709586
8780.000000;0.709808
8779.000000;0.709631
8778.000000;0.709168
8777.000000;0.708791
8776.000000;0.708659
8775.000000;0.708645
8774.000000;0.708616
8773.000000;0.708555
8772.000000;0.708436
8771.000000;0.708195
8770.000000;0.707832
8769.000000;0.707442
8768.000000;0.707143
8767.000000;0.707047
8766.000000;0.707211
8765.000000;0.707498
8764.000000;0.707594
8763.000000;0.707326
8762.000000;0.706891
8761.000000;0.706636
8760.000000;0.706690
8759.000000;0.706959
8758.000000;0.707334
8757.000000;0.707687
8756.000000;0.707778
8755.000000;0.707439
8754.000000;0.706867
8753.000000;0.706502
8752.000000;0.706577
8751.000000;0.706940
8750.000000;0.707313
8749.000000;0.707545
8748.000000;0.707634
8747.000000;0.707660
8746.000000;0.707695
8745.000000;0.707685
8744.000000;0.707452
8743.000000;0.706975
8742.000000;0.706585
8741.000000;0.706654
8740.000000;0.707120
8739.000000;0.707570
8738.000000;0.707788
8737.000000;0.707926
8736.000000;0.708089
8735.000000;0.708066
8734.000000;0.707639
8733.000000;0.706972
8732.000000;0.706461
8731.000000;0.706330
8730.000000;0.706489
8729.000000;0.706714
8728.000000;0.706818
8727.000000;0.706719
8726.000000;0.706474
8725.000000;0.706242
8724.000000;0.706143
8723.000000;0.706167
8722.000000;0.706242
8721.000000;0.706296
8720.000000;0.706246
8719.000000;0.706021
8718.000000;0.705691
8717.000000;0.705472
8716.000000;0.705523
8715.000000;0.705770
8714.000000;0.705991
8713.000000;0.706037
8712.000000;0.705918
8711.000000;0.705725
8710.000000;0.705545
8709.000000;0.705410
8708.000000;0.705293
8707.000000;0.705169
8706.000000;0.705095
8705.000000;0.705165
8704.000000;0.705369
8703.000000;0.705574
8702.000000;0.705691
8701.000000;0.705772
8700.000000;0.705855
8699.000000;0.705823
8698.000000;0.705537
8697.000000;0.705072
8696.000000;0.704695
8695.000000;0.704585
8694.000000;0.704671
8693.000000;0.704752
8692.000000;0.704701
8691.000000;0.704507
8690.000000;0.704226
8689.000000;0.703974
8688.000000;0.703916
8687.000000;0.704123
8686.000000;0.704422
8685.000000;0.704492
8684.000000;0.704171
8683.000000;0.703648
8682.000000;0.703277
8681.000000;0.703248
8680.000000;0.703489
8679.000000;0.703813
8678.000000;0.704055
8677.000000;0.704080
8676.000000;0.703814
8675.000000;0.703376
8674.000000;0.703080
8673.000000;0.703178
8672.000000;0.703580
8671.000000;0.703886
8670.000000;0.703727
8669.000000;0.703105
8668.000000;0.702394
8667.000000;0.702030
8666.000000;0.702138
8665.000000;0.702437
8664.000000;0.702538
8663.000000;0.702336
8662.000000;0.702056
8661.000000;0.701922
8660.000000;0.701891
8659.000000;0.701782
8658.000000;0.701569
8657.000000;0.701408
8656.000000;0.701410
8655.000000;0.701515
8654.000000;0.701600
8653.000000;0.701615
8652.000000;0.701557
8651.000000;0.701377
8650.000000;0.701020
8649.000000;0.700536
8648.000000;0.700106
8647.000000;0.699924
8646.000000;0.700034
8645.000000;0.700275
8644.000000;0.700393
8643.000000;0.700238
8642.000000;0.699868
8641.000000;0.699482
8640.000000;0.699254
8639.000000;0.699200
8638.000000;0.699196
8637.000000;0.699115
8636.000000;0.698969
8635.000000;0.698901
8634.000000;0.699021
8633.000000;0.699271
8632.000000;0.699454
8631.000000;0.699379
8630.000000;0.699002
8629.000000;0.698464
8628.000000;0.698027
8627.000000;0.697887
8626.000000;0.697971
8625.000000;0.697963
8624.000000;0.697631
8623.000000;0.697120
8622.000000;0.696831
8621.000000;0.696987
8620.000000;0.697386
8619.000000;0.697583
8618.000000;0.697284
8617.000000;0.696586
8616.000000;0.695923
8615.000000;0.695751
8614.000000;0.696175
8613.000000;0.696817
8612.000000;0.697135
8611.000000;0.696911
8610.000000;0.696368
8609.000000;0.695861
8608.000000;0.695565
8607.000000;0.695475
8606.000000;0.695512
8605.000000;0.695560
8604.000000;0.695510
8603.000000;0.695356
8602.000000;0.695200
8601.000000;0.695090
8600.000000;0.694943
8599.000000;0.694677
8598.000000;0.694343
8597.000000;0.694052
8596.000000;0.693863
8595.000000;0.693757
8594.000000;0.693670
8593.000000;0.693489
8592.000000;0.693143
8591.000000;0.692741
8590.000000;0.692537
8589.000000;0.692661
8588.000000;0.692945
8587.000000;0.693072
8586.000000;0.692869
8585.000000;0.692426
8584.000000;0.692027
8583.000000;0.691962
8582.000000;0.692281
8581.000000;0.692652
8580.000000;0.692602
8579.000000;0.692039
8578.000000;0.691434
8577.000000;0.691363
8576.000000;0.691908
8575.000000;0.692599
8574.000000;0.692862
8573.000000;0.692456
8572.000000;0.691572
8571.000000;0.690660
8570.000000;0.690138
8569.000000;0.690104
8568.000000;0.690309
8567.000000;0.690435
8566.000000;0.690378
8565.000000;0.690223
8564.000000;0.690050
8563.000000;0.689899
8562.000000;0.689841
8561.000000;0.689905
8560.000000;0.689979
8559.000000;0.689912
8558.000000;0.689729
8557.000000;0.689603
8556.000000;0.689613
8555.000000;0.689641
8554.000000;0.689524
8553.000000;0.689202
8552.000000;0.688723
8551.000000;0.688201
8550.000000;0.687811
8549.000000;0.687694
8548.000000;0.687832
8547.000000;0.688052
8546.000000;0.688185
8545.000000;0.688144
8544.000000;0.687868
8543.000000;0.687329
8542.000000;0.686663
8541.000000;0.686203
8540.000000;0.686255
8539.000000;0.686807
8538.000000;0.687471
8537.000000;0.687748
8536.000000;0.687414
8535.000000;0.686693
8534.000000;0.686061
8533.000000;0.685823
8532.000000;0.685902
8531.000000;0.686023
8530.000000;0.686017
8529.000000;0.685881
8528.000000;0.685647
8527.000000;0.685346
8526.000000;0.685091
8525.000000;0.685005
8524.000000;0.685018
8523.000000;0.684892
8522.000000;0.684557
8521.000000;0.684276
8520.000000;0.684333
8519.000000;0.684626
8518.000000;0.684738
8517.000000;0.684395
8516.000000;0.683731
8515.000000;0.683080
8514.000000;0.682650
8513.000000;0.682468
8512.000000;0.682489
8511.000000;0.682635
8510.000000;0.682759
8509.000000;0.682733
8508.000000;0.682580
8507.000000;0.682445
8506.000000;0.682373
8505.000000;0.682223
8504.000000;0.681849
8503.000000;0.681340
8502.000000;0.680969
8501.000000;0.680915
8500.000000;0.681097
8499.000000;0.681280
8498.000000;0.681298
8497.000000;0.681152
8496.000000;0.680936
8495.000000;0.680733
8494.000000;0.680576
8493.000000;0.680457
8492.000000;0.680387
8491.000000;0.680402
8490.000000;0.680526
8489.000000;0.680702
8488.000000;0.680806
8487.000000;0.680747
8486.000000;0.680524
8485.000000;0.680201
8484.000000;0.679858
8483.000000;0.679570
8482.000000;0.679395
8481.000000;0.679333
8480.000000;0.679300
8479.000000;0.679184
8478.000000;0.678947
8477.000000;0.678660
8476.000000;0.678450
8475.000000;0.678412
8474.000000;0.678541
8473.000000;0.678721
8472.000000;0.678785
8471.000000;0.678608
8470.000000;0.678202
8469.000000;0.677717
8468.000000;0.677369
8467.000000;0.677317
8466.000000;0.677562
8465.000000;0.677920
8464.000000;0.678107
8463.000000;0.677914
8462.000000;0.677367
8461.000000;0.676748
8460.000000;0.676400
8459.000000;0.676459
8458.000000;0.676736
8457.000000;0.676898
8456.000000;0.676763
8455.000000;0.676422
8454.000000;0.676102
8453.000000;0.675953
8452.000000;0.675978
8451.000000;0.676076
8450.000000;0.676111
8449.000000;0.675981
8448.000000;0.675679
8447.000000;0.675298
8446.000000;0.674968
8445.000000;0.674798
8444.000000;0.674851
8443.000000;0.675074
8442.000000;0.675253
8441.000000;0.675121
8440.000000;0.674624
8439.000000;0.674034
8438.000000;0.673728
8437.000000;0.673828
8436.000000;0.674085
8435.000000;0.674112
8434.000000;0.673736
8433.000000;0.673160
8432.000000;0.672808
8431.000000;0.672959
8430.000000;0.673488
8429.000000;0.673956
8428.000000;0.673992
8427.000000;0.673571
8426.000000;0.672974
8425.000000;0.672543
8424.000000;0.672464
8423.000000;0.672656
8422.000000;0.672817
8421.000000;0.672665
8420.000000;0.672217
8419.000000;0.671763
8418.000000;0.671539
8417.000000;0.671528
8416.000000;0.671622
8415.000000;0.671783
8414.000000;0.671955
8413.000000;0.671947
8412.000000;0.671610
8411.000000;0.671088
8410.000000;0.670730
8409.000000;0.670762
8408.000000;0.671163
8407.000000;0.671744
8406.000000;0.672222
8405.000000;0.672263
8404.000000;0.671712
8403.000000;0.670799
8402.000000;0.669990
8401.000000;0.669596
8400.000000;0.669618
8399.000000;0.669901
8398.000000;0.670260
8397.000000;0.670457
8396.000000;0.670273
8395.000000;0.669726
8394.000000;0.669091
8393.000000;0.668653
8392.000000;0.668504
8391.000000;0.668569
8390.000000;0.668702
8389.000000;0.668710
8388.000000;0.668431
8387.000000;0.667898
8386.000000;0.667337
8385.000000;0.666979
8384.000000;0.666900
8383.000000;0.667049
8382.000000;0.667308
8381.000000;0.667499
8380.000000;0.667463
8379.000000;0.667197
8378.000000;0.666860
8377.000000;0.666620
8376.000000;0.666552
8375.000000;0.666679
8374.000000;0.666984
8373.000000;0.667330
8372.000000;0.667499
8371.000000;0.667379
8370.000000;0.667059
8369.000000;0.666703
8368.000000;0.666406
8367.000000;0.666212
8366.000000;0.666151
8365.000000;0.666198
8364.000000;0.666238
8363.000000;0.666150
8362.000000;0.665908
8361.000000;0.665590
8360.000000;0.665323
8359.000000;0.665220
8358.000000;0.665293
8357.000000;0.665396
8356.000000;0.665341
8355.000000;0.665100
8354.000000;0.664823
8353.000000;0.664667
8352.000000;0.664662
8351.000000;0.664750
8350.000000;0.664864
8349.000000;0.664937
8348.000000;0.664894
8347.000000;0.664681
8346.000000;0.664283
8345.000000;0.663761
8344.000000;0.663305
8343.000000;0.663185
8342.000000;0.663488
8341.000000;0.663929
8340.000000;0.664068
8339.000000;0.663755
8338.000000;0.663253
8337.000000;0.662912
8336.000000;0.662834
8335.000000;0.662848
8334.000000;0.662721
8333.000000;0.662334
8332.000000;0.661792
8331.000000;0.661393
8330.000000;0.661386
8329.000000;0.661707
8328.000000;0.662051
8327.000000;0.662191
8326.000000;0.662139
8325.000000;0.661995
8324.000000;0.661807
8323.000000;0.661623
8322.000000;0.661531
8321.000000;0.661539
8320.000000;0.661535
8319.000000;0.661427
8318.000000;0.661238
8317.000000;0.661018
8316.000000;0.660786
8315.000000;0.660606
8314.000000;0.660574
8313.000000;0.660618
8312.000000;0.660472
8311.000000;0.659978
8310.000000;0.659331
8309.000000;0.658893
8308.000000;0.658837
8307.000000;0.659066
8306.000000;0.659409
8305.000000;0.659739
8304.000000;0.659947
8303.000000;0.659925
8302.000000;0.659624
8301.000000;0.659122
8300.000000;0.658621
8299.000000;0.658370
8298.000000;0.658504
8297.000000;0.658890
8296.000000;0.659214
8295.000000;0.659256
8294.000000;0.659022
8293.000000;0.658622
8292.000000;0.658129
8291.000000;0.657653
8290.000000;0.657407
8289.000000;0.657518
8288.000000;0.657823
8287.000000;0.657965
8286.000000;0.657744
8285.000000;0.657305
8284.000000;0.656978
8283.000000;0.656962
8282.000000;0.657155
8281.000000;0.657262
8280.000000;0.657092
8279.000000;0.656738
8278.000000;0.656441
8277.000000;0.656310
8276.000000;0.656252
8275.000000;0.656154
8274.000000;0.656010
8273.000000;0.655848
8272.000000;0.655678
8271.000000;0.655575
8270.000000;0.655678
8269.000000;0.655999
8268.000000;0.656300
8267.000000;0.656292
8266.000000;0.655913
8265.000000;0.655354
8264.000000;0.654866
8263.000000;0.654610
8262.000000;0.654616
8261.000000;0.654791
8260.000000;0.654976
8259.000000;0.655071
8258.000000;0.655076
8257.000000;0.654999
8256.000000;0.654810
8255.000000;0.654533
8254.000000;0.654289
8253.000000;0.654154
8252.000000;0.654053
8251.000000;0.653909
8250.000000;0.653796
8249.000000;0.653839
8248.000000;0.653991
8247.000000;0.654056
8246.000000;0.653925
8245.000000;0.653674
8244.000000;0.653422
8243.000000;0.653203
8242.000000;0.653010
8241.000000;0.652893
8240.000000;0.652917
8239.000000;0.653053
8238.000000;0.653164
8237.000000;0.653103
8236.000000;0.652855
8235.000000;0.652557
8234.000000;0.652374
8233.000000;0.652327
8232.000000;0.652267
8231.000000;0.652044
8230.000000;0.651690
8229.000000;0.651394
8228.000000;0.651311
8227.000000;0.651396
8226.000000;0.651426
8225.000000;0.651194
8224.000000;0.650704
8223.000000;0.650214
8222.000000;0.650042
8221.000000;0.650320
8220.000000;0.650898
8219.000000;0.651468
8218.000000;0.651757
8217.000000;0.651661
8216.000000;0.651298
8215.000000;0.650945
8214.000000;0.650837
8213.000000;0.650969
8212.000000;0.651110
8211.000000;0.651015
8210.000000;0.650640
8209.000000;0.650139
8208.000000;0.649727
8207.000000;0.649545
8206.000000;0.649609
8205.000000;0.649807
8204.000000;0.649958
8203.000000;0.649896
8202.000000;0.649569
8201.000000;0.649089
8200.000000;0.648676
8199.000000;0.648503
8198.000000;0.648551
8197.000000;0.648649
8196.000000;0.648653
8195.000000;0.648546
8194.000000;0.648348
8193.000000;0.648064
8192.000000;0.647774
8191.000000;0.647638
8190.000000;0.647694
8189.000000;0.647741
8188.000000;0.647586
8187.000000;0.647316
8186.000000;0.647167
8185.000000;0.647164
8184.000000;0.647117
8183.000000;0.646959
8182.000000;0.646848
8181.000000;0.646895
8180.000000;0.646979
8179.000000;0.646944
8178.000000;0.646812
8177.000000;0.646693
8176.000000;0.646598
8175.000000;0.646463
8174.000000;0.646277
8173.000000;0.646085
8172.000000;0.645935
8171.000000;0.645865
8170.000000;0.645879
8169.000000;0.645885
8168.000000;0.645761
8167.000000;0.645523
8166.000000;0.645338
8165.000000;0.645295
8164.000000;0.645268
8163.000000;0.645096
8162.000000;0.644807
8161.000000;0.644564
8160.000000;0.644461
8159.000000;0.644449
8158.000000;0.644445
8157.000000;0.644414
8156.000000;0.644363
8155.000000;0.644307
8154.000000;0.644230
8153.000000;0.644083
8152.000000;0.643863
8151.000000;0.643689
8150.000000;0.643714
8149.000000;0.643924
8148.000000;0.644104
8147.000000;0.644070
8146.000000;0.643850
8145.000000;0.643601
8144.000000;0.643432
8143.000000;0.643360
8142.000000;0.643368
8141.000000;0.643413
8140.000000;0.643427
8139.000000;0.643350
8138.000000;0.643149
8137.000000;0.642819
8136.000000;0.642434
8135.000000;0.642174
8134.000000;0.642174
8133.000000;0.642332
8132.000000;0.642387
8131.000000;0.642250
8130.000000;0.642105
8129.000000;0.642131
8128.000000;0.642227
8127.000000;0.642153
8126.000000;0.641841
8125.000000;0.641437
8124.000000;0.641110
8123.000000;0.640939
8122.000000;0.640946
8121.000000;0.641116
8120.000000;0.641359
8119.000000;0.641537
8118.000000;0.641545
8117.000000;0.641352
8116.000000;0.641021
8115.000000;0.640710
8114.000000;0.640587
8113.000000;0.640685
8112.000000;0.640860
8111.000000;0.640927
8110.000000;0.640793
8109.000000;0.640462
8108.000000;0.640016
8107.000000;0.639637
8106.000000;0.639527
8105.000000;0.639700
8104.000000;0.639942
8103.000000;0.640030
8102.000000;0.639943
8101.000000;0.639801
8100.000000;0.639694
8099.000000;0.639652
8098.000000;0.639685
8097.000000;0.639722
8096.000000;0.639604
8095.000000;0.639270
8094.000000;0.638902
8093.000000;0.638747
8092.000000;0.638840
8091.000000;0.639003
8090.000000;0.639075
8089.000000;0.639020
8088.000000;0.638842
8087.000000;0.638532
8086.000000;0.638149
8085.000000;0.637851
8084.000000;0.637770
8083.000000;0.637923
8082.000000;0.638219
8081.000000;0.638507
8080.000000;0.638610
8079.000000;0.638407
8078.000000;0.637936
8077.000000;0.637403
8076.000000;0.637055
8075.000000;0.637021
8074.000000;0.637248
8073.000000;0.637533
8072.000000;0.637651
8071.000000;0.637511
8070.000000;0.637204
8069.000000;0.636912
8068.000000;0.636779
8067.000000;0.636846
8066.000000;0.637042
8065.000000;0.637205
8064.000000;0.637176
8063.000000;0.636915
8062.000000;0.636514
8061.000000;0.636102
8060.000000;0.635775
8059.000000;0.635623
8058.000000;0.635698
8057.000000;0.635898
8056.000000;0.635977
8055.000000;0.635775
8054.000000;0.635403
8053.000000;0.635103
8052.000000;0.634982
8051.000000;0.634961
8050.000000;0.634933
8049.000000;0.634889
8048.000000;0.634867
8047.000000;0.634878
8046.000000;0.634893
8045.000000;0.634872
8044.000000;0.634812
8043.000000;0.634773
8042.000000;0.634832
8041.000000;0.634958
8040.000000;0.635004
8039.000000;0.634868
8038.000000;0.634622
8037.000000;0.634391
8036.000000;0.634171
8035.000000;0.633881
8034.000000;0.633579
8033.000000;0.633481
8032.000000;0.633700
8031.000000;0.634066
8030.000000;0.634275
8029.000000;0.634177
8028.000000;0.633871
8027.000000;0.633570
8026.000000;0.633425
8025.000000;0.633477
8024.000000;0.633671
8023.000000;0.633878
8022.000000;0.633930
8021.000000;0.633691
8020.000000;0.633165
8019.000000;0.632552
8018.000000;0.632171
8017.000000;0.632244
8016.000000;0.632677
8015.000000;0.633071
8014.000000;0.633029
8013.000000;0.632513
8012.000000;0.631881
8011.000000;0.631536
8010.000000;0.631566
8009.000000;0.631737
8008.000000;0.631811
8007.000000;0.631758
8006.000000;0.631674
8005.000000;0.631605
8004.000000;0.631522
8003.000000;0.631414
8002.000000;0.631307
8001.000000;0.631205
8000.000000;0.631081
7999.000000;0.630940
7998.000000;0.630823
7997.000000;0.630773
7996.000000;0.630814
7995.000000;0.630928
7994.000000;0.631002
7993.000000;0.630867
7992.000000;0.630478
7991.000000;0.630040
7990.000000;0.629848
7989.000000;0.629993
7988.000000;0.630287
7987.000000;0.630458
7986.000000;0.630362
7985.000000;0.630024
7984.000000;0.629582
7983.000000;0.629242
7982.000000;0.629184
7981.000000;0.629421
7980.000000;0.629742
7979.000000;0.629845
7978.000000;0.629559
7977.000000;0.628993
7976.000000;0.628496
7975.000000;0.628403
7974.000000;0.628755
7973.000000;0.629263
7972.000000;0.629581
7971.000000;0.629599
7970.000000;0.629428
7969.000000;0.629188
7968.000000;0.628916
7967.000000;0.628649
7966.000000;0.628469
7965.000000;0.628420
7964.000000;0.628458
7963.000000;0.628500
7962.000000;0.628478
7961.000000;0.628358
7960.000000;0.628160
7959.000000;0.627961
7958.000000;0.627821
7957.000000;0.627745
7956.000000;0.627726
7955.000000;0.627774
7954.000000;0.627829
7953.000000;0.627727
7952.000000;0.627375
7951.000000;0.626929
7950.000000;0.626668
7949.000000;0.626703
7948.000000;0.626896
7947.000000;0.627032
7946.000000;0.626998
7945.000000;0.626816
7944.000000;0.626634
7943.000000;0.626634
7942.000000;0.626833
7941.000000;0.627011
7940.000000;0.626948
7939.000000;0.626698
7938.000000;0.626483
7937.000000;0.626369
7936.000000;0.626251
7935.000000;0.626101
7934.000000;0.626034
7933.000000;0.626075
7932.000000;0.626074
7931.000000;0.625920
7930.000000;0.625687
7929.000000;0.625496
7928.000000;0.625366
7927.000000;0.625260
7926.000000;0.625155
7925.000000;0.625019
7924.000000;0.624840
7923.000000;0.624711
7922.000000;0.624752
7921.000000;0.624910
7920.000000;0.624972
7919.000000;0.624825
7918.000000;0.624553
7917.000000;0.624245
7916.000000;0.623905
7915.000000;0.623609
7914.000000;0.623546
7913.000000;0.623771
7912.000000;0.624063
7911.000000;0.624169
7910.000000;0.624070
7909.000000;0.623904
7908.000000;0.623758
7907.000000;0.623652
7906.000000;0.623616
7905.000000;0.623640
7904.000000;0.623639
7903.000000;0.623570
7902.000000;0.623513
7901.000000;0.623531
7900.000000;0.623554
7899.000000;0.623482
7898.000000;0.623330
7897.000000;0.623156
7896.000000;0.622971
7895.000000;0.622800
7894.000000;0.622745
7893.000000;0.622842
7892.000000;0.622951
7891.000000;0.622914
7890.000000;0.622749
7889.000000;0.622582
7888.000000;0.622474
7887.000000;0.622407
7886.000000;0.622376
7885.000000;0.622368
7884.000000;0.622322
7883.000000;0.622227
7882.000000;0.622169
7881.000000;0.622195
7880.000000;0.622207
7879.000000;0.622094
7878.000000;0.621895
7877.000000;0.621708
7876.000000;0.621523
7875.000000;0.621290
7874.000000;0.621061
7873.000000;0.620930
7872.000000;0.620877
7871.000000;0.620811
7870.000000;0.620737
7869.000000;0.620732
7868.000000;0.620786
7867.000000;0.620805
7866.000000;0.620730
7865.000000;0.620571
7864.000000;0.620347
7863.000000;0.620106
7862.000000;0.619957
7861.000000;0.619960
7860.000000;0.620004
7859.000000;0.619929
7858.000000;0.619731
7857.000000;0.619559
7856.000000;0.619510
7855.000000;0.619554
7854.000000;0.619631
7853.000000;0.619702
7852.000000;0.619715
7851.000000;0.619616
7850.000000;0.619418
7849.000000;0.619192
7848.000000;0.619002
7847.000000;0.618898
7846.000000;0.618917
7845.000000;0.619010
7844.000000;0.619008
7843.000000;0.618786
7842.000000;0.618440
7841.000000;0.618204
7840.000000;0.618209
7839.000000;0.618410
7838.000000;0.618681
7837.000000;0.618881
7836.000000;0.618867
7835.000000;0.618594
7834.000000;0.618211
7833.000000;0.617945
7832.000000;0.617883
7831.000000;0.617952
7830.000000;0.618068
7829.000000;0.618195
7828.000000;0.618258
7827.000000;0.618155
7826.000000;0.617906
7825.000000;0.617659
7824.000000;0.617527
7823.000000;0.617501
7822.000000;0.617546
7821.000000;0.617649
7820.000000;0.617728
7819.000000;0.617601
7818.000000;0.617161
7817.000000;0.616540
7816.000000;0.616015
7815.000000;0.615789
7814.000000;0.615859
7813.000000;0.616053
7812.000000;0.616172
7811.000000;0.616121
7810.000000;0.615973
7809.000000;0.615878
7808.000000;0.615918
7807.000000;0.616042
7806.000000;0.616143
7805.000000;0.616137
7804.000000;0.616002
7803.000000;0.615775
7802.000000;0.615526
7801.000000;0.615327
7800.000000;0.615214
7799.000000;0.615197
7798.000000;0.615254
7797.000000;0.615302
7796.000000;0.615228
7795.000000;0.615011
7794.000000;0.614779
7793.000000;0.614688
7792.000000;0.614762
7791.000000;0.614914
7790.000000;0.615067
7789.000000;0.615167
7788.000000;0.615126
7787.000000;0.614860
7786.000000;0.614437
7785.000000;0.614078
7784.000000;0.613968
7783.000000;0.614104
7782.000000;0.614324
7781.000000;0.614449
7780.000000;0.614390
7779.000000;0.614188
7778.000000;0.613975
7777.000000;0.613865
7776.000000;0.613854
7775.000000;0.613858
7774.000000;0.613823
7773.000000;0.613739
7772.000000;0.613581
7771.000000;0.613330
7770.000000;0.613068
7769.000000;0.612945
7768.000000;0.613003
7767.000000;0.613092
7766.000000;0.613032
7765.000000;0.612824
7764.000000;0.612609
7763.000000;0.612484
7762.000000;0.612423
7761.000000;0.612373
7760.000000;0.612348
7759.000000;0.612354
7758.000000;0.612320
7757.000000;0.612158
7756.000000;0.611901
7755.000000;0.611707
7754.000000;0.611679
7753.000000;0.611733
7752.000000;0.611693
7751.000000;0.611521
7750.000000;0.611360
7749.000000;0.611342
7748.000000;0.611411
7747.000000;0.611407
7746.000000;0.611278
7745.000000;0.611131
7744.000000;0.611047
7743.000000;0.610948
7742.000000;0.610711
7741.000000;0.610393
7740.000000;0.610240
7739.000000;0.610431
7738.000000;0.610847
7737.000000;0.611147
7736.000000;0.611085
7735.000000;0.610716
7734.000000;0.610305
7733.000000;0.610088
7732.000000;0.610139
7731.000000;0.610372
7730.000000;0.610599
7729.000000;0.610615
7728.000000;0.610325
7727.000000;0.609827
7726.000000;0.609353
7725.000000;0.609109
7724.000000;0.609170
7723.000000;0.609467
7722.000000;0.609787
7721.000000;0.609865
7720.000000;0.609574
7719.000000;0.609082
7718.000000;0.608720
7717.000000;0.608667
7716.000000;0.608802
7715.000000;0.608883
7714.000000;0.608790
7713.000000;0.608568
7712.000000;0.608322
7711.000000;0.608140
7710.000000;0.608072
7709.000000;0.608123
7708.000000;0.608236
7707.000000;0.608320
7706.000000;0.608286
7705.000000;0.608076
7704.000000;0.607714
7703.000000;0.607339
7702.000000;0.607136
7701.000000;0.607192
7700.000000;0.607432
7699.000000;0.607703
7698.000000;0.607871
7697.000000;0.607857
7696.000000;0.607619
7695.000000;0.607190
7694.000000;0.606706
7693.000000;0.606377
7692.000000;0.606378
7691.000000;0.606728
7690.000000;0.607219
7689.000000;0.607504
7688.000000;0.607342
7687.000000;0.606804
7686.000000;0.606201
7685.000000;0.605833
7684.000000;0.605804
7683.000000;0.606036
7682.000000;0.606347
7681.000000;0.606513
7680.000000;0.606385
7679.000000;0.606013
7678.000000;0.605623
7677.000000;0.605431
7676.000000;0.605496
7675.000000;0.605725
7674.000000;0.605949
7673.000000;0.605989
7672.000000;0.605776
7671.000000;0.605446
7670.000000;0.605240
7669.000000;0.605270
7668.000000;0.605423
7667.000000;0.605520
7666.000000;0.605494
7665.000000;0.605371
7664.000000;0.605163
7663.000000;0.604876
7662.000000;0.604574
7661.000000;0.604360
7660.000000;0.604299
7659.000000;0.604381
7658.000000;0.604535
7657.000000;0.604659
7656.000000;0.604660
7655.000000;0.604497
7654.000000;0.604202
7653.000000;0.603851
7652.000000;0.603559
7651.000000;0.603450
7650.000000;0.603553
7649.000000;0.603726
7648.000000;0.603766
7647.000000;0.603626
7646.000000;0.603452
7645.000000;0.603387
7644.000000;0.603416
7643.000000;0.603444
7642.000000;0.603439
7641.000000;0.603447
7640.000000;0.603497
7639.000000;0.603551
7638.000000;0.603520
7637.000000;0.603337
7636.000000;0.603038
7635.000000;0.602756
7634.000000;0.602592
7633.000000;0.602507
7632.000000;0.602428
7631.000000;0.602402
7630.000000;0.602517
7629.000000;0.602697
7628.000000;0.602724
7627.000000;0.602532
7626.000000;0.602324
7625.000000;0.602323
7624.000000;0.602497
7623.000000;0.602633
7622.000000;0.602598
7621.000000;0.602432
7620.000000;0.602252
7619.000000;0.602155
7618.000000;0.602165
7617.000000;0.602211
7616.000000;0.602182
7615.000000;0.602036
7614.000000;0.601826
7613.000000;0.601604
7612.000000;0.601379
7611.000000;0.601202
7610.000000;0.601166
7609.000000;0.601248
7608.000000;0.601269
7607.000000;0.601090
7606.000000;0.600794
7605.000000;0.600580
7604.000000;0.600530
7603.000000;0.600569
7602.000000;0.600585
7601.000000;0.600502
7600.000000;0.600292
7599.000000;0.600026
7598.000000;0.599873
7597.000000;0.599943
7596.000000;0.600140
7595.000000;0.600234
7594.000000;0.600090
7593.000000;0.599764
7592.000000;0.599420
7591.000000;0.599214
7590.000000;0.599234
7589.000000;0.599457
7588.000000;0.599744
7587.000000;0.599926
7586.000000;0.599912
7585.000000;0.599711
7584.000000;0.599408
7583.000000;0.599136
7582.000000;0.599046
7581.000000;0.599204
7580.000000;0.599511
7579.000000;0.599732
7578.000000;0.599654
7577.000000;0.599243
7576.000000;0.598707
7575.000000;0.598369
7574.000000;0.598414
7573.000000;0.598728
7572.000000;0.599018
7571.000000;0.599091
7570.000000;0.598960
7569.000000;0.598730
7568.000000;0.598495
7567.000000;0.598370
7566.000000;0.598458
7565.000000;0.598709
7564.000000;0.598887
7563.000000;0.598782
7562.000000;0.598399
7561.000000;0.597929
7560.000000;0.597585
7559.000000;0.597502
7558.000000;0.597691
7557.000000;0.597995
7556.000000;0.598164
7555.000000;0.598065
7554.000000;0.597797
7553.000000;0.597572
7552.000000;0.597531
7551.000000;0.597679
7550.000000;0.597898
7549.000000;0.597984
7548.000000;0.597801
7547.000000;0.597448
7546.000000;0.597204
7545.000000;0.597231
7544.000000;0.597396
7543.000000;0.597459
7542.000000;0.597342
7541.000000;0.597161
7540.000000;0.597054
7539.000000;0.597073
7538.000000;0.597164
7537.000000;0.597203
7536.000000;0.597101
7535.000000;0.596940
7534.000000;0.596904
7533.000000;0.597030
7532.000000;0.597119
7531.000000;0.596982
7530.000000;0.596679
7529.000000;0.596423
7528.000000;0.596335
7527.000000;0.596398
7526.000000;0.596545
7525.000000;0.596681
7524.000000;0.596689
7523.000000;0.596551
7522.000000;0.596409
7521.000000;0.596399
7520.000000;0.596477
7519.000000;0.596496
7518.000000;0.596411
7517.000000;0.596278
7516.000000;0.596115
7515.000000;0.595911
7514.000000;0.595749
7513.000000;0.595761
7512.000000;0.595949
7511.000000;0.596146
7510.000000;0.596197
7509.000000;0.596098
7508.000000;0.595963
7507.000000;0.595910
7506.000000;0.595965
7505.000000;0.596043
7504.000000;0.596020
7503.000000;0.595860
7502.000000;0.595670
7501.000000;0.595514
7500.000000;0.595409
7499.000000;0.595350
7498.000000;0.595343
7497.000000;0.595406
7496.000000;0.595446
7495.000000;0.595398
7494.000000;0.595322
7493.000000;0.595293
7492.000000;0.595244
7491.000000;0.595057
7490.000000;0.594791
7489.000000;0.594645
7488.000000;0.594721
7487.000000;0.594920
7486.000000;0.595086
7485.000000;0.595149
7484.000000;0.595103
7483.000000;0.594967
7482.000000;0.594791
7481.000000;0.594651
7480.000000;0.594615
7479.000000;0.594723
7478.000000;0.594952
7477.000000;0.595168
7476.000000;0.595189
7475.000000;0.594981
7474.000000;0.594731
7473.000000;0.594622
7472.000000;0.594602
7471.000000;0.594486
7470.000000;0.594234
7469.000000;0.594001
7468.000000;0.593914
7467.000000;0.593951
7466.000000;0.594046
7465.000000;0.594174
7464.000000;0.594309
7463.000000;0.594386
7462.000000;0.594360
7461.000000;0.594240
7460.000000;0.594056
7459.000000;0.593885
7458.000000;0.593854
7457.000000;0.594045
7456.000000;0.594349
7455.000000;0.594530
7454.000000;0.594455
7453.000000;0.594195
7452.000000;0.593902
7451.000000;0.593672
7450.000000;0.593551
7449.000000;0.593577
7448.000000;0.593747
7447.000000;0.593978
7446.000000;0.594143
7445.000000;0.594133
7444.000000;0.593923
7443.000000;0.593620
7442.000000;0.593430
7441.000000;0.593491
7440.000000;0.593735
7439.000000;0.593962
7438.000000;0.594059
7437.000000;0.594067
7436.000000;0.594050
7435.000000;0.593986
7434.000000;0.593838
7433.000000;0.593642
7432.000000;0.593485
7431.000000;0.593439
7430.000000;0.593522
7429.000000;0.593680
7428.000000;0.593779
7427.000000;0.593700
7426.000000;0.593488
7425.000000;0.593345
7424.000000;0.593400
7423.000000;0.593550
7422.000000;0.593566
7421.000000;0.593355
7420.000000;0.593040
7419.000000;0.592798
7418.000000;0.592701
7417.000000;0.592720
7416.000000;0.592837
7415.000000;0.593052
7414.000000;0.593303
7413.000000;0.593433
7412.000000;0.593311
7411.000000;0.592959
7410.000000;0.592546
7409.000000;0.592265
7408.000000;0.592234
7407.000000;0.592465
7406.000000;0.592847
7405.000000;0.593186
7404.000000;0.593315
7403.000000;0.593212
7402.000000;0.592969
7401.000000;0.592681
7400.000000;0.592436
7399.000000;0.592347
7398.000000;0.592468
7397.000000;0.592683
7396.000000;0.592783
7395.000000;0.592684
7394.000000;0.592521
7393.000000;0.592484
7392.000000;0.592630
7391.000000;0.592861
7390.000000;0.592997
7389.000000;0.592872
7388.000000;0.592433
7387.000000;0.591849
7386.000000;0.591456
7385.000000;0.591521
7384.000000;0.592019
7383.000000;0.592647
7382.000000;0.593056
7381.000000;0.593090
7380.000000;0.592878
7379.000000;0.592737
7378.000000;0.592917
7377.000000;0.593378
7376.000000;0.593833
7375.000000;0.594018
7374.000000;0.593877
7373.000000;0.593518
7372.000000;0.593119
7371.000000;0.592889
7370.000000;0.592945
7369.000000;0.593180
7368.000000;0.593333
7367.000000;0.593265
7366.000000;0.593094
7365.000000;0.593026
7364.000000;0.593137
7363.000000;0.593373
7362.000000;0.593647
7361.000000;0.593846
7360.000000;0.593867
7359.000000;0.593755
7358.000000;0.593709
7357.000000;0.593825
7356.000000;0.593941
7355.000000;0.593870
7354.000000;0.593712
7353.000000;0.593765
7352.000000;0.594148
7351.000000;0.594669
7350.000000;0.595021
7349.000000;0.595039
7348.000000;0.594812
7347.000000;0.594617
7346.000000;0.594698
7345.000000;0.595038
7344.000000;0.595377
7343.000000;0.595493
7342.000000;0.595384
7341.000000;0.595161
7340.000000;0.594854
7339.000000;0.594483
7338.000000;0.594230
7337.000000;0.594314
7336.000000;0.594720
7335.000000;0.595218
7334.000000;0.595610
7333.000000;0.595830
7332.000000;0.595859
7331.000000;0.595707
7330.000000;0.595486
7329.000000;0.595306
7328.000000;0.595131
7327.000000;0.594898
7326.000000;0.594746
7325.000000;0.594889
7324.000000;0.595266
7323.000000;0.595531
7322.000000;0.595437
7321.000000;0.595099
7320.000000;0.594806
7319.000000;0.594707
7318.000000;0.594765
7317.000000;0.594908
7316.000000;0.595093
7315.000000;0.595316
7314.000000;0.595605
7313.000000;0.595961
7312.000000;0.596298
7311.000000;0.596555
7310.000000;0.596845
7309.000000;0.597314
7308.000000;0.597861
7307.000000;0.598172
7306.000000;0.598107
7305.000000;0.597860
7304.000000;0.597707
7303.000000;0.597767
7302.000000;0.598017
7301.000000;0.598370
7300.000000;0.598669
7299.000000;0.598767
7298.000000;0.598703
7297.000000;0.598699
7296.000000;0.598866
7295.000000;0.599005
7294.000000;0.598837
7293.000000;0.598355
7292.000000;0.597800
7291.000000;0.597402
7290.000000;0.597233
7289.000000;0.597266
7288.000000;0.597436
7287.000000;0.597700
7286.000000;0.598059
7285.000000;0.598496
7284.000000;0.598882
7283.000000;0.599048
7282.000000;0.598980
7281.000000;0.598885
7280.000000;0.598972
7279.000000;0.599236
7278.000000;0.599534
7277.000000;0.599772
7276.000000;0.599945
7275.000000;0.600068
7274.000000;0.600156
7273.000000;0.600251
7272.000000;0.600389
7271.000000;0.600559
7270.000000;0.600718
7269.000000;0.600833
7268.000000;0.600895
7267.000000;0.600946
7266.000000;0.601089
7265.000000;0.601415
7264.000000;0.601874
7263.000000;0.602266
7262.000000;0.602431
7261.000000;0.602422
7260.000000;0.602456
7259.000000;0.602688
7258.000000;0.603061
7257.000000;0.603367
7256.000000;0.603478
7255.000000;0.603503
7254.000000;0.603708
7253.000000;0.604262
7252.000000;0.605075
7251.000000;0.605900
7250.000000;0.606552
7249.000000;0.606970
7248.000000;0.607164
7247.000000;0.607256
7246.000000;0.607486
7245.000000;0.608009
7244.000000;0.608684
7243.000000;0.609152
7242.000000;0.609222
7241.000000;0.609068
7240.000000;0.608999
7239.000000;0.609122
7238.000000;0.609320
7237.000000;0.609489
7236.000000;0.609682
7235.000000;0.609975
7234.000000;0.610339
7233.000000;0.610664
7232.000000;0.610842
7231.000000;0.610884
7230.000000;0.611016
7229.000000;0.611528
7228.000000;0.612428
7227.000000;0.613318
7226.000000;0.613698
7225.000000;0.613385
7224.000000;0.612648
7223.000000;0.612008
7222.000000;0.611943
7221.000000;0.612621
7220.000000;0.613767
7219.000000;0.614839
7218.000000;0.615448
7217.000000;0.615608
7216.000000;0.615612
7215.000000;0.615756
7214.000000;0.616200
7213.000000;0.616933
7212.000000;0.617744
7211.000000;0.618311
7210.000000;0.618489
7209.000000;0.618474
7208.000000;0.618593
7207.000000;0.618963
7206.000000;0.619476
7205.000000;0.620034
7204.000000;0.620642
7203.000000;0.621275
7202.000000;0.621831
7201.000000;0.622281
7200.000000;0.622750
7199.000000;0.623353
7198.000000;0.624034
7197.000000;0.624645
7196.000000;0.625131
7195.000000;0.625528
7194.000000;0.625827
7193.000000;0.625999
7192.000000;0.626162
7191.000000;0.626565
7190.000000;0.627304
7189.000000;0.628165
7188.000000;0.628855
7187.000000;0.629294
7186.000000;0.629621
7185.000000;0.629986
7184.000000;0.630473
7183.000000;0.631117
7182.000000;0.631833
7181.000000;0.632374
7180.000000;0.632552
7179.000000;0.632509
7178.000000;0.632602
7177.000000;0.633007
7176.000000;0.633561
7175.000000;0.634023
7174.000000;0.634363
7173.000000;0.634752
7172.000000;0.635418
7171.000000;0.636492
7170.000000;0.637826
7169.000000;0.638943
7168.000000;0.639434
7167.000000;0.639454
7166.000000;0.639595
7165.000000;0.640252
7164.000000;0.641311
7163.000000;0.642501
7162.000000;0.643714
7161.000000;0.644838
7160.000000;0.645564
7159.000000;0.645678
7158.000000;0.645392
7157.000000;0.645189
7156.000000;0.645432
7155.000000;0.646181
7154.000000;0.647222
7153.000000;0.648194
7152.000000;0.648874
7151.000000;0.649373
7150.000000;0.649897
7149.000000;0.650361
7148.000000;0.650564
7147.000000;0.650688
7146.000000;0.651179
7145.000000;0.652020
7144.000000;0.652589
7143.000000;0.652548
7142.000000;0.652434
7141.000000;0.652929
7140.000000;0.653876
7139.000000;0.654501
7138.000000;0.654459
7137.000000;0.654186
7136.000000;0.654299
7135.000000;0.655108
7134.000000;0.656563
7133.000000;0.658205
7132.000000;0.659262
7131.000000;0.659232
7130.000000;0.658361
7129.000000;0.657351
7128.000000;0.656807
7127.000000;0.657137
7126.000000;0.658536
7125.000000;0.660505
7124.000000;0.661752
7123.000000;0.661385
7122.000000;0.660116
7121.000000;0.659588
7120.000000;0.660527
7119.000000;0.662131
7118.000000;0.663149
7117.000000;0.662952
7116.000000;0.661638
7115.000000;0.659859
7114.000000;0.658710
7113.000000;0.659117
7112.000000;0.660895
7111.000000;0.662693
7110.000000;0.663098
7109.000000;0.661707
7108.000000;0.659272
7107.000000;0.657261
7106.000000;0.657160
7105.000000;0.659365
7104.000000;0.662402
7103.000000;0.663881
7102.000000;0.662726
7101.000000;0.660084
7100.000000;0.657865
7099.000000;0.656988
7098.000000;0.657171
7097.000000;0.657683
7096.000000;0.657852
7095.000000;0.657228
7094.000000;0.655797
7093.000000;0.653999
7092.000000;0.652371
7091.000000;0.651358
7090.000000;0.651359
7089.000000;0.652303
7088.000000;0.653133
7087.000000;0.652483
7086.000000;0.650278
7085.000000;0.648004
7084.000000;0.646879
7083.000000;0.646404
7082.000000;0.645394
7081.000000;0.643946
7080.000000;0.643411
7079.000000;0.644508
7078.000000;0.646170
7077.000000;0.646503
7076.000000;0.644671
7075.000000;0.641523
7074.000000;0.638470
7073.000000;0.636245
7072.000000;0.634776
7071.000000;0.633906
7070.000000;0.633831
7069.000000;0.634564
7068.000000;0.635138
7067.000000;0.634037
7066.000000;0.630765
7065.000000;0.626530
7064.000000;0.622949
7063.000000;0.620491
7062.000000;0.618692
7061.000000;0.617471
7060.000000;0.617310
7059.000000;0.618082
7058.000000;0.618471
7057.000000;0.617113
7056.000000;0.614172
7055.000000;0.611126
7054.000000;0.608995
7053.000000;0.607339
7052.000000;0.605146
7051.000000;0.602295
7050.000000;0.599631
7049.000000;0.597670
7048.000000;0.595948
7047.000000;0.593988
7046.000000;0.592373
7045.000000;0.592094
7044.000000;0.592863
7043.000000;0.592663
7042.000000;0.589506
7041.000000;0.583691
7040.000000;0.577804
7039.000000;0.574447
7038.000000;0.574278
7037.000000;0.575880
7036.000000;0.577059
7035.000000;0.576246
7034.000000;0.573160
7033.000000;0.568658
7032.000000;0.564085
7031.000000;0.560538
7030.000000;0.558440
7029.000000;0.557533
7028.000000;0.557082
7027.000000;0.556046
7026.000000;0.553537
7025.000000;0.549661
7024.000000;0.545643
7023.000000;0.542727
7022.000000;0.540902
7021.000000;0.539019
7020.000000;0.536447
7019.000000;0.533992
7018.000000;0.532553
7017.000000;0.531531
7016.000000;0.529473
7015.000000;0.526048
7014.000000;0.522443
7013.000000;0.519764
7012.000000;0.517917
7011.000000;0.516151
7010.000000;0.513926
7009.000000;0.511075
7008.000000;0.507689
7007.000000;0.504197
7006.000000;0.501123
7005.000000;0.498607
7004.000000;0.496585
7003.000000;0.495222
7002.000000;0.494444
7001.000000;0.493186
7000.000000;0.490129
6999.000000;0.485501
6998.000000;0.481185
6997.000000;0.478630
6996.000000;0.477356
6995.000000;0.475895
6994.000000;0.473598
6993.000000;0.471075
6992.000000;0.469210
6991.000000;0.468162
6990.000000;0.467037
6989.000000;0.464436
6988.000000;0.459869
6987.000000;0.454612
6986.000000;0.450553
6985.000000;0.448294
6984.000000;0.446967
6983.000000;0.445587
6982.000000;0.443566
6981.000000;0.440038
6980.000000;0.434197
6979.000000;0.426950
6978.000000;0.421035
6977.000000;0.418557
6976.000000;0.418911
6975.000000;0.419380
6974.000000;0.417366
6973.000000;0.412184
6972.000000;0.405425
6971.000000;0.399970
6970.000000;0.397968
6969.000000;0.398982
6968.000000;0.400251
6967.000000;0.399060
6966.000000;0.394691
6965.000000;0.388405
6964.000000;0.382530
6963.000000;0.379417
6962.000000;0.379792
6961.000000;0.381645
6960.000000;0.381845
6959.000000;0.379405
6958.000000;0.376097
6957.000000;0.373581
6956.000000;0.371488
6955.000000;0.368745
6954.000000;0.365240
6953.000000;0.361412
6952.000000;0.357570
6951.000000;0.354530
6950.000000;0.353545
6949.000000;0.354579
6948.000000;0.355727
6947.000000;0.355139
6946.000000;0.352494
6945.000000;0.348084
6944.000000;0.341972
6943.000000;0.335026
6942.000000;0.329346
6941.000000;0.326432
6940.000000;0.325864
6939.000000;0.326393
6938.000000;0.327036
6937.000000;0.326529
6936.000000;0.323477
6935.000000;0.318486
6934.000000;0.314785
6933.000000;0.314843
6932.000000;0.317206
6931.000000;0.317990
6930.000000;0.315017
6929.000000;0.309380
6928.000000;0.303501
6927.000000;0.299302
6926.000000;0.297673
6925.000000;0.297988
6924.000000;0.298370
6923.000000;0.297453
6922.000000;0.295524
6921.000000;0.293285
6920.000000;0.290728
6919.000000;0.288041
6918.000000;0.286141
6917.000000;0.285083
6916.000000;0.283292
6915.000000;0.280067
6914.000000;0.277560
6913.000000;0.278069
6912.000000;0.280226
6911.000000;0.279987
6910.000000;0.275542
6909.000000;0.269448
6908.000000;0.265466
6907.000000;0.264984
6906.000000;0.266593
6905.000000;0.267680
6904.000000;0.266373
6903.000000;0.263002
6902.000000;0.259893
6901.000000;0.259139
6900.000000;0.260501
6899.000000;0.261760
6898.000000;0.260827
6897.000000;0.257236
6896.000000;0.252236
6895.000000;0.248103
6894.000000;0.246793
6893.000000;0.248164
6892.000000;0.249755
6891.000000;0.249191
6890.000000;0.246414
6889.000000;0.242951
6888.000000;0.240014
6887.000000;0.238368
6886.000000;0.238814
6885.000000;0.241183
6884.000000;0.243438
6883.000000;0.243199
6882.000000;0.240141
6881.000000;0.236063
6880.000000;0.232943
6879.000000;0.231751
6878.000000;0.232344
6877.000000;0.233287
6876.000000;0.232415
6875.000000;0.228966
6874.000000;0.224899
6873.000000;0.223099
6872.000000;0.224631
6871.000000;0.228211
6870.000000;0.231440
6869.000000;0.231991
6868.000000;0.228758
6867.000000;0.223045
6866.000000;0.218082
6865.000000;0.216228
6864.000000;0.216890
6863.000000;0.218078
6862.000000;0.219155
6861.000000;0.220578
6860.000000;0.221694
6859.000000;0.220875
6858.000000;0.217924
6857.000000;0.214655
6856.000000;0.212759
6855.000000;0.212380
6854.000000;0.212884
6853.000000;0.213718
6852.000000;0.214224
6851.000000;0.213715
6850.000000;0.212242
6849.000000;0.210644
6848.000000;0.209686
6847.000000;0.209753
6846.000000;0.211043
6845.000000;0.213064
6844.000000;0.214175
6843.000000;0.212855
6842.000000;0.209694
6841.000000;0.207223
6840.000000;0.207449
6839.000000;0.210156
6838.000000;0.213412
6837.000000;0.214998
6836.000000;0.213624
6835.000000;0.209867
6834.000000;0.206090
6833.000000;0.204631
6832.000000;0.205878
6831.000000;0.208406
6830.000000;0.210591
6829.000000;0.211516
6828.000000;0.210847
6827.000000;0.209037
6826.000000;0.207576
6825.000000;0.207937
6824.000000;0.209959
6823.000000;0.211857
6822.000000;0.212061
6821.000000;0.210681
6820.000000;0.209231
6819.000000;0.209425
6818.000000;0.212023
6817.000000;0.216023
6816.000000;0.218969
6815.000000;0.218888
6814.000000;0.216185
6813.000000;0.213161
6812.000000;0.211813
6811.000000;0.212661
6810.000000;0.215145
6809.000000;0.218063
6808.000000;0.219774
6807.000000;0.219251
6806.000000;0.217288
6805.000000;0.215858
6804.000000;0.216035
6803.000000;0.217136
6802.000000;0.217958
6801.000000;0.218192
6800.000000;0.218352
6799.000000;0.218979
6798.000000;0.220263
6797.000000;0.221916
6796.000000;0.223150
6795.000000;0.223259
6794.000000;0.222505
6793.000000;0.222051
6792.000000;0.222810
6791.000000;0.224669
6790.000000;0.226967
6789.000000;0.229237
6788.000000;0.231134
6787.000000;0.232184
6786.000000;0.232191
6785.000000;0.231642
6784.000000;0.231243
6783.000000;0.231164
6782.000000;0.231134
6781.000000;0.231248
6780.000000;0.232095
6779.000000;0.233811
6778.000000;0.235416
6777.000000;0.235708
6776.000000;0.234812
6775.000000;0.234236
6774.000000;0.235127
6773.000000;0.236951
6772.000000;0.238286
6771.000000;0.238544
6770.000000;0.238286
6769.000000;0.238072
6768.000000;0.237864
6767.000000;0.237740
6766.000000;0.238375
6765.000000;0.240194
6764.000000;0.242496
6763.000000;0.243987
6762.000000;0.244115
6761.000000;0.243577
6760.000000;0.243471
6759.000000;0.244216
6758.000000;0.245342
6757.000000;0.246219
6756.000000;0.246891
6755.000000;0.247967
6754.000000;0.249554
6753.000000;0.250702
6752.000000;0.250521
6751.000000;0.249633
6750.000000;0.249667
6749.000000;0.251236
6748.000000;0.253188
6747.000000;0.254171
6746.000000;0.254276
6745.000000;0.254581
6744.000000;0.255545
6743.000000;0.256583
6742.000000;0.256997
6741.000000;0.256774
6740.000000;0.256465
6739.000000;0.256657
6738.000000;0.257559
6737.000000;0.258896
6736.000000;0.260272
6735.000000;0.261617
6734.000000;0.263012
6733.000000;0.264138
6732.000000;0.264446
6731.000000;0.264082
6730.000000;0.264094
6729.000000;0.265307
6728.000000;0.267331
6727.000000;0.269019
6726.000000;0.269663
6725.000000;0.269445
6724.000000;0.269029
6723.000000;0.269062
6722.000000;0.269816
6721.000000;0.270977
6720.000000;0.271894
6719.000000;0.272231
6718.000000;0.272192
6717.000000;0.272116
6716.000000;0.272266
6715.000000;0.273103
6714.000000;0.275070
6713.000000;0.277665
6712.000000;0.279338
6711.000000;0.279011
6710.000000;0.277446
6709.000000;0.276556
6708.000000;0.277489
6707.000000;0.279840
6706.000000;0.282298
6705.000000;0.283520
6704.000000;0.283209
6703.000000;0.282036
6702.000000;0.281297
6701.000000;0.281834
6700.000000;0.283416
6699.000000;0.285211
6698.000000;0.286654
6697.000000;0.287593
6696.000000;0.287968
6695.000000;0.287871
6694.000000;0.287768
6693.000000;0.288189
6692.000000;0.289226
6691.000000;0.290643
6690.000000;0.292259
6689.000000;0.293855
6688.000000;0.294953
6687.000000;0.295190
6686.000000;0.294838
6685.000000;0.294584
6684.000000;0.294876
6683.000000;0.295751
6682.000000;0.297077
6681.000000;0.298503
6680.000000;0.299382
6679.000000;0.299313
6678.000000;0.298766
6677.000000;0.298732
6676.000000;0.299719
6675.000000;0.301396
6674.000000;0.303127
6673.000000;0.304425
6672.000000;0.304986
6671.000000;0.304817
6670.000000;0.304428
6669.000000;0.304493
6668.000000;0.305185
6667.000000;0.306082
6666.000000;0.306759
6665.000000;0.307141
6664.000000;0.307306
6663.000000;0.307340
6662.000000;0.307504
6661.000000;0.308172
6660.000000;0.309396
6659.000000;0.310746
6658.000000;0.311705
6657.000000;0.312095
6656.000000;0.312124
6655.000000;0.312215
6654.000000;0.312752
6653.000000;0.313723
6652.000000;0.314624
6651.000000;0.315022
6650.000000;0.315172
6649.000000;0.315731
6648.000000;0.316847
6647.000000;0.317914
6646.000000;0.318335
6645.000000;0.318180
6644.000000;0.317911
6643.000000;0.317825
6642.000000;0.318012
6641.000000;0.318560
6640.000000;0.319479
6639.000000;0.320553
6638.000000;0.321505
6637.000000;0.322224
6636.000000;0.322719
6635.000000;0.322992
6634.000000;0.323112
6633.000000;0.323307
6632.000000;0.323797
6631.000000;0.324622
6630.000000;0.325704
6629.000000;0.326934
6628.000000;0.328063
6627.000000;0.328671
6626.000000;0.328533
6625.000000;0.328002
6624.000000;0.327829
6623.000000;0.328547
6622.000000;0.330052
6621.000000;0.331741
6620.000000;0.332972
6619.000000;0.333471
6618.000000;0.333426
6617.000000;0.333253
6616.000000;0.333264
6615.000000;0.333547
6614.000000;0.334102
6613.000000;0.334917
6612.000000;0.335853
6611.000000;0.336620
6610.000000;0.337029
6609.000000;0.337247
6608.000000;0.337645
6607.000000;0.338381
6606.000000;0.339219
6605.000000;0.339760
6604.000000;0.339800
6603.000000;0.339492
6602.000000;0.339233
6601.000000;0.339418
6600.000000;0.340195
6599.000000;0.341385
6598.000000;0.342616
6597.000000;0.343555
6596.000000;0.344073
6595.000000;0.344247
6594.000000;0.344273
6593.000000;0.344373
6592.000000;0.344689
6591.000000;0.345209
6590.000000;0.345796
6589.000000;0.346342
6588.000000;0.346891
6587.000000;0.347580
6586.000000;0.348429
6585.000000;0.349254
6584.000000;0.349800
6583.000000;0.349964
6582.000000;0.349868
6581.000000;0.349741
6580.000000;0.349793
6579.000000;0.350171
6578.000000;0.350928
6577.000000;0.351949
6576.000000;0.352935
6575.000000;0.353574
6574.000000;0.353789
6573.000000;0.353805
6572.000000;0.353962
6571.000000;0.354440
6570.000000;0.355155
6569.000000;0.355865
6568.000000;0.356369
6567.000000;0.356630
6566.000000;0.356786
6565.000000;0.357074
6564.000000;0.357681
6563.000000;0.358576
6562.000000;0.359452
6561.000000;0.359943
6560.000000;0.359985
6559.000000;0.359911
6558.000000;0.360110
6557.000000;0.360644
6556.000000;0.361261
6555.000000;0.361743
6554.000000;0.362141
6553.000000;0.362642
6552.000000;0.363300
6551.000000;0.363936
6550.000000;0.364292
6549.000000;0.364292
6548.000000;0.364182
6547.000000;0.364357
6546.000000;0.364994
6545.000000;0.365863
6544.000000;0.366571
6543.000000;0.366953
6542.000000;0.367141
6541.000000;0.367318
6540.000000;0.367546
6539.000000;0.367848
6538.000000;0.368275
6537.000000;0.368816
6536.000000;0.369343
6535.000000;0.369732
6534.000000;0.369981
6533.000000;0.370180
6532.000000;0.370405
6531.000000;0.370702
6530.000000;0.371097
6529.000000;0.371557
6528.000000;0.372001
6527.000000;0.372405
6526.000000;0.372840
6525.000000;0.373351
6524.000000;0.373849
6523.000000;0.374192
6522.000000;0.374358
6521.000000;0.374472
6520.000000;0.374684
6519.000000;0.375047
6518.000000;0.375522
6517.000000;0.376042
6516.000000;0.376558
6515.000000;0.377026
6514.000000;0.377365
6513.000000;0.377520
6512.000000;0.377583
6511.000000;0.377798
6510.000000;0.378331
6509.000000;0.379055
6508.000000;0.379662
6507.000000;0.379994
6506.000000;0.380182
6505.000000;0.380427
6504.000000;0.380764
6503.000000;0.381127
6502.000000;0.381537
6501.000000;0.382114
6500.000000;0.382863
6499.000000;0.383526
6498.000000;0.383752
6497.000000;0.383466
6496.000000;0.383039
6495.000000;0.382997
6494.000000;0.383526
6493.000000;0.384305
6492.000000;0.384886
6491.000000;0.385142
6490.000000;0.385254
6489.000000;0.385387
6488.000000;0.385551
6487.000000;0.385768
6486.000000;0.386134
6485.000000;0.386638
6484.000000;0.387064
6483.000000;0.387188
6482.000000;0.387029
6481.000000;0.386870
6480.000000;0.387055
6479.000000;0.387757
6478.000000;0.388833
6477.000000;0.389871
6476.000000;0.390478
6475.000000;0.390579
6474.000000;0.390425
6473.000000;0.390325
6472.000000;0.390463
6471.000000;0.390906
6470.000000;0.391619
6469.000000;0.392406
6468.000000;0.392981
6467.000000;0.393204
6466.000000;0.393211
6465.000000;0.393259
6464.000000;0.393485
6463.000000;0.393860
6462.000000;0.394266
6461.000000;0.394588
6460.000000;0.394791
6459.000000;0.394950
6458.000000;0.395169
6457.000000;0.395445
6456.000000;0.395692
6455.000000;0.395888
6454.000000;0.396099
6453.000000;0.396343
6452.000000;0.396557
6451.000000;0.396741
6450.000000;0.397013
6449.000000;0.397438
6448.000000;0.397895
6447.000000;0.398204
6446.000000;0.398346
6445.000000;0.398469
6444.000000;0.398718
6443.000000;0.399094
6442.000000;0.399470
6441.000000;0.399697
6440.000000;0.399749
6439.000000;0.399776
6438.000000;0.399973
6437.000000;0.400390
6436.000000;0.400902
6435.000000;0.401351
6434.000000;0.401643
6433.000000;0.401743
6432.000000;0.401697
6431.000000;0.401682
6430.000000;0.401916
6429.000000;0.402434
6428.000000;0.403035
6427.000000;0.403465
6426.000000;0.403614
6425.000000;0.403528
6424.000000;0.403349
6423.000000;0.403283
6422.000000;0.403481
6421.000000;0.403885
6420.000000;0.404272
6419.000000;0.404508
6418.000000;0.404666
6417.000000;0.404841
6416.000000;0.404999
6415.000000;0.405088
6414.000000;0.405180
6413.000000;0.405377
6412.000000;0.405646
6411.000000;0.405870
6410.000000;0.406033
6409.000000;0.406243
6408.000000;0.406584
6407.000000;0.407019
6406.000000;0.407420
6405.000000;0.407672
6404.000000;0.407750
6403.000000;0.407758
6402.000000;0.407849
6401.000000;0.408094
6400.000000;0.408443
6399.000000;0.408812
6398.000000;0.409139
6397.000000;0.409375
6396.000000;0.409500
6395.000000;0.409588
6394.000000;0.409763
6393.000000;0.410039
6392.000000;0.410293
6391.000000;0.410436
6390.000000;0.410535
6389.000000;0.410692
6388.000000;0.410894
6387.000000;0.411065
6386.000000;0.411201
6385.000000;0.411378
6384.000000;0.411617
6383.000000;0.411827
6382.000000;0.411873
6381.000000;0.411723
6380.000000;0.411544
6379.000000;0.411618
6378.000000;0.412066
6377.000000;0.412656
6376.000000;0.412974
6375.000000;0.412855
6374.000000;0.412544
6373.000000;0.412430
6372.000000;0.412687
6371.000000;0.413213
6370.000000;0.413787
6369.000000;0.414203
6368.000000;0.414339
6367.000000;0.414215
6366.000000;0.413980
6365.000000;0.413821
6364.000000;0.413884
6363.000000;0.414245
6362.000000;0.414829
6361.000000;0.415365
6360.000000;0.415562
6359.000000;0.415411
6358.000000;0.415200
6357.000000;0.415174
6356.000000;0.415295
6355.000000;0.415408
6354.000000;0.415506
6353.000000;0.415702
6352.000000;0.416025
6351.000000;0.416372
6350.000000;0.416633
6349.000000;0.416768
6348.000000;0.416792
6347.000000;0.416770
6346.000000;0.416795
6345.000000;0.416931
6344.000000;0.417175
6343.000000;0.417485
6342.000000;0.417779
6341.000000;0.417923
6340.000000;0.417838
6339.000000;0.417657
6338.000000;0.417653
6337.000000;0.417922
6336.000000;0.418256
6335.000000;0.418410
6334.000000;0.418389
6333.000000;0.418367
6332.000000;0.418437
6331.000000;0.418549
6330.000000;0.418642
6329.000000;0.418694
6328.000000;0.418696
6327.000000;0.418675
6326.000000;0.418717
6325.000000;0.418868
6324.000000;0.419064
6323.000000;0.419219
6322.000000;0.419339
6321.000000;0.419456
6320.000000;0.419539
6319.000000;0.419541
6318.000000;0.419491
6317.000000;0.419469
6316.000000;0.419516
6315.000000;0.419651
6314.000000;0.419900
6313.000000;0.420207
6312.000000;0.420412
6311.000000;0.420423
6310.000000;0.420348
6309.000000;0.420361
6308.000000;0.420483
6307.000000;0.420619
6306.000000;0.420746
6305.000000;0.420919
6304.000000;0.421118
6303.000000;0.421241
6302.000000;0.421250
6301.000000;0.421223
6300.000000;0.421236
6299.000000;0.421300
6298.000000;0.421392
6297.000000;0.421464
6296.000000;0.421450
6295.000000;0.421337
6294.000000;0.421230
6293.000000;0.421257
6292.000000;0.421407
6291.000000;0.421562
6290.000000;0.421649
6289.000000;0.421681
6288.000000;0.421672
6287.000000;0.421636
6286.000000;0.421664
6285.000000;0.421870
6284.000000;0.422236
6283.000000;0.422585
6282.000000;0.422752
6281.000000;0.422724
6280.000000;0.422596
6279.000000;0.422472
6278.000000;0.422417
6277.000000;0.422445
6276.000000;0.422527
6275.000000;0.422633
6274.000000;0.422775
6273.000000;0.422948
6272.000000;0.423061
6271.000000;0.423021
6270.000000;0.422868
6269.000000;0.422760
6268.000000;0.422804
6267.000000;0.422971
6266.000000;0.423172
6265.000000;0.423342
6264.000000;0.423430
6263.000000;0.423391
6262.000000;0.423242
6261.000000;0.423101
6260.000000;0.423106
6259.000000;0.423302
6258.000000;0.423579
6257.000000;0.423735
6256.000000;0.423640
6255.000000;0.423384
6254.000000;0.423218
6253.000000;0.423314
6252.000000;0.423593
6251.000000;0.423834
6250.000000;0.423906
6249.000000;0.423839
6248.000000;0.423706
6247.000000;0.423551
6246.000000;0.423442
6245.000000;0.423467
6244.000000;0.423640
6243.000000;0.423855
6242.000000;0.423984
6241.000000;0.423994
6240.000000;0.423954
6239.000000;0.423946
6238.000000;0.423995
6237.000000;0.424069
6236.000000;0.424114
6235.000000;0.424112
6234.000000;0.424094
6233.000000;0.424116
6232.000000;0.424203
6231.000000;0.424330
6230.000000;0.424429
6229.000000;0.424426
6228.000000;0.424297
6227.000000;0.424114
6226.000000;0.423993
6225.000000;0.423990
6224.000000;0.424086
6223.000000;0.424240
6222.000000;0.424414
6221.000000;0.424516
6220.000000;0.424426
6219.000000;0.424146
6218.000000;0.423846
6217.000000;0.423714
6216.000000;0.423783
6215.000000;0.423954
6214.000000;0.424111
6213.000000;0.424157
6212.000000;0.424027
6211.000000;0.423771
6210.000000;0.423585
6209.000000;0.423642
6208.000000;0.423907
6207.000000;0.424194
6206.000000;0.424361
6205.000000;0.424382
6204.000000;0.424262
6203.000000;0.424026
6202.000000;0.423792
6201.000000;0.423736
6200.000000;0.423925
6199.000000;0.424233
6198.000000;0.424459
6197.000000;0.424492
6196.000000;0.424358
6195.000000;0.424171
6194.000000;0.424065
6193.000000;0.424114
6192.000000;0.424269
6191.000000;0.424410
6190.000000;0.424449
6189.000000;0.424387
6188.000000;0.424284
6187.000000;0.424208
6186.000000;0.424193
6185.000000;0.424211
6184.000000;0.424178
6183.000000;0.424053
6182.000000;0.423926
6181.000000;0.423940
6180.000000;0.424115
6179.000000;0.424313
6178.000000;0.424382
6177.000000;0.424298
6176.000000;0.424142
6175.000000;0.424001
6174.000000;0.423928
6173.000000;0.423961
6172.000000;0.424108
6171.000000;0.424308
6170.000000;0.424440
6169.000000;0.424410
6168.000000;0.424235
6167.000000;0.424036
6166.000000;0.423934
6165.000000;0.423947
6164.000000;0.423992
6163.000000;0.423992
6162.000000;0.423953
6161.000000;0.423937
6160.000000;0.423977
6159.000000;0.424038
6158.000000;0.424043
6157.000000;0.423945
6156.000000;0.423798
6155.000000;0.423734
6154.000000;0.423824
6153.000000;0.423975
6152.000000;0.424012
6151.000000;0.423872
6150.000000;0.423667
6149.000000;0.423542
6148.000000;0.423548
6147.000000;0.423661
6146.000000;0.423836
6145.000000;0.423984
6144.000000;0.423998
6143.000000;0.423869
6142.000000;0.423728
6141.000000;0.423697
6140.000000;0.423755
6139.000000;0.423812
6138.000000;0.423848
6137.000000;0.423882
6136.000000;0.423865
6135.000000;0.423727
6134.000000;0.423513
6133.000000;0.423367
6132.000000;0.423369
6131.000000;0.423460
6130.000000;0.423542
6129.000000;0.423565
6128.000000;0.423528
6127.000000;0.423447
6126.000000;0.423349
6125.000000;0.423254
6124.000000;0.423166
6123.000000;0.423110
6122.000000;0.423150
6121.000000;0.423301
6120.000000;0.423447
6119.000000;0.423443
6118.000000;0.423293
6117.000000;0.423156
6116.000000;0.423146
6115.000000;0.423211
6114.000000;0.423229
6113.000000;0.423165
6112.000000;0.423092
6111.000000;0.423087
6110.000000;0.423143
6109.000000;0.423178
6108.000000;0.423110
6107.000000;0.422952
6106.000000;0.422824
6105.000000;0.422824
6104.000000;0.422912
6103.000000;0.422951
6102.000000;0.422883
6101.000000;0.422797
6100.000000;0.422816
6099.000000;0.422939
6098.000000;0.423041
6097.000000;0.423008
6096.000000;0.422853
6095.000000;0.422695
6094.000000;0.422636
6093.000000;0.422670
6092.000000;0.422717
6091.000000;0.422721
6090.000000;0.422691
6089.000000;0.422651
6088.000000;0.422597
6087.000000;0.422537
6086.000000;0.422525
6085.000000;0.422602
6084.000000;0.422737
6083.000000;0.422851
6082.000000;0.422888
6081.000000;0.422829
6080.000000;0.422689
6079.000000;0.422520
6078.000000;0.422413
6077.000000;0.422441
6076.000000;0.422592
6075.000000;0.422790
6074.000000;0.422947
6073.000000;0.422987
6072.000000;0.422860
6071.000000;0.422603
6070.000000;0.422348
6069.000000;0.422230
6068.000000;0.422265
6067.000000;0.422360
6066.000000;0.422432
6065.000000;0.422469
6064.000000;0.422496
6063.000000;0.422509
6062.000000;0.422472
6061.000000;0.422377
6060.000000;0.422280
6059.000000;0.422261
6058.000000;0.422324
6057.000000;0.422367
6056.000000;0.422321
6055.000000;0.422269
6054.000000;0.422352
6053.000000;0.422529
6052.000000;0.422576
6051.000000;0.422368
6050.000000;0.422068
6049.000000;0.421942
6048.000000;0.422058
6047.000000;0.422268
6046.000000;0.422405
6045.000000;0.422401
6044.000000;0.422254
6043.000000;0.422019
6042.000000;0.421834
6041.000000;0.421835
6040.000000;0.422008
6039.000000;0.422198
6038.000000;0.422260
6037.000000;0.422159
6036.000000;0.421947
6035.000000;0.421721
6034.000000;0.421612
6033.000000;0.421701
6032.000000;0.421925
6031.000000;0.422117
6030.000000;0.422169
6029.000000;0.422106
6028.000000;0.422005
6027.000000;0.421923
6026.000000;0.421893
6025.000000;0.421931
6024.000000;0.422001
6023.000000;0.422041
6022.000000;0.422027
6021.000000;0.422001
6020.000000;0.422004
6019.000000;0.422040
6018.000000;0.422093
6017.000000;0.422131
6016.000000;0.422098
6015.000000;0.421970
6014.000000;0.421820
6013.000000;0.421772
6012.000000;0.421865
6011.000000;0.422032
6010.000000;0.422211
6009.000000;0.422387
6008.000000;0.422514
6007.000000;0.422486
6006.000000;0.422256
6005.000000;0.421943
6004.000000;0.421747
6003.000000;0.421774
6002.000000;0.421955
6001.000000;0.422131
6000.000000;0.422175
5999.000000;0.422085
5998.000000;0.421959
5997.000000;0.421886
5996.000000;0.421850
5995.000000;0.421778
5994.000000;0.421673
5993.000000;0.421635
5992.000000;0.421726
5991.000000;0.421876
5990.000000;0.421959
5989.000000;0.421923
5988.000000;0.421801
5987.000000;0.421658
5986.000000;0.421557
5985.000000;0.421554
5984.000000;0.421653
5983.000000;0.421782
5982.000000;0.421854
5981.000000;0.421867
5980.000000;0.421889
5979.000000;0.421956
5978.000000;0.422022
5977.000000;0.422039
5976.000000;0.422030
5975.000000;0.422064
5974.000000;0.422154
5973.000000;0.422236
5972.000000;0.422250
5971.000000;0.422221
5970.000000;0.422228
5969.000000;0.422298
5968.000000;0.422369
5967.000000;0.422368
5966.000000;0.422305
5965.000000;0.422263
5964.000000;0.422290
5963.000000;0.422353
5962.000000;0.422380
5961.000000;0.422337
5960.000000;0.422247
5959.000000;0.422151
5958.000000;0.422078
5957.000000;0.422042
5956.000000;0.422054
5955.000000;0.422112
5954.000000;0.422185
5953.000000;0.422224
5952.000000;0.422192
5951.000000;0.422109
5950.000000;0.422030
5949.000000;0.421996
5948.000000;0.422010
5947.000000;0.422075
5946.000000;0.422207
5945.000000;0.422407
5944.000000;0.422607
5943.000000;0.422700
5942.000000;0.422618
5941.000000;0.422410
5940.000000;0.422217
5939.000000;0.422177
5938.000000;0.422324
5937.000000;0.422562
5936.000000;0.422741
5935.000000;0.422767
5934.000000;0.422641
5933.000000;0.422442
5932.000000;0.422282
5931.000000;0.422260
5930.000000;0.422401
5929.000000;0.422624
5928.000000;0.422788
5927.000000;0.422796
5926.000000;0.422651
5925.000000;0.422433
5924.000000;0.422266
5923.000000;0.422269
5922.000000;0.422480
5921.000000;0.422798
5920.000000;0.423040
5919.000000;0.423089
5918.000000;0.422957
5917.000000;0.422712
5916.000000;0.422420
5915.000000;0.422177
5914.000000;0.422118
5913.000000;0.422309
5912.000000;0.422643
5911.000000;0.422912
5910.000000;0.422975
5909.000000;0.422830
5908.000000;0.422563
5907.000000;0.422287
5906.000000;0.422112
5905.000000;0.422125
5904.000000;0.422333
5903.000000;0.422640
5902.000000;0.422882
5901.000000;0.422933
5900.000000;0.422798
5899.000000;0.422606
5898.000000;0.422496
5897.000000;0.422490
5896.000000;0.422521
5895.000000;0.422554
5894.000000;0.422625
5893.000000;0.422763
5892.000000;0.422919
5891.000000;0.423009
5890.000000;0.422989
5889.000000;0.422850
5888.000000;0.422618
5887.000000;0.422379
5886.000000;0.422261
5885.000000;0.422325
5884.000000;0.422495
5883.000000;0.422637
5882.000000;0.422683
5881.000000;0.422650
5880.000000;0.422583
5879.000000;0.422522
5878.000000;0.422510
5877.000000;0.422557
5876.000000;0.422635
5875.000000;0.422716
5874.000000;0.422799
5873.000000;0.422879
5872.000000;0.422925
5871.000000;0.422928
5870.000000;0.422934
5869.000000;0.422970
5868.000000;0.422997
5867.000000;0.422970
5866.000000;0.422924
5865.000000;0.422930
5864.000000;0.423001
5863.000000;0.423091
5862.000000;0.423162
5861.000000;0.423205
5860.000000;0.423211
5859.000000;0.423179
5858.000000;0.423129
5857.000000;0.423053
5856.000000;0.422917
5855.000000;0.422745
5854.000000;0.422660
5853.000000;0.422753
5852.000000;0.422935
5851.000000;0.423020
5850.000000;0.422940
5849.000000;0.422812
5848.000000;0.422771
5847.000000;0.422831
5846.000000;0.422921
5845.000000;0.422983
5844.000000;0.422996
5843.000000;0.422962
5842.000000;0.422911
5841.000000;0.422883
5840.000000;0.422901
5839.000000;0.422959
5838.000000;0.423046
5837.000000;0.423136
5836.000000;0.423174
5835.000000;0.423114
5834.000000;0.422993
5833.000000;0.422907
5832.000000;0.422909
5831.000000;0.422972
5830.000000;0.423054
5829.000000;0.423165
5828.000000;0.423323
5827.000000;0.423492
5826.000000;0.423595
5825.000000;0.423590
5824.000000;0.423509
5823.000000;0.423439
5822.000000;0.423455
5821.000000;0.423560
5820.000000;0.423685
5819.000000;0.423748
5818.000000;0.423734
5817.000000;0.423698
5816.000000;0.423702
5815.000000;0.423752
5814.000000;0.423794
5813.000000;0.423770
5812.000000;0.423681
5811.000000;0.423593
5810.000000;0.423582
5809.000000;0.423646
5808.000000;0.423709
5807.000000;0.423709
5806.000000;0.423666
5805.000000;0.423643
5804.000000;0.423668
5803.000000;0.423726
5802.000000;0.423796
5801.000000;0.423872
5800.000000;0.423933
5799.000000;0.423945
5798.000000;0.423891
5797.000000;0.423798
5796.000000;0.423738
5795.000000;0.423782
5794.000000;0.423916
5793.000000;0.424018
5792.000000;0.423966
5791.000000;0.423798
5790.000000;0.423687
5789.000000;0.423743
5788.000000;0.423885
5787.000000;0.423964
5786.000000;0.423951
5785.000000;0.423930
5784.000000;0.423942
5783.000000;0.423941
5782.000000;0.423893
5781.000000;0.423851
5780.000000;0.423881
5779.000000;0.423961
5778.000000;0.423988
5777.000000;0.423872
5776.000000;0.423643
5775.000000;0.423455
5774.000000;0.423458
5773.000000;0.423640
5772.000000;0.423817
5771.000000;0.423815
5770.000000;0.423646
5769.000000;0.423468
5768.000000;0.423410
5767.000000;0.423488
5766.000000;0.423653
5765.000000;0.423856
5764.000000;0.424034
5763.000000;0.424108
5762.000000;0.424041
5761.000000;0.423884
5760.000000;0.423753
5759.000000;0.423741
5758.000000;0.423844
5757.000000;0.423958
5756.000000;0.423973
5755.000000;0.423887
5754.000000;0.423812
5753.000000;0.423847
5752.000000;0.423971
5751.000000;0.424066
5750.000000;0.424038
5749.000000;0.423894
5748.000000;0.423726
5747.000000;0.423625
5746.000000;0.423610
5745.000000;0.423612
5744.000000;0.423562
5743.000000;0.423483
5742.000000;0.423444
5741.000000;0.423443
5740.000000;0.423395
5739.000000;0.423265
5738.000000;0.423132
5737.000000;0.423079
5736.000000;0.423077
5735.000000;0.423054
5734.000000;0.423007
5733.000000;0.422995
5732.000000;0.423050
5731.000000;0.423145
5730.000000;0.423224
5729.000000;0.423210
5728.000000;0.423059
5727.000000;0.422850
5726.000000;0.422780
5725.000000;0.422950
5724.000000;0.423219
5723.000000;0.423344
5722.000000;0.423245
5721.000000;0.423061
5720.000000;0.422946
5719.000000;0.422923
5718.000000;0.422927
5717.000000;0.422922
5716.000000;0.422922
5715.000000;0.422954
5714.000000;0.423019
5713.000000;0.423064
5712.000000;0.423022
5711.000000;0.422896
5710.000000;0.422789
5709.000000;0.422788
5708.000000;0.422854
5707.000000;0.422890
5706.000000;0.422887
5705.000000;0.422916
5704.000000;0.423005
5703.000000;0.423081
5702.000000;0.423075
5701.000000;0.422956
5700.000000;0.422800
5699.000000;0.422684
5698.000000;0.422670
5697.000000;0.422794
5696.000000;0.422970
5695.000000;0.423054
5694.000000;0.422964
5693.000000;0.422747
5692.000000;0.422511
5691.000000;0.422358
5690.000000;0.422358
5689.000000;0.422515
5688.000000;0.422746
5687.000000;0.422922
5686.000000;0.422947
5685.000000;0.422803
5684.000000;0.422551
5683.000000;0.422317
5682.000000;0.422243
5681.000000;0.422365
5680.000000;0.422548
5679.000000;0.422598
5678.000000;0.422454
5677.000000;0.422228
5676.000000;0.422078
5675.000000;0.422070
5674.000000;0.422152
5673.000000;0.422225
5672.000000;0.422222
5671.000000;0.422159
5670.000000;0.422094
5669.000000;0.422048
5668.000000;0.422006
5667.000000;0.422013
5666.000000;0.422178
5665.000000;0.422506
5664.000000;0.422797
5663.000000;0.422821
5662.000000;0.422587
5661.000000;0.422328
5660.000000;0.422247
5659.000000;0.422358
5658.000000;0.422572
5657.000000;0.422812
5656.000000;0.423013
5655.000000;0.423109
5654.000000;0.423074
5653.000000;0.422952
5652.000000;0.422826
5651.000000;0.422777
5650.000000;0.422854
5649.000000;0.423019
5648.000000;0.423146
5647.000000;0.423140
5646.000000;0.423064
5645.000000;0.423074
5644.000000;0.423241
5643.000000;0.423487
5642.000000;0.423691
5641.000000;0.423797
5640.000000;0.423812
5639.000000;0.423793
5638.000000;0.423838
5637.000000;0.424005
5636.000000;0.424215
5635.000000;0.424328
5634.000000;0.424311
5633.000000;0.424269
5632.000000;0.424270
5631.000000;0.424275
5630.000000;0.424261
5629.000000;0.424331
5628.000000;0.424599
5627.000000;0.425023
5626.000000;0.425413
5625.000000;0.425609
5624.000000;0.425592
5623.000000;0.425460
5622.000000;0.425333
5621.000000;0.425294
5620.000000;0.425373
5619.000000;0.425573
5618.000000;0.425865
5617.000000;0.426167
5616.000000;0.426359
5615.000000;0.426388
5614.000000;0.426337
5613.000000;0.426332
5612.000000;0.426391
5611.000000;0.426430
5610.000000;0.426419
5609.000000;0.426437
5608.000000;0.426545
5607.000000;0.426691
5606.000000;0.426802
5605.000000;0.426902
5604.000000;0.427074
5603.000000;0.427320
5602.000000;0.427517
5601.000000;0.427535
5600.000000;0.427386
5599.000000;0.427256
5598.000000;0.427375
5597.000000;0.427795
5596.000000;0.428304
5595.000000;0.428604
5594.000000;0.428609
5593.000000;0.428513
5592.000000;0.428556
5591.000000;0.428779
5590.000000;0.429058
5589.000000;0.429308
5588.000000;0.429536
5587.000000;0.429724
5586.000000;0.429770
5585.000000;0.429619
5584.000000;0.429406
5583.000000;0.429389
5582.000000;0.429712
5581.000000;0.430263
5580.000000;0.430760
5579.000000;0.430974
5578.000000;0.430883
5577.000000;0.430665
5576.000000;0.430568
5575.000000;0.430734
5574.000000;0.431106
5573.000000;0.431473
5572.000000;0.431660
5571.000000;0.431658
5570.000000;0.431583
5569.000000;0.431538
5568.000000;0.431561
5567.000000;0.431671
5566.000000;0.431871
5565.000000;0.432092
5564.000000;0.432241
5563.000000;0.432307
5562.000000;0.432367
5561.000000;0.432448
5560.000000;0.432478
5559.000000;0.432398
5558.000000;0.432297
5557.000000;0.432340
5556.000000;0.432602
5555.000000;0.432995
5554.000000;0.433336
5553.000000;0.433449
5552.000000;0.433287
5551.000000;0.433015
5550.000000;0.432945
5549.000000;0.433267
5548.000000;0.433857
5547.000000;0.434389
5546.000000;0.434626
5545.000000;0.434579
5544.000000;0.434431
5543.000000;0.434357
5542.000000;0.434407
5541.000000;0.434476
5540.000000;0.434413
5539.000000;0.434199
5538.000000;0.434014
5537.000000;0.434073
5536.000000;0.434414
5535.000000;0.434883
5534.000000;0.435284
5533.000000;0.435506
5532.000000;0.435543
5531.000000;0.435493
5530.000000;0.435494
5529.000000;0.435568
5528.000000;0.435580
5527.000000;0.435421
5526.000000;0.435210
5525.000000;0.435186
5524.000000;0.435421
5523.000000;0.435724
5522.000000;0.435860
5521.000000;0.435775
5520.000000;0.435611
5519.000000;0.435569
5518.000000;0.435782
5517.000000;0.436214
5516.000000;0.436682
5515.000000;0.436996
5514.000000;0.437089
5513.000000;0.436974
5512.000000;0.436665
5511.000000;0.436268
5510.000000;0.436059
5509.000000;0.436279
5508.000000;0.436858
5507.000000;0.437434
5506.000000;0.437700
5505.000000;0.437665
5504.000000;0.437531
5503.000000;0.437467
5502.000000;0.437557
5501.000000;0.437796
5500.000000;0.438053
5499.000000;0.438122
5498.000000;0.437915
5497.000000;0.437577
5496.000000;0.437345
5495.000000;0.437327
5494.000000;0.437468
5493.000000;0.437656
5492.000000;0.437828
5491.000000;0.438007
5490.000000;0.438280
5489.000000;0.438702
5488.000000;0.439189
5487.000000;0.439539
5486.000000;0.439618
5485.000000;0.439514
5484.000000;0.439495
5483.000000;0.439807
5482.000000;0.440480
5481.000000;0.441214
5480.000000;0.441541
5479.000000;0.441267
5478.000000;0.440744
5477.000000;0.440538
5476.000000;0.440824
5475.000000;0.441224
5474.000000;0.441281
5473.000000;0.440942
5472.000000;0.440493
5471.000000;0.440173
5470.000000;0.440021
5469.000000;0.440035
5468.000000;0.440303
5467.000000;0.440876
5466.000000;0.441563
5465.000000;0.442029
5464.000000;0.442126
5463.000000;0.442035
5462.000000;0.442015
5461.000000;0.442101
5460.000000;0.442118
5459.000000;0.441985
5458.000000;0.441867
5457.000000;0.441981
5456.000000;0.442311
5455.000000;0.442626
5454.000000;0.442790
5453.000000;0.442964
5452.000000;0.443396
5451.000000;0.444033
5450.000000;0.444503
5449.000000;0.444550
5448.000000;0.444377
5447.000000;0.444430
5446.000000;0.444867
5445.000000;0.445426
5444.000000;0.445797
5443.000000;0.445970
5442.000000;0.446127
5441.000000;0.446316
5440.000000;0.446405
5439.000000;0.446352
5438.000000;0.446358
5437.000000;0.446659
5436.000000;0.447199
5435.000000;0.447561
5434.000000;0.447350
5433.000000;0.446657
5432.000000;0.446036
5431.000000;0.446005
5430.000000;0.446558
5429.000000;0.447192
5428.000000;0.447432
5427.000000;0.447261
5426.000000;0.447019
5425.000000;0.447016
5424.000000;0.447299
5423.000000;0.447716
5422.000000;0.448118
5421.000000;0.448447
5420.000000;0.448708
5419.000000;0.448945
5418.000000;0.449254
5417.000000;0.449720
5416.000000;0.450314
5415.000000;0.450858
5414.000000;0.451126
5413.000000;0.451041
5412.000000;0.450776
5411.000000;0.450651
5410.000000;0.450866
5409.000000;0.451320
5408.000000;0.451717
5407.000000;0.451866
5406.000000;0.451883
5405.000000;0.452043
5404.000000;0.452455
5403.000000;0.453007
5402.000000;0.453576
5401.000000;0.454193
5400.000000;0.454908
5399.000000;0.455597
5398.000000;0.456083
5397.000000;0.456426
5396.000000;0.456885
5395.000000;0.457548
5394.000000;0.458168
5393.000000;0.458489
5392.000000;0.458564
5391.000000;0.458659
5390.000000;0.458963
5389.000000;0.459470
5388.000000;0.460103
5387.000000;0.460758
5386.000000;0.461278
5385.000000;0.461579
5384.000000;0.461831
5383.000000;0.462336
5382.000000;0.463157
5381.000000;0.463989
5380.000000;0.464492
5379.000000;0.464704
5378.000000;0.464978
5377.000000;0.465535
5376.000000;0.466239
5375.000000;0.466817
5374.000000;0.467152
5373.000000;0.467334
5372.000000;0.467545
5371.000000;0.467975
5370.000000;0.468732
5369.000000;0.469749
5368.000000;0.470799
5367.000000;0.471687
5366.000000;0.472439
5365.000000;0.473248
5364.000000;0.474259
5363.000000;0.475460
5362.000000;0.476745
5361.000000;0.478010
5360.000000;0.479173
5359.000000;0.480208
5358.000000;0.481233
5357.000000;0.482507
5356.000000;0.484186
5355.000000;0.486000
5354.000000;0.487389
5353.000000;0.488128
5352.000000;0.488687
5351.000000;0.489753
5350.000000;0.491506
5349.000000;0.493486
5348.000000;0.495159
5347.000000;0.496501
5346.000000;0.497878
5345.000000;0.499490
5344.000000;0.501196
5343.000000;0.502819
5342.000000;0.504373
5341.000000;0.505900
5340.000000;0.507263
5339.000000;0.508311
5338.000000;0.509303
5337.000000;0.510941
5336.000000;0.513606
5335.000000;0.516746
5334.000000;0.519308
5333.000000;0.520696
5332.000000;0.521272
5331.000000;0.521928
5330.000000;0.523179
5329.000000;0.524762
5328.000000;0.526153
5327.000000;0.527291
5326.000000;0.528649
5325.000000;0.530544
5324.000000;0.532532
5323.000000;0.533671
5322.000000;0.533355
5321.000000;0.531869
5320.000000;0.530138
5319.000000;0.528962
5318.000000;0.528300
5317.000000;0.527378
5316.000000;0.525948
5315.000000;0.525175
5314.000000;0.526278
5313.000000;0.528144
5312.000000;0.527338
5311.000000;0.521317
5310.000000;0.510941
5309.000000;0.498708
5308.000000;0.485713
5307.000000;0.471489
5306.000000;0.456209
5305.000000;0.441696
5304.000000;0.429601
5303.000000;0.419415
5302.000000;0.407793
5301.000000;0.389783
5300.000000;0.364927
5299.000000;0.342939
5298.000000;0.337378
5297.000000;0.353651
5296.000000;0.385937
5295.000000;0.424380
5294.000000;0.464561
5293.000000;0.507671
5292.000000;0.551988
5291.000000;0.593255
5290.000000;0.631676
5289.000000;0.666857
5288.000000;0.692159
5287.000000;0.705417
5286.000000;0.716429
5285.000000;0.733321
5284.000000;0.752083
5283.000000;0.769477
5282.000000;0.796731
5281.000000;0.843614
5280.000000;0.895955
5279.000000;0.920640
5278.000000;0.900953
5277.000000;0.858982
5276.000000;0.825975
5275.000000;0.819069
5274.000000;0.843296
5273.000000;0.889322
5272.000000;0.932765
5271.000000;0.953952
5270.000000;0.955421
5269.000000;0.946979
5268.000000;0.935831
5267.000000;0.934944
5266.000000;0.957321
5265.000000;0.995680
5264.000000;1.017023
5263.000000;0.998775
5262.000000;0.970785
5261.000000;0.972934
5260.000000;0.998554
5259.000000;1.018125
5258.000000;1.024578
5257.000000;1.014484
5256.000000;0.989675
5255.000000;0.965342
5254.000000;0.950077
5253.000000;0.953028
5252.000000;0.972666
5251.000000;0.985131
5250.000000;0.973806
5249.000000;0.950072
5248.000000;0.934641
5247.000000;0.939653
5246.000000;0.961082
5245.000000;0.976515
5244.000000;0.964265
5243.000000;0.931200
5242.000000;0.905473
5241.000000;0.903063
5240.000000;0.913291
5239.000000;0.916524
5238.000000;0.911865
5237.000000;0.912781
5236.000000;0.923602
5235.000000;0.935666
5234.000000;0.942807
5233.000000;0.948956
5232.000000;0.952057
5231.000000;0.946480
5230.000000;0.935770
5229.000000;0.925594
5228.000000;0.924117
5227.000000;0.936795
5226.000000;0.958193
5225.000000;0.975939
5224.000000;0.973154
5223.000000;0.941304
5222.000000;0.902453
5221.000000;0.889754
5220.000000;0.908268
5219.000000;0.933556
5218.000000;0.950131
5217.000000;0.969874
5216.000000;0.998659
5215.000000;1.011516
5214.000000;0.985053
5213.000000;0.943635
5212.000000;0.924811
5211.000000;0.937930
5210.000000;0.978652
5209.000000;1.045432
5208.000000;1.078113
5207.000000;1.020599
5206.000000;0.953531
5205.000000;0.929195
5204.000000;0.942395
5203.000000;0.983677
5202.000000;1.028385
5201.000000;1.042083
5200.000000;1.023264
5199.000000;0.994445
5198.000000;0.969629
5197.000000;0.958575
5196.000000;0.966212
5195.000000;0.986622
5194.000000;1.005849
5193.000000;1.014219
5192.000000;1.011732
5191.000000;1.001937
5190.000000;0.987164
5189.000000;0.967017
5188.000000;0.947963
5187.000000;0.947528
5186.000000;0.975737
5185.000000;1.016861
5184.000000;1.035280
5183.000000;1.017273
5182.000000;0.989019
5181.000000;0.973515
5180.000000;0.971392
5179.000000;0.978133
5178.000000;0.992245
5177.000000;1.005083
5176.000000;0.998482
5175.000000;0.968013
5174.000000;0.936213
5173.000000;0.925373
5172.000000;0.937049
5171.000000;0.958362
5170.000000;0.971267
5169.000000;0.963969
5168.000000;0.944046
5167.000000;0.930595
5166.000000;0.935586
5165.000000;0.951440
5164.000000;0.954820
5163.000000;0.935619
5162.000000;0.913781
5161.000000;0.913724
5160.000000;0.939290
5159.000000;0.972678
5158.000000;0.992121
5157.000000;0.990747
5156.000000;0.979290
5155.000000;0.974518
5154.000000;0.980812
5153.000000;0.995209
5152.000000;1.019887
5151.000000;1.047268
5150.000000;1.051452
5149.000000;1.016619
5148.000000;0.963890
5147.000000;0.932640
5146.000000;0.949084
5145.000000;1.015527
5144.000000;1.097571
5143.000000;1.132710
5142.000000;1.106173
5141.000000;1.047301
5140.000000;0.989065
5139.000000;0.966212
5138.000000;0.992686
5137.000000;1.038259
5136.000000;1.044958
5135.000000;1.018607
5134.000000;1.009898
5133.000000;1.033280
5132.000000;1.062816
5131.000000;1.065618
5130.000000;1.039615
5129.000000;1.002104
5128.000000;0.981088
5127.000000;0.992265
5126.000000;1.011317
5125.000000;1.016527
5124.000000;1.019681
5123.000000;1.019406
5122.000000;1.003330
5121.000000;0.976659
5120.000000;0.956219
5119.000000;0.959837
5118.000000;0.989479
5117.000000;1.021530
5116.000000;1.025108
5115.000000;1.000644
5114.000000;0.981216
5113.000000;0.990609
5112.000000;1.022722
5111.000000;1.050278
5110.000000;1.052255
5109.000000;1.035378
5108.000000;1.018311
5107.000000;1.010760
5106.000000;1.010159
5105.000000;1.009541
5104.000000;1.009783
5103.000000;1.025202
5102.000000;1.065624
5101.000000;1.109842
5100.000000;1.118096
5099.000000;1.081641
5098.000000;1.028265
5097.000000;0.985320
5096.000000;0.964996
5095.000000;0.968775
5094.000000;0.988145
5093.000000;1.003733
5092.000000;0.999306
5091.000000;0.977986
5090.000000;0.954390
5089.000000;0.937474
5088.000000;0.928095
5087.000000;0.927797
5086.000000;0.935868
5085.000000;0.938395
5084.000000;0.920457
5083.000000;0.890893
5082.000000;0.873282
5081.000000;0.876505
5080.000000;0.888235
5079.000000;0.895932
5078.000000;0.897644
5077.000000;0.894135
5076.000000;0.893623
5075.000000;0.907230
5074.000000;0.931613
5073.000000;0.946746
5072.000000;0.935613
5071.000000;0.910430
5070.000000;0.902717
5069.000000;0.927944
5068.000000;0.969685
5067.000000;0.991599
5066.000000;0.974896
5065.000000;0.941131
5064.000000;0.925746
5063.000000;0.946488
5062.000000;0.987771
5061.000000;1.007338
5060.000000;0.980195
5059.000000;0.932709
5058.000000;0.906908
5057.000000;0.915724
5056.000000;0.944494
5055.000000;0.976718
5054.000000;1.012898
5053.000000;1.053518
5052.000000;1.067298
5051.000000;1.032535
5050.000000;0.984260
5049.000000;0.952178
5048.000000;0.938974
5047.000000;0.946925
5046.000000;0.974277
5045.000000;1.003209
5044.000000;1.008969
5043.000000;0.983412
5042.000000;0.947550
5041.000000;0.925176
5040.000000;0.919414
5039.000000;0.919009
5038.000000;0.911800
5037.000000;0.895464
5036.000000;0.880316
5035.000000;0.879376
5034.000000;0.892060
5033.000000;0.897247
5032.000000;0.876364
5031.000000;0.845392
5030.000000;0.836757
5029.000000;0.860658
5028.000000;0.894610
5027.000000;0.906964
5026.000000;0.896243
5025.000000;0.887150
5024.000000;0.894128
5023.000000;0.908999
5022.000000;0.917669
5021.000000;0.914513
5020.000000;0.901183
5019.000000;0.888945
5018.000000;0.888972
5017.000000;0.900257
5016.000000;0.915337
5015.000000;0.926597
5014.000000;0.925798
5013.000000;0.904424
5012.000000;0.864081
5011.000000;0.824877
5010.000000;0.809510
5009.000000;0.820489
5008.000000;0.840951
5007.000000;0.851263
5006.000000;0.838383
5005.000000;0.811070
5004.000000;0.791260
5003.000000;0.786378
5002.000000;0.789490
5001.000000;0.789553
5000.000000;0.782033
4999.000000;0.772621
4998.000000;0.765999
4997.000000;0.758138
4996.000000;0.743931
4995.000000;0.732013
4994.000000;0.738587
4993.000000;0.761469
4992.000000;0.773971
4991.000000;0.755806
4990.000000;0.720149
4989.000000;0.692289
4988.000000;0.683844
4987.000000;0.694303
4986.000000;0.718150
4985.000000;0.742891
4984.000000;0.752660
4983.000000;0.743570
4982.000000;0.724431
4981.000000;0.703482
4980.000000;0.686437
4979.000000;0.680184
4978.000000;0.685544
4977.000000;0.686659
4976.000000;0.662745
4975.000000;0.620377
4974.000000;0.589739
4973.000000;0.587998
4972.000000;0.605159
4971.000000;0.617823
4970.000000;0.614580
4969.000000;0.602421
4968.000000;0.588509
4967.000000;0.572782
4966.000000;0.556420
4965.000000;0.542688
4964.000000;0.531471
4963.000000;0.522637
4962.000000;0.517842
4961.000000;0.514573
4960.000000;0.507673
4959.000000;0.497215
4958.000000;0.487199
4957.000000;0.477893
4956.000000;0.466701
4955.000000;0.456737
4954.000000;0.456179
4953.000000;0.466184
4952.000000;0.475214
4951.000000;0.470912
4950.000000;0.455606
4949.000000;0.441328
4948.000000;0.434296
4947.000000;0.432145
4946.000000;0.431099
4945.000000;0.428978
4944.000000;0.423610
4943.000000;0.414518
4942.000000;0.404978
4941.000000;0.398135
4940.000000;0.392616
4939.000000;0.383846
4938.000000;0.367972
4937.000000;0.345424
4936.000000;0.322082
4935.000000;0.305885
4934.000000;0.301126
4933.000000;0.304069
4932.000000;0.304006
4931.000000;0.292574
4930.000000;0.273401
4929.000000;0.258195
4928.000000;0.254543
4927.000000;0.259631
4926.000000;0.262805
4925.000000;0.255000
4924.000000;0.237308
4923.000000;0.219121
4922.000000;0.208856
4921.000000;0.208446
4920.000000;0.215459
4919.000000;0.226036
4918.000000;0.233489
4917.000000;0.228837
4916.000000;0.210001
4915.000000;0.186887
4914.000000;0.170337
4913.000000;0.161244
4912.000000;0.154014
4911.000000;0.146968
4910.000000;0.143320
4909.000000;0.142568
4908.000000;0.139011
4907.000000;0.130049
4906.000000;0.118755
4905.000000;0.106941
4904.000000;0.093032
4903.000000;0.078099
4902.000000;0.066787
4901.000000;0.060007
4900.000000;0.052976
4899.000000;0.043189
4898.000000;0.034389
4897.000000;0.029628
4896.000000;0.026652
4895.000000;0.022994
4894.000000;0.020067
4893.000000;0.018259
4892.000000;0.013127
4891.000000;0.001775
4890.000000;-0.011140
4889.000000;-0.019134
4888.000000;-0.021616
4887.000000;-0.022200
4886.000000;-0.022674
4885.000000;-0.023450
4884.000000;-0.027661
4883.000000;-0.038120
4882.000000;-0.050868
4881.000000;-0.057783
4880.000000;-0.055750
4879.000000;-0.050196
4878.000000;-0.049689
4877.000000;-0.058143
4876.000000;-0.072320
4875.000000;-0.085247
4874.000000;-0.090880
4873.000000;-0.087605
4872.000000;-0.079646
4871.000000;-0.074198
4870.000000;-0.075330
4869.000000;-0.080967
4868.000000;-0.085851
4867.000000;-0.086032
4866.000000;-0.081002
4865.000000;-0.073642
4864.000000;-0.068776
4863.000000;-0.070190
4862.000000;-0.077608
4861.000000;-0.086573
4860.000000;-0.091273
4859.000000;-0.087897
4858.000000;-0.077169
4857.000000;-0.065051
4856.000000;-0.059506
4855.000000;-0.063567
4854.000000;-0.072059
4853.000000;-0.077124
4852.000000;-0.075354
4851.000000;-0.068918
4850.000000;-0.062114
4849.000000;-0.057846
4848.000000;-0.056301
4847.000000;-0.055888
4846.000000;-0.055058
4845.000000;-0.053506
4844.000000;-0.052071
4843.000000;-0.051241
4842.000000;-0.050011
4841.000000;-0.046932
4840.000000;-0.041783
4839.000000;-0.035581
4838.000000;-0.029535
4837.000000;-0.024671
4836.000000;-0.021783
4835.000000;-0.020647
4834.000000;-0.019658
4833.000000;-0.017296
4832.000000;-0.013917
4831.000000;-0.011365
4830.000000;-0.010578
4829.000000;-0.010259
4828.000000;-0.008301
4827.000000;-0.003878
4826.000000;0.002076
4825.000000;0.007883
4824.000000;0.012343
4823.000000;0.015288
4822.000000;0.017418
4821.000000;0.019575
4820.000000;0.021947
4819.000000;0.024458
4818.000000;0.027697
4817.000000;0.032700
4816.000000;0.039856
4815.000000;0.048046
4814.000000;0.054774
4813.000000;0.057627
4812.000000;0.056452
4811.000000;0.054087
4810.000000;0.054047
4809.000000;0.057420
4808.000000;0.062455
4807.000000;0.067072
4806.000000;0.071074
4805.000000;0.075355
4804.000000;0.079808
4803.000000;0.083100
4802.000000;0.084318
4801.000000;0.083897
4800.000000;0.083186
4799.000000;0.083996
4798.000000;0.087921
4797.000000;0.094929
4796.000000;0.102633
4795.000000;0.107823
4794.000000;0.109231
4793.000000;0.108391
4792.000000;0.107668
4791.000000;0.108352
4790.000000;0.110617
4789.000000;0.114174
4788.000000;0.118498
4787.000000;0.122550
4786.000000;0.124707
4785.000000;0.123796
4784.000000;0.120735
4783.000000;0.118657
4782.000000;0.120562
4781.000000;0.126613
4780.000000;0.133957
4779.000000;0.139315
4778.000000;0.141541
4777.000000;0.141457
4776.000000;0.140316
4775.000000;0.139490
4774.000000;0.140724
4773.000000;0.145076
4772.000000;0.151488
4771.000000;0.157348
4770.000000;0.160876
4769.000000;0.162413
4768.000000;0.163250
4767.000000;0.164045
4766.000000;0.164734
4765.000000;0.165392
4764.000000;0.166590
4763.000000;0.168913
4762.000000;0.172292
4761.000000;0.175878
4760.000000;0.178771
4759.000000;0.180931
4758.000000;0.183002
4757.000000;0.185169
4756.000000;0.186787
4755.000000;0.187508
4754.000000;0.188168
4753.000000;0.189806
4752.000000;0.192262
4751.000000;0.194561
4750.000000;0.196475
4749.000000;0.198795
4748.000000;0.201815
4747.000000;0.204336
4746.000000;0.204885
4745.000000;0.203670
4744.000000;0.202671
4743.000000;0.203789
4742.000000;0.207266
4741.000000;0.211775
4740.000000;0.215682
4739.000000;0.218128
4738.000000;0.219142
4737.000000;0.219265
4736.000000;0.219439
4735.000000;0.220878
4734.000000;0.224302
4733.000000;0.229040
4732.000000;0.233202
4731.000000;0.235119
4730.000000;0.234669
4729.000000;0.233074
4728.000000;0.231783
4727.000000;0.231692
4726.000000;0.232992
4725.000000;0.235292
4724.000000;0.237903
4723.000000;0.240180
4722.000000;0.241639
4721.000000;0.242023
4720.000000;0.241649
4719.000000;0.241524
4718.000000;0.242593
4717.000000;0.244737
4716.000000;0.246832
4715.000000;0.248006
4714.000000;0.248575
4713.000000;0.249515
4712.000000;0.251282
4711.000000;0.253469
4710.000000;0.255345
4709.000000;0.256463
4708.000000;0.256894
4707.000000;0.257148
4706.000000;0.257829
4705.000000;0.259197
4704.000000;0.261055
4703.000000;0.262973
4702.000000;0.264503
4701.000000;0.265371
4700.000000;0.265819
4699.000000;0.266670
4698.000000;0.268552
4697.000000;0.270976
4696.000000;0.272635
4695.000000;0.272826
4694.000000;0.272179
4693.000000;0.271858
4692.000000;0.272495
4691.000000;0.274067
4690.000000;0.276170
4689.000000;0.278095
4688.000000;0.279106
4687.000000;0.279119
4686.000000;0.278855
4685.000000;0.279056
4684.000000;0.279852
4683.000000;0.281115
4682.000000;0.282865
4681.000000;0.284881
4680.000000;0.286358
4679.000000;0.286602
4678.000000;0.285990
4677.000000;0.285690
4676.000000;0.286451
4675.000000;0.288041
4674.000000;0.289732
4673.000000;0.290955
4672.000000;0.291541
4671.000000;0.291725
4670.000000;0.292012
4669.000000;0.292832
4668.000000;0.294230
4667.000000;0.295916
4666.000000;0.297489
4665.000000;0.298539
4664.000000;0.298813
4663.000000;0.298580
4662.000000;0.298615
4661.000000;0.299496
4660.000000;0.300920
4659.000000;0.301969
4658.000000;0.302087
4657.000000;0.301702
4656.000000;0.301863
4655.000000;0.303267
4654.000000;0.305521
4653.000000;0.307338
4652.000000;0.307697
4651.000000;0.306859
4650.000000;0.306026
4649.000000;0.306043
4648.000000;0.306795
4647.000000;0.307868
4646.000000;0.309274
4645.000000;0.311185
4644.000000;0.313230
4643.000000;0.314551
4642.000000;0.314573
4641.000000;0.313608
4640.000000;0.312775
4639.000000;0.313189
4638.000000;0.314914
4637.000000;0.316711
4636.000000;0.317190
4635.000000;0.316360
4634.000000;0.315662
4633.000000;0.316292
4632.000000;0.317884
4631.000000;0.319060
4630.000000;0.319000
4629.000000;0.318207
4628.000000;0.317906
4627.000000;0.318914
4626.000000;0.320915
4625.000000;0.322711
4624.000000;0.323399
4623.000000;0.323332
4622.000000;0.323545
4621.000000;0.324257
4620.000000;0.324576
4619.000000;0.323971
4618.000000;0.323303
4617.000000;0.323799
4616.000000;0.325456
4615.000000;0.327125
4614.000000;0.327939
4613.000000;0.328045
4612.000000;0.327991
4611.000000;0.327969
4610.000000;0.327828
4609.000000;0.327504
4608.000000;0.327248
4607.000000;0.327504
4606.000000;0.328526
4605.000000;0.330072
4604.000000;0.331590
4603.000000;0.332668
4602.000000;0.333135
4601.000000;0.332893
4600.000000;0.332110
4599.000000;0.331568
4598.000000;0.332156
4597.000000;0.333795
4596.000000;0.335373
4595.000000;0.336041
4594.000000;0.336061
4593.000000;0.336020
4592.000000;0.335820
4591.000000;0.335077
4590.000000;0.334139
4589.000000;0.333996
4588.000000;0.335234
4587.000000;0.337495
4586.000000;0.339779
4585.000000;0.340975
4584.000000;0.340421
4583.000000;0.338482
4582.000000;0.336557
4581.000000;0.336105
4580.000000;0.337574
4579.000000;0.340235
4578.000000;0.342735
4577.000000;0.343767
4576.000000;0.342830
4575.000000;0.340860
4574.000000;0.339685
4573.000000;0.340347
4572.000000;0.342136
4571.000000;0.343530
4570.000000;0.343830
4569.000000;0.343446
4568.000000;0.342913
4567.000000;0.342392
4566.000000;0.342128
4565.000000;0.342669
4564.000000;0.344264
4563.000000;0.346327
4562.000000;0.347718
4561.000000;0.347600
4560.000000;0.346198
4559.000000;0.344768
4558.000000;0.344612
4557.000000;0.345971
4556.000000;0.347963
4555.000000;0.349566
4554.000000;0.350289
4553.000000;0.349889
4552.000000;0.348281
4551.000000;0.346237
4550.000000;0.345421
4549.000000;0.346815
4548.000000;0.349319
4547.000000;0.350680
4546.000000;0.349877
4545.000000;0.348045
4544.000000;0.347075
4543.000000;0.347817
4542.000000;0.349593
4541.000000;0.350876
4540.000000;0.350507
4539.000000;0.348829
4538.000000;0.347556
4537.000000;0.348110
4536.000000;0.350116
4535.000000;0.351854
4534.000000;0.352090
4533.000000;0.351092
4532.000000;0.349985
4531.000000;0.349681
4530.000000;0.350386
4529.000000;0.351558
4528.000000;0.352234
4527.000000;0.351809
4526.000000;0.350585
4525.000000;0.349365
4524.000000;0.348734
4523.000000;0.348941
4522.000000;0.349980
4521.000000;0.351215
4520.000000;0.351370
4519.000000;0.349798
4518.000000;0.347639
4517.000000;0.346845
4516.000000;0.348066
4515.000000;0.350155
4514.000000;0.351711
4513.000000;0.352367
4512.000000;0.352421
4511.000000;0.352025
4510.000000;0.351269
4509.000000;0.350556
4508.000000;0.350413
4507.000000;0.351095
4506.000000;0.352570
4505.000000;0.354480
4504.000000;0.355927
4503.000000;0.355910
4502.000000;0.354396
4501.000000;0.352587
4500.000000;0.351851
4499.000000;0.352583
4498.000000;0.354080
4497.000000;0.355200
4496.000000;0.355047
4495.000000;0.353525
4494.000000;0.351586
4493.000000;0.350717
4492.000000;0.351731
4491.000000;0.353929
4490.000000;0.355531
4489.000000;0.355071
4488.000000;0.352619
4487.000000;0.349845
4486.000000;0.348850
4485.000000;0.350596
4484.000000;0.354021
4483.000000;0.356686
4482.000000;0.356698
4481.000000;0.354276
4480.000000;0.351457
4479.000000;0.350341
4478.000000;0.351508
4477.000000;0.353734
4476.000000;0.355117
4475.000000;0.354664
4474.000000;0.352908
4473.000000;0.351182
4472.000000;0.350513
4471.000000;0.351155
4470.000000;0.352730
4469.000000;0.354409
4468.000000;0.355184
4467.000000;0.354585
4466.000000;0.353279
4465.000000;0.352585
4464.000000;0.353303
4463.000000;0.354997
4462.000000;0.356267
4461.000000;0.355825
4460.000000;0.353759
4459.000000;0.351771
4458.000000;0.351730
4457.000000;0.353750
4456.000000;0.355937
4455.000000;0.356334
4454.000000;0.354856
4453.000000;0.352966
4452.000000;0.351971
4451.000000;0.352192
4450.000000;0.353314
4449.000000;0.354745
4448.000000;0.355740
4447.000000;0.355916
4446.000000;0.355733
4445.000000;0.356066
4444.000000;0.357269
4443.000000;0.358838
4442.000000;0.359881
4441.000000;0.359742
4440.000000;0.358570
4439.000000;0.357506
4438.000000;0.357772
4437.000000;0.359211
4436.000000;0.360076
4435.000000;0.358722
4434.000000;0.355458
4433.000000;0.352421
4432.000000;0.351840
4431.000000;0.354584
4430.000000;0.359513
4429.000000;0.363552
4428.000000;0.363398
4427.000000;0.358660
4426.000000;0.352932
4425.000000;0.350580
4424.000000;0.352710
4423.000000;0.356660
4422.000000;0.359100
4421.000000;0.359047
4420.000000;0.357716
4419.000000;0.356428
4418.000000;0.355533
4417.000000;0.354853
4416.000000;0.354492
4415.000000;0.354971
4414.000000;0.356475
4413.000000;0.358034
4412.000000;0.358066
4411.000000;0.356229
4410.000000;0.354169
4409.000000;0.353676
4408.000000;0.354537
4407.000000;0.355022
4406.000000;0.354141
4405.000000;0.352466
4404.000000;0.350926
4403.000000;0.349987
4402.000000;0.349986
4401.000000;0.351023
4400.000000;0.352163
4399.000000;0.351836
4398.000000;0.349659
4397.000000;0.347032
4396.000000;0.345322
4395.000000;0.344315
4394.000000;0.343033
4393.000000;0.341234
4392.000000;0.339527
4391.000000;0.338619
4390.000000;0.338905
4389.000000;0.340378
4388.000000;0.342320
4387.000000;0.343157
4386.000000;0.341380
4385.000000;0.337066
4384.000000;0.332362
4383.000000;0.330111
4382.000000;0.331620
4381.000000;0.335444
4380.000000;0.338515
4379.000000;0.338801
4378.000000;0.336680
4377.000000;0.333692
4376.000000;0.330920
4375.000000;0.329087
4374.000000;0.329048
4373.000000;0.330796
4372.000000;0.332334
4371.000000;0.331059
4370.000000;0.326718
4369.000000;0.322004
4368.000000;0.319959
4367.000000;0.321467
4366.000000;0.324848
4365.000000;0.327014
4364.000000;0.325534
4363.000000;0.320623
4362.000000;0.314966
4361.000000;0.311259
4360.000000;0.310193
4359.000000;0.310945
4358.000000;0.312765
4357.000000;0.314897
4356.000000;0.315469
4355.000000;0.312615
4354.000000;0.307601
4353.000000;0.304522
4352.000000;0.305264
4351.000000;0.307006
4350.000000;0.305908
4349.000000;0.301978
4348.000000;0.298964
4347.000000;0.299738
4346.000000;0.303253
4345.000000;0.305942
4344.000000;0.305245
4343.000000;0.301568
4342.000000;0.297081
4341.000000;0.293346
4340.000000;0.290536
4339.000000;0.288787
4338.000000;0.289355
4337.000000;0.293269
4336.000000;0.298762
4335.000000;0.301397
4334.000000;0.298101
4333.000000;0.290551
4332.000000;0.283285
4331.000000;0.279311
4330.000000;0.278358
4329.000000;0.278379
4328.000000;0.278019
4327.000000;0.277935
4326.000000;0.279867
4325.000000;0.283916
4324.000000;0.286736
4323.000000;0.283486
4322.000000;0.273035
4321.000000;0.260625
4320.000000;0.253488
4319.000000;0.253959
4318.000000;0.257434
4317.000000;0.257711
4316.000000;0.254580
4315.000000;0.253897
4314.000000;0.259382
4313.000000;0.266297
4312.000000;0.265352
4311.000000;0.253712
4310.000000;0.238245
4309.000000;0.228122
4308.000000;0.228548
4307.000000;0.238998
4306.000000;0.254045
4305.000000;0.266020
4304.000000;0.268817
4303.000000;0.262006
4302.000000;0.250954
4301.000000;0.241978
4300.000000;0.237818
4299.000000;0.237505
4298.000000;0.239122
4297.000000;0.241598
4296.000000;0.244974
4295.000000;0.249642
4294.000000;0.254832
4293.000000;0.258364
4292.000000;0.258581
4291.000000;0.256715
4290.000000;0.255934
4289.000000;0.257016
4288.000000;0.257492
4287.000000;0.255624
4286.000000;0.252833
4285.000000;0.251345
4284.000000;0.251763
4283.000000;0.254493
4282.000000;0.259945
4281.000000;0.265137
4280.000000;0.265215
4279.000000;0.261029
4278.000000;0.260351
4277.000000;0.268898
4276.000000;0.282894
4275.000000;0.292246
4274.000000;0.290909
4273.000000;0.282617
4272.000000;0.275876
4271.000000;0.276895
4270.000000;0.287906
4269.000000;0.305229
4268.000000;0.317061
4267.000000;0.312460
4266.000000;0.297429
4265.000000;0.291057
4264.000000;0.304502
4263.000000;0.331955
4262.000000;0.358673
4261.000000;0.373143
4260.000000;0.373760
4259.000000;0.369348
4258.000000;0.370716
4257.000000;0.381451
4256.000000;0.397937
4255.000000;0.416125
4254.000000;0.435255
4253.000000;0.453153
4252.000000;0.462822
4251.000000;0.459487
4250.000000;0.448840
4249.000000;0.445132
4248.000000;0.460038
4247.000000;0.490826
4246.000000;0.518810
4245.000000;0.528255
4244.000000;0.526257
4243.000000;0.526380
4242.000000;0.527374
4241.000000;0.519858
4240.000000;0.506488
4239.000000;0.504581
4238.000000;0.526843
4237.000000;0.565423
4236.000000;0.594635
4235.000000;0.597583
4234.000000;0.588136
4233.000000;0.590715
4232.000000;0.612864
4231.000000;0.643225
4230.000000;0.663126
4229.000000;0.659579
4228.000000;0.638367
4227.000000;0.621828
4226.000000;0.629703
4225.000000;0.665092
4224.000000;0.710356
4223.000000;0.736992
4222.000000;0.735963
4221.000000;0.728694
4220.000000;0.735741
4219.000000;0.761528
4218.000000;0.795896
4217.000000;0.812365
4216.000000;0.794125
4215.000000;0.763841
4214.000000;0.755509
4213.000000;0.783707
4212.000000;0.840641
4211.000000;0.904836
4210.000000;0.957424
4209.000000;0.991836
4208.000000;0.988498
4207.000000;0.930175
4206.000000;0.862196
4205.000000;0.840560
4204.000000;0.882615
4203.000000;0.962851
4202.000000;1.017198
4201.000000;1.007212
4200.000000;0.940537
4199.000000;0.875713
4198.000000;0.870896
4197.000000;0.931422
4196.000000;1.003121
4195.000000;1.000955
4194.000000;0.931374
4193.000000;0.870309
4192.000000;0.851296
4191.000000;0.868049
4190.000000;0.903229
4189.000000;0.947435
4188.000000;0.998446
4187.000000;1.048708
4186.000000;1.086292
4185.000000;1.101122
4184.000000;1.088569
4183.000000;1.063766
4182.000000;1.058537
4181.000000;1.087086
4180.000000;1.127875
4179.000000;1.158515
4178.000000;1.207182
4177.000000;1.297299
4176.000000;1.407078
4175.000000;1.393050
4174.000000;1.259274
4173.000000;1.200661
4172.000000;1.200537
4171.000000;1.149101
4170.000000;1.116397
4169.000000;1.189411
4168.000000;1.399856
4167.000000;1.795629
4166.000000;1.918181
4165.000000;1.679848
4164.000000;1.642821
4163.000000;1.523099
4162.000000;1.322012
4161.000000;1.226393
4160.000000;1.235575
4159.000000;1.293071
4158.000000;1.345056
4157.000000;1.405704
4156.000000;1.468009
4155.000000;1.422732
4154.000000;1.282911
4153.000000;1.181088
4152.000000;1.168675
4151.000000;1.214876
4150.000000;1.200455
4149.000000;1.122494
4148.000000;1.082753
4147.000000;1.139809
4146.000000;1.335886
4145.000000;1.706161
4144.000000;1.555990
4143.000000;1.340161
4142.000000;1.197841
4141.000000;1.119461
4140.000000;1.125990
4139.000000;1.234571
4138.000000;1.488804
4137.000000;1.931572
4136.000000;1.846761
4135.000000;1.537059
4134.000000;1.360420
4133.000000;1.269280
4132.000000;1.251085
4131.000000;1.266414
4130.000000;1.288426
4129.000000;1.312567
4128.000000;1.310834
4127.000000;1.297065
4126.000000;1.343079
4125.000000;1.469185
4124.000000;1.551528
4123.000000;1.494454
4122.000000;1.459645
4121.000000;1.484312
4120.000000;1.432634
4119.000000;1.376296
4118.000000;1.456024
4117.000000;1.727663
4116.000000;1.756549
4115.000000;1.667139
4114.000000;1.892707
4113.000000;1.800037
4112.000000;1.663673
4111.000000;1.953072
4110.000000;1.456751
4109.000000;1.224949
4108.000000;1.260531
4107.000000;1.407882
4106.000000;1.425602
4105.000000;1.461449
4104.000000;1.921604
4103.000000;1.723082
4102.000000;1.348812
4101.000000;1.364644
4100.000000;1.335842
4099.000000;1.179703
4098.000000;1.096595
4097.000000;1.169503
4096.000000;1.416796
4095.000000;1.924416
4094.000000;2.010198
4093.000000;2.217253
4092.000000;1.746800
4091.000000;1.513328
4090.000000;1.463817
4089.000000;1.435114
4088.000000;1.478191
4087.000000;1.610824
4086.000000;1.676685
4085.000000;1.968262
4084.000000;1.965241
4083.000000;1.478459
4082.000000;1.416246
4081.000000;1.493274
4080.000000;1.567897
4079.000000;1.481610
4078.000000;1.369691
4077.000000;1.312677
4076.000000;1.362728
4075.000000;1.507434
4074.000000;1.587899
4073.000000;1.523927
4072.000000;1.497536
4071.000000;1.546798
4070.000000;1.579264
4069.000000;1.555976
4068.000000;1.501811
4067.000000;1.491515
4066.000000;1.591367
4065.000000;1.748597
4064.000000;1.752458
4063.000000;1.634656
4062.000000;1.566869
4061.000000;1.594279
4060.000000;1.664222
4059.000000;1.706679
4058.000000;1.720257
4057.000000;1.609898
4056.000000;1.481715
4055.000000;1.457402
4054.000000;1.673310
4053.000000;1.988592
4052.000000;1.596687
4051.000000;1.654197
4050.000000;1.719090
4049.000000;1.312888
4048.000000;1.146248
4047.000000;1.193764
4046.000000;1.461878
4045.000000;2.004201
4044.000000;1.883589
4043.000000;1.613722
4042.000000;1.409875
4041.000000;1.258161
4040.000000;1.184966
4039.000000;1.180617
4038.000000;1.273745
4037.000000;1.487634
4036.000000;1.748543
4035.000000;2.107671
4034.000000;1.508612
4033.000000;1.278226
4032.000000;1.267409
4031.000000;1.432447
4030.000000;1.726497
4029.000000;1.917472
4028.000000;2.267118
4027.000000;2.232778
4026.000000;1.682415
4025.000000;1.572477
4024.000000;1.681421
4023.000000;1.938557
4022.000000;1.849199
4021.000000;1.956506
4020.000000;1.674481
4019.000000;1.345541
4018.000000;1.297624
4017.000000;1.448555
4016.000000;1.774947
4015.000000;1.806265
4014.000000;1.523349
4013.000000;1.390810
4012.000000;1.448204
4011.000000;1.656739
4010.000000;1.861836
4009.000000;1.588691
4008.000000;1.300789
4007.000000;1.179789
4006.000000;1.201372
4005.000000;1.347774
4004.000000;1.576221
4003.000000;1.770390
4002.000000;1.823129
4001.000000;1.764003
4000.000000;1.719658
3999.000000;1.719496
3998.000000;1.691901
3997.000000;1.666519
3996.000000;1.762874
3995.000000;1.910660
3994.000000;1.647484
3993.000000;1.449344
3992.000000;1.478027
3991.000000;1.699216
3990.000000;1.874373
3989.000000;1.839090
3988.000000;1.980098
3987.000000;2.226389
3986.000000;1.784902
3985.000000;1.639542
3984.000000;1.723775
3983.000000;1.583000
3982.000000;1.396240
3981.000000;1.330179
3980.000000;1.353211
3979.000000;1.476083
3978.000000;1.678523
3977.000000;1.645957
3976.000000;1.532885
3975.000000;1.513349
3974.000000;1.524800
3973.000000;1.608693
3972.000000;1.832982
3971.000000;2.082095
3970.000000;1.961853
3969.000000;1.752962
3968.000000;1.667551
3967.000000;1.565440
3966.000000;1.367575
3965.000000;1.211360
3964.000000;1.170209
3963.000000;1.241624
3962.000000;1.324157
3961.000000;1.366662
3960.000000;1.500303
3959.000000;1.848800
3958.000000;2.138668
3957.000000;2.155890
3956.000000;1.962445
3955.000000;1.686959
3954.000000;1.556912
3953.000000;1.528289
3952.000000;1.505883
3951.000000;1.391675
3950.000000;1.340929
3949.000000;1.519224
3948.000000;1.765725
3947.000000;1.647701
3946.000000;1.845060
3945.000000;1.835660
3944.000000;1.653788
3943.000000;2.048062
3942.000000;2.159315
3941.000000;2.412161
3940.000000;2.060183
3939.000000;1.604740
3938.000000;1.555274
3937.000000;1.418946
3936.000000;1.307852
3935.000000;1.414016
3934.000000;1.768338
3933.000000;1.415852
3932.000000;1.330288
3931.000000;1.675841
3930.000000;1.684333
3929.000000;1.391570
3928.000000;1.368015
3927.000000;1.470375
3926.000000;1.427129
3925.000000;1.369588
3924.000000;1.540794
3923.000000;2.042553
3922.000000;1.737935
3921.000000;1.561470
3920.000000;1.897395
3919.000000;1.807968
3918.000000;1.383249
3917.000000;1.423055
3916.000000;1.760592
3915.000000;2.043289
3914.000000;1.756988
3913.000000;1.787295
3912.000000;2.269630
3911.000000;1.831083
3910.000000;1.537601
3909.000000;1.721908
3908.000000;1.856852
3907.000000;1.586303
3906.000000;1.604528
3905.000000;1.685075
3904.000000;1.603626
3903.000000;1.786886
3902.000000;2.528118
3901.000000;1.911533
3900.000000;1.812632
3899.000000;2.004589
3898.000000;2.260033
3897.000000;2.038922
3896.000000;1.868109
3895.000000;1.827909
3894.000000;1.722623
3893.000000;1.626243
3892.000000;1.612079
3891.000000;1.708381
3890.000000;2.074882
3889.000000;2.040346
3888.000000;1.889802
3887.000000;1.746141
3886.000000;1.469714
3885.000000;1.440387
3884.000000;1.616243
3883.000000;2.260223
3882.000000;2.176443
3881.000000;1.846322
3880.000000;1.904810
3879.000000;2.090925
3878.000000;1.873521
3877.000000;1.668404
3876.000000;1.617696
3875.000000;1.720749
3874.000000;1.945809
3873.000000;1.506152
3872.000000;1.389815
3871.000000;1.467714
3870.000000;1.526638
3869.000000;1.486281
3868.000000;1.449136
3867.000000;1.469746
3866.000000;1.559856
3865.000000;1.725949
3864.000000;1.827687
3863.000000;1.873093
3862.000000;1.899242
3861.000000;1.885819
3860.000000;1.795354
3859.000000;1.736187
3858.000000;1.808623
3857.000000;2.484585
3856.000000;1.595369
3855.000000;1.749470
3854.000000;0.751834
3853.000000;0.762159
3852.000000;0.936486
3851.000000;0.998049
3850.000000;1.170955
3849.000000;1.453165
3848.000000;1.866734
3847.000000;1.845186
3846.000000;2.003749
3845.000000;2.528611
3844.000000;2.230013
3843.000000;1.825718
3842.000000;1.588354
3841.000000;1.501337
3840.000000;1.541327
3839.000000;1.564673
3838.000000;1.691157
3837.000000;1.781429
3836.000000;1.735824
3835.000000;1.782133
3834.000000;1.959563
3833.000000;2.001004
3832.000000;1.898349
3831.000000;2.212922
3830.000000;2.396681
3829.000000;1.993656
3828.000000;1.987025
3827.000000;1.995967
3826.000000;1.741663
3825.000000;1.789485
3824.000000;2.186203
3823.000000;2.152959
3822.000000;2.063299
3821.000000;2.353872
3820.000000;1.632612
3819.000000;1.247176
3818.000000;1.149646
3817.000000;1.323409
3816.000000;1.388450
3815.000000;1.253018
3814.000000;1.339023
3813.000000;1.498203
3812.000000;1.523178
3811.000000;1.566547
3810.000000;1.663498
3809.000000;1.675386
3808.000000;1.641615
3807.000000;1.574814
3806.000000;1.491042
3805.000000;1.463674
3804.000000;1.506128
3803.000000;1.507873
3802.000000;1.389908
3801.000000;1.320752
3800.000000;1.399692
3799.000000;1.565467
3798.000000;1.680197
3797.000000;1.650924
3796.000000;1.522488
3795.000000;1.417369
3794.000000;1.417714
3793.000000;1.557386
3792.000000;1.938003
3791.000000;1.962458
3790.000000;1.530803
3789.000000;1.404432
3788.000000;1.378614
3787.000000;1.378695
3786.000000;1.455073
3785.000000;1.812238
3784.000000;2.268303
3783.000000;2.044205
3782.000000;2.121439
3781.000000;1.986896
3780.000000;1.857198
3779.000000;1.921317
3778.000000;2.199013
3777.000000;2.072800
3776.000000;1.909004
3775.000000;2.050322
3774.000000;2.094827
3773.000000;1.896463
3772.000000;1.790891
3771.000000;1.822763
3770.000000;2.031349
3769.000000;1.978364
3768.000000;1.745517
3767.000000;1.609626
3766.000000;1.464558
3765.000000;1.400348
3764.000000;1.527984
3763.000000;1.868929
3762.000000;2.310874
3761.000000;2.563025
3760.000000;2.012558
3759.000000;1.659462
3758.000000;1.469241
3757.000000;1.324236
3756.000000;1.231990
3755.000000;1.217537
3754.000000;1.186809
3753.000000;1.038507
3752.000000;0.889358
3751.000000;0.831759
3750.000000;0.872308
3749.000000;0.998210
3748.000000;1.158154
3747.000000;1.102144
3746.000000;0.945886
3745.000000;0.861929
3744.000000;0.870636
3743.000000;0.971223
3742.000000;1.119487
3741.000000;1.300710
3740.000000;1.491139
3739.000000;1.366999
3738.000000;1.504859
3737.000000;1.996796
3736.000000;1.572636
3735.000000;1.650171
3734.000000;1.848881
3733.000000;1.707235
3732.000000;1.560386
3731.000000;1.510344
3730.000000;1.662282
3729.000000;1.925451
3728.000000;1.723696
3727.000000;1.453652
3726.000000;1.390202
3725.000000;1.536405
3724.000000;1.784164
3723.000000;1.848747
3722.000000;1.837637
3721.000000;2.001100
3720.000000;1.992956
3719.000000;1.669762
3718.000000;1.496565
3717.000000;1.411563
3716.000000;1.440704
3715.000000;1.669471
3714.000000;1.854537
3713.000000;2.125491
3712.000000;2.326244
3711.000000;1.843946
3710.000000;1.720590
3709.000000;1.703045
3708.000000;1.702340
3707.000000;1.715812
3706.000000;1.828643
3705.000000;2.067338
3704.000000;2.082425
3703.000000;1.790212
3702.000000;1.545562
3701.000000;1.447201
3700.000000;1.575799
3699.000000;1.628598
3698.000000;1.432116
3697.000000;1.400095
3696.000000;1.540255
3695.000000;1.632010
3694.000000;1.566134
3693.000000;1.527363
3692.000000;1.576590
3691.000000;1.718105
3690.000000;1.956085
3689.000000;1.767486
3688.000000;1.360839
3687.000000;1.289102
3686.000000;1.388054
3685.000000;1.511629
3684.000000;1.647822
3683.000000;1.752186
3682.000000;1.748274
3681.000000;1.724135
3680.000000;1.796892
3679.000000;1.918655
3678.000000;1.944800
3677.000000;1.824409
3676.000000;1.677987
3675.000000;1.552329
3674.000000;1.677032
3673.000000;1.636187
3672.000000;1.471768
3671.000000;1.804952
3670.000000;1.730230
3669.000000;1.507255
3668.000000;1.587205
3667.000000;1.547033
3666.000000;1.560798
3665.000000;1.563711
3664.000000;1.534885
3663.000000;1.775362
3662.000000;1.784962
3661.000000;1.490163
3660.000000;1.502747
3659.000000;1.683339
3658.000000;1.548535
3657.000000;1.360736
3656.000000;1.273031
3655.000000;1.392959
3654.000000;1.705052
3653.000000;1.601178
3652.000000;1.420912
3651.000000;1.434643
3650.000000;1.618980
3649.000000;1.894737
3648.000000;1.990774
3647.000000;1.868714
3646.000000;1.675762
3645.000000;1.600626
3644.000000;1.629256
3643.000000;1.730009
3642.000000;1.986358
3641.000000;2.051878
3640.000000;1.711113
3639.000000;1.771274
3638.000000;2.218785
3637.000000;1.807513
3636.000000;1.890540
3635.000000;1.608088
3634.000000;1.278026
3633.000000;1.267719
3632.000000;1.438705
3631.000000;1.383059
3630.000000;1.462554
3629.000000;1.870354
3628.000000;1.296857
3627.000000;1.087191
3626.000000;1.113927
3625.000000;1.291603
3624.000000;1.305006
3623.000000;1.070672
3622.000000;1.009205
3621.000000;1.069295
3620.000000;1.310659
3619.000000;1.811966
3618.000000;1.528388
3617.000000;1.425845
3616.000000;1.410920
3615.000000;1.124104
3614.000000;0.962573
3613.000000;0.908888
3612.000000;0.920035
3611.000000;1.023737
3610.000000;1.256911
3609.000000;1.492579
3608.000000;1.549167
3607.000000;1.501326
3606.000000;1.429078
3605.000000;1.465882
3604.000000;1.559820
3603.000000;1.642518
3602.000000;1.728719
3601.000000;2.008491
3600.000000;2.572009
3599.000000;1.793355
3598.000000;1.510776
3597.000000;1.437316
3596.000000;1.604431
3595.000000;1.946078
3594.000000;1.756903
3593.000000;1.525404
3592.000000;1.255262
3591.000000;1.039120
3590.000000;0.971039
3589.000000;1.061269
3588.000000;1.257531
3587.000000;1.370628
3586.000000;1.362849
3585.000000;1.348551
3584.000000;1.393740
3583.000000;1.468155
3582.000000;1.442526
3581.000000;1.367831
3580.000000;1.381365
3579.000000;1.513521
3578.000000;1.611198
3577.000000;1.512019
3576.000000;1.726829
3575.000000;2.303637
3574.000000;1.509127
3573.000000;1.346851
3572.000000;1.347624
3571.000000;1.333621
3570.000000;1.263764
3569.000000;1.253553
3568.000000;1.402629
3567.000000;1.518073
3566.000000;1.415921
3565.000000;1.326642
3564.000000;1.281047
3563.000000;1.306228
3562.000000;1.542886
3561.000000;1.592798
3560.000000;1.381749
3559.000000;1.379274
3558.000000;1.712560
3557.000000;1.917256
3556.000000;1.832868
3555.000000;1.993129
3554.000000;1.394137
3553.000000;1.188819
3552.000000;1.260155
3551.000000;1.535194
3550.000000;1.545338
3549.000000;1.262648
3548.000000;1.196346
3547.000000;1.153683
3546.000000;1.113784
3545.000000;1.199131
3544.000000;1.572577
3543.000000;2.141862
3542.000000;1.758344
3541.000000;1.741017
3540.000000;1.881134
3539.000000;2.065683
3538.000000;1.974379
3537.000000;1.706827
3536.000000;1.610522
3535.000000;1.612241
3534.000000;1.656906
3533.000000;1.719159
3532.000000;1.633487
3531.000000;1.430931
3530.000000;1.351500
3529.000000;1.416260
3528.000000;1.533859
3527.000000;1.502202
3526.000000;1.363347
3525.000000;1.325875
3524.000000;1.395930
3523.000000;1.547570
3522.000000;1.823169
3521.000000;1.658015
3520.000000;1.342933
3519.000000;1.255345
3518.000000;1.385701
3517.000000;1.673619
3516.000000;1.559451
3515.000000;1.406067
3514.000000;1.673705
3513.000000;2.009941
3512.000000;1.497285
3511.000000;1.358841
3510.000000;1.414877
3509.000000;1.444069
3508.000000;1.349032
3507.000000;1.174164
3506.000000;1.085811
3505.000000;1.113279
3504.000000;1.385939
3503.000000;2.052136
3502.000000;2.007766
3501.000000;2.232088
3500.000000;1.710347
3499.000000;1.445813
3498.000000;1.448838
3497.000000;1.408917
3496.000000;1.291891
3495.000000;1.334315
3494.000000;1.713840
3493.000000;1.557633
3492.000000;1.252443
3491.000000;1.265262
3490.000000;1.450853
3489.000000;1.602590
3488.000000;1.638801
3487.000000;1.579636
3486.000000;1.356604
3485.000000;1.297035
3484.000000;1.605379
3483.000000;1.532598
3482.000000;1.246931
3481.000000;1.322021
3480.000000;1.337650
3479.000000;1.213635
3478.000000;1.280000
3477.000000;1.462245
3476.000000;1.357198
3475.000000;1.245528
3474.000000;1.332332
3473.000000;1.514015
3472.000000;1.509970
3471.000000;1.417780
3470.000000;1.426790
3469.000000;1.497434
3468.000000;1.693253
3467.000000;1.786907
3466.000000;2.001033
3465.000000;2.153855
3464.000000;1.504374
3463.000000;1.387266
3462.000000;1.513399
3461.000000;1.476749
3460.000000;1.320737
3459.000000;1.391378
3458.000000;1.537118
3457.000000;1.389703
3456.000000;1.310823
3455.000000;1.375525
3454.000000;1.504747
3453.000000;1.469256
3452.000000;1.367069
3451.000000;1.486439
3450.000000;1.484836
3449.000000;1.217783
3448.000000;1.186692
3447.000000;1.484620
3446.000000;1.653009
3445.000000;1.539794
3444.000000;1.878457
3443.000000;1.968731
3442.000000;1.666290
3441.000000;1.727243
3440.000000;1.853871
3439.000000;2.191338
3438.000000;2.087097
3437.000000;1.597296
3436.000000;1.486389
3435.000000;1.497223
3434.000000;1.497483
3433.000000;1.636943
3432.000000;1.921365
3431.000000;1.780483
3430.000000;1.785242
3429.000000;1.763275
3428.000000;1.457471
3427.000000;1.344671
3426.000000;1.365997
3425.000000;1.485074
3424.000000;1.626146
3423.000000;1.633348
3422.000000;1.662900
3421.000000;1.784562
3420.000000;1.772053
3419.000000;1.947078
3418.000000;2.330184
3417.000000;1.687632
3416.000000;1.569662
3415.000000;1.549019
3414.000000;1.256812
3413.000000;1.112489
3412.000000;1.153603
3411.000000;1.369950
3410.000000;1.719137
3409.000000;1.782828
3408.000000;1.683822
3407.000000;1.693505
3406.000000;1.613832
3405.000000;1.436481
3404.000000;1.272668
3403.000000;1.182068
3402.000000;1.168243
3401.000000;1.282168
3400.000000;1.616041
3399.000000;1.620894
3398.000000;1.539006
3397.000000;1.601212
3396.000000;1.405764
3395.000000;1.346830
3394.000000;1.479337
3393.000000;1.672649
3392.000000;1.642857
3391.000000;1.441345
3390.000000;1.429780
3389.000000;1.572570
3388.000000;1.703842
3387.000000;1.869068
3386.000000;1.694973
3385.000000;1.480440
3384.000000;1.531631
3383.000000;1.664252
3382.000000;1.642839
3381.000000;1.523557
3380.000000;1.406108
3379.000000;1.422558
3378.000000;1.695795
3377.000000;2.176812
3376.000000;2.150688
3375.000000;1.829880
3374.000000;1.732614
3373.000000;1.765409
3372.000000;1.665173
3371.000000;1.608868
3370.000000;1.743231
3369.000000;2.074069
3368.000000;2.507787
3367.000000;2.196910
3366.000000;1.671978
3365.000000;1.475535
3364.000000;1.357187
3363.000000;1.210381
3362.000000;1.174181
3361.000000;1.295671
3360.000000;1.634213
3359.000000;2.343391
3358.000000;2.063422
3357.000000;1.569037
3356.000000;1.356986
3355.000000;1.335802
3354.000000;1.468030
3353.000000;1.661701
3352.000000;1.968421
3351.000000;2.015394
3350.000000;1.550882
3349.000000;1.294353
3348.000000;1.187415
3347.000000;1.214182
3346.000000;1.291245
3345.000000;1.280649
3344.000000;1.286985
3343.000000;1.466740
3342.000000;1.747232
3341.000000;1.910485
3340.000000;1.936282
3339.000000;1.476395
3338.000000;1.234033
3337.000000;1.215606
3336.000000;1.216328
3335.000000;1.155862
3334.000000;1.189719
3333.000000;1.454945
3332.000000;1.875387
3331.000000;1.721284
3330.000000;1.451561
3329.000000;1.324339
3328.000000;1.347970
3327.000000;1.465369
3326.000000;1.500755
3325.000000;1.531751
3324.000000;1.696186
3323.000000;1.703106
3322.000000;1.542964
3321.000000;1.414765
3320.000000;1.245255
3319.000000;1.160588
3318.000000;1.191056
3317.000000;1.280734
3316.000000;1.431738
3315.000000;1.425708
3314.000000;1.365381
3313.000000;1.471592
3312.000000;1.337649
3311.000000;1.177525
3310.000000;1.241161
3309.000000;1.557987
3308.000000;2.140486
3307.000000;1.936050
3306.000000;1.662087
3305.000000;1.688804
3304.000000;1.789941
3303.000000;1.518996
3302.000000;1.514999
3301.000000;1.886047
3300.000000;1.419482
3299.000000;1.112401
3298.000000;1.070521
3297.000000;1.158734
3296.000000;1.253177
3295.000000;1.335978
3294.000000;1.848746
3293.000000;1.910310
3292.000000;1.555860
3291.000000;1.484154
3290.000000;1.289841
3289.000000;1.228222
3288.000000;1.438837
3287.000000;1.883385
3286.000000;1.525312
3285.000000;1.430884
3284.000000;1.662991
3283.000000;1.831555
3282.000000;1.735172
3281.000000;1.637415
3280.000000;1.625716
3279.000000;1.469181
3278.000000;1.326492
3277.000000;1.257104
3276.000000;1.279055
3275.000000;1.420762
3274.000000;1.603622
3273.000000;1.938072
3272.000000;2.287726
3271.000000;1.722363
3270.000000;1.448936
3269.000000;1.317092
3268.000000;1.292585
3267.000000;1.347270
3266.000000;1.308703
3265.000000;1.240476
3264.000000;1.293627
3263.000000;1.449890
3262.000000;1.539745
3261.000000;1.527758
3260.000000;1.488762
3259.000000;1.438919
3258.000000;1.400906
3257.000000;1.361736
3256.000000;1.341295
3255.000000;1.383456
3254.000000;1.537852
3253.000000;1.805002
3252.000000;1.851749
3251.000000;1.788249
3250.000000;2.073113
3249.000000;1.979749
3248.000000;1.580394
3247.000000;1.559827
3246.000000;1.806354
3245.000000;1.904807
3244.000000;1.710468
3243.000000;1.676180
3242.000000;1.751640
3241.000000;1.845835
3240.000000;1.669324
3239.000000;1.347984
3238.000000;1.163746
3237.000000;1.171409
3236.000000;1.418672
3235.000000;1.936430
3234.000000;2.311519
3233.000000;1.611438
3232.000000;1.264102
3231.000000;1.178993
3230.000000;1.229468
3229.000000;1.338976
3228.000000;1.430197
3227.000000;1.454751
3226.000000;1.432928
3225.000000;1.449902
3224.000000;1.529895
3223.000000;1.576993
3222.000000;1.613109
3221.000000;1.882929
3220.000000;2.199900
3219.000000;1.910698
3218.000000;1.895481
3217.000000;1.776187
3216.000000;1.546009
3215.000000;1.573937
3214.000000;2.001400
3213.000000;1.628812
3212.000000;1.486233
3211.000000;1.950057
3210.000000;1.494632
3209.000000;1.205943
3208.000000;1.289608
3207.000000;1.810260
3206.000000;1.674659
3205.000000;1.593604
3204.000000;2.237157
3203.000000;1.547183
3202.000000;1.366304
3201.000000;1.627786
3200.000000;2.229726
3199.000000;1.893500
3198.000000;1.575786
3197.000000;1.268248
3196.000000;1.126421
3195.000000;1.184600
3194.000000;1.401356
3193.000000;1.608361
3192.000000;1.625661
3191.000000;1.555805
3190.000000;1.340240
3189.000000;1.249375
3188.000000;1.323288
3187.000000;1.787477
3186.000000;1.930623
3185.000000;1.496504
3184.000000;1.508338
3183.000000;1.481207
3182.000000;1.333401
3181.000000;1.268261
3180.000000;1.306478
3179.000000;1.461191
3178.000000;1.792502
3177.000000;2.391788
3176.000000;2.197682
3175.000000;1.624930
3174.000000;1.401164
3173.000000;1.576230
3172.000000;1.612409
3171.000000;1.495468
3170.000000;1.827286
3169.000000;1.473818
3168.000000;1.209027
3167.000000;1.293182
3166.000000;1.768799
3165.000000;1.930877
3164.000000;1.449565
3163.000000;1.478471
3162.000000;1.763907
3161.000000;2.131148
3160.000000;1.951078
3159.000000;1.809944
3158.000000;1.618132
3157.000000;1.417456
3156.000000;1.385782
3155.000000;1.373864
3154.000000;1.280386
3153.000000;1.254123
3152.000000;1.407257
3151.000000;1.561017
3150.000000;1.810919
3149.000000;1.956481
3148.000000;1.499679
3147.000000;1.393690
3146.000000;1.382737
3145.000000;1.312532
3144.000000;1.280924
3143.000000;1.354001
3142.000000;1.452991
3141.000000;1.334908
3140.000000;1.220502
3139.000000;1.214485
3138.000000;1.281835
3137.000000;1.371823
3136.000000;1.502250
3135.000000;1.638548
3134.000000;1.469745
3133.000000;1.350027
3132.000000;1.450257
3131.000000;1.386105
3130.000000;1.199248
3129.000000;1.185572
3128.000000;1.424401
3127.000000;1.744577
3126.000000;1.569395
3125.000000;1.757119
3124.000000;1.934297
3123.000000;1.443390
3122.000000;1.331592
3121.000000;1.378591
3120.000000;1.458549
3119.000000;1.474006
3118.000000;1.379286
3117.000000;1.315786
3116.000000;1.499574
3115.000000;1.932219
3114.000000;1.634285
3113.000000;1.365408
3112.000000;1.220676
3111.000000;1.182585
3110.000000;1.422221
3109.000000;1.754048
3108.000000;1.420161
3107.000000;1.222018
3106.000000;1.246025
3105.000000;1.460039
3104.000000;1.507151
3103.000000;1.273356
3102.000000;1.263607
3101.000000;1.560235
3100.000000;1.553249
3099.000000;1.236179
3098.000000;1.093402
3097.000000;1.066488
3096.000000;1.155358
3095.000000;1.518367
3094.000000;2.321672
3093.000000;1.913957
3092.000000;1.601544
3091.000000;1.246735
3090.000000;1.100236
3089.000000;1.126045
3088.000000;1.238977
3087.000000;1.371640
3086.000000;1.588830
3085.000000;1.823970
3084.000000;1.485820
3083.000000;1.370457
3082.000000;1.383365
3081.000000;1.344376
3080.000000;1.291635
3079.000000;1.372673
3078.000000;1.653099
3077.000000;1.467397
3076.000000;1.236063
3075.000000;1.226145
3074.000000;1.266734
3073.000000;1.217019
3072.000000;1.139418
3071.000000;1.108090
3070.000000;1.116605
3069.000000;1.128790
3068.000000;1.279162
3067.000000;1.800765
3066.000000;1.576598
3065.000000;1.207670
3064.000000;1.073267
3063.000000;1.029052
3062.000000;1.090144
3061.000000;1.269053
3060.000000;1.594363
3059.000000;1.672161
3058.000000;1.518748
3057.000000;1.455645
3056.000000;1.305950
3055.000000;1.149583
3054.000000;1.066132
3053.000000;1.043382
3052.000000;1.080482
3051.000000;1.321824
3050.000000;1.711159
3049.000000;1.378733
3048.000000;1.218990
3047.000000;1.295694
3046.000000;1.492813
3045.000000;1.921985
3044.000000;2.184041
3043.000000;1.660166
3042.000000;1.305350
3041.000000;1.126531
3040.000000;1.083706
3039.000000;1.124632
3038.000000;1.207839
3037.000000;1.336992
3036.000000;1.327604
3035.000000;1.201175
3034.000000;1.223043
3033.000000;1.450513
3032.000000;1.512206
3031.000000;1.315378
3030.000000;1.317582
3029.000000;1.377025
3028.000000;1.325616
3027.000000;1.315678
3026.000000;1.389600
3025.000000;1.569583
3024.000000;1.823170
3023.000000;1.736423
3022.000000;1.656101
3021.000000;1.751143
3020.000000;1.778256
3019.000000;1.780993
3018.000000;1.675636
3017.000000;1.397837
3016.000000;1.313815
3015.000000;1.398300
3014.000000;1.418067
3013.000000;1.511605
3012.000000;1.340837
3011.000000;1.053088
3010.000000;1.004014
3009.000000;1.119343
3008.000000;1.396369
3007.000000;1.843008
3006.000000;1.616494
3005.000000;1.338850
3004.000000;1.266171
3003.000000;1.294219
3002.000000;1.411300
3001.000000;1.600142
3000.000000;1.677703
2999.000000;1.626638
2998.000000;1.612844
2997.000000;1.648402
2996.000000;1.915014
2995.000000;2.153363
2994.000000;1.693743
2993.000000;1.403177
2992.000000;1.279053
2991.000000;1.320281
2990.000000;1.362283
2989.000000;1.184001
2988.000000;1.052828
2987.000000;1.064319
2986.000000;1.221152
2985.000000;1.664402
2984.000000;1.970778
2983.000000;1.581423
2982.000000;1.678800
2981.000000;1.826764
2980.000000;1.682169
2979.000000;1.743971
2978.000000;1.823306
2977.000000;1.881758
2976.000000;1.733736
2975.000000;1.523944
2974.000000;1.486944
2973.000000;1.671651
2972.000000;2.037932
2971.000000;1.753142
2970.000000;1.371955
2969.000000;1.223341
2968.000000;1.176377
2967.000000;1.305142
2966.000000;1.894021
2965.000000;1.897261
2964.000000;1.864935
2963.000000;1.790537
2962.000000;1.282513
2961.000000;1.137712
2960.000000;1.171785
2959.000000;1.290485
2958.000000;1.387413
2957.000000;1.379554
2956.000000;1.348208
2955.000000;1.316870
2954.000000;1.278237
2953.000000;1.251189
2952.000000;1.272535
2951.000000;1.318066
2950.000000;1.332596
2949.000000;1.523101
2948.000000;1.954740
2947.000000;1.683311
2946.000000;1.627613
2945.000000;1.740966
2944.000000;1.553919
2943.000000;1.346216
2942.000000;1.324644
2941.000000;1.602187
2940.000000;1.466329
2939.000000;1.348670
2938.000000;1.461933
2937.000000;1.290916
2936.000000;1.183532
2935.000000;1.411002
2934.000000;1.989172
2933.000000;1.667149
2932.000000;1.585431
2931.000000;1.482252
2930.000000;1.389443
2929.000000;1.462401
2928.000000;1.410425
2927.000000;1.568336
2926.000000;1.882829
2925.000000;1.421003
2924.000000;1.272252
2923.000000;1.327199
2922.000000;1.361748
2921.000000;1.464637
2920.000000;1.508754
2919.000000;1.403763
2918.000000;1.329499
2917.000000;1.173979
2916.000000;1.064021
2915.000000;1.088703
2914.000000;1.144334
2913.000000;1.221348
2912.000000;1.430178
2911.000000;1.604537
2910.000000;1.544552
2909.000000;1.359947
2908.000000;1.344536
2907.000000;1.679456
2906.000000;1.419621
2905.000000;1.113799
2904.000000;1.116056
2903.000000;1.229931
2902.000000;1.187548
2901.000000;1.156998
2900.000000;1.234733
2899.000000;1.257626
2898.000000;1.355630
2897.000000;1.421031
2896.000000;1.266769
2895.000000;1.226848
2894.000000;1.348687
2893.000000;1.608688
2892.000000;1.687394
2891.000000;1.529411
2890.000000;1.424176
2889.000000;1.353988
2888.000000;1.313589
2887.000000;1.328664
2886.000000;1.572857
2885.000000;1.577250
2884.000000;1.361863
2883.000000;1.481993
2882.000000;1.558392
2881.000000;1.435448
2880.000000;1.676258
2879.000000;2.058627
2878.000000;1.611794
2877.000000;1.419841
2876.000000;1.309303
2875.000000;1.297089
2874.000000;1.369562
2873.000000;1.673273
2872.000000;2.050003
2871.000000;1.578598
2870.000000;1.489143
2869.000000;1.482058
2868.000000;1.623678
2867.000000;1.790058
2866.000000;2.017312
2865.000000;2.043377
2864.000000;1.638712
2863.000000;1.775002
2862.000000;1.487646
2861.000000;1.207452
2860.000000;1.321800
2859.000000;1.839461
2858.000000;1.692265
2857.000000;1.486117
2856.000000;1.374517
2855.000000;1.262870
2854.000000;1.333397
2853.000000;1.294967
2852.000000;1.164686
2851.000000;1.306756
2850.000000;1.871698
2849.000000;1.804773
2848.000000;1.922547
2847.000000;2.068362
2846.000000;1.535485
2845.000000;1.399893
2844.000000;1.305589
2843.000000;1.676701
2842.000000;2.063126
2841.000000;1.308726
2840.000000;1.620496
2839.000000;1.667733
2838.000000;1.174489
2837.000000;1.235459
2836.000000;1.590332
2835.000000;1.433996
2834.000000;1.291424
2833.000000;1.621920
2832.000000;1.247960
2831.000000;0.968539
2830.000000;0.939664
2829.000000;1.107746
2828.000000;1.723169
2827.000000;1.268580
2826.000000;1.008885
2825.000000;1.047892
2824.000000;1.322398
2823.000000;1.953002
2822.000000;1.837419
2821.000000;2.056451
2820.000000;1.624249
2819.000000;1.250345
2818.000000;1.148275
2817.000000;1.186492
2816.000000;1.461731
2815.000000;1.782119
2814.000000;1.515446
2813.000000;1.472507
2812.000000;1.742795
2811.000000;1.810979
2810.000000;1.735880
2809.000000;1.734620
2808.000000;1.503534
2807.000000;1.452650
2806.000000;1.459314
2805.000000;1.322290
2804.000000;1.264791
2803.000000;1.363176
2802.000000;1.573210
2801.000000;1.521329
2800.000000;1.415142
2799.000000;1.685431
2798.000000;1.819321
2797.000000;1.393541
2796.000000;1.378724
2795.000000;1.515032
2794.000000;1.501889
2793.000000;1.430600
2792.000000;1.411558
2791.000000;1.441454
2790.000000;1.436043
2789.000000;1.325051
2788.000000;1.282264
2787.000000;1.644299
2786.000000;1.634796
2785.000000;1.217153
2784.000000;1.262719
2783.000000;1.608914
2782.000000;1.673225
2781.000000;1.607566
2780.000000;1.632111
2779.000000;1.355304
2778.000000;1.215751
2777.000000;1.212463
2776.000000;1.240618
2775.000000;1.280065
2774.000000;1.311735
2773.000000;1.297503
2772.000000;1.223849
2771.000000;1.203264
2770.000000;1.298343
2769.000000;1.470187
2768.000000;1.523413
2767.000000;1.494760
2766.000000;1.508044
2765.000000;1.546149
2764.000000;1.600390
2763.000000;1.454468
2762.000000;1.237038
2761.000000;1.200966
2760.000000;1.340634
2759.000000;1.410950
2758.000000;1.327279
2757.000000;1.457955
2756.000000;1.932318
2755.000000;1.586993
2754.000000;1.322059
2753.000000;1.277703
2752.000000;1.192486
2751.000000;1.112318
2750.000000;1.072263
2749.000000;1.060160
2748.000000;1.107519
2747.000000;1.255707
2746.000000;1.545080
2745.000000;2.082099
2744.000000;1.633485
2743.000000;1.267182
2742.000000;1.248780
2741.000000;1.446171
2740.000000;1.433728
2739.000000;1.276468
2738.000000;1.235522
2737.000000;1.312323
2736.000000;1.614383
2735.000000;1.660909
2734.000000;1.371864
2733.000000;1.239334
2732.000000;1.208291
2731.000000;1.285175
2730.000000;1.430468
2729.000000;1.575768
2728.000000;1.413882
2727.000000;1.187318
2726.000000;1.111086
2725.000000;1.151157
2724.000000;1.199508
2723.000000;1.192915
2722.000000;1.351930
2721.000000;1.389869
2720.000000;1.098235
2719.000000;1.008726
2718.000000;1.204697
2717.000000;1.675386
2716.000000;1.482855
2715.000000;1.471071
2714.000000;1.319793
2713.000000;1.139361
2712.000000;1.179742
2711.000000;1.398461
2710.000000;1.969939
2709.000000;2.224594
2708.000000;1.712157
2707.000000;1.640631
2706.000000;1.802147
2705.000000;1.924585
2704.000000;1.852672
2703.000000;2.025975
2702.000000;1.867559
2701.000000;1.620109
2700.000000;1.503908
2699.000000;1.412809
2698.000000;1.423203
2697.000000;1.367802
2696.000000;1.190462
2695.000000;1.114845
2694.000000;1.218492
2693.000000;1.406669
2692.000000;1.425156
2691.000000;1.530705
2690.000000;1.678889
2689.000000;1.565166
2688.000000;1.684504
2687.000000;2.210695
2686.000000;1.818727
2685.000000;1.730425
2684.000000;1.825132
2683.000000;1.382022
2682.000000;1.159857
2681.000000;1.161979
2680.000000;1.322374
2679.000000;1.572243
2678.000000;1.884173
2677.000000;2.205738
2676.000000;1.924211
2675.000000;1.538885
2674.000000;1.383537
2673.000000;1.620964
2672.000000;1.842189
2671.000000;1.443357
2670.000000;1.487240
2669.000000;1.892309
2668.000000;1.394961
2667.000000;1.331454
2666.000000;1.797404
2665.000000;1.388582
2664.000000;1.252375
2663.000000;1.509771
2662.000000;1.326334
2661.000000;1.010598
2660.000000;0.933883
2659.000000;1.032333
2658.000000;1.304833
2657.000000;1.603398
2656.000000;1.742743
2655.000000;1.656859
2654.000000;1.359058
2653.000000;1.438995
2652.000000;1.819571
2651.000000;1.524441
2650.000000;1.365797
2649.000000;1.495469
2648.000000;1.566361
2647.000000;1.531156
2646.000000;1.474936
2645.000000;1.497441
2644.000000;1.689876
2643.000000;1.461453
2642.000000;1.383223
2641.000000;1.828880
2640.000000;1.507485
2639.000000;1.299184
2638.000000;1.445608
2637.000000;1.621062
2636.000000;1.421789
2635.000000;1.308588
2634.000000;1.443156
2633.000000;1.674496
2632.000000;1.324858
2631.000000;1.098811
2630.000000;1.003945
2629.000000;1.048578
2628.000000;1.360996
2627.000000;1.751771
2626.000000;1.459795
2625.000000;1.358074
2624.000000;1.850412
2623.000000;1.701311
2622.000000;1.150144
2621.000000;1.075356
2620.000000;1.223903
2619.000000;1.586252
2618.000000;1.395351
2617.000000;1.249364
2616.000000;1.321706
2615.000000;1.349312
2614.000000;1.136933
2613.000000;0.951941
2612.000000;0.912502
2611.000000;1.015481
2610.000000;1.296444
2609.000000;1.388456
2608.000000;1.105469
2607.000000;1.232268
2606.000000;1.794157
2605.000000;1.082381
2604.000000;0.946493
2603.000000;1.028797
2602.000000;1.176624
2601.000000;1.260660
2600.000000;1.314239
2599.000000;1.355610
2598.000000;1.314078
2597.000000;1.211056
2596.000000;1.208385
2595.000000;1.717380
2594.000000;1.335572
2593.000000;0.957307
2592.000000;0.969458
2591.000000;1.271249
2590.000000;1.565878
2589.000000;1.286186
2588.000000;1.362890
2587.000000;1.689542
2586.000000;1.364429
2585.000000;1.234980
2584.000000;1.316229
2583.000000;1.352346
2582.000000;1.232659
2581.000000;1.115992
2580.000000;1.031904
2579.000000;1.014770
2578.000000;1.104675
2577.000000;1.285913
2576.000000;1.436244
2575.000000;1.704379
2574.000000;1.584849
2573.000000;1.128628
2572.000000;0.984646
2571.000000;1.009792
2570.000000;1.162486
2569.000000;1.207643
2568.000000;1.196197
2567.000000;1.427200
2566.000000;1.567537
2565.000000;1.435655
2564.000000;1.339780
2563.000000;1.170964
2562.000000;1.033377
2561.000000;0.979676
2560.000000;1.013099
2559.000000;1.143894
2558.000000;1.364926
2557.000000;1.549023
2556.000000;1.364285
2555.000000;1.094220
2554.000000;0.982919
2553.000000;1.038660
2552.000000;1.279695
2551.000000;1.659326
2550.000000;1.584846
2549.000000;1.318814
2548.000000;1.187012
2547.000000;1.199578
2546.000000;1.143437
2545.000000;0.985311
2544.000000;0.944019
2543.000000;1.076681
2542.000000;1.485195
2541.000000;1.403888
2540.000000;1.130369
2539.000000;1.094261
2538.000000;1.046726
2537.000000;0.997547
2536.000000;1.020912
2535.000000;1.110582
2534.000000;1.198113
2533.000000;1.331030
2532.000000;1.605298
2531.000000;2.302789
2530.000000;1.639341
2529.000000;1.303568
2528.000000;1.329420
2527.000000;1.373020
2526.000000;1.089727
2525.000000;1.051015
2524.000000;1.265971
2523.000000;1.187748
2522.000000;0.958995
2521.000000;0.947289
2520.000000;1.056769
2519.000000;1.240055
2518.000000;1.547948
2517.000000;1.630884
2516.000000;1.408613
2515.000000;1.315367
2514.000000;1.214211
2513.000000;1.147128
2512.000000;1.105238
2511.000000;1.085601
2510.000000;1.163986
2509.000000;1.492915
2508.000000;1.653942
2507.000000;1.444749
2506.000000;1.273263
2505.000000;1.185886
2504.000000;1.311351
2503.000000;1.450961
2502.000000;1.242479
2501.000000;1.252429
2500.000000;1.508921
2499.000000;1.357921
2498.000000;1.170433
2497.000000;1.203322
2496.000000;1.380799
2495.000000;1.307395
2494.000000;1.156615
2493.000000;1.165477
2492.000000;1.100320
2491.000000;1.050698
2490.000000;1.191899
2489.000000;1.587645
2488.000000;1.698085
2487.000000;1.356523
2486.000000;1.240788
2485.000000;1.356780
2484.000000;1.677953
2483.000000;1.423095
2482.000000;1.200669
2481.000000;1.197445
2480.000000;1.466932
2479.000000;1.275338
2478.000000;1.077519
2477.000000;1.252509
2476.000000;1.614083
2475.000000;1.261195
2474.000000;1.222066
2473.000000;1.397777
2472.000000;1.848912
2471.000000;1.705438
2470.000000;1.497980
2469.000000;1.560911
2468.000000;1.927739
2467.000000;1.853629
2466.000000;1.406617
2465.000000;1.386514
2464.000000;1.496652
2463.000000;1.587976
2462.000000;1.477264
2461.000000;1.307209
2460.000000;1.188197
2459.000000;1.131536
2458.000000;1.152304
2457.000000;1.297376
2456.000000;1.452626
2455.000000;1.463767
2454.000000;1.315334
2453.000000;1.102884
2452.000000;1.045233
2451.000000;1.175543
2450.000000;1.490281
2449.000000;1.550210
2448.000000;1.299566
2447.000000;1.262276
2446.000000;1.554542
2445.000000;1.398124
2444.000000;1.070292
2443.000000;1.087859
2442.000000;1.313780
2441.000000;1.175427
2440.000000;0.940759
2439.000000;0.904832
2438.000000;0.996744
2437.000000;1.173632
2436.000000;1.241220
2435.000000;1.486197
2434.000000;1.832222
2433.000000;1.389314
2432.000000;1.493687
2431.000000;1.418392
2430.000000;1.087389
2429.000000;1.012740
2428.000000;1.101285
2427.000000;1.289258
2426.000000;1.567341
2425.000000;1.754323
2424.000000;1.425791
2423.000000;1.285048
2422.000000;1.333800
2421.000000;1.522809
2420.000000;1.658226
2419.000000;1.408446
2418.000000;1.256375
2417.000000;1.169444
2416.000000;1.104781
2415.000000;1.152009
2414.000000;1.264901
2413.000000;1.303750
2412.000000;1.356076
2411.000000;1.214133
2410.000000;1.063374
2409.000000;1.095611
2408.000000;1.469689
2407.000000;1.317277
2406.000000;0.928360
2405.000000;0.858306
2404.000000;1.027505
2403.000000;1.395588
2402.000000;1.060647
2401.000000;0.937733
2400.000000;1.380741
2399.000000;1.281606
2398.000000;0.929754
2397.000000;0.930996
2396.000000;1.251770
2395.000000;1.555072
2394.000000;1.112827
2393.000000;1.149064
2392.000000;1.623027
2391.000000;1.094501
2390.000000;0.857502
2389.000000;0.865327
2388.000000;1.038259
2387.000000;1.212070
2386.000000;1.216859
2385.000000;1.193519
2384.000000;1.216530
2383.000000;1.394158
2382.000000;1.504211
2381.000000;1.281803
2380.000000;1.192105
2379.000000;1.318672
2378.000000;1.540205
2377.000000;1.485909
2376.000000;1.510824
2375.000000;1.677697
2374.000000;1.559964
2373.000000;1.429501
2372.000000;1.254507
2371.000000;1.170317
2370.000000;1.280153
2369.000000;1.751119
2368.000000;1.674648
2367.000000;1.541508
2366.000000;1.782306
2365.000000;1.524533
2364.000000;1.266200
2363.000000;1.227796
2362.000000;1.388674
2361.000000;1.622278
2360.000000;1.445219
2359.000000;1.475393
2358.000000;1.759681
2357.000000;1.434470
2356.000000;1.185198
2355.000000;1.202641
2354.000000;1.412987
2353.000000;1.811108
2352.000000;1.852202
2351.000000;1.666403
2350.000000;1.525857
2349.000000;1.471884
2348.000000;1.500687
2347.000000;1.638462
2346.000000;1.939687
2345.000000;1.738300
2344.000000;1.566555
2343.000000;1.536745
2342.000000;1.588484
2341.000000;1.648679
2340.000000;1.753130
2339.000000;2.151228
2338.000000;1.619297
2337.000000;1.317088
2336.000000;1.232305
2335.000000;1.298024
2334.000000;1.494998
2333.000000;1.741571
2332.000000;1.798498
2331.000000;1.820859
2330.000000;2.086316
2329.000000;1.750007
2328.000000;1.387423
2327.000000;1.298791
2326.000000;1.287344
2325.000000;1.305366
2324.000000;1.407992
2323.000000;1.745731
2322.000000;2.094389
2321.000000;1.845274
2320.000000;1.705781
2319.000000;1.827666
2318.000000;1.878577
2317.000000;1.497597
2316.000000;1.395903
2315.000000;1.438634
2314.000000;1.386637
2313.000000;1.376471
2312.000000;1.460389
2311.000000;1.478176
2310.000000;1.396053
2309.000000;1.384671
2308.000000;1.472021
2307.000000;1.501324
2306.000000;1.587172
2305.000000;1.878656
2304.000000;1.694074
2303.000000;1.715716
2302.000000;2.070611
2301.000000;1.645187
2300.000000;1.738034
2299.000000;1.913262
2298.000000;2.188741
2297.000000;1.616854
2296.000000;1.153419
2295.000000;1.075128
2294.000000;1.185774
2293.000000;1.221757
2292.000000;1.128638
2291.000000;1.094950
2290.000000;1.132821
2289.000000;1.336597
2288.000000;1.464174
2287.000000;0.999389
2286.000000;0.828998
2285.000000;0.857711
2284.000000;1.095482
2283.000000;1.367075
2282.000000;1.365777
2281.000000;1.779758
2280.000000;1.522940
2279.000000;1.251746
2278.000000;1.221595
2277.000000;1.197569
2276.000000;1.134771
2275.000000;1.089238
2274.000000;1.086955
2273.000000;1.490248
2272.000000;1.450451
2271.000000;1.071131
2270.000000;1.158191
2269.000000;1.531134
2268.000000;1.754662
2267.000000;1.376047
2266.000000;1.051975
2265.000000;0.903609
2264.000000;0.938593
2263.000000;1.285684
2262.000000;1.514419
2261.000000;1.184947
2260.000000;1.316251
2259.000000;1.451418
2258.000000;1.059230
2257.000000;0.956495
2256.000000;1.015431
2255.000000;1.093354
2254.000000;1.010474
2253.000000;0.983093
2252.000000;1.164469
2251.000000;1.422587
2250.000000;1.280354
2249.000000;1.274198
2248.000000;1.511050
2247.000000;1.778879
2246.000000;1.499794
2245.000000;1.189107
2244.000000;1.033824
2243.000000;1.055697
2242.000000;1.259900
2241.000000;1.419365
2240.000000;1.488791
2239.000000;1.777072
2238.000000;1.695477
2237.000000;1.626581
2236.000000;1.458974
2235.000000;1.324610
2234.000000;1.318976
2233.000000;1.388034
2232.000000;1.491758
2231.000000;1.384605
2230.000000;1.274341
2229.000000;1.374101
2228.000000;1.456154
2227.000000;1.206737
2226.000000;1.175909
2225.000000;1.299360
2224.000000;1.268873
2223.000000;1.137594
2222.000000;1.077611
2221.000000;1.065368
2220.000000;1.157445
2219.000000;1.481567
2218.000000;1.401341
2217.000000;1.137779
2216.000000;1.149415
2215.000000;1.238513
2214.000000;1.162199
2213.000000;1.077921
2212.000000;1.371965
2211.000000;1.306782
2210.000000;0.956104
2209.000000;0.870355
2208.000000;0.871315
2207.000000;0.907178
2206.000000;1.096895
2205.000000;1.599682
2204.000000;1.309274
2203.000000;1.323945
2202.000000;1.649671
2201.000000;1.410620
2200.000000;1.216290
2199.000000;1.516095
2198.000000;1.962988
2197.000000;1.370055
2196.000000;1.684884
2195.000000;1.294132
2194.000000;0.989022
2193.000000;0.987487
2192.000000;1.153533
2191.000000;1.496490
2190.000000;1.229111
2189.000000;0.988609
2188.000000;0.979637
2187.000000;1.046041
2186.000000;1.119173
2185.000000;1.196251
2184.000000;1.297738
2183.000000;1.354949
2182.000000;1.157023
2181.000000;0.994933
2180.000000;0.990115
2179.000000;1.156250
2178.000000;1.403149
2177.000000;1.638005
2176.000000;1.325030
2175.000000;1.010472
2174.000000;0.947458
2173.000000;0.997527
2172.000000;1.063115
2171.000000;1.099723
2170.000000;1.161004
2169.000000;1.258288
2168.000000;1.289264
2167.000000;1.217444
2166.000000;1.162896
2165.000000;1.168677
2164.000000;1.330409
2163.000000;1.657941
2162.000000;1.387231
2161.000000;1.333551
2160.000000;1.789632
2159.000000;1.193391
2158.000000;0.902127
2157.000000;0.815953
2156.000000;0.860505
2155.000000;1.124122
2154.000000;1.281821
2153.000000;1.071724
2152.000000;1.089252
2151.000000;1.359182
2150.000000;2.609803
2149.000000;1.395207
2148.000000;1.404501
2147.000000;1.594301
2146.000000;1.208058
2145.000000;0.973513
2144.000000;0.961657
2143.000000;1.108234
2142.000000;1.191086
2141.000000;1.122143
2140.000000;1.227542
2139.000000;1.427908
2138.000000;1.354511
2137.000000;1.528098
2136.000000;1.791826
2135.000000;1.326585
2134.000000;1.260499
2133.000000;1.218356
2132.000000;0.938627
2131.000000;0.822287
2130.000000;0.903816
2129.000000;1.353278
2128.000000;1.485178
2127.000000;1.482584
2126.000000;1.461551
2125.000000;0.941102
2124.000000;0.801587
2123.000000;0.799761
2122.000000;0.810756
2121.000000;0.792651
2120.000000;0.868881
2119.000000;1.125227
2118.000000;1.135665
2117.000000;0.923865
2116.000000;1.104961
2115.000000;1.275490
2114.000000;0.977032
2113.000000;1.013910
2112.000000;1.073888
2111.000000;0.916199
2110.000000;0.828823
2109.000000;0.837375
2108.000000;0.861731
2107.000000;0.873000
2106.000000;0.929334
2105.000000;1.069140
2104.000000;1.106399
2103.000000;1.009142
2102.000000;0.982881
2101.000000;1.056451
2100.000000;1.182072
2099.000000;1.291117
2098.000000;1.412466
2097.000000;1.642534
2096.000000;2.466400
2095.000000;1.305406
2094.000000;1.011661
2093.000000;0.922601
2092.000000;1.029431
2091.000000;1.321001
2090.000000;1.573698
2089.000000;1.766140
2088.000000;2.176010
2087.000000;1.887779
2086.000000;1.754895
2085.000000;1.698228
2084.000000;1.725936
2083.000000;1.501877
2082.000000;1.390117
2081.000000;1.351769
2080.000000;1.183378
2079.000000;1.104720
2078.000000;1.142581
2077.000000;1.208118
2076.000000;1.204731
2075.000000;1.229572
2074.000000;1.360485
2073.000000;2.185386
2072.000000;1.401821
2071.000000;1.188982
2070.000000;1.407829
2069.000000;1.633624
2068.000000;1.080676
2067.000000;1.075619
2066.000000;1.131402
2065.000000;0.906777
2064.000000;0.745940
2063.000000;0.736338
2062.000000;0.851764
2061.000000;1.116545
2060.000000;1.378162
2059.000000;1.293455
2058.000000;1.366139
2057.000000;1.824927
2056.000000;1.582284
2055.000000;1.463356
2054.000000;1.654524
2053.000000;1.477817
2052.000000;1.650582
2051.000000;1.836791
2050.000000;1.493254
2049.000000;1.443282
2048.000000;1.382832
2047.000000;1.305665
2046.000000;1.341299
2045.000000;1.487692
2044.000000;1.717156
2043.000000;1.780638
2042.000000;1.223471
2041.000000;1.028247
2040.000000;1.037807
2039.000000;1.206862
2038.000000;1.245889
2037.000000;1.311538
2036.000000;1.619908
2035.000000;1.171905
2034.000000;0.890576
2033.000000;0.813765
2032.000000;0.820991
2031.000000;0.845032
2030.000000;0.873053
2029.000000;0.971611
2028.000000;1.104631
2027.000000;1.086185
2026.000000;0.981514
2025.000000;0.876006
2024.000000;0.823026
2023.000000;0.879516
2022.000000;1.077794
2021.000000;1.233456
2020.000000;1.047393
2019.000000;0.971202
2018.000000;1.082742
2017.000000;1.343018
2016.000000;1.234022
2015.000000;1.081464
2014.000000;1.010121
2013.000000;0.971288
2012.000000;0.973751
2011.000000;1.071880
2010.000000;1.288147
2009.000000;1.498801
2008.000000;1.738798
2007.000000;1.635046
2006.000000;1.205930
2005.000000;1.081639
2004.000000;1.168852
2003.000000;1.199573
2002.000000;1.128347
2001.000000;1.232567
2000.000000;1.408541
1999.000000;1.111508
1998.000000;0.890826
1997.000000;0.862473
1996.000000;1.085209
1995.000000;1.088894
1994.000000;0.847936
1993.000000;0.808627
1992.000000;0.912765
1991.000000;1.089580
1990.000000;1.228802
1989.000000;1.176945
1988.000000;1.042704
1987.000000;0.985030
1986.000000;1.000690
1985.000000;1.156079
1984.000000;1.431694
1983.000000;1.161205
1982.000000;0.954625
1981.000000;0.924380
1980.000000;1.003977
1979.000000;1.293341
1978.000000;1.527611
1977.000000;1.239021
1976.000000;1.400073
1975.000000;1.431015
1974.000000;1.039573
1973.000000;0.899056
1972.000000;0.865561
1971.000000;0.874875
1970.000000;0.924841
1969.000000;0.944163
1968.000000;0.974641
1967.000000;1.111381
1966.000000;1.016077
1965.000000;0.875661
1964.000000;0.907380
1963.000000;1.080509
1962.000000;1.213346
1961.000000;1.100330
1960.000000;1.040588
1959.000000;1.129584
1958.000000;1.358489
1957.000000;1.681339
1956.000000;1.443537
1955.000000;1.093865
1954.000000;1.049137
1953.000000;1.067833
1952.000000;0.969021
1951.000000;0.915789
1950.000000;0.979864
1949.000000;1.421544
1948.000000;1.549985
1947.000000;1.067450
1946.000000;0.934020
1945.000000;0.932966
1944.000000;1.161371
1943.000000;1.265110
1942.000000;0.887453
1941.000000;0.700647
1940.000000;0.667170
1939.000000;0.716107
1938.000000;0.809055
1937.000000;0.877311
1936.000000;0.817330
1935.000000;0.774773
1934.000000;0.815095
1933.000000;0.875829
1932.000000;0.866391
1931.000000;0.797194
1930.000000;0.812365
1929.000000;0.937225
1928.000000;1.323140
1927.000000;1.559744
1926.000000;1.022304
1925.000000;0.951104
1924.000000;1.100995
1923.000000;1.182096
1922.000000;1.040093
1921.000000;0.978126
1920.000000;0.899186
1919.000000;0.790610
1918.000000;0.700820
1917.000000;0.707852
1916.000000;0.846888
1915.000000;1.388680
1914.000000;1.365286
1913.000000;1.039755
1912.000000;1.050669
1911.000000;1.187068
1910.000000;1.157757
1909.000000;1.106308
1908.000000;1.249138
1907.000000;1.670517
1906.000000;1.387211
1905.000000;1.179544
1904.000000;1.384454
1903.000000;1.886299
1902.000000;1.186986
1901.000000;1.115680
1900.000000;1.394775
1899.000000;1.317027
1898.000000;0.997473
1897.000000;0.979027
1896.000000;0.968483
1895.000000;0.870396
1894.000000;0.792015
1893.000000;0.860691
1892.000000;1.139754
1891.000000;1.313112
1890.000000;1.038518
1889.000000;0.801379
1888.000000;0.719104
1887.000000;0.792171
1886.000000;0.979017
1885.000000;1.320208
1884.000000;1.876543
1883.000000;1.518261
1882.000000;1.183565
1881.000000;0.907226
1880.000000;0.821492
1879.000000;0.952871
1878.000000;1.323605
1877.000000;1.237338
1876.000000;1.356656
1875.000000;1.301640
1874.000000;0.858879
1873.000000;0.787123
1872.000000;1.015198
1871.000000;1.459157
1870.000000;1.034779
1869.000000;0.872405
1868.000000;0.991852
1867.000000;1.045520
1866.000000;0.996863
1865.000000;0.952174
1864.000000;0.903057
1863.000000;1.024849
1862.000000;1.225029
1861.000000;0.925340
1860.000000;0.777217
1859.000000;0.861894
1858.000000;1.255229
1857.000000;1.658698
1856.000000;1.319997
1855.000000;1.332382
1854.000000;1.059047
1853.000000;0.829359
1852.000000;0.769769
1851.000000;0.914393
1850.000000;1.275743
1849.000000;1.325165
1848.000000;1.342033
1847.000000;1.265867
1846.000000;0.998502
1845.000000;0.932855
1844.000000;0.931986
1843.000000;0.972732
1842.000000;1.051706
1841.000000;1.122849
1840.000000;1.106941
1839.000000;1.073456
1838.000000;1.110340
1837.000000;1.206584
1836.000000;1.415511
1835.000000;1.904815
1834.000000;1.454257
1833.000000;1.378424
1832.000000;1.994053
1831.000000;1.206965
1830.000000;0.851791
1829.000000;0.736575
1828.000000;0.933319
1827.000000;1.488199
1826.000000;0.822269
1825.000000;0.674593
1824.000000;0.690088
1823.000000;0.808167
1822.000000;0.897383
1821.000000;0.914967
1820.000000;0.988787
1819.000000;1.119588
1818.000000;1.121241
1817.000000;0.962403
1816.000000;0.837290
1815.000000;0.823754
1814.000000;0.929142
1813.000000;1.142298
1812.000000;1.159678
1811.000000;0.976485
1810.000000;0.898226
1809.000000;0.928350
1808.000000;1.012236
1807.000000;1.045634
1806.000000;0.960204
1805.000000;0.848560
1804.000000;0.809451
1803.000000;0.914706
1802.000000;1.261491
1801.000000;1.098334
1800.000000;0.860044
1799.000000;0.878040
1798.000000;1.029325
1797.000000;1.126830
1796.000000;1.016134
1795.000000;0.932914
1794.000000;1.017030
1793.000000;1.171347
1792.000000;1.068086
1791.000000;0.825471
1790.000000;0.651812
1789.000000;0.611099
1788.000000;0.688427
1787.000000;0.834265
1786.000000;0.917426
1785.000000;0.834981
1784.000000;0.712940
1783.000000;0.678248
1782.000000;0.776752
1781.000000;1.157524
1780.000000;1.346197
1779.000000;1.092064
1778.000000;1.323850
1777.000000;1.081616
1776.000000;0.790269
1775.000000;0.726842
1774.000000;0.778067
1773.000000;0.894452
1772.000000;1.025835
1771.000000;0.963402
1770.000000;0.930361
1769.000000;1.020970
1768.000000;0.999968
1767.000000;0.945955
1766.000000;1.150142
1765.000000;1.321783
1764.000000;1.082098
1763.000000;1.008613
1762.000000;0.998450
1761.000000;0.925671
1760.000000;0.871836
1759.000000;0.907541
1758.000000;0.866983
1757.000000;0.763734
1756.000000;0.750138
1755.000000;0.883077
1754.000000;1.269435
1753.000000;1.698588
1752.000000;1.198523
1751.000000;1.014531
1750.000000;1.043542
1749.000000;1.110991
1748.000000;1.240604
1747.000000;1.734311
1746.000000;1.102552
1745.000000;0.878968
1744.000000;0.871972
1743.000000;1.025279
1742.000000;1.496879
1741.000000;1.601536
1740.000000;1.116591
1739.000000;0.953339
1738.000000;0.820995
1737.000000;0.795201
1736.000000;0.851008
1735.000000;0.881918
1734.000000;0.822358
1733.000000;0.757557
1732.000000;0.811118
1731.000000;0.972943
1730.000000;1.417328
1729.000000;1.273426
1728.000000;0.815022
1727.000000;0.661833
1726.000000;0.723812
1725.000000;1.164642
1724.000000;1.098381
1723.000000;0.839505
1722.000000;0.974929
1721.000000;1.166824
1720.000000;0.937814
1719.000000;0.828707
1718.000000;0.775937
1717.000000;0.778591
1716.000000;0.848857
1715.000000;0.851221
1714.000000;0.852760
1713.000000;0.902405
1712.000000;0.832056
1711.000000;0.695518
1710.000000;0.634336
1709.000000;0.656263
1708.000000;0.904572
1707.000000;1.333270
1706.000000;0.956160
1705.000000;1.080447
1704.000000;0.887070
1703.000000;0.563791
1702.000000;0.540652
1701.000000;0.616539
1700.000000;0.667133
1699.000000;0.751576
1698.000000;1.080049
1697.000000;1.294461
1696.000000;1.104457
1695.000000;0.996096
1694.000000;0.862240
1693.000000;0.714636
1692.000000;0.690367
1691.000000;0.751431
1690.000000;0.797102
1689.000000;0.848931
1688.000000;0.970727
1687.000000;1.097988
1686.000000;1.184171
1685.000000;1.416089
1684.000000;1.051792
1683.000000;0.475022
1682.000000;0.387715
1681.000000;0.571661
1680.000000;0.978149
1679.000000;1.016050
1678.000000;0.924921
1677.000000;1.170088
1676.000000;1.083945
1675.000000;1.006978
1674.000000;1.092584
1673.000000;1.210596
1672.000000;1.021294
1671.000000;0.740197
1670.000000;0.632730
1669.000000;0.727542
1668.000000;0.781910
1667.000000;0.639267
1666.000000;0.656099
1665.000000;0.969367
1664.000000;1.644534
1663.000000;0.921407
1662.000000;0.764982
1661.000000;0.708440
1660.000000;0.719685
1659.000000;0.822318
1658.000000;0.990030
1657.000000;1.380316
1656.000000;1.771639
1655.000000;1.385481
1654.000000;1.055538
1653.000000;1.317783
1652.000000;1.023455
1651.000000;0.549751
1650.000000;0.502035
1649.000000;0.599095
1648.000000;0.724252
1647.000000;0.868701
1646.000000;1.141222
1645.000000;1.208828
1644.000000;0.917430
1643.000000;0.782990
1642.000000;0.762353
1641.000000;0.811394
1640.000000;0.968484
1639.000000;1.225931
1638.000000;1.161675
1637.000000;0.993793
1636.000000;0.861041
1635.000000;0.714598
1634.000000;0.627868
1633.000000;0.696311
1632.000000;0.839802
1631.000000;0.808134
1630.000000;0.726231
1629.000000;0.826982
1628.000000;1.118301
1627.000000;0.869455
1626.000000;0.635727
1625.000000;0.631442
1624.000000;0.684614
1623.000000;0.727719
1622.000000;0.746208
1621.000000;0.736728
1620.000000;0.679399
1619.000000;0.654759
1618.000000;0.703522
1617.000000;0.834025
1616.000000;1.112742
1615.000000;1.322815
1614.000000;1.222882
1613.000000;1.031830
1612.000000;1.032150
1611.000000;1.150317
1610.000000;1.252404
1609.000000;1.513875
1608.000000;1.058455
1607.000000;0.806401
1606.000000;1.137072
1605.000000;1.397600
1604.000000;0.793565
1603.000000;0.776244
1602.000000;0.880025
1601.000000;1.154378
1600.000000;1.424099
1599.000000;0.964165
1598.000000;0.761404
1597.000000;0.762855
1596.000000;0.861496
1595.000000;0.984496
1594.000000;0.966273
1593.000000;0.875377
1592.000000;0.927398
1591.000000;1.144425
1590.000000;1.019510
1589.000000;0.824791
1588.000000;0.822012
1587.000000;0.973001
1586.000000;1.201830
1585.000000;1.214772
1584.000000;1.006749
1583.000000;0.819320
1582.000000;0.703398
1581.000000;0.649735
1580.000000;0.662883
1579.000000;0.715649
1578.000000;0.734316
1577.000000;0.710461
1576.000000;0.698195
1575.000000;0.718280
1574.000000;0.764158
1573.000000;0.848894
1572.000000;0.839632
1571.000000;0.728186
1570.000000;0.671031
1569.000000;0.734332
1568.000000;0.871934
1567.000000;0.874600
1566.000000;0.821521
1565.000000;0.858902
1564.000000;1.037394
1563.000000;1.253928
1562.000000;1.243633
1561.000000;1.215332
1560.000000;1.155932
1559.000000;0.909102
1558.000000;0.603857
1557.000000;0.527698
1556.000000;0.593304
1555.000000;0.593654
1554.000000;0.535007
1553.000000;0.540801
1552.000000;0.671213
1551.000000;0.833127
1550.000000;1.089184
1549.000000;1.155579
1548.000000;0.697199
1547.000000;0.520975
1546.000000;0.530528
1545.000000;0.678402
1544.000000;0.779205
1543.000000;0.600887
1542.000000;0.520500
1541.000000;0.573418
1540.000000;0.679081
1539.000000;0.687394
1538.000000;0.760744
1537.000000;1.254962
1536.000000;0.996343
1535.000000;0.671014
1534.000000;0.556177
1533.000000;0.502620
1532.000000;0.501463
1531.000000;0.552620
1530.000000;0.708908
1529.000000;1.108145
1528.000000;1.486636
1527.000000;1.292577
1526.000000;1.029157
1525.000000;0.595599
1524.000000;0.487892
1523.000000;0.616360
1522.000000;1.052308
1521.000000;0.966521
1520.000000;0.614619
1519.000000;0.670558
1518.000000;0.647064
1517.000000;0.504445
1516.000000;0.457711
1515.000000;0.584673
1514.000000;0.936051
1513.000000;1.390204
1512.000000;1.329992
1511.000000;0.927689
1510.000000;0.750882
1509.000000;0.745144
1508.000000;0.814607
1507.000000;0.881187
1506.000000;1.004899
1505.000000;1.031528
1504.000000;0.866935
1503.000000;0.782385
1502.000000;0.835649
1501.000000;0.980913
1500.000000;0.999041
1499.000000;0.913557
1498.000000;1.282200
1497.000000;1.482465
1496.000000;0.810433
1495.000000;0.683806
1494.000000;0.728358
1493.000000;0.941795
1492.000000;1.166680
1491.000000;1.090416
1490.000000;1.103988
1489.000000;1.487508
1488.000000;1.332006
1487.000000;1.029345
1486.000000;0.965220
1485.000000;1.029440
1484.000000;0.963315
1483.000000;1.030809
1482.000000;1.606865
1481.000000;0.929971
1480.000000;0.724935
1479.000000;0.944709
1478.000000;1.346036
1477.000000;0.923363
1476.000000;0.767742
1475.000000;0.740847
1474.000000;0.773262
1473.000000;0.973782
1472.000000;1.147004
1471.000000;1.273496
1470.000000;1.619784
1469.000000;1.219096
1468.000000;0.881423
1467.000000;0.675296
1466.000000;0.527277
1465.000000;0.483671
1464.000000;0.633940
1463.000000;1.107787
1462.000000;1.201479
1461.000000;1.131367
1460.000000;1.163893
1459.000000;0.921379
1458.000000;0.708084
1457.000000;0.512193
1456.000000;0.512004
1455.000000;0.824514
1454.000000;0.945923
1453.000000;0.793797
1452.000000;0.970501
1451.000000;1.351197
1450.000000;1.001270
1449.000000;0.774165
1448.000000;0.638895
1447.000000;0.542771
1446.000000;0.545034
1445.000000;0.664603
1444.000000;0.936702
1443.000000;1.053077
1442.000000;0.911763
1441.000000;0.913074
1440.000000;1.039685
1439.000000;1.391787
1438.000000;1.266666
1437.000000;0.855339
1436.000000;0.725387
1435.000000;0.789215
1434.000000;0.973376
1433.000000;0.942493
1432.000000;0.787773
1431.000000;0.750301
1430.000000;0.806822
1429.000000;0.771341
1428.000000;0.663099
1427.000000;0.634804
1426.000000;0.646691
1425.000000;0.671434
1424.000000;0.744059
1423.000000;0.872490
1422.000000;1.174076
1421.000000;1.167905
1420.000000;0.752675
1419.000000;0.570031
1418.000000;0.510958
1417.000000;0.667466
1416.000000;1.027698
1415.000000;0.839399
1414.000000;0.670494
1413.000000;0.801193
1412.000000;0.919493
1411.000000;0.820715
1410.000000;0.838602
1409.000000;0.969314
1408.000000;0.998592
1407.000000;1.059880
1406.000000;1.287609
1405.000000;1.008718
1404.000000;0.646131
1403.000000;0.506712
1402.000000;0.551154
1401.000000;0.811689
1400.000000;1.176677
1399.000000;1.017288
1398.000000;0.817939
1397.000000;0.692226
1396.000000;0.696774
1395.000000;0.759851
1394.000000;0.731136
1393.000000;0.783424
1392.000000;0.709949
1391.000000;0.521496
1390.000000;0.484138
1389.000000;0.572929
1388.000000;0.782280
1387.000000;1.015810
1386.000000;0.978143
1385.000000;1.024813
1384.000000;1.033257
1383.000000;0.802744
1382.000000;0.727599
1381.000000;0.812701
1380.000000;0.872904
1379.000000;0.850216
1378.000000;0.895010
1377.000000;0.973717
1376.000000;1.078307
1375.000000;1.426477
1374.000000;1.281316
1373.000000;0.837318
1372.000000;0.842009
1371.000000;1.071683
1370.000000;0.802652
1369.000000;0.621743
1368.000000;0.624806
1367.000000;0.689160
1366.000000;0.703041
1365.000000;0.705353
1364.000000;0.784942
1363.000000;0.888278
1362.000000;1.027417
1361.000000;1.189988
1360.000000;1.584448
1359.000000;1.614485
1358.000000;1.060116
1357.000000;0.929468
1356.000000;1.042403
1355.000000;1.120283
1354.000000;1.039757
1353.000000;1.006440
1352.000000;1.016480
1351.000000;1.002408
1350.000000;0.907408
1349.000000;0.749923
1348.000000;0.731173
1347.000000;0.827845
1346.000000;0.777980
1345.000000;0.638252
1344.000000;0.766044
1343.000000;1.308029
1342.000000;0.956348
1341.000000;0.732720
1340.000000;0.755415
1339.000000;1.098455
1338.000000;1.379825
1337.000000;0.759858
1336.000000;0.679725
1335.000000;0.951761
1334.000000;1.313335
1333.000000;0.983062
1332.000000;0.967026
1331.000000;1.323930
1330.000000;1.227185
1329.000000;1.001153
1328.000000;0.909973
1327.000000;1.000525
1326.000000;1.410019
1325.000000;1.215125
1324.000000;1.075149
1323.000000;0.885360
1322.000000;0.637000
1321.000000;0.577035
1320.000000;0.771425
1319.000000;1.341238
1318.000000;1.057221
1317.000000;0.877496
1316.000000;0.982439
1315.000000;1.123783
1314.000000;1.072978
1313.000000;1.015959
1312.000000;0.874738
1311.000000;0.650161
1310.000000;0.544603
1309.000000;0.510902
1308.000000;0.536313
1307.000000;0.625291
1306.000000;0.759452
1305.000000;0.820002
1304.000000;0.953993
1303.000000;1.193353
1302.000000;0.877899
1301.000000;0.690842
1300.000000;0.759586
1299.000000;0.708636
1298.000000;0.592130
1297.000000;0.561372
1296.000000;0.708986
1295.000000;1.327044
1294.000000;0.959493
1293.000000;0.603899
1292.000000;0.517613
1291.000000;0.511448
1290.000000;0.680260
1289.000000;0.778734
1288.000000;0.543748
1287.000000;0.455641
1286.000000;0.514032
1285.000000;0.627516
1284.000000;0.701278
1283.000000;0.664022
1282.000000;0.627242
1281.000000;0.659433
1280.000000;0.950747
1279.000000;1.242385
1278.000000;0.901759
1277.000000;0.801443
1276.000000;0.924241
1275.000000;1.070837
1274.000000;0.905407
1273.000000;0.759787
1272.000000;0.807990
1271.000000;1.110744
1270.000000;1.235750
1269.000000;0.969805
1268.000000;0.905889
1267.000000;1.064203
1266.000000;1.223768
1265.000000;0.888023
1264.000000;0.701987
1263.000000;0.773143
1262.000000;1.121476
1261.000000;1.066220
1260.000000;0.804390
1259.000000;0.786353
1258.000000;0.755074
1257.000000;0.731652
1256.000000;0.809257
1255.000000;0.939825
1254.000000;1.026311
1253.000000;0.892910
1252.000000;0.724141
1251.000000;0.726352
1250.000000;0.876668
1249.000000;1.055765
1248.000000;1.069382
1247.000000;0.982735
1246.000000;1.196357
1245.000000;1.322066
1244.000000;0.851245
1243.000000;0.628752
1242.000000;0.596781
1241.000000;0.616959
1240.000000;0.723571
1239.000000;1.141970
1238.000000;0.921712
1237.000000;0.586484
1236.000000;0.575853
1235.000000;0.824729
1234.000000;1.113500
1233.000000;0.898959
1232.000000;0.854881
1231.000000;1.055855
1230.000000;1.479632
1229.000000;1.852265
1228.000000;1.281333
1227.000000;0.802077
1226.000000;0.605515
1225.000000;0.618879
1224.000000;0.673865
1223.000000;0.704292
1222.000000;0.984167
1221.000000;1.176722
1220.000000;0.756688
1219.000000;0.768993
1218.000000;1.095007
1217.000000;0.710654
1216.000000;0.484591
1215.000000;0.479148
1214.000000;0.602466
1213.000000;0.871863
1212.000000;0.843685
1211.000000;0.581958
1210.000000;0.684091
1209.000000;1.044695
1208.000000;0.522657
1207.000000;0.315709
1206.000000;0.336313
1205.000000;0.537638
1204.000000;1.095852
1203.000000;1.042018
1202.000000;0.731301
1201.000000;0.715718
1200.000000;0.786103
