Criado como novo conjunto de dados;"2706_e01_daniel.spp","15663.1 Secs"
cm-1;Abs
10000.000000;0.803052
9999.000000;0.802508
9998.000000;0.802085
9997.000000;0.801959
9996.000000;0.802310
9995.000000;0.803010
9994.000000;0.803572
9993.000000;0.803494
9992.000000;0.802672
9991.000000;0.801470
9990.000000;0.800417
9989.000000;0.799867
9988.000000;0.799880
9987.000000;0.800291
9986.000000;0.800791
9985.000000;0.801045
9984.000000;0.800905
9983.000000;0.800523
9982.000000;0.800164
9981.000000;0.799887
9980.000000;0.799541
9979.000000;0.799108
9978.000000;0.798894
9977.000000;0.799222
9976.000000;0.799974
9975.000000;0.800602
9974.000000;0.800624
9973.000000;0.800061
9972.000000;0.799389
9971.000000;0.799131
9970.000000;0.799485
9969.000000;0.800233
9968.000000;0.800927
9967.000000;0.801212
9966.000000;0.801020
9965.000000;0.800526
9964.000000;0.799932
9963.000000;0.799300
9962.000000;0.798585
9961.000000;0.797802
9960.000000;0.797176
9959.000000;0.797025
9958.000000;0.797431
9957.000000;0.798066
9956.000000;0.798473
9955.000000;0.798501
9954.000000;0.798334
9953.000000;0.798149
9952.000000;0.797937
9951.000000;0.797716
9950.000000;0.797648
9949.000000;0.797797
9948.000000;0.797937
9947.000000;0.797816
9946.000000;0.797493
9945.000000;0.797259
9944.000000;0.797283
9943.000000;0.797460
9942.000000;0.797579
9941.000000;0.797484
9940.000000;0.797145
9939.000000;0.796711
9938.000000;0.796460
9937.000000;0.796577
9936.000000;0.796976
9935.000000;0.797412
9934.000000;0.797691
9933.000000;0.797696
9932.000000;0.797335
9931.000000;0.796606
9930.000000;0.795657
9929.000000;0.794695
9928.000000;0.793904
9927.000000;0.793522
9926.000000;0.793789
9925.000000;0.794600
9924.000000;0.795356
9923.000000;0.795448
9922.000000;0.794884
9921.000000;0.794227
9920.000000;0.793941
9919.000000;0.793988
9918.000000;0.794037
9917.000000;0.793864
9916.000000;0.793523
9915.000000;0.793291
9914.000000;0.793438
9913.000000;0.793908
9912.000000;0.794280
9911.000000;0.794251
9910.000000;0.794095
9909.000000;0.794382
9908.000000;0.795236
9907.000000;0.796112
9906.000000;0.796383
9905.000000;0.795929
9904.000000;0.795090
9903.000000;0.794252
9902.000000;0.793618
9901.000000;0.793236
9900.000000;0.793071
9899.000000;0.793073
9898.000000;0.793220
9897.000000;0.793459
9896.000000;0.793631
9895.000000;0.793577
9894.000000;0.793316
9893.000000;0.792981
9892.000000;0.792607
9891.000000;0.792157
9890.000000;0.791748
9889.000000;0.791607
9888.000000;0.791751
9887.000000;0.791905
9886.000000;0.791872
9885.000000;0.791795
9884.000000;0.791892
9883.000000;0.792040
9882.000000;0.791832
9881.000000;0.791050
9880.000000;0.789950
9879.000000;0.789064
9878.000000;0.788771
9877.000000;0.789049
9876.000000;0.789598
9875.000000;0.790172
9874.000000;0.790753
9873.000000;0.791386
9872.000000;0.791937
9871.000000;0.792118
9870.000000;0.791740
9869.000000;0.790856
9868.000000;0.789720
9867.000000;0.788740
9866.000000;0.788372
9865.000000;0.788819
9864.000000;0.789748
9863.000000;0.790485
9862.000000;0.790623
9861.000000;0.790364
9860.000000;0.790218
9859.000000;0.790457
9858.000000;0.790896
9857.000000;0.791139
9856.000000;0.790976
9855.000000;0.790580
9854.000000;0.790327
9853.000000;0.790377
9852.000000;0.790466
9851.000000;0.790182
9850.000000;0.789407
9849.000000;0.788411
9848.000000;0.787590
9847.000000;0.787193
9846.000000;0.787239
9845.000000;0.787511
9844.000000;0.787670
9843.000000;0.787553
9842.000000;0.787377
9841.000000;0.787502
9840.000000;0.788005
9839.000000;0.788623
9838.000000;0.789085
9837.000000;0.789314
9836.000000;0.789307
9835.000000;0.789055
9834.000000;0.788663
9833.000000;0.788341
9832.000000;0.788175
9831.000000;0.788062
9830.000000;0.787933
9829.000000;0.787846
9828.000000;0.787778
9827.000000;0.787490
9826.000000;0.786815
9825.000000;0.785967
9824.000000;0.785391
9823.000000;0.785313
9822.000000;0.785547
9821.000000;0.785755
9820.000000;0.785786
9819.000000;0.785717
9818.000000;0.785630
9817.000000;0.785434
9816.000000;0.785012
9815.000000;0.784505
9814.000000;0.784279
9813.000000;0.784483
9812.000000;0.784799
9811.000000;0.784824
9810.000000;0.784622
9809.000000;0.784618
9808.000000;0.784962
9807.000000;0.785266
9806.000000;0.785088
9805.000000;0.784465
9804.000000;0.783833
9803.000000;0.783557
9802.000000;0.783688
9801.000000;0.784066
9800.000000;0.784520
9799.000000;0.784958
9798.000000;0.785347
9797.000000;0.785607
9796.000000;0.785594
9795.000000;0.785266
9794.000000;0.784853
9793.000000;0.784717
9792.000000;0.784996
9791.000000;0.785480
9790.000000;0.785835
9789.000000;0.785828
9788.000000;0.785370
9787.000000;0.784533
9786.000000;0.783605
9785.000000;0.782971
9784.000000;0.782837
9783.000000;0.783116
9782.000000;0.783578
9781.000000;0.783989
9780.000000;0.784120
9779.000000;0.783840
9778.000000;0.783301
9777.000000;0.782883
9776.000000;0.782829
9775.000000;0.783028
9774.000000;0.783205
9773.000000;0.783178
9772.000000;0.782892
9771.000000;0.782368
9770.000000;0.781787
9769.000000;0.781470
9768.000000;0.781606
9767.000000;0.782022
9766.000000;0.782329
9765.000000;0.782265
9764.000000;0.781831
9763.000000;0.781197
9762.000000;0.780572
9761.000000;0.780105
9760.000000;0.779822
9759.000000;0.779675
9758.000000;0.779658
9757.000000;0.779755
9756.000000;0.779775
9755.000000;0.779434
9754.000000;0.778753
9753.000000;0.778216
9752.000000;0.778321
9751.000000;0.779033
9750.000000;0.779859
9749.000000;0.780434
9748.000000;0.780827
9747.000000;0.781215
9746.000000;0.781458
9745.000000;0.781191
9744.000000;0.780339
9743.000000;0.779380
9742.000000;0.778997
9741.000000;0.779457
9740.000000;0.780386
9739.000000;0.781142
9738.000000;0.781340
9737.000000;0.781028
9736.000000;0.780488
9735.000000;0.779991
9734.000000;0.779680
9733.000000;0.779519
9732.000000;0.779343
9731.000000;0.779057
9730.000000;0.778804
9729.000000;0.778827
9728.000000;0.779153
9727.000000;0.779531
9726.000000;0.779677
9725.000000;0.779502
9724.000000;0.779107
9723.000000;0.778671
9722.000000;0.778361
9721.000000;0.778229
9720.000000;0.778161
9719.000000;0.778039
9718.000000;0.777929
9717.000000;0.777997
9716.000000;0.778241
9715.000000;0.778475
9714.000000;0.778586
9713.000000;0.778620
9712.000000;0.778583
9711.000000;0.778377
9710.000000;0.778022
9709.000000;0.777759
9708.000000;0.777781
9707.000000;0.777987
9706.000000;0.778118
9705.000000;0.778042
9704.000000;0.777782
9703.000000;0.777386
9702.000000;0.776902
9701.000000;0.776446
9700.000000;0.776170
9699.000000;0.776165
9698.000000;0.776401
9697.000000;0.776689
9696.000000;0.776720
9695.000000;0.776326
9694.000000;0.775768
9693.000000;0.775558
9692.000000;0.775896
9691.000000;0.776437
9690.000000;0.776773
9689.000000;0.776959
9688.000000;0.777337
9687.000000;0.777929
9686.000000;0.778304
9685.000000;0.778096
9684.000000;0.777447
9683.000000;0.776845
9682.000000;0.776652
9681.000000;0.776844
9680.000000;0.777109
9679.000000;0.777093
9678.000000;0.776630
9677.000000;0.775847
9676.000000;0.775079
9675.000000;0.774649
9674.000000;0.774652
9673.000000;0.774909
9672.000000;0.775135
9671.000000;0.775199
9670.000000;0.775203
9669.000000;0.775305
9668.000000;0.775502
9667.000000;0.775648
9666.000000;0.775614
9665.000000;0.775342
9664.000000;0.774812
9663.000000;0.774124
9662.000000;0.773565
9661.000000;0.773406
9660.000000;0.773575
9659.000000;0.773719
9658.000000;0.773625
9657.000000;0.773431
9656.000000;0.773333
9655.000000;0.773296
9654.000000;0.773175
9653.000000;0.772990
9652.000000;0.772900
9651.000000;0.773009
9650.000000;0.773311
9649.000000;0.773714
9648.000000;0.774012
9647.000000;0.773967
9646.000000;0.773576
9645.000000;0.773157
9644.000000;0.772975
9643.000000;0.772922
9642.000000;0.772733
9641.000000;0.772416
9640.000000;0.772193
9639.000000;0.772099
9638.000000;0.771928
9637.000000;0.771622
9636.000000;0.771409
9635.000000;0.771444
9634.000000;0.771541
9633.000000;0.771425
9632.000000;0.771112
9631.000000;0.770859
9630.000000;0.770851
9629.000000;0.771084
9628.000000;0.771490
9627.000000;0.771978
9626.000000;0.772387
9625.000000;0.772542
9624.000000;0.772394
9623.000000;0.772038
9622.000000;0.771567
9621.000000;0.771038
9620.000000;0.770578
9619.000000;0.770386
9618.000000;0.770527
9617.000000;0.770800
9616.000000;0.770951
9615.000000;0.770975
9614.000000;0.771091
9613.000000;0.771401
9612.000000;0.771697
9611.000000;0.771678
9610.000000;0.771281
9609.000000;0.770687
9608.000000;0.770084
9607.000000;0.769573
9606.000000;0.769270
9605.000000;0.769305
9604.000000;0.769632
9603.000000;0.769933
9602.000000;0.769855
9601.000000;0.769346
9600.000000;0.768717
9599.000000;0.768350
9598.000000;0.768385
9597.000000;0.768672
9596.000000;0.768974
9595.000000;0.769162
9594.000000;0.769233
9593.000000;0.769206
9592.000000;0.769069
9591.000000;0.768858
9590.000000;0.768704
9589.000000;0.768715
9588.000000;0.768837
9587.000000;0.768894
9586.000000;0.768775
9585.000000;0.768531
9584.000000;0.768297
9583.000000;0.768167
9582.000000;0.768136
9581.000000;0.768110
9580.000000;0.767967
9579.000000;0.767705
9578.000000;0.767507
9577.000000;0.767597
9576.000000;0.767972
9575.000000;0.768350
9574.000000;0.768410
9573.000000;0.768091
9572.000000;0.767631
9571.000000;0.767340
9570.000000;0.767350
9569.000000;0.767545
9568.000000;0.767726
9567.000000;0.767819
9566.000000;0.767892
9565.000000;0.767991
9564.000000;0.768054
9563.000000;0.768035
9562.000000;0.767978
9561.000000;0.767876
9560.000000;0.767583
9559.000000;0.767048
9558.000000;0.766514
9557.000000;0.766270
9556.000000;0.766238
9555.000000;0.766068
9554.000000;0.765627
9553.000000;0.765164
9552.000000;0.764897
9551.000000;0.764746
9550.000000;0.764605
9549.000000;0.764639
9548.000000;0.765055
9547.000000;0.765738
9546.000000;0.766313
9545.000000;0.766542
9544.000000;0.766469
9543.000000;0.766240
9542.000000;0.765961
9541.000000;0.765723
9540.000000;0.765605
9539.000000;0.765622
9538.000000;0.765738
9537.000000;0.765908
9536.000000;0.766039
9535.000000;0.765954
9534.000000;0.765548
9533.000000;0.764937
9532.000000;0.764354
9531.000000;0.763943
9530.000000;0.763717
9529.000000;0.763658
9528.000000;0.763700
9527.000000;0.763690
9526.000000;0.763553
9525.000000;0.763452
9524.000000;0.763589
9523.000000;0.763839
9522.000000;0.763838
9521.000000;0.763485
9520.000000;0.763113
9519.000000;0.763021
9518.000000;0.763049
9517.000000;0.762843
9516.000000;0.762432
9515.000000;0.762235
9514.000000;0.762525
9513.000000;0.763092
9512.000000;0.763536
9511.000000;0.763721
9510.000000;0.763798
9509.000000;0.763894
9508.000000;0.763948
9507.000000;0.763841
9506.000000;0.763573
9505.000000;0.763242
9504.000000;0.762941
9503.000000;0.762723
9502.000000;0.762640
9501.000000;0.762723
9500.000000;0.762892
9499.000000;0.762957
9498.000000;0.762775
9497.000000;0.762393
9496.000000;0.762009
9495.000000;0.761773
9494.000000;0.761678
9493.000000;0.761634
9492.000000;0.761623
9491.000000;0.761704
9490.000000;0.761895
9489.000000;0.762082
9488.000000;0.762095
9487.000000;0.761861
9486.000000;0.761452
9485.000000;0.761019
9484.000000;0.760680
9483.000000;0.760455
9482.000000;0.760283
9481.000000;0.760114
9480.000000;0.760005
9479.000000;0.760069
9478.000000;0.760301
9477.000000;0.760486
9476.000000;0.760369
9475.000000;0.759932
9474.000000;0.759447
9473.000000;0.759217
9472.000000;0.759309
9471.000000;0.759556
9470.000000;0.759795
9469.000000;0.760018
9468.000000;0.760303
9467.000000;0.760614
9466.000000;0.760713
9465.000000;0.760326
9464.000000;0.759460
9463.000000;0.758512
9462.000000;0.757985
9461.000000;0.758060
9460.000000;0.758488
9459.000000;0.758910
9458.000000;0.759170
9457.000000;0.759297
9456.000000;0.759321
9455.000000;0.759252
9454.000000;0.759185
9453.000000;0.759255
9452.000000;0.759458
9451.000000;0.759601
9450.000000;0.759498
9449.000000;0.759140
9448.000000;0.758682
9447.000000;0.758315
9446.000000;0.758160
9445.000000;0.758217
9444.000000;0.758383
9443.000000;0.758540
9442.000000;0.758631
9441.000000;0.758627
9440.000000;0.758466
9439.000000;0.758123
9438.000000;0.757728
9437.000000;0.757486
9436.000000;0.757438
9435.000000;0.757399
9434.000000;0.757195
9433.000000;0.756894
9432.000000;0.756720
9431.000000;0.756796
9430.000000;0.757057
9429.000000;0.757356
9428.000000;0.757560
9427.000000;0.757547
9426.000000;0.757241
9425.000000;0.756709
9424.000000;0.756176
9423.000000;0.755859
9422.000000;0.755824
9421.000000;0.756019
9420.000000;0.756386
9419.000000;0.756870
9418.000000;0.757339
9417.000000;0.757628
9416.000000;0.757669
9415.000000;0.757518
9414.000000;0.757221
9413.000000;0.756740
9412.000000;0.756096
9411.000000;0.755467
9410.000000;0.755048
9409.000000;0.754852
9408.000000;0.754782
9407.000000;0.754846
9406.000000;0.755116
9405.000000;0.755492
9404.000000;0.755698
9403.000000;0.755618
9402.000000;0.755450
9401.000000;0.755415
9400.000000;0.755453
9399.000000;0.755347
9398.000000;0.755049
9397.000000;0.754700
9396.000000;0.754390
9395.000000;0.754097
9394.000000;0.753870
9393.000000;0.753860
9392.000000;0.754114
9391.000000;0.754454
9390.000000;0.754650
9389.000000;0.754631
9388.000000;0.754487
9387.000000;0.754326
9386.000000;0.754206
9385.000000;0.754135
9384.000000;0.754077
9383.000000;0.753975
9382.000000;0.753803
9381.000000;0.753581
9380.000000;0.753344
9379.000000;0.753130
9378.000000;0.753018
9377.000000;0.753095
9376.000000;0.753354
9375.000000;0.753628
9374.000000;0.753688
9373.000000;0.753414
9372.000000;0.752890
9371.000000;0.752366
9370.000000;0.752116
9369.000000;0.752264
9368.000000;0.752692
9367.000000;0.753116
9366.000000;0.753272
9365.000000;0.753084
9364.000000;0.752680
9363.000000;0.752271
9362.000000;0.751992
9361.000000;0.751850
9360.000000;0.751796
9359.000000;0.751829
9358.000000;0.751985
9357.000000;0.752236
9356.000000;0.752450
9355.000000;0.752510
9354.000000;0.752416
9353.000000;0.752257
9352.000000;0.752118
9351.000000;0.752047
9350.000000;0.752063
9349.000000;0.752140
9348.000000;0.752190
9347.000000;0.752136
9346.000000;0.751973
9345.000000;0.751759
9344.000000;0.751541
9343.000000;0.751329
9342.000000;0.751112
9341.000000;0.750906
9340.000000;0.750790
9339.000000;0.750879
9338.000000;0.751160
9337.000000;0.751389
9336.000000;0.751277
9335.000000;0.750844
9334.000000;0.750468
9333.000000;0.750471
9332.000000;0.750764
9331.000000;0.750997
9330.000000;0.751004
9329.000000;0.750926
9328.000000;0.750931
9327.000000;0.750980
9326.000000;0.750896
9325.000000;0.750548
9324.000000;0.749945
9323.000000;0.749226
9322.000000;0.748597
9321.000000;0.748221
9320.000000;0.748147
9319.000000;0.748363
9318.000000;0.748839
9317.000000;0.749449
9316.000000;0.749901
9315.000000;0.749922
9314.000000;0.749531
9313.000000;0.749015
9312.000000;0.748626
9311.000000;0.748398
9310.000000;0.748285
9309.000000;0.748315
9308.000000;0.748537
9307.000000;0.748890
9306.000000;0.749249
9305.000000;0.749526
9304.000000;0.749682
9303.000000;0.749669
9302.000000;0.749456
9301.000000;0.749096
9300.000000;0.748707
9299.000000;0.748382
9298.000000;0.748136
9297.000000;0.747928
9296.000000;0.747723
9295.000000;0.747540
9294.000000;0.747444
9293.000000;0.747481
9292.000000;0.747612
9291.000000;0.747754
9290.000000;0.747865
9289.000000;0.747944
9288.000000;0.747948
9287.000000;0.747797
9286.000000;0.747503
9285.000000;0.747221
9284.000000;0.747095
9283.000000;0.747065
9282.000000;0.746909
9281.000000;0.746509
9280.000000;0.746029
9279.000000;0.745791
9278.000000;0.745970
9277.000000;0.746448
9276.000000;0.746931
9275.000000;0.747173
9274.000000;0.747091
9273.000000;0.746736
9272.000000;0.746237
9271.000000;0.745767
9270.000000;0.745468
9269.000000;0.745376
9268.000000;0.745435
9267.000000;0.745593
9266.000000;0.745808
9265.000000;0.745997
9264.000000;0.746048
9263.000000;0.745950
9262.000000;0.745816
9261.000000;0.745728
9260.000000;0.745650
9259.000000;0.745538
9258.000000;0.745459
9257.000000;0.745495
9256.000000;0.745602
9255.000000;0.745660
9254.000000;0.745630
9253.000000;0.745553
9252.000000;0.745419
9251.000000;0.745157
9250.000000;0.744781
9249.000000;0.744432
9248.000000;0.744243
9247.000000;0.744225
9246.000000;0.744309
9245.000000;0.744432
9244.000000;0.744531
9243.000000;0.744529
9242.000000;0.744384
9241.000000;0.744170
9240.000000;0.744039
9239.000000;0.744088
9238.000000;0.744259
9237.000000;0.744390
9236.000000;0.744394
9235.000000;0.744334
9234.000000;0.744307
9233.000000;0.744276
9232.000000;0.744106
9231.000000;0.743779
9230.000000;0.743470
9229.000000;0.743355
9228.000000;0.743420
9227.000000;0.743519
9226.000000;0.743569
9225.000000;0.743597
9224.000000;0.743637
9223.000000;0.743663
9222.000000;0.743627
9221.000000;0.743527
9220.000000;0.743413
9219.000000;0.743329
9218.000000;0.743244
9217.000000;0.743057
9216.000000;0.742749
9215.000000;0.742491
9214.000000;0.742490
9213.000000;0.742720
9212.000000;0.742919
9211.000000;0.742910
9210.000000;0.742787
9209.000000;0.742704
9208.000000;0.742641
9207.000000;0.742522
9206.000000;0.742427
9205.000000;0.742489
9204.000000;0.742649
9203.000000;0.742704
9202.000000;0.742590
9201.000000;0.742431
9200.000000;0.742306
9199.000000;0.742169
9198.000000;0.742008
9197.000000;0.741927
9196.000000;0.741978
9195.000000;0.742048
9194.000000;0.741992
9193.000000;0.741791
9192.000000;0.741523
9191.000000;0.741248
9190.000000;0.740999
9189.000000;0.740812
9188.000000;0.740719
9187.000000;0.740708
9186.000000;0.740742
9185.000000;0.740767
9184.000000;0.740692
9183.000000;0.740424
9182.000000;0.739968
9181.000000;0.739480
9180.000000;0.739194
9179.000000;0.739273
9178.000000;0.739704
9177.000000;0.740292
9176.000000;0.740764
9175.000000;0.740925
9174.000000;0.740759
9173.000000;0.740388
9172.000000;0.739978
9171.000000;0.739665
9170.000000;0.739505
9169.000000;0.739439
9168.000000;0.739363
9167.000000;0.739257
9166.000000;0.739186
9165.000000;0.739154
9164.000000;0.739047
9163.000000;0.738795
9162.000000;0.738518
9161.000000;0.738410
9160.000000;0.738524
9159.000000;0.738735
9158.000000;0.738899
9157.000000;0.738945
9156.000000;0.738900
9155.000000;0.738880
9154.000000;0.739007
9153.000000;0.739220
9152.000000;0.739262
9151.000000;0.738971
9150.000000;0.738516
9149.000000;0.738187
9148.000000;0.738036
9147.000000;0.737895
9146.000000;0.737706
9145.000000;0.737606
9144.000000;0.737645
9143.000000;0.737639
9142.000000;0.737401
9141.000000;0.736999
9140.000000;0.736682
9139.000000;0.736650
9138.000000;0.736932
9137.000000;0.737378
9136.000000;0.737721
9135.000000;0.737761
9134.000000;0.737576
9133.000000;0.737454
9132.000000;0.737559
9131.000000;0.737722
9130.000000;0.737653
9129.000000;0.737262
9128.000000;0.736713
9127.000000;0.736235
9126.000000;0.735974
9125.000000;0.735980
9124.000000;0.736223
9123.000000;0.736579
9122.000000;0.736884
9121.000000;0.737023
9120.000000;0.736990
9119.000000;0.736873
9118.000000;0.736779
9117.000000;0.736730
9116.000000;0.736633
9115.000000;0.736397
9114.000000;0.736088
9113.000000;0.735890
9112.000000;0.735888
9111.000000;0.735944
9110.000000;0.735852
9109.000000;0.735589
9108.000000;0.735339
9107.000000;0.735275
9106.000000;0.735376
9105.000000;0.735483
9104.000000;0.735517
9103.000000;0.735561
9102.000000;0.735707
9101.000000;0.735885
9100.000000;0.735941
9099.000000;0.735860
9098.000000;0.735785
9097.000000;0.735785
9096.000000;0.735733
9095.000000;0.735500
9094.000000;0.735165
9093.000000;0.734915
9092.000000;0.734827
9091.000000;0.734859
9090.000000;0.734990
9089.000000;0.735206
9088.000000;0.735378
9087.000000;0.735336
9086.000000;0.735081
9085.000000;0.734790
9084.000000;0.734596
9083.000000;0.734467
9082.000000;0.734336
9081.000000;0.734215
9080.000000;0.734127
9079.000000;0.734036
9078.000000;0.733908
9077.000000;0.733760
9076.000000;0.733607
9075.000000;0.733426
9074.000000;0.733226
9073.000000;0.733068
9072.000000;0.732973
9071.000000;0.732888
9070.000000;0.732766
9069.000000;0.732641
9068.000000;0.732566
9067.000000;0.732544
9066.000000;0.732540
9065.000000;0.732524
9064.000000;0.732455
9063.000000;0.732300
9062.000000;0.732093
9061.000000;0.731947
9060.000000;0.731954
9059.000000;0.732122
9058.000000;0.732396
9057.000000;0.732682
9056.000000;0.732850
9055.000000;0.732799
9054.000000;0.732564
9053.000000;0.732294
9052.000000;0.732109
9051.000000;0.732020
9050.000000;0.732016
9049.000000;0.732127
9048.000000;0.732352
9047.000000;0.732575
9046.000000;0.732628
9045.000000;0.732427
9044.000000;0.732053
9043.000000;0.731702
9042.000000;0.731556
9041.000000;0.731634
9040.000000;0.731751
9039.000000;0.731694
9038.000000;0.731436
9037.000000;0.731143
9036.000000;0.730958
9035.000000;0.730886
9034.000000;0.730890
9033.000000;0.730990
9032.000000;0.731177
9031.000000;0.731330
9030.000000;0.731304
9029.000000;0.731098
9028.000000;0.730842
9027.000000;0.730641
9026.000000;0.730512
9025.000000;0.730463
9024.000000;0.730540
9023.000000;0.730734
9022.000000;0.730884
9021.000000;0.730766
9020.000000;0.730334
9019.000000;0.729838
9018.000000;0.729616
9017.000000;0.729758
9016.000000;0.730034
9015.000000;0.730168
9014.000000;0.730114
9013.000000;0.730003
9012.000000;0.729903
9011.000000;0.729744
9010.000000;0.729480
9009.000000;0.729198
9008.000000;0.729047
9007.000000;0.729103
9006.000000;0.729328
9005.000000;0.729576
9004.000000;0.729682
9003.000000;0.729602
9002.000000;0.729475
9001.000000;0.729464
9000.000000;0.729538
8999.000000;0.729509
8998.000000;0.729289
8997.000000;0.729010
8996.000000;0.728840
8995.000000;0.728803
8994.000000;0.728824
8993.000000;0.728862
8992.000000;0.728922
8991.000000;0.728971
8990.000000;0.728930
8989.000000;0.728743
8988.000000;0.728426
8987.000000;0.728078
8986.000000;0.727839
8985.000000;0.727785
8984.000000;0.727829
8983.000000;0.727797
8982.000000;0.727626
8981.000000;0.727465
8980.000000;0.727496
8979.000000;0.727713
8978.000000;0.727925
8977.000000;0.727971
8976.000000;0.727868
8975.000000;0.727769
8974.000000;0.727795
8973.000000;0.727924
8972.000000;0.728023
8971.000000;0.727977
8970.000000;0.727813
8969.000000;0.727669
8968.000000;0.727648
8967.000000;0.727708
8966.000000;0.727718
8965.000000;0.727585
8964.000000;0.727324
8963.000000;0.727015
8962.000000;0.726724
8961.000000;0.726479
8960.000000;0.726305
8959.000000;0.726245
8958.000000;0.726318
8957.000000;0.726461
8956.000000;0.726556
8955.000000;0.726532
8954.000000;0.726423
8953.000000;0.726306
8952.000000;0.726217
8951.000000;0.726150
8950.000000;0.726101
8949.000000;0.726056
8948.000000;0.725958
8947.000000;0.725748
8946.000000;0.725446
8945.000000;0.725145
8944.000000;0.724937
8943.000000;0.724865
8942.000000;0.724917
8941.000000;0.725025
8940.000000;0.725079
8939.000000;0.725031
8938.000000;0.724961
8937.000000;0.725014
8936.000000;0.725234
8935.000000;0.725499
8934.000000;0.725633
8933.000000;0.725544
8932.000000;0.725266
8931.000000;0.724918
8930.000000;0.724649
8929.000000;0.724574
8928.000000;0.724716
8927.000000;0.724986
8926.000000;0.725232
8925.000000;0.725322
8924.000000;0.725231
8923.000000;0.725048
8922.000000;0.724901
8921.000000;0.724857
8920.000000;0.724899
8919.000000;0.724969
8918.000000;0.724978
8917.000000;0.724821
8916.000000;0.724463
8915.000000;0.724034
8914.000000;0.723720
8913.000000;0.723544
8912.000000;0.723346
8911.000000;0.723017
8910.000000;0.722656
8909.000000;0.722423
8908.000000;0.722375
8907.000000;0.722531
8906.000000;0.722961
8905.000000;0.723633
8904.000000;0.724255
8903.000000;0.724481
8902.000000;0.724275
8901.000000;0.723916
8900.000000;0.723644
8899.000000;0.723470
8898.000000;0.723314
8897.000000;0.723164
8896.000000;0.723015
8895.000000;0.722805
8894.000000;0.722525
8893.000000;0.722300
8892.000000;0.722267
8891.000000;0.722404
8890.000000;0.722541
8889.000000;0.722545
8888.000000;0.722442
8887.000000;0.722384
8886.000000;0.722481
8885.000000;0.722672
8884.000000;0.722783
8883.000000;0.722749
8882.000000;0.722698
8881.000000;0.722750
8880.000000;0.722814
8879.000000;0.722709
8878.000000;0.722440
8877.000000;0.722187
8876.000000;0.722027
8875.000000;0.721856
8874.000000;0.721629
8873.000000;0.721494
8872.000000;0.721578
8871.000000;0.721762
8870.000000;0.721804
8869.000000;0.721649
8868.000000;0.721476
8867.000000;0.721478
8866.000000;0.721658
8865.000000;0.721858
8864.000000;0.721911
8863.000000;0.721755
8862.000000;0.721440
8861.000000;0.721063
8860.000000;0.720706
8859.000000;0.720433
8858.000000;0.720306
8857.000000;0.720355
8856.000000;0.720517
8855.000000;0.720668
8854.000000;0.720727
8853.000000;0.720707
8852.000000;0.720679
8851.000000;0.720709
8850.000000;0.720814
8849.000000;0.720918
8848.000000;0.720874
8847.000000;0.720594
8846.000000;0.720171
8845.000000;0.719812
8844.000000;0.719646
8843.000000;0.719658
8842.000000;0.719783
8841.000000;0.719980
8840.000000;0.720193
8839.000000;0.720349
8838.000000;0.720421
8837.000000;0.720445
8836.000000;0.720418
8835.000000;0.720270
8834.000000;0.719970
8833.000000;0.719614
8832.000000;0.719365
8831.000000;0.719315
8830.000000;0.719449
8829.000000;0.719674
8828.000000;0.719859
8827.000000;0.719888
8826.000000;0.719715
8825.000000;0.719376
8824.000000;0.718966
8823.000000;0.718621
8822.000000;0.718499
8821.000000;0.718682
8820.000000;0.719078
8819.000000;0.719470
8818.000000;0.719695
8817.000000;0.719726
8816.000000;0.719613
8815.000000;0.719400
8814.000000;0.719142
8813.000000;0.718920
8812.000000;0.718780
8811.000000;0.718699
8810.000000;0.718628
8809.000000;0.718550
8808.000000;0.718476
8807.000000;0.718445
8806.000000;0.718510
8805.000000;0.718662
8804.000000;0.718763
8803.000000;0.718633
8802.000000;0.718248
8801.000000;0.717795
8800.000000;0.717500
8799.000000;0.717436
8798.000000;0.717540
8797.000000;0.717723
8796.000000;0.717926
8795.000000;0.718099
8794.000000;0.718208
8793.000000;0.718255
8792.000000;0.718265
8791.000000;0.718269
8790.000000;0.718303
8789.000000;0.718379
8788.000000;0.718439
8787.000000;0.718376
8786.000000;0.718147
8785.000000;0.717844
8784.000000;0.717629
8783.000000;0.717604
8782.000000;0.717759
8781.000000;0.717989
8780.000000;0.718154
8779.000000;0.718148
8778.000000;0.717974
8777.000000;0.717739
8776.000000;0.717551
8775.000000;0.717428
8774.000000;0.717318
8773.000000;0.717196
8772.000000;0.717092
8771.000000;0.717031
8770.000000;0.716968
8769.000000;0.716834
8768.000000;0.716654
8767.000000;0.716582
8766.000000;0.716757
8765.000000;0.717132
8764.000000;0.717494
8763.000000;0.717666
8762.000000;0.717631
8761.000000;0.717451
8760.000000;0.717162
8759.000000;0.716813
8758.000000;0.716541
8757.000000;0.716474
8756.000000;0.716588
8755.000000;0.716741
8754.000000;0.716834
8753.000000;0.716867
8752.000000;0.716845
8751.000000;0.716729
8750.000000;0.716500
8749.000000;0.716225
8748.000000;0.716033
8747.000000;0.716051
8746.000000;0.716300
8745.000000;0.716633
8744.000000;0.716802
8743.000000;0.716705
8742.000000;0.716521
8741.000000;0.716531
8740.000000;0.716806
8739.000000;0.717144
8738.000000;0.717307
8737.000000;0.717222
8736.000000;0.716970
8735.000000;0.716663
8734.000000;0.716385
8733.000000;0.716153
8732.000000;0.715939
8731.000000;0.715780
8730.000000;0.715816
8729.000000;0.716142
8728.000000;0.716614
8727.000000;0.716939
8726.000000;0.716958
8725.000000;0.716754
8724.000000;0.716470
8723.000000;0.716177
8722.000000;0.715936
8721.000000;0.715838
8720.000000;0.715877
8719.000000;0.715892
8718.000000;0.715738
8717.000000;0.715473
8716.000000;0.715268
8715.000000;0.715218
8714.000000;0.715268
8713.000000;0.715319
8712.000000;0.715308
8711.000000;0.715244
8710.000000;0.715211
8709.000000;0.715310
8708.000000;0.715549
8707.000000;0.715809
8706.000000;0.715966
8705.000000;0.716002
8704.000000;0.715974
8703.000000;0.715910
8702.000000;0.715786
8701.000000;0.715602
8700.000000;0.715426
8699.000000;0.715348
8698.000000;0.715395
8697.000000;0.715460
8696.000000;0.715385
8695.000000;0.715142
8694.000000;0.714904
8693.000000;0.714871
8692.000000;0.715028
8691.000000;0.715172
8690.000000;0.715158
8689.000000;0.715024
8688.000000;0.714863
8687.000000;0.714688
8686.000000;0.714502
8685.000000;0.714376
8684.000000;0.714375
8683.000000;0.714473
8682.000000;0.714603
8681.000000;0.714752
8680.000000;0.714911
8679.000000;0.715017
8678.000000;0.714998
8677.000000;0.714872
8676.000000;0.714722
8675.000000;0.714604
8674.000000;0.714529
8673.000000;0.714516
8672.000000;0.714561
8671.000000;0.714586
8670.000000;0.714469
8669.000000;0.714177
8668.000000;0.713819
8667.000000;0.713559
8666.000000;0.713473
8665.000000;0.713478
8664.000000;0.713401
8663.000000;0.713151
8662.000000;0.712830
8661.000000;0.712640
8660.000000;0.712690
8659.000000;0.712918
8658.000000;0.713189
8657.000000;0.713395
8656.000000;0.713452
8655.000000;0.713319
8654.000000;0.713064
8653.000000;0.712863
8652.000000;0.712830
8651.000000;0.712902
8650.000000;0.712932
8649.000000;0.712867
8648.000000;0.712747
8647.000000;0.712585
8646.000000;0.712344
8645.000000;0.712041
8644.000000;0.711780
8643.000000;0.711658
8642.000000;0.711682
8641.000000;0.711807
8640.000000;0.711988
8639.000000;0.712164
8638.000000;0.712242
8637.000000;0.712150
8636.000000;0.711914
8635.000000;0.711641
8634.000000;0.711407
8633.000000;0.711197
8632.000000;0.710953
8631.000000;0.710667
8630.000000;0.710407
8629.000000;0.710274
8628.000000;0.710324
8627.000000;0.710524
8626.000000;0.710746
8625.000000;0.710826
8624.000000;0.710691
8623.000000;0.710428
8622.000000;0.710193
8621.000000;0.710027
8620.000000;0.709823
8619.000000;0.709496
8618.000000;0.709120
8617.000000;0.708852
8616.000000;0.708776
8615.000000;0.708874
8614.000000;0.709090
8613.000000;0.709329
8612.000000;0.709436
8611.000000;0.709293
8610.000000;0.708971
8609.000000;0.708686
8608.000000;0.708579
8607.000000;0.708590
8606.000000;0.708565
8605.000000;0.708410
8604.000000;0.708122
8603.000000;0.707741
8602.000000;0.707339
8601.000000;0.707018
8600.000000;0.706864
8599.000000;0.706899
8598.000000;0.707062
8597.000000;0.707244
8596.000000;0.707333
8595.000000;0.707300
8594.000000;0.707216
8593.000000;0.707150
8592.000000;0.707063
8591.000000;0.706868
8590.000000;0.706577
8589.000000;0.706311
8588.000000;0.706139
8587.000000;0.705999
8586.000000;0.705833
8585.000000;0.705703
8584.000000;0.705714
8583.000000;0.705850
8582.000000;0.705971
8581.000000;0.705929
8580.000000;0.705673
8579.000000;0.705272
8578.000000;0.704902
8577.000000;0.704760
8576.000000;0.704916
8575.000000;0.705221
8574.000000;0.705431
8573.000000;0.705415
8572.000000;0.705229
8571.000000;0.704985
8570.000000;0.704714
8569.000000;0.704394
8568.000000;0.704068
8567.000000;0.703838
8566.000000;0.703733
8565.000000;0.703625
8564.000000;0.703356
8563.000000;0.702945
8562.000000;0.702596
8561.000000;0.702482
8560.000000;0.702564
8559.000000;0.702667
8558.000000;0.702706
8557.000000;0.702746
8556.000000;0.702879
8555.000000;0.703088
8554.000000;0.703247
8553.000000;0.703217
8552.000000;0.702944
8551.000000;0.702529
8550.000000;0.702196
8549.000000;0.702124
8548.000000;0.702275
8547.000000;0.702423
8546.000000;0.702368
8545.000000;0.702097
8544.000000;0.701738
8543.000000;0.701434
8542.000000;0.701258
8541.000000;0.701211
8540.000000;0.701231
8539.000000;0.701237
8538.000000;0.701188
8537.000000;0.701101
8536.000000;0.701005
8535.000000;0.700898
8534.000000;0.700759
8533.000000;0.700580
8532.000000;0.700375
8531.000000;0.700177
8530.000000;0.700031
8529.000000;0.699958
8528.000000;0.699936
8527.000000;0.699930
8526.000000;0.699927
8525.000000;0.699916
8524.000000;0.699856
8523.000000;0.699700
8522.000000;0.699463
8521.000000;0.699210
8520.000000;0.698979
8519.000000;0.698775
8518.000000;0.698613
8517.000000;0.698529
8516.000000;0.698498
8515.000000;0.698421
8514.000000;0.698225
8513.000000;0.697962
8512.000000;0.697757
8511.000000;0.697696
8510.000000;0.697756
8509.000000;0.697841
8508.000000;0.697866
8507.000000;0.697821
8506.000000;0.697762
8505.000000;0.697742
8504.000000;0.697730
8503.000000;0.697636
8502.000000;0.697423
8501.000000;0.697152
8500.000000;0.696920
8499.000000;0.696778
8498.000000;0.696722
8497.000000;0.696743
8496.000000;0.696819
8495.000000;0.696894
8494.000000;0.696876
8493.000000;0.696725
8492.000000;0.696513
8491.000000;0.696372
8490.000000;0.696339
8489.000000;0.696295
8488.000000;0.696110
8487.000000;0.695831
8486.000000;0.695640
8485.000000;0.695614
8484.000000;0.695621
8483.000000;0.695515
8482.000000;0.695352
8481.000000;0.695304
8480.000000;0.695411
8479.000000;0.695533
8478.000000;0.695537
8477.000000;0.695423
8476.000000;0.695258
8475.000000;0.695084
8474.000000;0.694927
8473.000000;0.694825
8472.000000;0.694786
8471.000000;0.694755
8470.000000;0.694668
8469.000000;0.694517
8468.000000;0.694346
8467.000000;0.694217
8466.000000;0.694169
8465.000000;0.694182
8464.000000;0.694171
8463.000000;0.694058
8462.000000;0.693851
8461.000000;0.693632
8460.000000;0.693448
8459.000000;0.693270
8458.000000;0.693054
8457.000000;0.692812
8456.000000;0.692610
8455.000000;0.692521
8454.000000;0.692564
8453.000000;0.692664
8452.000000;0.692689
8451.000000;0.692578
8450.000000;0.692407
8449.000000;0.692288
8448.000000;0.692216
8447.000000;0.692111
8446.000000;0.691978
8445.000000;0.691935
8444.000000;0.692046
8443.000000;0.692206
8442.000000;0.692226
8441.000000;0.692002
8440.000000;0.691580
8439.000000;0.691108
8438.000000;0.690754
8437.000000;0.690613
8436.000000;0.690635
8435.000000;0.690678
8434.000000;0.690649
8433.000000;0.690575
8432.000000;0.690531
8431.000000;0.690540
8430.000000;0.690573
8429.000000;0.690583
8428.000000;0.690528
8427.000000;0.690391
8426.000000;0.690212
8425.000000;0.690047
8424.000000;0.689892
8423.000000;0.689691
8422.000000;0.689451
8421.000000;0.689288
8420.000000;0.689319
8419.000000;0.689516
8418.000000;0.689719
8417.000000;0.689769
8416.000000;0.689604
8415.000000;0.689281
8414.000000;0.688933
8413.000000;0.688713
8412.000000;0.688694
8411.000000;0.688793
8410.000000;0.688821
8409.000000;0.688663
8408.000000;0.688402
8407.000000;0.688265
8406.000000;0.688408
8405.000000;0.688748
8404.000000;0.689032
8403.000000;0.689060
8402.000000;0.688839
8401.000000;0.688525
8400.000000;0.688250
8399.000000;0.688034
8398.000000;0.687816
8397.000000;0.687542
8396.000000;0.687230
8395.000000;0.686981
8394.000000;0.686896
8393.000000;0.686955
8392.000000;0.687025
8391.000000;0.687001
8390.000000;0.686889
8389.000000;0.686730
8388.000000;0.686512
8387.000000;0.686244
8386.000000;0.686042
8385.000000;0.686037
8384.000000;0.686188
8383.000000;0.686316
8382.000000;0.686316
8381.000000;0.686239
8380.000000;0.686143
8379.000000;0.685984
8378.000000;0.685699
8377.000000;0.685340
8376.000000;0.685041
8375.000000;0.684903
8374.000000;0.684942
8373.000000;0.685100
8372.000000;0.685267
8371.000000;0.685309
8370.000000;0.685158
8369.000000;0.684882
8368.000000;0.684633
8367.000000;0.684529
8366.000000;0.684588
8365.000000;0.684740
8364.000000;0.684883
8363.000000;0.684925
8362.000000;0.684812
8361.000000;0.684543
8360.000000;0.684188
8359.000000;0.683869
8358.000000;0.683694
8357.000000;0.683659
8356.000000;0.683654
8355.000000;0.683580
8354.000000;0.683438
8353.000000;0.683276
8352.000000;0.683101
8351.000000;0.682889
8350.000000;0.682651
8349.000000;0.682413
8348.000000;0.682171
8347.000000;0.681929
8346.000000;0.681764
8345.000000;0.681774
8344.000000;0.681947
8343.000000;0.682156
8342.000000;0.682291
8341.000000;0.682340
8340.000000;0.682325
8339.000000;0.682266
8338.000000;0.682201
8337.000000;0.682195
8336.000000;0.682252
8335.000000;0.682279
8334.000000;0.682175
8333.000000;0.681930
8332.000000;0.681624
8331.000000;0.681350
8330.000000;0.681149
8329.000000;0.681000
8328.000000;0.680864
8327.000000;0.680747
8326.000000;0.680701
8325.000000;0.680735
8324.000000;0.680774
8323.000000;0.680754
8322.000000;0.680730
8321.000000;0.680809
8320.000000;0.680995
8319.000000;0.681180
8318.000000;0.681250
8317.000000;0.681154
8316.000000;0.680878
8315.000000;0.680451
8314.000000;0.680000
8313.000000;0.679681
8312.000000;0.679548
8311.000000;0.679534
8310.000000;0.679568
8309.000000;0.679621
8308.000000;0.679638
8307.000000;0.679536
8306.000000;0.679308
8305.000000;0.679054
8304.000000;0.678858
8303.000000;0.678729
8302.000000;0.678677
8301.000000;0.678752
8300.000000;0.678948
8299.000000;0.679160
8298.000000;0.679268
8297.000000;0.679230
8296.000000;0.679048
8295.000000;0.678747
8294.000000;0.678429
8293.000000;0.678258
8292.000000;0.678299
8291.000000;0.678439
8290.000000;0.678523
8289.000000;0.678503
8288.000000;0.678390
8287.000000;0.678163
8286.000000;0.677833
8285.000000;0.677533
8284.000000;0.677407
8283.000000;0.677431
8282.000000;0.677440
8281.000000;0.677335
8280.000000;0.677160
8279.000000;0.677014
8278.000000;0.676941
8277.000000;0.676926
8276.000000;0.676914
8275.000000;0.676831
8274.000000;0.676662
8273.000000;0.676514
8272.000000;0.676536
8271.000000;0.676750
8270.000000;0.676994
8269.000000;0.677070
8268.000000;0.676919
8267.000000;0.676656
8266.000000;0.676460
8265.000000;0.676424
8264.000000;0.676484
8263.000000;0.676492
8262.000000;0.676363
8261.000000;0.676154
8260.000000;0.675982
8259.000000;0.675897
8258.000000;0.675874
8257.000000;0.675869
8256.000000;0.675853
8255.000000;0.675790
8254.000000;0.675668
8253.000000;0.675518
8252.000000;0.675377
8251.000000;0.675234
8250.000000;0.675037
8249.000000;0.674784
8248.000000;0.674537
8247.000000;0.674369
8246.000000;0.674308
8245.000000;0.674342
8244.000000;0.674422
8243.000000;0.674476
8242.000000;0.674454
8241.000000;0.674367
8240.000000;0.674272
8239.000000;0.674197
8238.000000;0.674123
8237.000000;0.674020
8236.000000;0.673881
8235.000000;0.673716
8234.000000;0.673551
8233.000000;0.673428
8232.000000;0.673383
8231.000000;0.673398
8230.000000;0.673405
8229.000000;0.673355
8228.000000;0.673272
8227.000000;0.673206
8226.000000;0.673160
8225.000000;0.673082
8224.000000;0.672930
8223.000000;0.672738
8222.000000;0.672587
8221.000000;0.672514
8220.000000;0.672473
8219.000000;0.672398
8218.000000;0.672298
8217.000000;0.672227
8216.000000;0.672199
8215.000000;0.672154
8214.000000;0.672051
8213.000000;0.671930
8212.000000;0.671855
8211.000000;0.671836
8210.000000;0.671838
8209.000000;0.671831
8208.000000;0.671776
8207.000000;0.671622
8206.000000;0.671363
8205.000000;0.671114
8204.000000;0.671023
8203.000000;0.671113
8202.000000;0.671242
8201.000000;0.671261
8200.000000;0.671149
8199.000000;0.670991
8198.000000;0.670850
8197.000000;0.670720
8196.000000;0.670581
8195.000000;0.670452
8194.000000;0.670382
8193.000000;0.670387
8192.000000;0.670415
8191.000000;0.670371
8190.000000;0.670205
8189.000000;0.669972
8188.000000;0.669776
8187.000000;0.669661
8186.000000;0.669578
8185.000000;0.669483
8184.000000;0.669417
8183.000000;0.669450
8182.000000;0.669560
8181.000000;0.669623
8180.000000;0.669543
8179.000000;0.669350
8178.000000;0.669156
8177.000000;0.669040
8176.000000;0.668991
8175.000000;0.668950
8174.000000;0.668873
8173.000000;0.668760
8172.000000;0.668654
8171.000000;0.668596
8170.000000;0.668586
8169.000000;0.668589
8168.000000;0.668588
8167.000000;0.668603
8166.000000;0.668635
8165.000000;0.668625
8164.000000;0.668520
8163.000000;0.668366
8162.000000;0.668277
8161.000000;0.668288
8160.000000;0.668295
8159.000000;0.668181
8158.000000;0.667953
8157.000000;0.667725
8156.000000;0.667584
8155.000000;0.667529
8154.000000;0.667511
8153.000000;0.667493
8152.000000;0.667450
8151.000000;0.667376
8150.000000;0.667278
8149.000000;0.667175
8148.000000;0.667064
8147.000000;0.666924
8146.000000;0.666751
8145.000000;0.666586
8144.000000;0.666494
8143.000000;0.666518
8142.000000;0.666628
8141.000000;0.666727
8140.000000;0.666716
8139.000000;0.666576
8138.000000;0.666364
8137.000000;0.666143
8136.000000;0.665946
8135.000000;0.665814
8134.000000;0.665792
8133.000000;0.665849
8132.000000;0.665856
8131.000000;0.665713
8130.000000;0.665483
8129.000000;0.665332
8128.000000;0.665347
8127.000000;0.665463
8126.000000;0.665564
8125.000000;0.665592
8124.000000;0.665542
8123.000000;0.665436
8122.000000;0.665325
8121.000000;0.665267
8120.000000;0.665261
8119.000000;0.665243
8118.000000;0.665167
8117.000000;0.665045
8116.000000;0.664899
8115.000000;0.664714
8114.000000;0.664483
8113.000000;0.664263
8112.000000;0.664137
8111.000000;0.664126
8110.000000;0.664186
8109.000000;0.664271
8108.000000;0.664365
8107.000000;0.664466
8106.000000;0.664559
8105.000000;0.664602
8104.000000;0.664527
8103.000000;0.664295
8102.000000;0.663965
8101.000000;0.663688
8100.000000;0.663581
8099.000000;0.663607
8098.000000;0.663623
8097.000000;0.663526
8096.000000;0.663338
8095.000000;0.663153
8094.000000;0.663045
8093.000000;0.663023
8092.000000;0.663031
8091.000000;0.662987
8090.000000;0.662863
8089.000000;0.662718
8088.000000;0.662636
8087.000000;0.662622
8086.000000;0.662599
8085.000000;0.662515
8084.000000;0.662420
8083.000000;0.662392
8082.000000;0.662435
8081.000000;0.662485
8080.000000;0.662493
8079.000000;0.662452
8078.000000;0.662360
8077.000000;0.662195
8076.000000;0.661966
8075.000000;0.661739
8074.000000;0.661593
8073.000000;0.661553
8072.000000;0.661588
8071.000000;0.661633
8070.000000;0.661627
8069.000000;0.661542
8068.000000;0.661410
8067.000000;0.661303
8066.000000;0.661281
8065.000000;0.661330
8064.000000;0.661388
8063.000000;0.661401
8062.000000;0.661360
8061.000000;0.661294
8060.000000;0.661234
8059.000000;0.661181
8058.000000;0.661091
8057.000000;0.660919
8056.000000;0.660687
8055.000000;0.660486
8054.000000;0.660388
8053.000000;0.660368
8052.000000;0.660330
8051.000000;0.660215
8050.000000;0.660055
8049.000000;0.659944
8048.000000;0.659958
8047.000000;0.660098
8046.000000;0.660273
8045.000000;0.660360
8044.000000;0.660310
8043.000000;0.660180
8042.000000;0.660059
8041.000000;0.659977
8040.000000;0.659930
8039.000000;0.659945
8038.000000;0.660041
8037.000000;0.660144
8036.000000;0.660119
8035.000000;0.659902
8034.000000;0.659555
8033.000000;0.659198
8032.000000;0.658935
8031.000000;0.658832
8030.000000;0.658882
8029.000000;0.658982
8028.000000;0.658994
8027.000000;0.658893
8026.000000;0.658780
8025.000000;0.658745
8024.000000;0.658771
8023.000000;0.658791
8022.000000;0.658779
8021.000000;0.658738
8020.000000;0.658665
8019.000000;0.658579
8018.000000;0.658526
8017.000000;0.658514
8016.000000;0.658492
8015.000000;0.658436
8014.000000;0.658405
8013.000000;0.658444
8012.000000;0.658489
8011.000000;0.658443
8010.000000;0.658305
8009.000000;0.658169
8008.000000;0.658099
8007.000000;0.658089
8006.000000;0.658120
8005.000000;0.658173
8004.000000;0.658197
8003.000000;0.658116
8002.000000;0.657897
8001.000000;0.657572
8000.000000;0.657223
7999.000000;0.656962
7998.000000;0.656875
7997.000000;0.656934
7996.000000;0.656993
7995.000000;0.656936
7994.000000;0.656813
7993.000000;0.656758
7992.000000;0.656798
7991.000000;0.656833
7990.000000;0.656788
7989.000000;0.656685
7988.000000;0.656576
7987.000000;0.656470
7986.000000;0.656375
7985.000000;0.656320
7984.000000;0.656317
7983.000000;0.656331
7982.000000;0.656332
7981.000000;0.656317
7980.000000;0.656275
7979.000000;0.656173
7978.000000;0.656009
7977.000000;0.655840
7976.000000;0.655726
7975.000000;0.655677
7974.000000;0.655671
7973.000000;0.655683
7972.000000;0.655687
7971.000000;0.655657
7970.000000;0.655594
7969.000000;0.655523
7968.000000;0.655449
7967.000000;0.655348
7966.000000;0.655200
7965.000000;0.655017
7964.000000;0.654823
7963.000000;0.654659
7962.000000;0.654599
7961.000000;0.654684
7960.000000;0.654837
7959.000000;0.654894
7958.000000;0.654779
7957.000000;0.654584
7956.000000;0.654454
7955.000000;0.654427
7954.000000;0.654440
7953.000000;0.654428
7952.000000;0.654371
7951.000000;0.654266
7950.000000;0.654122
7949.000000;0.653992
7948.000000;0.653933
7947.000000;0.653941
7946.000000;0.653955
7945.000000;0.653935
7944.000000;0.653898
7943.000000;0.653860
7942.000000;0.653800
7941.000000;0.653694
7940.000000;0.653582
7939.000000;0.653530
7938.000000;0.653551
7937.000000;0.653583
7936.000000;0.653557
7935.000000;0.653467
7934.000000;0.653357
7933.000000;0.653250
7932.000000;0.653140
7931.000000;0.653034
7930.000000;0.652973
7929.000000;0.652992
7928.000000;0.653079
7927.000000;0.653172
7926.000000;0.653207
7925.000000;0.653146
7924.000000;0.652991
7923.000000;0.652795
7922.000000;0.652631
7921.000000;0.652546
7920.000000;0.652530
7919.000000;0.652550
7918.000000;0.652575
7917.000000;0.652565
7916.000000;0.652485
7915.000000;0.652345
7914.000000;0.652207
7913.000000;0.652119
7912.000000;0.652071
7911.000000;0.652034
7910.000000;0.652005
7909.000000;0.651974
7908.000000;0.651890
7907.000000;0.651724
7906.000000;0.651549
7905.000000;0.651484
7904.000000;0.651551
7903.000000;0.651649
7902.000000;0.651675
7901.000000;0.651629
7900.000000;0.651576
7899.000000;0.651558
7898.000000;0.651553
7897.000000;0.651511
7896.000000;0.651391
7895.000000;0.651203
7894.000000;0.650999
7893.000000;0.650826
7892.000000;0.650675
7891.000000;0.650524
7890.000000;0.650412
7889.000000;0.650423
7888.000000;0.650577
7887.000000;0.650764
7886.000000;0.650847
7885.000000;0.650785
7884.000000;0.650648
7883.000000;0.650516
7882.000000;0.650407
7881.000000;0.650292
7880.000000;0.650156
7879.000000;0.650041
7878.000000;0.650003
7877.000000;0.650039
7876.000000;0.650071
7875.000000;0.650023
7874.000000;0.649899
7873.000000;0.649773
7872.000000;0.649710
7871.000000;0.649719
7870.000000;0.649761
7869.000000;0.649776
7868.000000;0.649704
7867.000000;0.649541
7866.000000;0.649364
7865.000000;0.649256
7864.000000;0.649221
7863.000000;0.649178
7862.000000;0.649069
7861.000000;0.648922
7860.000000;0.648807
7859.000000;0.648768
7858.000000;0.648797
7857.000000;0.648840
7856.000000;0.648819
7855.000000;0.648698
7854.000000;0.648539
7853.000000;0.648456
7852.000000;0.648492
7851.000000;0.648575
7850.000000;0.648607
7849.000000;0.648553
7848.000000;0.648434
7847.000000;0.648283
7846.000000;0.648133
7845.000000;0.648027
7844.000000;0.647993
7843.000000;0.648019
7842.000000;0.648067
7841.000000;0.648105
7840.000000;0.648117
7839.000000;0.648111
7838.000000;0.648118
7837.000000;0.648152
7836.000000;0.648159
7835.000000;0.648043
7834.000000;0.647782
7833.000000;0.647473
7832.000000;0.647240
7831.000000;0.647116
7830.000000;0.647056
7829.000000;0.647027
7828.000000;0.647038
7827.000000;0.647088
7826.000000;0.647139
7825.000000;0.647148
7824.000000;0.647102
7823.000000;0.647021
7822.000000;0.646936
7821.000000;0.646880
7820.000000;0.646867
7819.000000;0.646874
7818.000000;0.646858
7817.000000;0.646800
7816.000000;0.646715
7815.000000;0.646618
7814.000000;0.646503
7813.000000;0.646364
7812.000000;0.646239
7811.000000;0.646182
7810.000000;0.646197
7809.000000;0.646211
7808.000000;0.646145
7807.000000;0.646014
7806.000000;0.645910
7805.000000;0.645884
7804.000000;0.645885
7803.000000;0.645847
7802.000000;0.645794
7801.000000;0.645804
7800.000000;0.645865
7799.000000;0.645855
7798.000000;0.645689
7797.000000;0.645435
7796.000000;0.645243
7795.000000;0.645187
7794.000000;0.645213
7793.000000;0.645231
7792.000000;0.645200
7791.000000;0.645131
7790.000000;0.645045
7789.000000;0.644947
7788.000000;0.644829
7787.000000;0.644692
7786.000000;0.644572
7785.000000;0.644534
7784.000000;0.644602
7783.000000;0.644715
7782.000000;0.644770
7781.000000;0.644724
7780.000000;0.644620
7779.000000;0.644517
7778.000000;0.644423
7777.000000;0.644319
7776.000000;0.644206
7775.000000;0.644105
7774.000000;0.644009
7773.000000;0.643887
7772.000000;0.643730
7771.000000;0.643574
7770.000000;0.643460
7769.000000;0.643402
7768.000000;0.643397
7767.000000;0.643445
7766.000000;0.643525
7765.000000;0.643582
7764.000000;0.643551
7763.000000;0.643430
7762.000000;0.643282
7761.000000;0.643180
7760.000000;0.643141
7759.000000;0.643136
7758.000000;0.643132
7757.000000;0.643110
7756.000000;0.643052
7755.000000;0.642929
7754.000000;0.642732
7753.000000;0.642495
7752.000000;0.642291
7751.000000;0.642184
7750.000000;0.642188
7749.000000;0.642267
7748.000000;0.642373
7747.000000;0.642456
7746.000000;0.642471
7745.000000;0.642381
7744.000000;0.642193
7743.000000;0.641966
7742.000000;0.641783
7741.000000;0.641686
7740.000000;0.641662
7739.000000;0.641671
7738.000000;0.641675
7737.000000;0.641656
7736.000000;0.641622
7735.000000;0.641600
7734.000000;0.641605
7733.000000;0.641617
7732.000000;0.641603
7731.000000;0.641563
7730.000000;0.641520
7729.000000;0.641477
7728.000000;0.641417
7727.000000;0.641332
7726.000000;0.641250
7725.000000;0.641197
7724.000000;0.641175
7723.000000;0.641173
7722.000000;0.641171
7721.000000;0.641137
7720.000000;0.641044
7719.000000;0.640901
7718.000000;0.640744
7717.000000;0.640582
7716.000000;0.640404
7715.000000;0.640233
7714.000000;0.640136
7713.000000;0.640148
7712.000000;0.640229
7711.000000;0.640309
7710.000000;0.640354
7709.000000;0.640359
7708.000000;0.640315
7707.000000;0.640217
7706.000000;0.640099
7705.000000;0.640003
7704.000000;0.639934
7703.000000;0.639869
7702.000000;0.639806
7701.000000;0.639766
7700.000000;0.639764
7699.000000;0.639786
7698.000000;0.639808
7697.000000;0.639810
7696.000000;0.639780
7695.000000;0.639729
7694.000000;0.639677
7693.000000;0.639624
7692.000000;0.639535
7691.000000;0.639385
7690.000000;0.639197
7689.000000;0.639024
7688.000000;0.638902
7687.000000;0.638830
7686.000000;0.638785
7685.000000;0.638740
7684.000000;0.638678
7683.000000;0.638626
7682.000000;0.638642
7681.000000;0.638747
7680.000000;0.638878
7679.000000;0.638933
7678.000000;0.638858
7677.000000;0.638678
7676.000000;0.638462
7675.000000;0.638277
7674.000000;0.638162
7673.000000;0.638104
7672.000000;0.638062
7671.000000;0.638016
7670.000000;0.637987
7669.000000;0.637985
7668.000000;0.637975
7667.000000;0.637923
7666.000000;0.637847
7665.000000;0.637784
7664.000000;0.637724
7663.000000;0.637625
7662.000000;0.637494
7661.000000;0.637395
7660.000000;0.637378
7659.000000;0.637431
7658.000000;0.637499
7657.000000;0.637534
7656.000000;0.637511
7655.000000;0.637442
7654.000000;0.637362
7653.000000;0.637293
7652.000000;0.637213
7651.000000;0.637087
7650.000000;0.636919
7649.000000;0.636750
7648.000000;0.636621
7647.000000;0.636548
7646.000000;0.636533
7645.000000;0.636566
7644.000000;0.636615
7643.000000;0.636646
7642.000000;0.636652
7641.000000;0.636650
7640.000000;0.636652
7639.000000;0.636650
7638.000000;0.636622
7637.000000;0.636543
7636.000000;0.636400
7635.000000;0.636216
7634.000000;0.636040
7633.000000;0.635901
7632.000000;0.635794
7631.000000;0.635710
7630.000000;0.635660
7629.000000;0.635650
7628.000000;0.635658
7627.000000;0.635660
7626.000000;0.635653
7625.000000;0.635630
7624.000000;0.635555
7623.000000;0.635426
7622.000000;0.635308
7621.000000;0.635269
7620.000000;0.635310
7619.000000;0.635379
7618.000000;0.635436
7617.000000;0.635454
7616.000000;0.635387
7615.000000;0.635232
7614.000000;0.635071
7613.000000;0.635000
7612.000000;0.634999
7611.000000;0.634958
7610.000000;0.634836
7609.000000;0.634710
7608.000000;0.634655
7607.000000;0.634651
7606.000000;0.634639
7605.000000;0.634609
7604.000000;0.634581
7603.000000;0.634548
7602.000000;0.634484
7601.000000;0.634390
7600.000000;0.634297
7599.000000;0.634218
7598.000000;0.634145
7597.000000;0.634060
7596.000000;0.633966
7595.000000;0.633886
7594.000000;0.633856
7593.000000;0.633896
7592.000000;0.633970
7591.000000;0.634002
7590.000000;0.633940
7589.000000;0.633802
7588.000000;0.633672
7587.000000;0.633642
7586.000000;0.633744
7585.000000;0.633907
7584.000000;0.633993
7583.000000;0.633908
7582.000000;0.633697
7581.000000;0.633499
7580.000000;0.633422
7579.000000;0.633473
7578.000000;0.633571
7577.000000;0.633608
7576.000000;0.633513
7575.000000;0.633308
7574.000000;0.633113
7573.000000;0.633044
7572.000000;0.633103
7571.000000;0.633192
7570.000000;0.633229
7569.000000;0.633215
7568.000000;0.633190
7567.000000;0.633177
7566.000000;0.633173
7565.000000;0.633151
7564.000000;0.633084
7563.000000;0.632981
7562.000000;0.632898
7561.000000;0.632862
7560.000000;0.632823
7559.000000;0.632716
7558.000000;0.632575
7557.000000;0.632501
7556.000000;0.632522
7555.000000;0.632555
7554.000000;0.632524
7553.000000;0.632446
7552.000000;0.632387
7551.000000;0.632391
7550.000000;0.632467
7549.000000;0.632583
7548.000000;0.632644
7547.000000;0.632560
7546.000000;0.632368
7545.000000;0.632229
7544.000000;0.632233
7543.000000;0.632300
7542.000000;0.632299
7541.000000;0.632232
7540.000000;0.632195
7539.000000;0.632230
7538.000000;0.632280
7537.000000;0.632289
7536.000000;0.632253
7535.000000;0.632191
7534.000000;0.632115
7533.000000;0.632051
7532.000000;0.632019
7531.000000;0.631999
7530.000000;0.631955
7529.000000;0.631895
7528.000000;0.631880
7527.000000;0.631939
7526.000000;0.632025
7525.000000;0.632060
7524.000000;0.632013
7523.000000;0.631925
7522.000000;0.631866
7521.000000;0.631865
7520.000000;0.631876
7519.000000;0.631832
7518.000000;0.631728
7517.000000;0.631634
7516.000000;0.631617
7515.000000;0.631656
7514.000000;0.631686
7513.000000;0.631682
7512.000000;0.631669
7511.000000;0.631657
7510.000000;0.631617
7509.000000;0.631524
7508.000000;0.631392
7507.000000;0.631256
7506.000000;0.631156
7505.000000;0.631136
7504.000000;0.631217
7503.000000;0.631367
7502.000000;0.631501
7501.000000;0.631541
7500.000000;0.631481
7499.000000;0.631367
7498.000000;0.631268
7497.000000;0.631232
7496.000000;0.631262
7495.000000;0.631305
7494.000000;0.631292
7493.000000;0.631195
7492.000000;0.631046
7491.000000;0.630910
7490.000000;0.630845
7489.000000;0.630895
7488.000000;0.631057
7487.000000;0.631264
7486.000000;0.631398
7485.000000;0.631376
7484.000000;0.631215
7483.000000;0.631019
7482.000000;0.630890
7481.000000;0.630856
7480.000000;0.630869
7479.000000;0.630872
7478.000000;0.630856
7477.000000;0.630845
7476.000000;0.630845
7475.000000;0.630835
7474.000000;0.630804
7473.000000;0.630774
7472.000000;0.630760
7471.000000;0.630737
7470.000000;0.630670
7469.000000;0.630583
7468.000000;0.630548
7467.000000;0.630602
7466.000000;0.630698
7465.000000;0.630762
7464.000000;0.630759
7463.000000;0.630712
7462.000000;0.630646
7461.000000;0.630566
7460.000000;0.630474
7459.000000;0.630390
7458.000000;0.630343
7457.000000;0.630351
7456.000000;0.630419
7455.000000;0.630527
7454.000000;0.630638
7453.000000;0.630718
7452.000000;0.630761
7451.000000;0.630796
7450.000000;0.630849
7449.000000;0.630917
7448.000000;0.630980
7447.000000;0.631017
7446.000000;0.631011
7445.000000;0.630935
7444.000000;0.630790
7443.000000;0.630635
7442.000000;0.630558
7441.000000;0.630593
7440.000000;0.630685
7439.000000;0.630765
7438.000000;0.630826
7437.000000;0.630904
7436.000000;0.630992
7435.000000;0.631034
7434.000000;0.631003
7433.000000;0.630949
7432.000000;0.630928
7431.000000;0.630934
7430.000000;0.630912
7429.000000;0.630848
7428.000000;0.630796
7427.000000;0.630826
7426.000000;0.630950
7425.000000;0.631112
7424.000000;0.631243
7423.000000;0.631307
7422.000000;0.631302
7421.000000;0.631236
7420.000000;0.631122
7419.000000;0.630999
7418.000000;0.630920
7417.000000;0.630923
7416.000000;0.631007
7415.000000;0.631148
7414.000000;0.631320
7413.000000;0.631481
7412.000000;0.631570
7411.000000;0.631550
7410.000000;0.631455
7409.000000;0.631368
7408.000000;0.631348
7407.000000;0.631395
7406.000000;0.631471
7405.000000;0.631533
7404.000000;0.631548
7403.000000;0.631504
7402.000000;0.631427
7401.000000;0.631366
7400.000000;0.631340
7399.000000;0.631327
7398.000000;0.631310
7397.000000;0.631295
7396.000000;0.631287
7395.000000;0.631283
7394.000000;0.631288
7393.000000;0.631316
7392.000000;0.631357
7391.000000;0.631368
7390.000000;0.631330
7389.000000;0.631288
7388.000000;0.631312
7387.000000;0.631428
7386.000000;0.631605
7385.000000;0.631775
7384.000000;0.631853
7383.000000;0.631754
7382.000000;0.631477
7381.000000;0.631160
7380.000000;0.631005
7379.000000;0.631099
7378.000000;0.631332
7377.000000;0.631500
7376.000000;0.631485
7375.000000;0.631334
7374.000000;0.631204
7373.000000;0.631231
7372.000000;0.631432
7371.000000;0.631695
7370.000000;0.631863
7369.000000;0.631866
7368.000000;0.631782
7367.000000;0.631757
7366.000000;0.631865
7365.000000;0.632030
7364.000000;0.632106
7363.000000;0.632006
7362.000000;0.631769
7361.000000;0.631543
7360.000000;0.631485
7359.000000;0.631643
7358.000000;0.631890
7357.000000;0.632039
7356.000000;0.632018
7355.000000;0.631937
7354.000000;0.631947
7353.000000;0.632057
7352.000000;0.632151
7351.000000;0.632123
7350.000000;0.631968
7349.000000;0.631750
7348.000000;0.631547
7347.000000;0.631419
7346.000000;0.631394
7345.000000;0.631473
7344.000000;0.631632
7343.000000;0.631828
7342.000000;0.631979
7341.000000;0.632020
7340.000000;0.631993
7339.000000;0.632058
7338.000000;0.632314
7337.000000;0.632646
7336.000000;0.632823
7335.000000;0.632760
7334.000000;0.632606
7333.000000;0.632573
7332.000000;0.632718
7331.000000;0.632906
7330.000000;0.632961
7329.000000;0.632853
7328.000000;0.632759
7327.000000;0.632895
7326.000000;0.633289
7325.000000;0.633756
7324.000000;0.634090
7323.000000;0.634244
7322.000000;0.634302
7321.000000;0.634339
7320.000000;0.634363
7319.000000;0.634366
7318.000000;0.634362
7317.000000;0.634369
7316.000000;0.634395
7315.000000;0.634439
7314.000000;0.634475
7313.000000;0.634446
7312.000000;0.634371
7311.000000;0.634394
7310.000000;0.634647
7309.000000;0.635044
7308.000000;0.635323
7307.000000;0.635331
7306.000000;0.635193
7305.000000;0.635168
7304.000000;0.635379
7303.000000;0.635729
7302.000000;0.636024
7301.000000;0.636119
7300.000000;0.636024
7299.000000;0.635933
7298.000000;0.636064
7297.000000;0.636436
7296.000000;0.636830
7295.000000;0.637039
7294.000000;0.637107
7293.000000;0.637221
7292.000000;0.637445
7291.000000;0.637660
7290.000000;0.637762
7289.000000;0.637803
7288.000000;0.637910
7287.000000;0.638145
7286.000000;0.638469
7285.000000;0.638811
7284.000000;0.639129
7283.000000;0.639406
7282.000000;0.639638
7281.000000;0.639829
7280.000000;0.639995
7279.000000;0.640167
7278.000000;0.640362
7277.000000;0.640562
7276.000000;0.640711
7275.000000;0.640784
7274.000000;0.640821
7273.000000;0.640912
7272.000000;0.641121
7271.000000;0.641442
7270.000000;0.641796
7269.000000;0.642087
7268.000000;0.642267
7267.000000;0.642372
7266.000000;0.642480
7265.000000;0.642636
7264.000000;0.642846
7263.000000;0.643121
7262.000000;0.643479
7261.000000;0.643887
7260.000000;0.644271
7259.000000;0.644591
7258.000000;0.644886
7257.000000;0.645179
7256.000000;0.645415
7255.000000;0.645528
7254.000000;0.645565
7253.000000;0.645643
7252.000000;0.645809
7251.000000;0.646010
7250.000000;0.646202
7249.000000;0.646420
7248.000000;0.646735
7247.000000;0.647184
7246.000000;0.647702
7245.000000;0.648133
7244.000000;0.648348
7243.000000;0.648414
7242.000000;0.648584
7241.000000;0.649041
7240.000000;0.649669
7239.000000;0.650199
7238.000000;0.650533
7237.000000;0.650843
7236.000000;0.651303
7235.000000;0.651823
7234.000000;0.652138
7233.000000;0.652133
7232.000000;0.652015
7231.000000;0.652126
7230.000000;0.652619
7229.000000;0.653338
7228.000000;0.654005
7227.000000;0.654469
7226.000000;0.654802
7225.000000;0.655183
7224.000000;0.655710
7223.000000;0.656321
7222.000000;0.656871
7221.000000;0.657267
7220.000000;0.657540
7219.000000;0.657808
7218.000000;0.658172
7217.000000;0.658643
7216.000000;0.659173
7215.000000;0.659713
7214.000000;0.660233
7213.000000;0.660691
7212.000000;0.661028
7211.000000;0.661240
7210.000000;0.661430
7209.000000;0.661735
7208.000000;0.662198
7207.000000;0.662727
7206.000000;0.663200
7205.000000;0.663586
7204.000000;0.663952
7203.000000;0.664377
7202.000000;0.664880
7201.000000;0.665443
7200.000000;0.666049
7199.000000;0.666672
7198.000000;0.667253
7197.000000;0.667746
7196.000000;0.668190
7195.000000;0.668694
7194.000000;0.669297
7193.000000;0.669910
7192.000000;0.670420
7191.000000;0.670827
7190.000000;0.671204
7189.000000;0.671549
7188.000000;0.671787
7187.000000;0.671930
7186.000000;0.672146
7185.000000;0.672589
7184.000000;0.673240
7183.000000;0.673969
7182.000000;0.674715
7181.000000;0.675501
7180.000000;0.676326
7179.000000;0.677112
7178.000000;0.677759
7177.000000;0.678202
7176.000000;0.678456
7175.000000;0.678663
7174.000000;0.679063
7173.000000;0.679814
7172.000000;0.680815
7171.000000;0.681774
7170.000000;0.682490
7169.000000;0.683010
7168.000000;0.683509
7167.000000;0.684098
7166.000000;0.684778
7165.000000;0.685502
7164.000000;0.686191
7163.000000;0.686750
7162.000000;0.687161
7161.000000;0.687556
7160.000000;0.688112
7159.000000;0.688826
7158.000000;0.689489
7157.000000;0.689924
7156.000000;0.690236
7155.000000;0.690729
7154.000000;0.691550
7153.000000;0.692470
7152.000000;0.693125
7151.000000;0.693459
7150.000000;0.693799
7149.000000;0.694436
7148.000000;0.695248
7147.000000;0.695891
7146.000000;0.696265
7145.000000;0.696605
7144.000000;0.697098
7143.000000;0.697609
7142.000000;0.697904
7141.000000;0.698015
7140.000000;0.698240
7139.000000;0.698779
7138.000000;0.699474
7137.000000;0.700015
7136.000000;0.700369
7135.000000;0.700894
7134.000000;0.701914
7133.000000;0.703223
7132.000000;0.704158
7131.000000;0.704278
7130.000000;0.703868
7129.000000;0.703631
7128.000000;0.703982
7127.000000;0.704757
7126.000000;0.705507
7125.000000;0.705884
7124.000000;0.705778
7123.000000;0.705353
7122.000000;0.705010
7121.000000;0.705079
7120.000000;0.705454
7119.000000;0.705702
7118.000000;0.705605
7117.000000;0.705427
7116.000000;0.705529
7115.000000;0.705903
7114.000000;0.706300
7113.000000;0.706647
7112.000000;0.707086
7111.000000;0.707632
7110.000000;0.708002
7109.000000;0.707865
7108.000000;0.707176
7107.000000;0.706230
7106.000000;0.705474
7105.000000;0.705214
7104.000000;0.705403
7103.000000;0.705691
7102.000000;0.705731
7101.000000;0.705475
7100.000000;0.705155
7099.000000;0.704959
7098.000000;0.704749
7097.000000;0.704134
7096.000000;0.702894
7095.000000;0.701328
7094.000000;0.700111
7093.000000;0.699712
7092.000000;0.699972
7091.000000;0.700309
7090.000000;0.700245
7089.000000;0.699660
7088.000000;0.698689
7087.000000;0.697611
7086.000000;0.696780
7085.000000;0.696403
7084.000000;0.696270
7083.000000;0.695892
7082.000000;0.695018
7081.000000;0.693860
7080.000000;0.692729
7079.000000;0.691654
7078.000000;0.690527
7077.000000;0.689457
7076.000000;0.688667
7075.000000;0.688049
7074.000000;0.687072
7073.000000;0.685275
7072.000000;0.682771
7071.000000;0.680187
7070.000000;0.678165
7069.000000;0.676971
7068.000000;0.676461
7067.000000;0.676234
7066.000000;0.675846
7065.000000;0.675023
7064.000000;0.673769
7063.000000;0.672263
7062.000000;0.670651
7061.000000;0.669001
7060.000000;0.667461
7059.000000;0.666249
7058.000000;0.665324
7057.000000;0.664175
7056.000000;0.662244
7055.000000;0.659602
7054.000000;0.656975
7053.000000;0.655020
7052.000000;0.653747
7051.000000;0.652748
7050.000000;0.651782
7049.000000;0.650881
7048.000000;0.649986
7047.000000;0.648748
7046.000000;0.646784
7045.000000;0.644057
7044.000000;0.640944
7043.000000;0.637929
7042.000000;0.635250
7041.000000;0.632845
7040.000000;0.630611
7039.000000;0.628574
7038.000000;0.626687
7037.000000;0.624614
7036.000000;0.622075
7035.000000;0.619367
7034.000000;0.617131
7033.000000;0.615466
7032.000000;0.613685
7031.000000;0.611210
7030.000000;0.608420
7029.000000;0.606267
7028.000000;0.605176
7027.000000;0.604669
7026.000000;0.603875
7025.000000;0.602116
7024.000000;0.599131
7023.000000;0.595152
7022.000000;0.590861
7021.000000;0.587073
7020.000000;0.584296
7019.000000;0.582538
7018.000000;0.581327
7017.000000;0.579866
7016.000000;0.577494
7015.000000;0.574298
7014.000000;0.571123
7013.000000;0.568739
7012.000000;0.567123
7011.000000;0.565692
7010.000000;0.564007
7009.000000;0.561981
7008.000000;0.559623
7007.000000;0.556925
7006.000000;0.553929
7005.000000;0.550674
7004.000000;0.547159
7003.000000;0.543515
7002.000000;0.540057
7001.000000;0.536965
7000.000000;0.534126
6999.000000;0.531515
6998.000000;0.529451
6997.000000;0.528110
6996.000000;0.526947
6995.000000;0.525019
6994.000000;0.521848
6993.000000;0.517734
6992.000000;0.513414
6991.000000;0.509705
6990.000000;0.507224
6989.000000;0.505951
6988.000000;0.505134
6987.000000;0.503950
6986.000000;0.502169
6985.000000;0.499889
6984.000000;0.496911
6983.000000;0.492911
6982.000000;0.488174
6981.000000;0.483650
6980.000000;0.480154
6979.000000;0.477837
6978.000000;0.476375
6977.000000;0.475309
6976.000000;0.474178
6975.000000;0.472654
6974.000000;0.470659
6973.000000;0.468199
6972.000000;0.465129
6971.000000;0.461273
6970.000000;0.456777
6969.000000;0.452176
6968.000000;0.448124
6967.000000;0.445155
6966.000000;0.443496
6965.000000;0.442831
6964.000000;0.442347
6963.000000;0.441284
6962.000000;0.439416
6961.000000;0.436906
6960.000000;0.433890
6959.000000;0.430455
6958.000000;0.426835
6957.000000;0.423362
6956.000000;0.420282
6955.000000;0.417763
6954.000000;0.415918
6953.000000;0.414655
6952.000000;0.413677
6951.000000;0.412775
6950.000000;0.411892
6949.000000;0.410759
6948.000000;0.408794
6947.000000;0.405650
6946.000000;0.401691
6945.000000;0.397735
6944.000000;0.394422
6943.000000;0.391882
6942.000000;0.389754
6941.000000;0.387417
6940.000000;0.384542
6939.000000;0.381555
6938.000000;0.379263
6937.000000;0.377887
6936.000000;0.376838
6935.000000;0.375569
6934.000000;0.374138
6933.000000;0.372680
6932.000000;0.370906
6931.000000;0.368567
6930.000000;0.365980
6929.000000;0.363662
6928.000000;0.361736
6927.000000;0.360057
6926.000000;0.358524
6925.000000;0.356932
6924.000000;0.354879
6923.000000;0.352239
6922.000000;0.349425
6921.000000;0.346824
6920.000000;0.344281
6919.000000;0.341510
6918.000000;0.338716
6917.000000;0.336451
6916.000000;0.335100
6915.000000;0.334705
6914.000000;0.334924
6913.000000;0.334900
6912.000000;0.333744
6911.000000;0.331516
6910.000000;0.329267
6909.000000;0.327701
6908.000000;0.326286
6907.000000;0.324142
6906.000000;0.321325
6905.000000;0.318637
6904.000000;0.316563
6903.000000;0.315002
6902.000000;0.313785
6901.000000;0.312887
6900.000000;0.312237
6899.000000;0.311693
6898.000000;0.311063
6897.000000;0.309943
6896.000000;0.307930
6895.000000;0.305310
6894.000000;0.303103
6893.000000;0.302004
6892.000000;0.301630
6891.000000;0.301144
6890.000000;0.300177
6889.000000;0.298766
6888.000000;0.296989
6887.000000;0.295198
6886.000000;0.294108
6885.000000;0.293980
6884.000000;0.294045
6883.000000;0.293359
6882.000000;0.291901
6881.000000;0.290297
6880.000000;0.288844
6879.000000;0.287420
6878.000000;0.286096
6877.000000;0.285124
6876.000000;0.284443
6875.000000;0.283733
6874.000000;0.282904
6873.000000;0.282140
6872.000000;0.281541
6871.000000;0.281001
6870.000000;0.280291
6869.000000;0.279076
6868.000000;0.277243
6867.000000;0.275423
6866.000000;0.274741
6865.000000;0.275579
6864.000000;0.276990
6863.000000;0.277725
6862.000000;0.277420
6861.000000;0.276424
6860.000000;0.275017
6859.000000;0.273376
6858.000000;0.271855
6857.000000;0.270714
6856.000000;0.269869
6855.000000;0.269366
6854.000000;0.269624
6853.000000;0.270612
6852.000000;0.271262
6851.000000;0.270465
6850.000000;0.268452
6849.000000;0.266563
6848.000000;0.265845
6847.000000;0.266403
6846.000000;0.267826
6845.000000;0.269477
6844.000000;0.270530
6843.000000;0.270447
6842.000000;0.269523
6841.000000;0.268586
6840.000000;0.268127
6839.000000;0.268012
6838.000000;0.267884
6837.000000;0.267474
6836.000000;0.266729
6835.000000;0.266015
6834.000000;0.265994
6833.000000;0.266904
6832.000000;0.268160
6831.000000;0.268984
6830.000000;0.269173
6829.000000;0.268955
6828.000000;0.268464
6827.000000;0.267819
6826.000000;0.267411
6825.000000;0.267550
6824.000000;0.267978
6823.000000;0.268147
6822.000000;0.267864
6821.000000;0.267366
6820.000000;0.267034
6819.000000;0.267304
6818.000000;0.268478
6817.000000;0.270221
6816.000000;0.271626
6815.000000;0.272237
6814.000000;0.272649
6813.000000;0.273581
6812.000000;0.274736
6811.000000;0.275224
6810.000000;0.274852
6809.000000;0.274300
6808.000000;0.274120
6807.000000;0.274224
6806.000000;0.274381
6805.000000;0.274653
6804.000000;0.275196
6803.000000;0.275978
6802.000000;0.276777
6801.000000;0.277252
6800.000000;0.277184
6799.000000;0.276903
6798.000000;0.277234
6797.000000;0.278588
6796.000000;0.280279
6795.000000;0.281246
6794.000000;0.281325
6793.000000;0.281355
6792.000000;0.282078
6791.000000;0.283438
6790.000000;0.284954
6789.000000;0.286280
6788.000000;0.287243
6787.000000;0.287739
6786.000000;0.287863
6785.000000;0.287941
6784.000000;0.288257
6783.000000;0.288814
6782.000000;0.289427
6781.000000;0.289937
6780.000000;0.290342
6779.000000;0.290778
6778.000000;0.291373
6777.000000;0.292080
6776.000000;0.292744
6775.000000;0.293337
6774.000000;0.293953
6773.000000;0.294523
6772.000000;0.294779
6771.000000;0.294648
6770.000000;0.294464
6769.000000;0.294602
6768.000000;0.295131
6767.000000;0.295983
6766.000000;0.297199
6765.000000;0.298742
6764.000000;0.300277
6763.000000;0.301430
6762.000000;0.302137
6761.000000;0.302544
6760.000000;0.302772
6759.000000;0.303034
6758.000000;0.303755
6757.000000;0.305173
6756.000000;0.306907
6755.000000;0.308249
6754.000000;0.308883
6753.000000;0.309074
6752.000000;0.309193
6751.000000;0.309326
6750.000000;0.309386
6749.000000;0.309399
6748.000000;0.309601
6747.000000;0.310281
6746.000000;0.311469
6745.000000;0.312749
6744.000000;0.313571
6743.000000;0.313869
6742.000000;0.314164
6741.000000;0.314884
6740.000000;0.315837
6739.000000;0.316581
6738.000000;0.317091
6737.000000;0.317730
6736.000000;0.318663
6735.000000;0.319679
6734.000000;0.320544
6733.000000;0.321234
6732.000000;0.321789
6731.000000;0.322241
6730.000000;0.322731
6729.000000;0.323477
6728.000000;0.324478
6727.000000;0.325423
6726.000000;0.326002
6725.000000;0.326242
6724.000000;0.326480
6723.000000;0.327026
6722.000000;0.327875
6721.000000;0.328726
6720.000000;0.329291
6719.000000;0.329581
6718.000000;0.329854
6717.000000;0.330303
6716.000000;0.330900
6715.000000;0.331554
6714.000000;0.332270
6713.000000;0.333092
6712.000000;0.334019
6711.000000;0.335042
6710.000000;0.336121
6709.000000;0.337104
6708.000000;0.337773
6707.000000;0.338141
6706.000000;0.338479
6705.000000;0.339037
6704.000000;0.339816
6703.000000;0.340647
6702.000000;0.341371
6701.000000;0.341879
6700.000000;0.342160
6699.000000;0.342400
6698.000000;0.342856
6697.000000;0.343529
6696.000000;0.344137
6695.000000;0.344515
6694.000000;0.344850
6693.000000;0.345406
6692.000000;0.346202
6691.000000;0.347119
6690.000000;0.348096
6689.000000;0.349024
6688.000000;0.349666
6687.000000;0.349928
6686.000000;0.350071
6685.000000;0.350419
6684.000000;0.350964
6683.000000;0.351474
6682.000000;0.351888
6681.000000;0.352358
6680.000000;0.352974
6679.000000;0.353693
6678.000000;0.354505
6677.000000;0.355433
6676.000000;0.356395
6675.000000;0.357258
6674.000000;0.358008
6673.000000;0.358709
6672.000000;0.359329
6671.000000;0.359784
6670.000000;0.360128
6669.000000;0.360534
6668.000000;0.361087
6667.000000;0.361743
6666.000000;0.362461
6665.000000;0.363232
6664.000000;0.363963
6663.000000;0.364522
6662.000000;0.364905
6661.000000;0.365245
6660.000000;0.365666
6659.000000;0.366201
6658.000000;0.366841
6657.000000;0.367542
6656.000000;0.368207
6655.000000;0.368772
6654.000000;0.369314
6653.000000;0.369956
6652.000000;0.370693
6651.000000;0.371410
6650.000000;0.372034
6649.000000;0.372574
6648.000000;0.373038
6647.000000;0.373430
6646.000000;0.373820
6645.000000;0.374290
6644.000000;0.374832
6643.000000;0.375381
6642.000000;0.375948
6641.000000;0.376594
6640.000000;0.377288
6639.000000;0.377894
6638.000000;0.378318
6637.000000;0.378590
6636.000000;0.378811
6635.000000;0.379092
6634.000000;0.379529
6633.000000;0.380141
6632.000000;0.380821
6631.000000;0.381440
6630.000000;0.381984
6629.000000;0.382516
6628.000000;0.383041
6627.000000;0.383496
6626.000000;0.383874
6625.000000;0.384260
6624.000000;0.384734
6623.000000;0.385297
6622.000000;0.385901
6621.000000;0.386490
6620.000000;0.387009
6619.000000;0.387455
6618.000000;0.387907
6617.000000;0.388452
6616.000000;0.389077
6615.000000;0.389684
6614.000000;0.390204
6613.000000;0.390637
6612.000000;0.391016
6611.000000;0.391368
6610.000000;0.391738
6609.000000;0.392177
6608.000000;0.392713
6607.000000;0.393327
6606.000000;0.393949
6605.000000;0.394468
6604.000000;0.394819
6603.000000;0.395082
6602.000000;0.395438
6601.000000;0.395970
6600.000000;0.396570
6599.000000;0.397089
6598.000000;0.397515
6597.000000;0.397949
6596.000000;0.398457
6595.000000;0.399032
6594.000000;0.399658
6593.000000;0.400302
6592.000000;0.400871
6591.000000;0.401280
6590.000000;0.401552
6589.000000;0.401794
6588.000000;0.402087
6587.000000;0.402460
6586.000000;0.402939
6585.000000;0.403545
6584.000000;0.404229
6583.000000;0.404884
6582.000000;0.405422
6581.000000;0.405820
6580.000000;0.406116
6579.000000;0.406405
6578.000000;0.406805
6577.000000;0.407358
6576.000000;0.407978
6575.000000;0.408546
6574.000000;0.409011
6573.000000;0.409365
6572.000000;0.409581
6571.000000;0.409654
6570.000000;0.409690
6569.000000;0.409853
6568.000000;0.410225
6567.000000;0.410760
6566.000000;0.411364
6565.000000;0.411973
6564.000000;0.412572
6563.000000;0.413181
6562.000000;0.413812
6561.000000;0.414416
6560.000000;0.414904
6559.000000;0.415260
6558.000000;0.415580
6557.000000;0.415952
6556.000000;0.416346
6555.000000;0.416693
6554.000000;0.416998
6553.000000;0.417308
6552.000000;0.417615
6551.000000;0.417884
6550.000000;0.418159
6549.000000;0.418528
6548.000000;0.418986
6547.000000;0.419431
6546.000000;0.419809
6545.000000;0.420178
6544.000000;0.420596
6543.000000;0.421035
6542.000000;0.421436
6541.000000;0.421797
6540.000000;0.422164
6539.000000;0.422555
6538.000000;0.422932
6537.000000;0.423250
6536.000000;0.423506
6535.000000;0.423759
6534.000000;0.424067
6533.000000;0.424436
6532.000000;0.424813
6531.000000;0.425156
6530.000000;0.425475
6529.000000;0.425801
6528.000000;0.426151
6527.000000;0.426547
6526.000000;0.427010
6525.000000;0.427505
6524.000000;0.427932
6523.000000;0.428212
6522.000000;0.428380
6521.000000;0.428554
6520.000000;0.428841
6519.000000;0.429265
6518.000000;0.429756
6517.000000;0.430184
6516.000000;0.430467
6515.000000;0.430660
6514.000000;0.430915
6513.000000;0.431305
6512.000000;0.431747
6511.000000;0.432118
6510.000000;0.432399
6509.000000;0.432651
6508.000000;0.432931
6507.000000;0.433264
6506.000000;0.433652
6505.000000;0.434057
6504.000000;0.434420
6503.000000;0.434748
6502.000000;0.435130
6501.000000;0.435607
6500.000000;0.436090
6499.000000;0.436471
6498.000000;0.436758
6497.000000;0.437033
6496.000000;0.437322
6495.000000;0.437594
6494.000000;0.437848
6493.000000;0.438109
6492.000000;0.438359
6491.000000;0.438559
6490.000000;0.438730
6489.000000;0.438927
6488.000000;0.439171
6487.000000;0.439469
6486.000000;0.439863
6485.000000;0.440373
6484.000000;0.440896
6483.000000;0.441287
6482.000000;0.441526
6481.000000;0.441728
6480.000000;0.441980
6479.000000;0.442257
6478.000000;0.442527
6477.000000;0.442830
6476.000000;0.443219
6475.000000;0.443669
6474.000000;0.444097
6473.000000;0.444426
6472.000000;0.444636
6471.000000;0.444761
6470.000000;0.444880
6469.000000;0.445056
6468.000000;0.445295
6467.000000;0.445559
6466.000000;0.445838
6465.000000;0.446147
6464.000000;0.446480
6463.000000;0.446818
6462.000000;0.447171
6461.000000;0.447563
6460.000000;0.447963
6459.000000;0.448287
6458.000000;0.448485
6457.000000;0.448598
6456.000000;0.448720
6455.000000;0.448912
6454.000000;0.449175
6453.000000;0.449464
6452.000000;0.449733
6451.000000;0.449989
6450.000000;0.450277
6449.000000;0.450603
6448.000000;0.450899
6447.000000;0.451107
6446.000000;0.451262
6445.000000;0.451458
6444.000000;0.451732
6443.000000;0.452051
6442.000000;0.452375
6441.000000;0.452697
6440.000000;0.453004
6439.000000;0.453275
6438.000000;0.453511
6437.000000;0.453729
6436.000000;0.453936
6435.000000;0.454140
6434.000000;0.454369
6433.000000;0.454637
6432.000000;0.454891
6431.000000;0.455068
6430.000000;0.455186
6429.000000;0.455332
6428.000000;0.455545
6427.000000;0.455788
6426.000000;0.456022
6425.000000;0.456248
6424.000000;0.456462
6423.000000;0.456636
6422.000000;0.456777
6421.000000;0.456951
6420.000000;0.457215
6419.000000;0.457549
6418.000000;0.457888
6417.000000;0.458187
6416.000000;0.458434
6415.000000;0.458632
6414.000000;0.458802
6413.000000;0.458970
6412.000000;0.459147
6411.000000;0.459315
6410.000000;0.459466
6409.000000;0.459616
6408.000000;0.459784
6407.000000;0.459967
6406.000000;0.460149
6405.000000;0.460322
6404.000000;0.460490
6403.000000;0.460676
6402.000000;0.460913
6401.000000;0.461206
6400.000000;0.461507
6399.000000;0.461752
6398.000000;0.461916
6397.000000;0.462018
6396.000000;0.462095
6395.000000;0.462189
6394.000000;0.462343
6393.000000;0.462562
6392.000000;0.462793
6391.000000;0.462977
6390.000000;0.463123
6389.000000;0.463292
6388.000000;0.463507
6387.000000;0.463737
6386.000000;0.463949
6385.000000;0.464154
6384.000000;0.464363
6383.000000;0.464556
6382.000000;0.464702
6381.000000;0.464791
6380.000000;0.464846
6379.000000;0.464926
6378.000000;0.465088
6377.000000;0.465331
6376.000000;0.465579
6375.000000;0.465760
6374.000000;0.465881
6373.000000;0.465998
6372.000000;0.466124
6371.000000;0.466239
6370.000000;0.466356
6369.000000;0.466524
6368.000000;0.466741
6367.000000;0.466941
6366.000000;0.467083
6365.000000;0.467208
6364.000000;0.467373
6363.000000;0.467582
6362.000000;0.467789
6361.000000;0.467955
6360.000000;0.468069
6359.000000;0.468145
6358.000000;0.468224
6357.000000;0.468345
6356.000000;0.468497
6355.000000;0.468625
6354.000000;0.468705
6353.000000;0.468781
6352.000000;0.468905
6351.000000;0.469070
6350.000000;0.469236
6349.000000;0.469383
6348.000000;0.469519
6347.000000;0.469654
6346.000000;0.469789
6345.000000;0.469919
6344.000000;0.470038
6343.000000;0.470139
6342.000000;0.470231
6341.000000;0.470327
6340.000000;0.470431
6339.000000;0.470528
6338.000000;0.470616
6337.000000;0.470710
6336.000000;0.470810
6335.000000;0.470907
6334.000000;0.471011
6333.000000;0.471153
6332.000000;0.471329
6331.000000;0.471490
6330.000000;0.471590
6329.000000;0.471632
6328.000000;0.471648
6327.000000;0.471667
6326.000000;0.471709
6325.000000;0.471797
6324.000000;0.471934
6323.000000;0.472096
6322.000000;0.472269
6321.000000;0.472455
6320.000000;0.472645
6319.000000;0.472796
6318.000000;0.472872
6317.000000;0.472887
6316.000000;0.472886
6315.000000;0.472903
6314.000000;0.472948
6313.000000;0.473022
6312.000000;0.473108
6311.000000;0.473176
6310.000000;0.473216
6309.000000;0.473263
6308.000000;0.473363
6307.000000;0.473514
6306.000000;0.473677
6305.000000;0.473810
6304.000000;0.473890
6303.000000;0.473912
6302.000000;0.473902
6301.000000;0.473922
6300.000000;0.474011
6299.000000;0.474135
6298.000000;0.474213
6297.000000;0.474217
6296.000000;0.474210
6295.000000;0.474269
6294.000000;0.474404
6293.000000;0.474557
6292.000000;0.474670
6291.000000;0.474735
6290.000000;0.474773
6289.000000;0.474806
6288.000000;0.474854
6287.000000;0.474940
6286.000000;0.475074
6285.000000;0.475235
6284.000000;0.475375
6283.000000;0.475463
6282.000000;0.475512
6281.000000;0.475564
6280.000000;0.475637
6279.000000;0.475701
6278.000000;0.475718
6277.000000;0.475692
6276.000000;0.475675
6275.000000;0.475713
6274.000000;0.475809
6273.000000;0.475931
6272.000000;0.476052
6271.000000;0.476158
6270.000000;0.476234
6269.000000;0.476255
6268.000000;0.476221
6267.000000;0.476169
6266.000000;0.476154
6265.000000;0.476191
6264.000000;0.476249
6263.000000;0.476296
6262.000000;0.476330
6261.000000;0.476368
6260.000000;0.476403
6259.000000;0.476411
6258.000000;0.476387
6257.000000;0.476359
6256.000000;0.476364
6255.000000;0.476421
6254.000000;0.476521
6253.000000;0.476632
6252.000000;0.476724
6251.000000;0.476788
6250.000000;0.476844
6249.000000;0.476909
6248.000000;0.476960
6247.000000;0.476958
6246.000000;0.476903
6245.000000;0.476839
6244.000000;0.476813
6243.000000;0.476834
6242.000000;0.476880
6241.000000;0.476942
6240.000000;0.477028
6239.000000;0.477143
6238.000000;0.477263
6237.000000;0.477349
6236.000000;0.477370
6235.000000;0.477338
6234.000000;0.477295
6233.000000;0.477286
6232.000000;0.477316
6231.000000;0.477355
6230.000000;0.477369
6229.000000;0.477355
6228.000000;0.477332
6227.000000;0.477325
6226.000000;0.477346
6225.000000;0.477401
6224.000000;0.477476
6223.000000;0.477541
6222.000000;0.477558
6221.000000;0.477528
6220.000000;0.477491
6219.000000;0.477494
6218.000000;0.477540
6217.000000;0.477590
6216.000000;0.477609
6215.000000;0.477593
6214.000000;0.477559
6213.000000;0.477518
6212.000000;0.477480
6211.000000;0.477465
6210.000000;0.477498
6209.000000;0.477590
6208.000000;0.477730
6207.000000;0.477889
6206.000000;0.478020
6205.000000;0.478077
6204.000000;0.478054
6203.000000;0.477996
6202.000000;0.477952
6201.000000;0.477930
6200.000000;0.477913
6199.000000;0.477895
6198.000000;0.477889
6197.000000;0.477899
6196.000000;0.477921
6195.000000;0.477967
6194.000000;0.478046
6193.000000;0.478128
6192.000000;0.478152
6191.000000;0.478093
6190.000000;0.477989
6189.000000;0.477891
6188.000000;0.477827
6187.000000;0.477817
6186.000000;0.477881
6185.000000;0.478010
6184.000000;0.478152
6183.000000;0.478243
6182.000000;0.478258
6181.000000;0.478211
6180.000000;0.478122
6179.000000;0.478016
6178.000000;0.477918
6177.000000;0.477849
6176.000000;0.477812
6175.000000;0.477808
6174.000000;0.477836
6173.000000;0.477884
6172.000000;0.477934
6171.000000;0.477972
6170.000000;0.477999
6169.000000;0.478002
6168.000000;0.477964
6167.000000;0.477899
6166.000000;0.477853
6165.000000;0.477857
6164.000000;0.477892
6163.000000;0.477923
6162.000000;0.477932
6161.000000;0.477915
6160.000000;0.477870
6159.000000;0.477820
6158.000000;0.477807
6157.000000;0.477843
6156.000000;0.477876
6155.000000;0.477854
6154.000000;0.477782
6153.000000;0.477700
6152.000000;0.477627
6151.000000;0.477567
6150.000000;0.477544
6149.000000;0.477578
6148.000000;0.477638
6147.000000;0.477664
6146.000000;0.477640
6145.000000;0.477605
6144.000000;0.477596
6143.000000;0.477613
6142.000000;0.477637
6141.000000;0.477657
6140.000000;0.477671
6139.000000;0.477681
6138.000000;0.477693
6137.000000;0.477700
6136.000000;0.477676
6135.000000;0.477612
6134.000000;0.477545
6133.000000;0.477522
6132.000000;0.477532
6131.000000;0.477521
6130.000000;0.477472
6129.000000;0.477424
6128.000000;0.477411
6127.000000;0.477424
6126.000000;0.477441
6125.000000;0.477459
6124.000000;0.477477
6123.000000;0.477478
6122.000000;0.477465
6121.000000;0.477471
6120.000000;0.477519
6119.000000;0.477574
6118.000000;0.477573
6117.000000;0.477489
6116.000000;0.477359
6115.000000;0.477243
6114.000000;0.477185
6113.000000;0.477192
6112.000000;0.477244
6111.000000;0.477302
6110.000000;0.477338
6109.000000;0.477343
6108.000000;0.477322
6107.000000;0.477283
6106.000000;0.477235
6105.000000;0.477191
6104.000000;0.477152
6103.000000;0.477111
6102.000000;0.477070
6101.000000;0.477043
6100.000000;0.477040
6099.000000;0.477038
6098.000000;0.477008
6097.000000;0.476950
6096.000000;0.476904
6095.000000;0.476908
6094.000000;0.476965
6093.000000;0.477042
6092.000000;0.477097
6091.000000;0.477107
6090.000000;0.477081
6089.000000;0.477044
6088.000000;0.477017
6087.000000;0.477012
6086.000000;0.477022
6085.000000;0.477036
6084.000000;0.477046
6083.000000;0.477042
6082.000000;0.477015
6081.000000;0.476971
6080.000000;0.476941
6079.000000;0.476958
6078.000000;0.477008
6077.000000;0.477026
6076.000000;0.476966
6075.000000;0.476855
6074.000000;0.476764
6073.000000;0.476733
6072.000000;0.476745
6071.000000;0.476771
6070.000000;0.476802
6069.000000;0.476836
6068.000000;0.476855
6067.000000;0.476847
6066.000000;0.476813
6065.000000;0.476753
6064.000000;0.476665
6063.000000;0.476573
6062.000000;0.476520
6061.000000;0.476531
6060.000000;0.476581
6059.000000;0.476622
6058.000000;0.476631
6057.000000;0.476612
6056.000000;0.476575
6055.000000;0.476536
6054.000000;0.476522
6053.000000;0.476545
6052.000000;0.476585
6051.000000;0.476607
6050.000000;0.476606
6049.000000;0.476602
6048.000000;0.476610
6047.000000;0.476623
6046.000000;0.476633
6045.000000;0.476639
6044.000000;0.476640
6043.000000;0.476638
6042.000000;0.476636
6041.000000;0.476632
6040.000000;0.476614
6039.000000;0.476571
6038.000000;0.476510
6037.000000;0.476447
6036.000000;0.476393
6035.000000;0.476355
6034.000000;0.476350
6033.000000;0.476387
6032.000000;0.476446
6031.000000;0.476486
6030.000000;0.476488
6029.000000;0.476468
6028.000000;0.476453
6027.000000;0.476452
6026.000000;0.476442
6025.000000;0.476396
6024.000000;0.476319
6023.000000;0.476259
6022.000000;0.476264
6021.000000;0.476328
6020.000000;0.476392
6019.000000;0.476410
6018.000000;0.476391
6017.000000;0.476372
6016.000000;0.476368
6015.000000;0.476372
6014.000000;0.476374
6013.000000;0.476367
6012.000000;0.476347
6011.000000;0.476329
6010.000000;0.476348
6009.000000;0.476421
6008.000000;0.476505
6007.000000;0.476547
6006.000000;0.476534
6005.000000;0.476494
6004.000000;0.476443
6003.000000;0.476365
6002.000000;0.476261
6001.000000;0.476174
6000.000000;0.476148
5999.000000;0.476189
5998.000000;0.476256
5997.000000;0.476296
5996.000000;0.476277
5995.000000;0.476207
5994.000000;0.476122
5993.000000;0.476059
5992.000000;0.476040
5991.000000;0.476066
5990.000000;0.476123
5989.000000;0.476174
5988.000000;0.476178
5987.000000;0.476133
5986.000000;0.476086
5985.000000;0.476083
5984.000000;0.476121
5983.000000;0.476159
5982.000000;0.476178
5981.000000;0.476179
5980.000000;0.476163
5979.000000;0.476130
5978.000000;0.476101
5977.000000;0.476103
5976.000000;0.476137
5975.000000;0.476166
5974.000000;0.476166
5973.000000;0.476148
5972.000000;0.476145
5971.000000;0.476182
5970.000000;0.476255
5969.000000;0.476334
5968.000000;0.476369
5967.000000;0.476329
5966.000000;0.476235
5965.000000;0.476137
5964.000000;0.476071
5963.000000;0.476041
5962.000000;0.476050
5961.000000;0.476104
5960.000000;0.476186
5959.000000;0.476244
5958.000000;0.476245
5957.000000;0.476199
5956.000000;0.476145
5955.000000;0.476109
5954.000000;0.476098
5953.000000;0.476111
5952.000000;0.476137
5951.000000;0.476159
5950.000000;0.476159
5949.000000;0.476144
5948.000000;0.476138
5947.000000;0.476160
5946.000000;0.476204
5945.000000;0.476252
5944.000000;0.476289
5943.000000;0.476318
5942.000000;0.476351
5941.000000;0.476391
5940.000000;0.476427
5939.000000;0.476451
5938.000000;0.476468
5937.000000;0.476480
5936.000000;0.476486
5935.000000;0.476484
5934.000000;0.476486
5933.000000;0.476497
5932.000000;0.476501
5931.000000;0.476476
5930.000000;0.476440
5929.000000;0.476441
5928.000000;0.476510
5927.000000;0.476626
5926.000000;0.476730
5925.000000;0.476775
5924.000000;0.476763
5923.000000;0.476731
5922.000000;0.476720
5921.000000;0.476732
5920.000000;0.476737
5919.000000;0.476715
5918.000000;0.476686
5917.000000;0.476684
5916.000000;0.476710
5915.000000;0.476719
5914.000000;0.476672
5913.000000;0.476580
5912.000000;0.476499
5911.000000;0.476465
5910.000000;0.476465
5909.000000;0.476463
5908.000000;0.476451
5907.000000;0.476463
5906.000000;0.476532
5905.000000;0.476646
5904.000000;0.476752
5903.000000;0.476814
5902.000000;0.476828
5901.000000;0.476808
5900.000000;0.476756
5899.000000;0.476686
5898.000000;0.476640
5897.000000;0.476653
5896.000000;0.476717
5895.000000;0.476783
5894.000000;0.476807
5893.000000;0.476782
5892.000000;0.476735
5891.000000;0.476694
5890.000000;0.476672
5889.000000;0.476669
5888.000000;0.476675
5887.000000;0.476679
5886.000000;0.476669
5885.000000;0.476631
5884.000000;0.476563
5883.000000;0.476498
5882.000000;0.476487
5881.000000;0.476556
5880.000000;0.476674
5879.000000;0.476784
5878.000000;0.476843
5877.000000;0.476840
5876.000000;0.476792
5875.000000;0.476736
5874.000000;0.476717
5873.000000;0.476747
5872.000000;0.476790
5871.000000;0.476804
5870.000000;0.476790
5869.000000;0.476777
5868.000000;0.476775
5867.000000;0.476758
5866.000000;0.476713
5865.000000;0.476667
5864.000000;0.476659
5863.000000;0.476700
5862.000000;0.476755
5861.000000;0.476778
5860.000000;0.476742
5859.000000;0.476661
5858.000000;0.476579
5857.000000;0.476543
5856.000000;0.476568
5855.000000;0.476635
5854.000000;0.476704
5853.000000;0.476753
5852.000000;0.476788
5851.000000;0.476826
5850.000000;0.476865
5849.000000;0.476888
5848.000000;0.476892
5847.000000;0.476903
5846.000000;0.476941
5845.000000;0.476981
5844.000000;0.476978
5843.000000;0.476937
5842.000000;0.476914
5841.000000;0.476943
5840.000000;0.476986
5839.000000;0.476983
5838.000000;0.476923
5837.000000;0.476851
5836.000000;0.476809
5835.000000;0.476804
5834.000000;0.476824
5833.000000;0.476860
5832.000000;0.476903
5831.000000;0.476943
5830.000000;0.476972
5829.000000;0.476984
5828.000000;0.476974
5827.000000;0.476946
5826.000000;0.476926
5825.000000;0.476934
5824.000000;0.476968
5823.000000;0.477014
5822.000000;0.477068
5821.000000;0.477126
5820.000000;0.477174
5819.000000;0.477194
5818.000000;0.477181
5817.000000;0.477149
5816.000000;0.477112
5815.000000;0.477090
5814.000000;0.477099
5813.000000;0.477139
5812.000000;0.477190
5811.000000;0.477226
5810.000000;0.477242
5809.000000;0.477239
5808.000000;0.477216
5807.000000;0.477182
5806.000000;0.477163
5805.000000;0.477178
5804.000000;0.477213
5803.000000;0.477233
5802.000000;0.477216
5801.000000;0.477164
5800.000000;0.477090
5799.000000;0.477017
5798.000000;0.476972
5797.000000;0.476973
5796.000000;0.477008
5795.000000;0.477052
5794.000000;0.477096
5793.000000;0.477135
5792.000000;0.477157
5791.000000;0.477158
5790.000000;0.477158
5789.000000;0.477177
5788.000000;0.477210
5787.000000;0.477227
5786.000000;0.477219
5785.000000;0.477195
5784.000000;0.477166
5783.000000;0.477127
5782.000000;0.477086
5781.000000;0.477057
5780.000000;0.477048
5779.000000;0.477048
5778.000000;0.477044
5777.000000;0.477036
5776.000000;0.477025
5775.000000;0.477016
5774.000000;0.477017
5773.000000;0.477024
5772.000000;0.477008
5771.000000;0.476936
5770.000000;0.476825
5769.000000;0.476732
5768.000000;0.476706
5767.000000;0.476743
5766.000000;0.476797
5765.000000;0.476827
5764.000000;0.476823
5763.000000;0.476801
5762.000000;0.476781
5761.000000;0.476769
5760.000000;0.476751
5759.000000;0.476708
5758.000000;0.476641
5757.000000;0.476579
5756.000000;0.476554
5755.000000;0.476585
5754.000000;0.476661
5753.000000;0.476750
5752.000000;0.476823
5751.000000;0.476866
5750.000000;0.476880
5749.000000;0.476861
5748.000000;0.476806
5747.000000;0.476736
5746.000000;0.476690
5745.000000;0.476692
5744.000000;0.476722
5743.000000;0.476742
5742.000000;0.476736
5741.000000;0.476714
5740.000000;0.476687
5739.000000;0.476661
5738.000000;0.476635
5737.000000;0.476612
5736.000000;0.476595
5735.000000;0.476594
5734.000000;0.476614
5733.000000;0.476643
5732.000000;0.476662
5731.000000;0.476667
5730.000000;0.476669
5729.000000;0.476668
5728.000000;0.476643
5727.000000;0.476587
5726.000000;0.476520
5725.000000;0.476465
5724.000000;0.476417
5723.000000;0.476377
5722.000000;0.476377
5721.000000;0.476434
5720.000000;0.476508
5719.000000;0.476530
5718.000000;0.476485
5717.000000;0.476419
5716.000000;0.476380
5715.000000;0.476366
5714.000000;0.476352
5713.000000;0.476327
5712.000000;0.476289
5711.000000;0.476233
5710.000000;0.476150
5709.000000;0.476047
5708.000000;0.475957
5707.000000;0.475915
5706.000000;0.475939
5705.000000;0.476009
5704.000000;0.476076
5703.000000;0.476114
5702.000000;0.476135
5701.000000;0.476159
5700.000000;0.476193
5699.000000;0.476228
5698.000000;0.476261
5697.000000;0.476294
5696.000000;0.476314
5695.000000;0.476305
5694.000000;0.476269
5693.000000;0.476233
5692.000000;0.476219
5691.000000;0.476228
5690.000000;0.476252
5689.000000;0.476269
5688.000000;0.476253
5687.000000;0.476198
5686.000000;0.476128
5685.000000;0.476085
5684.000000;0.476083
5683.000000;0.476102
5682.000000;0.476114
5681.000000;0.476110
5680.000000;0.476096
5679.000000;0.476087
5678.000000;0.476100
5677.000000;0.476140
5676.000000;0.476192
5675.000000;0.476240
5674.000000;0.476287
5673.000000;0.476338
5672.000000;0.476383
5671.000000;0.476402
5670.000000;0.476396
5669.000000;0.476393
5668.000000;0.476412
5667.000000;0.476445
5666.000000;0.476465
5665.000000;0.476452
5664.000000;0.476404
5663.000000;0.476345
5662.000000;0.476314
5661.000000;0.476341
5660.000000;0.476428
5659.000000;0.476554
5658.000000;0.476689
5657.000000;0.476795
5656.000000;0.476852
5655.000000;0.476879
5654.000000;0.476913
5653.000000;0.476963
5652.000000;0.476995
5651.000000;0.476990
5650.000000;0.476983
5649.000000;0.477020
5648.000000;0.477100
5647.000000;0.477176
5646.000000;0.477217
5645.000000;0.477222
5644.000000;0.477210
5643.000000;0.477201
5642.000000;0.477231
5641.000000;0.477327
5640.000000;0.477481
5639.000000;0.477653
5638.000000;0.477813
5637.000000;0.477949
5636.000000;0.478054
5635.000000;0.478120
5634.000000;0.478154
5633.000000;0.478186
5632.000000;0.478238
5631.000000;0.478322
5630.000000;0.478437
5629.000000;0.478571
5628.000000;0.478698
5627.000000;0.478799
5626.000000;0.478880
5625.000000;0.478957
5624.000000;0.479033
5623.000000;0.479105
5622.000000;0.479178
5621.000000;0.479260
5620.000000;0.479341
5619.000000;0.479412
5618.000000;0.479486
5617.000000;0.479592
5616.000000;0.479737
5615.000000;0.479897
5614.000000;0.480042
5613.000000;0.480161
5612.000000;0.480262
5611.000000;0.480375
5610.000000;0.480538
5609.000000;0.480765
5608.000000;0.481012
5607.000000;0.481214
5606.000000;0.481334
5605.000000;0.481383
5604.000000;0.481389
5603.000000;0.481391
5602.000000;0.481437
5601.000000;0.481560
5600.000000;0.481742
5599.000000;0.481930
5598.000000;0.482082
5597.000000;0.482203
5596.000000;0.482318
5595.000000;0.482450
5594.000000;0.482597
5593.000000;0.482744
5592.000000;0.482866
5591.000000;0.482951
5590.000000;0.483017
5589.000000;0.483094
5588.000000;0.483200
5587.000000;0.483341
5586.000000;0.483520
5585.000000;0.483732
5584.000000;0.483947
5583.000000;0.484123
5582.000000;0.484241
5581.000000;0.484316
5580.000000;0.484382
5579.000000;0.484466
5578.000000;0.484578
5577.000000;0.484713
5576.000000;0.484852
5575.000000;0.484978
5574.000000;0.485076
5573.000000;0.485140
5572.000000;0.485179
5571.000000;0.485230
5570.000000;0.485328
5569.000000;0.485475
5568.000000;0.485644
5567.000000;0.485811
5566.000000;0.485983
5565.000000;0.486158
5564.000000;0.486315
5563.000000;0.486431
5562.000000;0.486517
5561.000000;0.486596
5560.000000;0.486676
5559.000000;0.486767
5558.000000;0.486883
5557.000000;0.487027
5556.000000;0.487167
5555.000000;0.487264
5554.000000;0.487314
5553.000000;0.487338
5552.000000;0.487357
5551.000000;0.487390
5550.000000;0.487474
5549.000000;0.487632
5548.000000;0.487831
5547.000000;0.488010
5546.000000;0.488136
5545.000000;0.488228
5544.000000;0.488313
5543.000000;0.488407
5542.000000;0.488515
5541.000000;0.488630
5540.000000;0.488731
5539.000000;0.488796
5538.000000;0.488838
5537.000000;0.488892
5536.000000;0.488975
5535.000000;0.489067
5534.000000;0.489148
5533.000000;0.489219
5532.000000;0.489290
5531.000000;0.489363
5530.000000;0.489443
5529.000000;0.489542
5528.000000;0.489668
5527.000000;0.489810
5526.000000;0.489956
5525.000000;0.490103
5524.000000;0.490246
5523.000000;0.490362
5522.000000;0.490429
5521.000000;0.490460
5520.000000;0.490497
5519.000000;0.490562
5518.000000;0.490632
5517.000000;0.490675
5516.000000;0.490698
5515.000000;0.490749
5514.000000;0.490857
5513.000000;0.490985
5512.000000;0.491080
5511.000000;0.491134
5510.000000;0.491182
5509.000000;0.491241
5508.000000;0.491290
5507.000000;0.491325
5506.000000;0.491378
5505.000000;0.491468
5504.000000;0.491568
5503.000000;0.491647
5502.000000;0.491723
5501.000000;0.491820
5500.000000;0.491915
5499.000000;0.491970
5498.000000;0.492004
5497.000000;0.492087
5496.000000;0.492234
5495.000000;0.492362
5494.000000;0.492392
5493.000000;0.492363
5492.000000;0.492394
5491.000000;0.492534
5490.000000;0.492706
5489.000000;0.492814
5488.000000;0.492856
5487.000000;0.492903
5486.000000;0.493015
5485.000000;0.493180
5484.000000;0.493343
5483.000000;0.493450
5482.000000;0.493470
5481.000000;0.493409
5480.000000;0.493334
5479.000000;0.493333
5478.000000;0.493436
5477.000000;0.493583
5476.000000;0.493718
5475.000000;0.493874
5474.000000;0.494121
5473.000000;0.494435
5472.000000;0.494707
5471.000000;0.494857
5470.000000;0.494882
5469.000000;0.494827
5468.000000;0.494747
5467.000000;0.494702
5466.000000;0.494738
5465.000000;0.494844
5464.000000;0.494960
5463.000000;0.495059
5462.000000;0.495173
5461.000000;0.495337
5460.000000;0.495553
5459.000000;0.495801
5458.000000;0.496037
5457.000000;0.496192
5456.000000;0.496224
5455.000000;0.496196
5454.000000;0.496233
5453.000000;0.496364
5452.000000;0.496484
5451.000000;0.496508
5450.000000;0.496484
5449.000000;0.496509
5448.000000;0.496574
5447.000000;0.496594
5446.000000;0.496590
5445.000000;0.496720
5444.000000;0.497072
5443.000000;0.497508
5442.000000;0.497800
5441.000000;0.497869
5440.000000;0.497844
5439.000000;0.497915
5438.000000;0.498129
5437.000000;0.498361
5436.000000;0.498462
5435.000000;0.498446
5434.000000;0.498482
5433.000000;0.498700
5432.000000;0.499049
5431.000000;0.499376
5430.000000;0.499599
5429.000000;0.499789
5428.000000;0.500070
5427.000000;0.500479
5426.000000;0.500940
5425.000000;0.501359
5424.000000;0.501695
5423.000000;0.501967
5422.000000;0.502203
5421.000000;0.502380
5420.000000;0.502438
5419.000000;0.502385
5418.000000;0.502332
5417.000000;0.502382
5416.000000;0.502519
5415.000000;0.502677
5414.000000;0.502892
5413.000000;0.503265
5412.000000;0.503791
5411.000000;0.504348
5410.000000;0.504849
5409.000000;0.505312
5408.000000;0.505769
5407.000000;0.506203
5406.000000;0.506577
5405.000000;0.506877
5404.000000;0.507130
5403.000000;0.507382
5402.000000;0.507674
5401.000000;0.508008
5400.000000;0.508316
5399.000000;0.508536
5398.000000;0.508713
5397.000000;0.508960
5396.000000;0.509335
5395.000000;0.509780
5394.000000;0.510223
5393.000000;0.510663
5392.000000;0.511126
5391.000000;0.511615
5390.000000;0.512136
5389.000000;0.512684
5388.000000;0.513209
5387.000000;0.513683
5386.000000;0.514159
5385.000000;0.514711
5384.000000;0.515315
5383.000000;0.515862
5382.000000;0.516346
5381.000000;0.516902
5380.000000;0.517611
5379.000000;0.518375
5378.000000;0.519061
5377.000000;0.519688
5376.000000;0.520375
5375.000000;0.521160
5374.000000;0.521983
5373.000000;0.522814
5372.000000;0.523665
5371.000000;0.524521
5370.000000;0.525325
5369.000000;0.526062
5368.000000;0.526786
5367.000000;0.527569
5366.000000;0.528422
5365.000000;0.529310
5364.000000;0.530216
5363.000000;0.531158
5362.000000;0.532151
5361.000000;0.533155
5360.000000;0.534099
5359.000000;0.534986
5358.000000;0.535935
5357.000000;0.537059
5356.000000;0.538302
5355.000000;0.539500
5354.000000;0.540593
5353.000000;0.541706
5352.000000;0.542949
5351.000000;0.544248
5350.000000;0.545469
5349.000000;0.546621
5348.000000;0.547797
5347.000000;0.548986
5346.000000;0.550065
5345.000000;0.551041
5344.000000;0.552189
5343.000000;0.553798
5342.000000;0.555797
5341.000000;0.557766
5340.000000;0.559308
5339.000000;0.560405
5338.000000;0.561436
5337.000000;0.562760
5336.000000;0.564353
5335.000000;0.565949
5334.000000;0.567406
5333.000000;0.568815
5332.000000;0.570335
5331.000000;0.572007
5330.000000;0.573701
5329.000000;0.575178
5328.000000;0.576197
5327.000000;0.576708
5326.000000;0.576964
5325.000000;0.577308
5324.000000;0.577816
5323.000000;0.578229
5322.000000;0.578220
5321.000000;0.577656
5320.000000;0.576637
5319.000000;0.575324
5318.000000;0.573694
5317.000000;0.571433
5316.000000;0.568211
5315.000000;0.564104
5314.000000;0.559519
5313.000000;0.554578
5312.000000;0.548816
5311.000000;0.541584
5310.000000;0.532464
5309.000000;0.521213
5308.000000;0.507823
5307.000000;0.492886
5306.000000;0.477241
5305.000000;0.460936
5304.000000;0.443174
5303.000000;0.423560
5302.000000;0.403020
5301.000000;0.383669
5300.000000;0.368434
5299.000000;0.360540
5298.000000;0.362740
5297.000000;0.376202
5296.000000;0.398637
5295.000000;0.425578
5294.000000;0.455763
5293.000000;0.490682
5292.000000;0.528499
5291.000000;0.565309
5290.000000;0.600829
5289.000000;0.635574
5288.000000;0.666179
5287.000000;0.690890
5286.000000;0.714693
5285.000000;0.741638
5284.000000;0.767363
5283.000000;0.785737
5282.000000;0.798523
5281.000000;0.810558
5280.000000;0.821286
5279.000000;0.829842
5278.000000;0.841026
5277.000000;0.857160
5276.000000;0.870694
5275.000000;0.874139
5274.000000;0.872128
5273.000000;0.873537
5272.000000;0.879196
5271.000000;0.885832
5270.000000;0.894603
5269.000000;0.907135
5268.000000;0.919099
5267.000000;0.926432
5266.000000;0.932269
5265.000000;0.939384
5264.000000;0.942880
5263.000000;0.938611
5262.000000;0.931959
5261.000000;0.929325
5260.000000;0.928425
5259.000000;0.925466
5258.000000;0.924535
5257.000000;0.930086
5256.000000;0.937083
5255.000000;0.938337
5254.000000;0.935655
5253.000000;0.933853
5252.000000;0.931141
5251.000000;0.925375
5250.000000;0.922596
5249.000000;0.928265
5248.000000;0.936061
5247.000000;0.935698
5246.000000;0.928847
5245.000000;0.925756
5244.000000;0.929670
5243.000000;0.935388
5242.000000;0.939370
5241.000000;0.941663
5240.000000;0.940568
5239.000000;0.935320
5238.000000;0.931422
5237.000000;0.934084
5236.000000;0.939120
5235.000000;0.938521
5234.000000;0.933311
5233.000000;0.931748
5232.000000;0.936730
5231.000000;0.943067
5230.000000;0.945409
5229.000000;0.943130
5228.000000;0.938487
5227.000000;0.934944
5226.000000;0.935790
5225.000000;0.940392
5224.000000;0.943739
5223.000000;0.942995
5222.000000;0.941593
5221.000000;0.942972
5220.000000;0.944781
5219.000000;0.944136
5218.000000;0.943709
5217.000000;0.946329
5216.000000;0.948317
5215.000000;0.944894
5214.000000;0.938755
5213.000000;0.935902
5212.000000;0.936607
5211.000000;0.937045
5210.000000;0.936802
5209.000000;0.938768
5208.000000;0.943187
5207.000000;0.947193
5206.000000;0.949087
5205.000000;0.948608
5204.000000;0.945150
5203.000000;0.939928
5202.000000;0.936783
5201.000000;0.937271
5200.000000;0.938470
5199.000000;0.938554
5198.000000;0.940053
5197.000000;0.943842
5196.000000;0.945134
5195.000000;0.940669
5194.000000;0.934805
5193.000000;0.932872
5192.000000;0.934451
5191.000000;0.937600
5190.000000;0.943975
5189.000000;0.953958
5188.000000;0.961011
5187.000000;0.958684
5186.000000;0.950726
5185.000000;0.945961
5184.000000;0.947129
5183.000000;0.950630
5182.000000;0.952929
5181.000000;0.952456
5180.000000;0.948240
5179.000000;0.941561
5178.000000;0.936855
5177.000000;0.936854
5176.000000;0.939260
5175.000000;0.941240
5174.000000;0.943334
5173.000000;0.945463
5172.000000;0.944039
5171.000000;0.938025
5170.000000;0.932860
5169.000000;0.933223
5168.000000;0.936780
5167.000000;0.939309
5166.000000;0.942124
5165.000000;0.948906
5164.000000;0.958275
5163.000000;0.964997
5162.000000;0.966508
5161.000000;0.963591
5160.000000;0.957379
5159.000000;0.950376
5158.000000;0.946311
5157.000000;0.945240
5156.000000;0.943567
5155.000000;0.941521
5154.000000;0.944804
5153.000000;0.955364
5152.000000;0.966157
5151.000000;0.970207
5150.000000;0.969928
5149.000000;0.970042
5148.000000;0.968425
5147.000000;0.962127
5146.000000;0.955581
5145.000000;0.954521
5144.000000;0.956852
5143.000000;0.956301
5142.000000;0.952126
5141.000000;0.948244
5140.000000;0.945235
5139.000000;0.940528
5138.000000;0.934636
5137.000000;0.931088
5136.000000;0.931511
5135.000000;0.935013
5134.000000;0.940270
5133.000000;0.944422
5132.000000;0.942926
5131.000000;0.935330
5130.000000;0.928131
5129.000000;0.927283
5128.000000;0.931101
5127.000000;0.934663
5126.000000;0.938272
5125.000000;0.945854
5124.000000;0.957097
5123.000000;0.966868
5122.000000;0.971774
5121.000000;0.972526
5120.000000;0.969900
5119.000000;0.963475
5118.000000;0.954868
5117.000000;0.948194
5116.000000;0.946662
5115.000000;0.950359
5114.000000;0.956225
5113.000000;0.959399
5112.000000;0.957366
5111.000000;0.953601
5110.000000;0.953776
5109.000000;0.958185
5108.000000;0.961509
5107.000000;0.960352
5106.000000;0.956425
5105.000000;0.951417
5104.000000;0.944994
5103.000000;0.939268
5102.000000;0.938507
5101.000000;0.942077
5100.000000;0.943661
5099.000000;0.940608
5098.000000;0.937951
5097.000000;0.939611
5096.000000;0.942636
5095.000000;0.943563
5094.000000;0.944244
5093.000000;0.946401
5092.000000;0.946523
5091.000000;0.942358
5090.000000;0.938599
5089.000000;0.939461
5088.000000;0.941547
5087.000000;0.939631
5086.000000;0.934885
5085.000000;0.931993
5084.000000;0.932010
5083.000000;0.933282
5082.000000;0.936111
5081.000000;0.940848
5080.000000;0.944759
5079.000000;0.945680
5078.000000;0.944997
5077.000000;0.944323
5076.000000;0.942623
5075.000000;0.938896
5074.000000;0.934679
5073.000000;0.930652
5072.000000;0.924730
5071.000000;0.917478
5070.000000;0.914528
5069.000000;0.919064
5068.000000;0.926221
5067.000000;0.928774
5066.000000;0.925434
5065.000000;0.919743
5064.000000;0.915017
5063.000000;0.914321
5062.000000;0.920082
5061.000000;0.929559
5060.000000;0.934973
5059.000000;0.932706
5058.000000;0.927796
5057.000000;0.924880
5056.000000;0.921337
5055.000000;0.913788
5054.000000;0.905590
5053.000000;0.901863
5052.000000;0.901772
5051.000000;0.901458
5050.000000;0.901304
5049.000000;0.904682
5048.000000;0.911778
5047.000000;0.919270
5046.000000;0.924037
5045.000000;0.923963
5044.000000;0.917893
5043.000000;0.908057
5042.000000;0.899433
5041.000000;0.894455
5040.000000;0.891497
5039.000000;0.889972
5038.000000;0.892306
5037.000000;0.897816
5036.000000;0.900468
5035.000000;0.897480
5034.000000;0.894065
5033.000000;0.894551
5032.000000;0.895020
5031.000000;0.889889
5030.000000;0.881233
5029.000000;0.875097
5028.000000;0.872740
5027.000000;0.871644
5026.000000;0.871416
5025.000000;0.872534
5024.000000;0.872009
5023.000000;0.866530
5022.000000;0.858350
5021.000000;0.852616
5020.000000;0.850811
5019.000000;0.850829
5018.000000;0.850800
5017.000000;0.849035
5016.000000;0.842993
5015.000000;0.832808
5014.000000;0.823440
5013.000000;0.819347
5012.000000;0.819246
5011.000000;0.818815
5010.000000;0.816398
5009.000000;0.812985
5008.000000;0.808781
5007.000000;0.803374
5006.000000;0.797149
5005.000000;0.789724
5004.000000;0.779758
5003.000000;0.768946
5002.000000;0.762643
5001.000000;0.763230
5000.000000;0.765887
4999.000000;0.764365
4998.000000;0.758767
4997.000000;0.753217
4996.000000;0.748879
4995.000000;0.744137
4994.000000;0.738915
4993.000000;0.734166
4992.000000;0.728617
4991.000000;0.720284
4990.000000;0.710509
4989.000000;0.703027
4988.000000;0.699678
4987.000000;0.699258
4986.000000;0.699349
4985.000000;0.697404
4984.000000;0.691583
4983.000000;0.682778
4982.000000;0.674375
4981.000000;0.668252
4980.000000;0.662694
4979.000000;0.655579
4978.000000;0.647346
4977.000000;0.639099
4976.000000;0.630507
4975.000000;0.621783
4974.000000;0.615103
4973.000000;0.611559
4972.000000;0.609062
4971.000000;0.605537
4970.000000;0.601672
4969.000000;0.598042
4968.000000;0.592463
4967.000000;0.583249
4966.000000;0.572545
4965.000000;0.563108
4964.000000;0.554287
4963.000000;0.544426
4962.000000;0.534942
4961.000000;0.528636
4960.000000;0.525493
4959.000000;0.523175
4958.000000;0.520395
4957.000000;0.516871
4956.000000;0.511273
4955.000000;0.502476
4954.000000;0.492132
4953.000000;0.482961
4952.000000;0.475115
4951.000000;0.466683
4950.000000;0.457168
4949.000000;0.448254
4948.000000;0.441549
4947.000000;0.437412
4946.000000;0.435278
4945.000000;0.433474
4944.000000;0.429502
4943.000000;0.422262
4942.000000;0.413390
4941.000000;0.405031
4940.000000;0.397321
4939.000000;0.389484
4938.000000;0.382035
4937.000000;0.375956
4936.000000;0.370632
4935.000000;0.364373
4934.000000;0.356402
4933.000000;0.347078
4932.000000;0.336969
4931.000000;0.327063
4930.000000;0.318852
4929.000000;0.312659
4928.000000;0.306848
4927.000000;0.299976
4926.000000;0.292584
4925.000000;0.285637
4924.000000;0.278662
4923.000000;0.270898
4922.000000;0.263069
4921.000000;0.256335
4920.000000;0.250498
4919.000000;0.244772
4918.000000;0.239214
4917.000000;0.233910
4916.000000;0.227807
4915.000000;0.219995
4914.000000;0.211293
4913.000000;0.203021
4912.000000;0.195062
4911.000000;0.186632
4910.000000;0.178165
4909.000000;0.170761
4908.000000;0.164354
4907.000000;0.157996
4906.000000;0.151506
4905.000000;0.145290
4904.000000;0.138988
4903.000000;0.131836
4902.000000;0.124000
4901.000000;0.116247
4900.000000;0.108596
4899.000000;0.100524
4898.000000;0.092384
4897.000000;0.085412
4896.000000;0.080133
4895.000000;0.075546
4894.000000;0.069963
4893.000000;0.062240
4892.000000;0.052592
4891.000000;0.042827
4890.000000;0.035288
4889.000000;0.030859
4888.000000;0.028205
4887.000000;0.025399
4886.000000;0.021848
4885.000000;0.018048
4884.000000;0.014144
4883.000000;0.009776
4882.000000;0.005003
4881.000000;0.000384
4880.000000;-0.003916
4879.000000;-0.008354
4878.000000;-0.013185
4877.000000;-0.017959
4876.000000;-0.022056
4875.000000;-0.025322
4874.000000;-0.027946
4873.000000;-0.030045
4872.000000;-0.031672
4871.000000;-0.033018
4870.000000;-0.034210
4869.000000;-0.034941
4868.000000;-0.034682
4867.000000;-0.033466
4866.000000;-0.032171
4865.000000;-0.031714
4864.000000;-0.032167
4863.000000;-0.032814
4862.000000;-0.032957
4861.000000;-0.032398
4860.000000;-0.031199
4859.000000;-0.029522
4858.000000;-0.027838
4857.000000;-0.026800
4856.000000;-0.026494
4855.000000;-0.026019
4854.000000;-0.024303
4853.000000;-0.021348
4852.000000;-0.018194
4851.000000;-0.015590
4850.000000;-0.013165
4849.000000;-0.010172
4848.000000;-0.006641
4847.000000;-0.003265
4846.000000;-0.000398
4845.000000;0.002219
4844.000000;0.004754
4843.000000;0.006972
4842.000000;0.008854
4841.000000;0.010976
4840.000000;0.013910
4839.000000;0.017582
4838.000000;0.021495
4837.000000;0.025263
4836.000000;0.028640
4835.000000;0.031438
4834.000000;0.033840
4833.000000;0.036498
4832.000000;0.039844
4831.000000;0.043434
4830.000000;0.046466
4829.000000;0.048841
4828.000000;0.051250
4827.000000;0.054230
4826.000000;0.057605
4825.000000;0.060904
4824.000000;0.063858
4823.000000;0.066401
4822.000000;0.068646
4821.000000;0.071078
4820.000000;0.074358
4819.000000;0.078566
4818.000000;0.082882
4817.000000;0.086407
4816.000000;0.089161
4815.000000;0.091890
4814.000000;0.095039
4813.000000;0.098297
4812.000000;0.101256
4811.000000;0.104085
4810.000000;0.107215
4809.000000;0.110628
4808.000000;0.113847
4807.000000;0.116603
4806.000000;0.119124
4805.000000;0.121687
4804.000000;0.124272
4803.000000;0.126826
4802.000000;0.129557
4801.000000;0.132673
4800.000000;0.135982
4799.000000;0.139062
4798.000000;0.141740
4797.000000;0.144154
4796.000000;0.146426
4795.000000;0.148574
4794.000000;0.150756
4793.000000;0.153282
4792.000000;0.156294
4791.000000;0.159633
4790.000000;0.163059
4789.000000;0.166404
4788.000000;0.169452
4787.000000;0.171931
4786.000000;0.173811
4785.000000;0.175465
4784.000000;0.177411
4783.000000;0.179891
4782.000000;0.182722
4781.000000;0.185485
4780.000000;0.187869
4779.000000;0.189925
4778.000000;0.192007
4777.000000;0.194392
4776.000000;0.196980
4775.000000;0.199466
4774.000000;0.201727
4773.000000;0.203902
4772.000000;0.206159
4771.000000;0.208521
4770.000000;0.210874
4769.000000;0.213003
4768.000000;0.214648
4767.000000;0.215716
4766.000000;0.216456
4765.000000;0.217272
4764.000000;0.218427
4763.000000;0.220034
4762.000000;0.222176
4761.000000;0.224780
4760.000000;0.227447
4759.000000;0.229712
4758.000000;0.231503
4757.000000;0.233109
4756.000000;0.234716
4755.000000;0.236303
4754.000000;0.237994
4753.000000;0.240089
4752.000000;0.242545
4751.000000;0.244762
4750.000000;0.246188
4749.000000;0.246976
4748.000000;0.247801
4747.000000;0.249129
4746.000000;0.250881
4745.000000;0.252699
4744.000000;0.254334
4743.000000;0.255814
4742.000000;0.257369
4741.000000;0.259182
4740.000000;0.261118
4739.000000;0.262772
4738.000000;0.263913
4737.000000;0.264833
4736.000000;0.266094
4735.000000;0.267943
4734.000000;0.270081
4733.000000;0.272008
4732.000000;0.273502
4731.000000;0.274716
4730.000000;0.275900
4729.000000;0.277109
4728.000000;0.278241
4727.000000;0.279300
4726.000000;0.280497
4725.000000;0.281982
4724.000000;0.283564
4723.000000;0.284849
4722.000000;0.285675
4721.000000;0.286281
4720.000000;0.287022
4719.000000;0.288029
4718.000000;0.289198
4717.000000;0.290389
4716.000000;0.291554
4715.000000;0.292740
4714.000000;0.294047
4713.000000;0.295515
4712.000000;0.297016
4711.000000;0.298310
4710.000000;0.299269
4709.000000;0.299990
4708.000000;0.300689
4707.000000;0.301542
4706.000000;0.302628
4705.000000;0.303904
4704.000000;0.305206
4703.000000;0.306347
4702.000000;0.307294
4701.000000;0.308188
4700.000000;0.309156
4699.000000;0.310180
4698.000000;0.311186
4697.000000;0.312158
4696.000000;0.313107
4695.000000;0.314031
4694.000000;0.314979
4693.000000;0.316075
4692.000000;0.317364
4691.000000;0.318692
4690.000000;0.319832
4689.000000;0.320704
4688.000000;0.321420
4687.000000;0.322153
4686.000000;0.323032
4685.000000;0.324087
4684.000000;0.325214
4683.000000;0.326223
4682.000000;0.326994
4681.000000;0.327600
4680.000000;0.328206
4679.000000;0.328879
4678.000000;0.329570
4677.000000;0.330242
4676.000000;0.330951
4675.000000;0.331767
4674.000000;0.332692
4673.000000;0.333674
4672.000000;0.334668
4671.000000;0.335664
4670.000000;0.336675
4669.000000;0.337704
4668.000000;0.338722
4667.000000;0.339668
4666.000000;0.340507
4665.000000;0.341248
4664.000000;0.341899
4663.000000;0.342442
4662.000000;0.342893
4661.000000;0.343365
4660.000000;0.343978
4659.000000;0.344711
4658.000000;0.345415
4657.000000;0.346013
4656.000000;0.346622
4655.000000;0.347391
4654.000000;0.348253
4653.000000;0.348962
4652.000000;0.349403
4651.000000;0.349780
4650.000000;0.350392
4649.000000;0.351263
4648.000000;0.352106
4647.000000;0.352667
4646.000000;0.353005
4645.000000;0.353393
4644.000000;0.353999
4643.000000;0.354746
4642.000000;0.355444
4641.000000;0.355997
4640.000000;0.356467
4639.000000;0.357004
4638.000000;0.357717
4637.000000;0.358588
4636.000000;0.359487
4635.000000;0.360290
4634.000000;0.360984
4633.000000;0.361657
4632.000000;0.362398
4631.000000;0.363201
4630.000000;0.363964
4629.000000;0.364579
4628.000000;0.365030
4627.000000;0.365428
4626.000000;0.365909
4625.000000;0.366508
4624.000000;0.367141
4623.000000;0.367725
4622.000000;0.368260
4621.000000;0.368771
4620.000000;0.369236
4619.000000;0.369630
4618.000000;0.369996
4617.000000;0.370424
4616.000000;0.370944
4615.000000;0.371497
4614.000000;0.371996
4613.000000;0.372407
4612.000000;0.372772
4611.000000;0.373166
4610.000000;0.373614
4609.000000;0.374035
4608.000000;0.374326
4607.000000;0.374513
4606.000000;0.374753
4605.000000;0.375149
4604.000000;0.375610
4603.000000;0.375967
4602.000000;0.376175
4601.000000;0.376339
4600.000000;0.376569
4599.000000;0.376909
4598.000000;0.377369
4597.000000;0.377940
4596.000000;0.378546
4595.000000;0.379065
4594.000000;0.379429
4593.000000;0.379679
4592.000000;0.379901
4591.000000;0.380137
4590.000000;0.380385
4589.000000;0.380646
4588.000000;0.380956
4587.000000;0.381347
4586.000000;0.381797
4585.000000;0.382205
4584.000000;0.382462
4583.000000;0.382567
4582.000000;0.382642
4581.000000;0.382829
4580.000000;0.383168
4579.000000;0.383584
4578.000000;0.383957
4577.000000;0.384194
4576.000000;0.384291
4575.000000;0.384383
4574.000000;0.384664
4573.000000;0.385186
4572.000000;0.385756
4571.000000;0.386099
4570.000000;0.386132
4569.000000;0.386038
4568.000000;0.386090
4567.000000;0.386426
4566.000000;0.386994
4565.000000;0.387621
4564.000000;0.388125
4563.000000;0.388429
4562.000000;0.388618
4561.000000;0.388875
4560.000000;0.389325
4559.000000;0.389928
4558.000000;0.390523
4557.000000;0.390958
4556.000000;0.391185
4555.000000;0.391247
4554.000000;0.391216
4553.000000;0.391166
4552.000000;0.391200
4551.000000;0.391408
4550.000000;0.391759
4549.000000;0.392053
4548.000000;0.392098
4547.000000;0.391921
4546.000000;0.391756
4545.000000;0.391795
4544.000000;0.392036
4543.000000;0.392379
4542.000000;0.392760
4541.000000;0.393125
4540.000000;0.393370
4539.000000;0.393419
4538.000000;0.393336
4537.000000;0.393262
4536.000000;0.393258
4535.000000;0.393268
4534.000000;0.393238
4533.000000;0.393192
4532.000000;0.393185
4531.000000;0.393237
4530.000000;0.393342
4529.000000;0.393501
4528.000000;0.393721
4527.000000;0.393981
4526.000000;0.394222
4525.000000;0.394384
4524.000000;0.394461
4523.000000;0.394491
4522.000000;0.394501
4521.000000;0.394485
4520.000000;0.394480
4519.000000;0.394586
4518.000000;0.394850
4517.000000;0.395162
4516.000000;0.395370
4515.000000;0.395462
4514.000000;0.395520
4513.000000;0.395529
4512.000000;0.395376
4511.000000;0.395085
4510.000000;0.394865
4509.000000;0.394847
4508.000000;0.394901
4507.000000;0.394832
4506.000000;0.394657
4505.000000;0.394555
4504.000000;0.394627
4503.000000;0.394806
4502.000000;0.394967
4501.000000;0.395004
4500.000000;0.394873
4499.000000;0.394671
4498.000000;0.394647
4497.000000;0.394987
4496.000000;0.395573
4495.000000;0.396041
4494.000000;0.396114
4493.000000;0.395834
4492.000000;0.395496
4491.000000;0.395417
4490.000000;0.395730
4489.000000;0.396283
4488.000000;0.396729
4487.000000;0.396796
4486.000000;0.396547
4485.000000;0.396322
4484.000000;0.396412
4483.000000;0.396799
4482.000000;0.397201
4481.000000;0.397344
4480.000000;0.397183
4479.000000;0.396893
4478.000000;0.396695
4477.000000;0.396688
4476.000000;0.396813
4475.000000;0.396954
4474.000000;0.397045
4473.000000;0.397120
4472.000000;0.397288
4471.000000;0.397615
4470.000000;0.397990
4469.000000;0.398159
4468.000000;0.397980
4467.000000;0.397616
4466.000000;0.397352
4465.000000;0.397262
4464.000000;0.397166
4463.000000;0.396934
4462.000000;0.396682
4461.000000;0.396632
4460.000000;0.396879
4459.000000;0.397330
4458.000000;0.397761
4457.000000;0.397912
4456.000000;0.397669
4455.000000;0.397212
4454.000000;0.396863
4453.000000;0.396757
4452.000000;0.396774
4451.000000;0.396804
4450.000000;0.396892
4449.000000;0.397043
4448.000000;0.397098
4447.000000;0.396958
4446.000000;0.396777
4445.000000;0.396765
4444.000000;0.396919
4443.000000;0.397092
4442.000000;0.397218
4441.000000;0.397296
4440.000000;0.397247
4439.000000;0.396981
4438.000000;0.396567
4437.000000;0.396184
4436.000000;0.395963
4435.000000;0.395979
4434.000000;0.396318
4433.000000;0.396948
4432.000000;0.397583
4431.000000;0.397884
4430.000000;0.397787
4429.000000;0.397476
4428.000000;0.397058
4427.000000;0.396456
4426.000000;0.395697
4425.000000;0.395092
4424.000000;0.394942
4423.000000;0.395152
4422.000000;0.395278
4421.000000;0.395033
4420.000000;0.394636
4419.000000;0.394549
4418.000000;0.394888
4417.000000;0.395261
4416.000000;0.395261
4415.000000;0.394945
4414.000000;0.394658
4413.000000;0.394513
4412.000000;0.394329
4411.000000;0.394038
4410.000000;0.393787
4409.000000;0.393583
4408.000000;0.393170
4407.000000;0.392459
4406.000000;0.391787
4405.000000;0.391529
4404.000000;0.391628
4403.000000;0.391713
4402.000000;0.391539
4401.000000;0.391111
4400.000000;0.390511
4399.000000;0.389842
4398.000000;0.389241
4397.000000;0.388787
4396.000000;0.388451
4395.000000;0.388216
4394.000000;0.388070
4393.000000;0.387798
4392.000000;0.387082
4391.000000;0.385975
4390.000000;0.385023
4389.000000;0.384619
4388.000000;0.384496
4387.000000;0.384107
4386.000000;0.383277
4385.000000;0.382160
4384.000000;0.380823
4383.000000;0.379347
4382.000000;0.378134
4381.000000;0.377573
4380.000000;0.377456
4379.000000;0.377217
4378.000000;0.376748
4377.000000;0.376452
4376.000000;0.376392
4375.000000;0.375925
4374.000000;0.374501
4373.000000;0.372432
4372.000000;0.370559
4371.000000;0.369372
4370.000000;0.368765
4369.000000;0.368442
4368.000000;0.368248
4367.000000;0.368147
4366.000000;0.368131
4365.000000;0.368146
4364.000000;0.367998
4363.000000;0.367401
4362.000000;0.366250
4361.000000;0.364849
4360.000000;0.363680
4359.000000;0.362902
4358.000000;0.362199
4357.000000;0.361185
4356.000000;0.359909
4355.000000;0.358811
4354.000000;0.358193
4353.000000;0.357867
4352.000000;0.357424
4351.000000;0.356702
4350.000000;0.355808
4349.000000;0.354765
4348.000000;0.353389
4347.000000;0.351604
4346.000000;0.349639
4345.000000;0.347835
4344.000000;0.346439
4343.000000;0.345582
4342.000000;0.345247
4341.000000;0.345134
4340.000000;0.344752
4339.000000;0.343733
4338.000000;0.341997
4337.000000;0.339645
4336.000000;0.336975
4335.000000;0.334558
4334.000000;0.332923
4333.000000;0.332043
4332.000000;0.331396
4331.000000;0.330537
4330.000000;0.329303
4329.000000;0.327544
4328.000000;0.325244
4327.000000;0.323018
4326.000000;0.321789
4325.000000;0.321653
4324.000000;0.321650
4323.000000;0.320971
4322.000000;0.319788
4321.000000;0.318516
4320.000000;0.316991
4319.000000;0.315084
4318.000000;0.313449
4317.000000;0.312682
4316.000000;0.312121
4315.000000;0.310480
4314.000000;0.307618
4313.000000;0.304784
4312.000000;0.303073
4311.000000;0.302447
4310.000000;0.302344
4309.000000;0.302424
4308.000000;0.302420
4307.000000;0.301875
4306.000000;0.300550
4305.000000;0.298854
4304.000000;0.297566
4303.000000;0.297141
4302.000000;0.297258
4301.000000;0.297009
4300.000000;0.295769
4299.000000;0.294021
4298.000000;0.292925
4297.000000;0.292784
4296.000000;0.292430
4295.000000;0.290687
4294.000000;0.288002
4293.000000;0.286015
4292.000000;0.285856
4291.000000;0.287419
4290.000000;0.289867
4289.000000;0.292162
4288.000000;0.293446
4287.000000;0.293768
4286.000000;0.294252
4285.000000;0.295742
4284.000000;0.297621
4283.000000;0.298839
4282.000000;0.299755
4281.000000;0.301878
4280.000000;0.305847
4279.000000;0.310707
4278.000000;0.315239
4277.000000;0.319023
4276.000000;0.321985
4275.000000;0.324012
4274.000000;0.325465
4273.000000;0.327329
4272.000000;0.330398
4271.000000;0.334771
4270.000000;0.340151
4269.000000;0.346067
4268.000000;0.351827
4267.000000;0.356850
4266.000000;0.361239
4265.000000;0.365665
4264.000000;0.370793
4263.000000;0.377147
4262.000000;0.385045
4261.000000;0.394011
4260.000000;0.402577
4259.000000;0.409414
4258.000000;0.414640
4257.000000;0.419583
4256.000000;0.425553
4255.000000;0.433087
4254.000000;0.441717
4253.000000;0.450082
4252.000000;0.457019
4251.000000;0.462921
4250.000000;0.468962
4249.000000;0.474944
4248.000000;0.479605
4247.000000;0.483861
4246.000000;0.491223
4245.000000;0.503312
4244.000000;0.516830
4243.000000;0.527071
4242.000000;0.533453
4241.000000;0.538914
4240.000000;0.544974
4239.000000;0.550945
4238.000000;0.557360
4237.000000;0.566454
4236.000000;0.578664
4235.000000;0.591430
4234.000000;0.602473
4233.000000;0.612296
4232.000000;0.622372
4231.000000;0.632657
4230.000000;0.642070
4229.000000;0.650148
4228.000000;0.657133
4227.000000;0.663469
4226.000000;0.670247
4225.000000;0.679273
4224.000000;0.691402
4223.000000;0.705013
4222.000000;0.717624
4221.000000;0.729364
4220.000000;0.743339
4219.000000;0.761400
4218.000000;0.780125
4217.000000;0.793104
4216.000000;0.798303
4215.000000;0.800735
4214.000000;0.805856
4213.000000;0.813468
4212.000000;0.820738
4211.000000;0.828211
4210.000000;0.838689
4209.000000;0.852168
4208.000000;0.866427
4207.000000;0.882277
4206.000000;0.902056
4205.000000;0.921741
4204.000000;0.932683
4203.000000;0.934417
4202.000000;0.936567
4201.000000;0.944928
4200.000000;0.954414
4199.000000;0.959419
4198.000000;0.964588
4197.000000;0.977354
4196.000000;0.996166
4195.000000;1.013024
4194.000000;1.023886
4193.000000;1.030043
4192.000000;1.032285
4191.000000;1.031538
4190.000000;1.032059
4189.000000;1.037430
4188.000000;1.046108
4187.000000;1.055748
4186.000000;1.068251
4185.000000;1.084814
4184.000000;1.099745
4183.000000;1.106560
4182.000000;1.108798
4181.000000;1.115925
4180.000000;1.129622
4179.000000;1.142224
4178.000000;1.148693
4177.000000;1.153384
4176.000000;1.163079
4175.000000;1.179253
4174.000000;1.197092
4173.000000;1.208767
4172.000000;1.211140
4171.000000;1.211616
4170.000000;1.221512
4169.000000;1.243220
4168.000000;1.266991
4167.000000;1.282079
4166.000000;1.288878
4165.000000;1.294897
4164.000000;1.304429
4163.000000;1.319780
4162.000000;1.344208
4161.000000;1.374267
4160.000000;1.396572
4159.000000;1.404953
4158.000000;1.412408
4157.000000;1.432758
4156.000000;1.462582
4155.000000;1.489762
4154.000000;1.512815
4153.000000;1.537919
4152.000000;1.557908
4151.000000;1.560067
4150.000000;1.550234
4149.000000;1.541937
4148.000000;1.537852
4147.000000;1.534525
4146.000000;1.539075
4145.000000;1.564651
4144.000000;1.615611
4143.000000;1.685881
4142.000000;1.760682
4141.000000;1.814128
4140.000000;1.822341
4139.000000;1.791493
4138.000000;1.754431
4137.000000;1.730517
4136.000000;1.717145
4135.000000;1.716585
4134.000000;1.739250
4133.000000;1.787156
4132.000000;1.849427
4131.000000;1.910214
4130.000000;1.951425
4129.000000;1.985183
4128.000000;2.036344
4127.000000;2.076108
4126.000000;2.072482
4125.000000;2.049830
4124.000000;2.033582
4123.000000;2.031761
4122.000000;2.045112
4121.000000;2.063453
4120.000000;2.085788
4119.000000;2.100474
4118.000000;2.094558
4117.000000;2.092015
4116.000000;2.104173
4115.000000;2.108997
4114.000000;2.093143
4113.000000;2.049306
4112.000000;1.973184
4111.000000;1.905202
4110.000000;1.877718
4109.000000;1.882165
4108.000000;1.878115
4107.000000;1.834300
4106.000000;1.766797
4105.000000;1.706777
4104.000000;1.671809
4103.000000;1.673036
4102.000000;1.719780
4101.000000;1.808763
4100.000000;1.912359
4099.000000;1.985697
4098.000000;2.011060
4097.000000;2.020677
4096.000000;1.993604
4095.000000;1.909927
4094.000000;1.828189
4093.000000;1.788600
4092.000000;1.797935
4091.000000;1.844463
4090.000000;1.905873
4089.000000;1.945939
4088.000000;1.921193
4087.000000;1.844135
4086.000000;1.768769
4085.000000;1.724965
4084.000000;1.710891
4083.000000;1.708695
4082.000000;1.708534
4081.000000;1.719760
4080.000000;1.752530
4079.000000;1.803653
4078.000000;1.856849
4077.000000;1.882533
4076.000000;1.859655
4075.000000;1.808401
4074.000000;1.771469
4073.000000;1.774923
4072.000000;1.814325
4071.000000;1.867670
4070.000000;1.923849
4069.000000;1.990624
4068.000000;2.067343
4067.000000;2.130498
4066.000000;2.159030
4065.000000;2.141013
4064.000000;2.070782
4063.000000;1.975415
4062.000000;1.908572
4061.000000;1.904789
4060.000000;1.952183
4059.000000;2.007308
4058.000000;2.069571
4057.000000;2.187463
4056.000000;2.347150
4055.000000;2.416904
4054.000000;2.387020
4053.000000;2.353958
4052.000000;2.342366
4051.000000;2.379590
4050.000000;2.416659
4049.000000;2.328466
4048.000000;2.235506
4047.000000;2.206972
4046.000000;2.189938
4045.000000;2.175097
4044.000000;2.167860
4043.000000;2.113635
4042.000000;2.012965
4041.000000;1.951168
4040.000000;1.970478
4039.000000;2.097011
4038.000000;2.437308
4037.000000;2.642411
4036.000000;2.381929
4035.000000;2.331569
4034.000000;2.282065
4033.000000;2.225896
4032.000000;2.205730
4031.000000;2.160606
4030.000000;2.075083
4029.000000;2.006714
4028.000000;1.989532
4027.000000;2.006754
4026.000000;2.020037
4025.000000;2.004329
4024.000000;1.963989
4023.000000;1.917478
4022.000000;1.894669
4021.000000;1.922257
4020.000000;1.994359
4019.000000;2.042237
4018.000000;2.004128
4017.000000;1.943728
4016.000000;1.912610
4015.000000;1.895107
4014.000000;1.877092
4013.000000;1.867141
4012.000000;1.858908
4011.000000;1.829424
4010.000000;1.782845
4009.000000;1.742309
4008.000000;1.722680
4007.000000;1.728862
4006.000000;1.752287
4005.000000;1.772765
4004.000000;1.777483
4003.000000;1.776955
4002.000000;1.788278
4001.000000;1.806386
4000.000000;1.808521
3999.000000;1.791328
3998.000000;1.776052
3997.000000;1.776180
3996.000000;1.783359
3995.000000;1.784726
3994.000000;1.780796
3993.000000;1.772113
3992.000000;1.749220
3991.000000;1.714824
3990.000000;1.693326
3989.000000;1.705524
3988.000000;1.749038
3987.000000;1.806450
3986.000000;1.870473
3985.000000;1.943739
3984.000000;2.000324
3983.000000;1.990090
3982.000000;1.924989
3981.000000;1.867300
3980.000000;1.844153
3979.000000;1.842991
3978.000000;1.853644
3977.000000;1.886545
3976.000000;1.931113
3975.000000;1.936986
3974.000000;1.906018
3973.000000;1.901261
3972.000000;1.936314
3971.000000;1.968459
3970.000000;1.959709
3969.000000;1.928317
3968.000000;1.905153
3967.000000;1.886927
3966.000000;1.861569
3965.000000;1.842279
3964.000000;1.855282
3963.000000;1.909832
3962.000000;1.991090
3961.000000;2.076211
3960.000000;2.122484
3959.000000;2.094864
3958.000000;2.031708
3957.000000;1.969414
3956.000000;1.924381
3955.000000;1.908074
3954.000000;1.915487
3953.000000;1.933567
3952.000000;1.958297
3951.000000;1.987383
3950.000000;2.006276
3949.000000;1.994741
3948.000000;1.947802
3947.000000;1.893096
3946.000000;1.878618
3945.000000;1.933185
3944.000000;2.031955
3943.000000;2.073124
3942.000000;1.997180
3941.000000;1.909911
3940.000000;1.897564
3939.000000;1.952103
3938.000000;1.998075
3937.000000;1.984200
3936.000000;1.957501
3935.000000;1.958189
3934.000000;1.956029
3933.000000;1.921505
3932.000000;1.894960
3931.000000;1.913632
3930.000000;1.957608
3929.000000;1.968521
3928.000000;1.936569
3927.000000;1.914866
3926.000000;1.920187
3925.000000;1.917312
3924.000000;1.892108
3923.000000;1.888256
3922.000000;1.922404
3921.000000;1.947115
3920.000000;1.925256
3919.000000;1.887370
3918.000000;1.857580
3917.000000;1.823441
3916.000000;1.783248
3915.000000;1.759566
3914.000000;1.771951
3913.000000;1.815983
3912.000000;1.873903
3911.000000;1.929688
3910.000000;1.966885
3909.000000;1.982537
3908.000000;1.996068
3907.000000;2.017998
3906.000000;2.021016
3905.000000;1.979081
3904.000000;1.914628
3903.000000;1.867058
3902.000000;1.855920
3901.000000;1.867884
3900.000000;1.883203
3899.000000;1.898960
3898.000000;1.915187
3897.000000;1.915184
3896.000000;1.879701
3895.000000;1.815625
3894.000000;1.758422
3893.000000;1.742311
3892.000000;1.766502
3891.000000;1.798784
3890.000000;1.811808
3889.000000;1.811553
3888.000000;1.829002
3887.000000;1.863174
3886.000000;1.869763
3885.000000;1.826301
3884.000000;1.763872
3883.000000;1.738026
3882.000000;1.781346
3881.000000;1.877168
3880.000000;1.974694
3879.000000;2.021555
3878.000000;1.993767
3877.000000;1.942429
3876.000000;1.952230
3875.000000;2.020054
3874.000000;2.079409
3873.000000;2.110711
3872.000000;2.167856
3871.000000;2.271827
3870.000000;2.338045
3869.000000;2.281320
3868.000000;2.189404
3867.000000;2.181543
3866.000000;2.255525
3865.000000;2.312977
3864.000000;2.282158
3863.000000;2.247448
3862.000000;2.332961
3861.000000;2.571189
3860.000000;2.838416
3859.000000;2.938989
3858.000000;2.957509
3857.000000;3.010226
3856.000000;3.126919
3855.000000;3.174051
3854.000000;3.079117
3853.000000;3.013107
3852.000000;3.223325
3851.000000;3.470924
3850.000000;3.657170
3849.000000;3.065309
3848.000000;2.723004
3847.000000;2.693008
3846.000000;2.912463
3845.000000;2.813059
3844.000000;2.600571
3843.000000;2.614322
3842.000000;2.675964
3841.000000;2.693104
3840.000000;2.672944
3839.000000;2.617640
3838.000000;2.566909
3837.000000;2.575342
3836.000000;2.700444
3835.000000;2.701088
3834.000000;2.379915
3833.000000;2.138997
3832.000000;2.045758
3831.000000;2.069218
3830.000000;2.196550
3829.000000;2.359410
3828.000000;2.454620
3827.000000;2.593601
3826.000000;2.777169
3825.000000;2.764073
3824.000000;2.736112
3823.000000;2.696424
3822.000000;2.667962
3821.000000;2.654234
3820.000000;2.560162
3819.000000;2.426247
3818.000000;2.339860
3817.000000;2.324717
3816.000000;2.330632
3815.000000;2.283193
3814.000000;2.200923
3813.000000;2.189300
3812.000000;2.259754
3811.000000;2.341463
3810.000000;2.354219
3809.000000;2.334758
3808.000000;2.391388
3807.000000;2.512401
3806.000000;2.584578
3805.000000;2.509399
3804.000000;2.394620
3803.000000;2.346701
3802.000000;2.327628
3801.000000;2.296896
3800.000000;2.264485
3799.000000;2.245802
3798.000000;2.249331
3797.000000;2.264908
3796.000000;2.271775
3795.000000;2.257704
3794.000000;2.202303
3793.000000;2.114706
3792.000000;2.054167
3791.000000;2.054720
3790.000000;2.065953
3789.000000;2.046990
3788.000000;2.059627
3787.000000;2.146097
3786.000000;2.306879
3785.000000;2.478183
3784.000000;2.634428
3783.000000;2.659519
3782.000000;2.530875
3781.000000;2.414334
3780.000000;2.347871
3779.000000;2.293499
3778.000000;2.346276
3777.000000;2.992317
3776.000000;2.698302
3775.000000;2.259502
3774.000000;2.199476
3773.000000;2.145585
3772.000000;2.127107
3771.000000;2.147738
3770.000000;2.144522
3769.000000;2.091464
3768.000000;2.065398
3767.000000;2.119312
3766.000000;2.217341
3765.000000;2.383440
3764.000000;2.705948
3763.000000;2.940879
3762.000000;2.813077
3761.000000;2.624535
3760.000000;2.406429
3759.000000;2.289054
3758.000000;2.308640
3757.000000;2.425311
3756.000000;2.598083
3755.000000;2.772758
3754.000000;2.865500
3753.000000;2.881389
3752.000000;2.836631
3751.000000;2.720267
3750.000000;2.598585
3749.000000;2.501068
3748.000000;2.404137
3747.000000;2.341760
3746.000000;2.347625
3745.000000;2.361960
3744.000000;2.323797
3743.000000;2.268831
3742.000000;2.235547
3741.000000;2.224826
3740.000000;2.221339
3739.000000;2.214266
3738.000000;2.196180
3737.000000;2.164264
3736.000000;2.129486
3735.000000;2.113597
3734.000000;2.112667
3733.000000;2.092382
3732.000000;2.050271
3731.000000;2.007506
3730.000000;1.966593
3729.000000;1.928697
3728.000000;1.904015
3727.000000;1.892483
3726.000000;1.879099
3725.000000;1.847056
3724.000000;1.810389
3723.000000;1.808641
3722.000000;1.859283
3721.000000;1.923041
3720.000000;1.935168
3719.000000;1.919182
3718.000000;1.927977
3717.000000;1.968842
3716.000000;2.024791
3715.000000;2.075924
3714.000000;2.121729
3713.000000;2.164333
3712.000000;2.183528
3711.000000;2.169610
3710.000000;2.164758
3709.000000;2.204583
3708.000000;2.273600
3707.000000;2.295138
3706.000000;2.213491
3705.000000;2.107271
3704.000000;2.074365
3703.000000;2.122200
3702.000000;2.164748
3701.000000;2.123721
3700.000000;2.047436
3699.000000;2.029057
3698.000000;2.065366
3697.000000;2.090757
3696.000000;2.123694
3695.000000;2.207469
3694.000000;2.324597
3693.000000;2.447478
3692.000000;2.620165
3691.000000;2.963214
3690.000000;3.145879
3689.000000;2.626387
3688.000000;2.229571
3687.000000;2.007549
3686.000000;1.933024
3685.000000;1.938634
3684.000000;1.932809
3683.000000;1.932041
3682.000000;2.014223
3681.000000;2.175185
3680.000000;2.320866
3679.000000;2.380320
3678.000000;2.391625
3677.000000;2.410479
3676.000000;2.419990
3675.000000;2.387878
3674.000000;2.317265
3673.000000;2.230443
3672.000000;2.150589
3671.000000;2.093595
3670.000000;2.055643
3669.000000;2.026544
3668.000000;2.002270
3667.000000;1.982355
3666.000000;2.000219
3665.000000;2.066244
3664.000000;2.136119
3663.000000;2.195331
3662.000000;2.246707
3661.000000;2.278782
3660.000000;2.300797
3659.000000;2.352775
3658.000000;2.442823
3657.000000;2.489376
3656.000000;2.420880
3655.000000;2.300331
3654.000000;2.200323
3653.000000;2.158326
3652.000000;2.201670
3651.000000;2.311974
3650.000000;2.442682
3649.000000;2.585841
3648.000000;2.594759
3647.000000;2.329687
3646.000000;2.108343
3645.000000;2.007642
3644.000000;1.993348
3643.000000;2.066497
3642.000000;2.198501
3641.000000;2.231017
3640.000000;2.159722
3639.000000;2.162523
3638.000000;2.171278
3637.000000;2.110047
3636.000000;2.137429
3635.000000;2.273356
3634.000000;2.358895
3633.000000;2.317382
3632.000000;2.262281
3631.000000;2.326261
3630.000000;2.450345
3629.000000;2.428781
3628.000000;2.360908
3627.000000;2.362975
3626.000000;2.419436
3625.000000;2.486220
3624.000000;2.519434
3623.000000;2.453569
3622.000000;2.332053
3621.000000;2.246214
3620.000000;2.196333
3619.000000;2.174467
3618.000000;2.181068
3617.000000;2.213382
3616.000000;2.264465
3615.000000;2.259862
3614.000000;2.150471
3613.000000;2.015767
3612.000000;1.908456
3611.000000;1.843124
3610.000000;1.825945
3609.000000;1.842626
3608.000000;1.879415
3607.000000;1.955460
3606.000000;2.091013
3605.000000;2.272948
3604.000000;2.348123
3603.000000;2.232853
3602.000000;2.126361
3601.000000;2.049389
3600.000000;1.955664
3599.000000;1.865054
3598.000000;1.822416
3597.000000;1.845090
3596.000000;1.905686
3595.000000;1.956670
3594.000000;1.983823
3593.000000;2.010377
3592.000000;2.032919
3591.000000;2.009339
3590.000000;1.962745
3589.000000;1.962282
3588.000000;2.018049
3587.000000;2.077599
3586.000000;2.083361
3585.000000;2.047180
3584.000000;2.014870
3583.000000;1.984336
3582.000000;1.913141
3581.000000;1.820607
3580.000000;1.761619
3579.000000;1.743842
3578.000000;1.748930
3577.000000;1.772595
3576.000000;1.814737
3575.000000;1.856535
3574.000000;1.904957
3573.000000;1.990003
3572.000000;2.095365
3571.000000;2.148439
3570.000000;2.093155
3569.000000;2.007410
3568.000000;1.961835
3567.000000;1.935827
3566.000000;1.877899
3565.000000;1.783236
3564.000000;1.708642
3563.000000;1.695686
3562.000000;1.750832
3561.000000;1.859219
3560.000000;1.943217
3559.000000;1.902758
3558.000000;1.798079
3557.000000;1.704753
3556.000000;1.640680
3555.000000;1.614531
3554.000000;1.624094
3553.000000;1.652100
3552.000000;1.676088
3551.000000;1.691565
3550.000000;1.710713
3549.000000;1.736190
3548.000000;1.753163
3547.000000;1.753437
3546.000000;1.752067
3545.000000;1.762907
3544.000000;1.776639
3543.000000;1.782500
3542.000000;1.792778
3541.000000;1.819678
3540.000000;1.861082
3539.000000;1.920716
3538.000000;2.005962
3537.000000;2.094826
3536.000000;2.117831
3535.000000;2.031526
3534.000000;1.908425
3533.000000;1.834505
3532.000000;1.841676
3531.000000;1.915860
3530.000000;2.002319
3529.000000;2.066704
3528.000000;2.128189
3527.000000;2.206179
3526.000000;2.332348
3525.000000;2.528095
3524.000000;2.763129
3523.000000;2.735244
3522.000000;2.470621
3521.000000;2.288418
3520.000000;2.188515
3519.000000;2.177590
3518.000000;2.258977
3517.000000;2.388024
3516.000000;2.438458
3515.000000;2.330118
3514.000000;2.169446
3513.000000;2.047926
3512.000000;2.004244
3511.000000;2.036058
3510.000000;2.107181
3509.000000;2.221091
3508.000000;2.561693
3507.000000;2.975132
3506.000000;2.541986
3505.000000;2.291751
3504.000000;2.121347
3503.000000;1.975112
3502.000000;1.872740
3501.000000;1.818124
3500.000000;1.827336
3499.000000;1.867344
3498.000000;1.868645
3497.000000;1.839955
3496.000000;1.860894
3495.000000;1.984783
3494.000000;2.204376
3493.000000;2.398497
3492.000000;2.516009
3491.000000;2.719790
3490.000000;2.936084
3489.000000;2.668571
3488.000000;2.302138
3487.000000;2.083355
3486.000000;1.996539
3485.000000;2.029907
3484.000000;2.165214
3483.000000;2.306863
3482.000000;2.324072
3481.000000;2.271705
3480.000000;2.245865
3479.000000;2.263672
3478.000000;2.293184
3477.000000;2.357862
3476.000000;2.505720
3475.000000;2.526048
3474.000000;2.390013
3473.000000;2.299355
3472.000000;2.215055
3471.000000;2.117942
3470.000000;2.049531
3469.000000;2.001369
3468.000000;1.945654
3467.000000;1.908659
3466.000000;1.916176
3465.000000;1.956193
3464.000000;2.005369
3463.000000;2.065638
3462.000000;2.146107
3461.000000;2.362238
3460.000000;2.641410
3459.000000;2.400205
3458.000000;2.255846
3457.000000;2.231525
3456.000000;2.204452
3455.000000;2.314382
3454.000000;2.449930
3453.000000;2.375146
3452.000000;2.489111
3451.000000;2.625272
3450.000000;2.298814
3449.000000;2.108142
3448.000000;1.999412
3447.000000;1.927660
3446.000000;1.927679
3445.000000;2.011686
3444.000000;2.162779
3443.000000;2.486059
3442.000000;2.854985
3441.000000;2.445553
3440.000000;2.280082
3439.000000;2.177028
3438.000000;2.045148
3437.000000;1.952491
3436.000000;1.899680
3435.000000;1.877822
3434.000000;1.870146
3433.000000;1.887824
3432.000000;1.897667
3431.000000;1.845663
3430.000000;1.759590
3429.000000;1.703074
3428.000000;1.688504
3427.000000;1.695585
3426.000000;1.694653
3425.000000;1.679090
3424.000000;1.670420
3423.000000;1.683224
3422.000000;1.711248
3421.000000;1.730870
3420.000000;1.752235
3419.000000;1.820827
3418.000000;1.947096
3417.000000;2.102068
3416.000000;2.186721
3415.000000;2.233492
3414.000000;2.298894
3413.000000;2.176027
3412.000000;2.035074
3411.000000;2.018943
3410.000000;2.087125
3409.000000;2.141066
3408.000000;2.079230
3407.000000;1.969871
3406.000000;1.886874
3405.000000;1.831499
3404.000000;1.805305
3403.000000;1.792762
3402.000000;1.765478
3401.000000;1.766990
3400.000000;1.857760
3399.000000;2.057952
3398.000000;2.298315
3397.000000;2.275671
3396.000000;2.066589
3395.000000;1.916004
3394.000000;1.840059
3393.000000;1.811261
3392.000000;1.798471
3391.000000;1.776369
3390.000000;1.741088
3389.000000;1.698668
3388.000000;1.652514
3387.000000;1.621821
3386.000000;1.618205
3385.000000;1.625956
3384.000000;1.626149
3383.000000;1.621257
3382.000000;1.624322
3381.000000;1.637416
3380.000000;1.649499
3379.000000;1.645265
3378.000000;1.621922
3377.000000;1.590325
3376.000000;1.555220
3375.000000;1.524148
3374.000000;1.513494
3373.000000;1.528356
3372.000000;1.556017
3371.000000;1.579566
3370.000000;1.597456
3369.000000;1.624712
3368.000000;1.666806
3367.000000;1.702077
3366.000000;1.704781
3365.000000;1.673054
3364.000000;1.636208
3363.000000;1.633245
3362.000000;1.655117
3361.000000;1.704994
3360.000000;1.787651
3359.000000;2.059717
3358.000000;2.491886
3357.000000;2.120049
3356.000000;1.997931
3355.000000;2.005867
3354.000000;2.007716
3353.000000;2.038192
3352.000000;2.043212
3351.000000;2.063791
3350.000000;2.157038
3349.000000;2.474278
3348.000000;3.084718
3347.000000;2.773029
3346.000000;2.427798
3345.000000;2.272428
3344.000000;2.225521
3343.000000;2.215725
3342.000000;2.066937
3341.000000;1.999157
3340.000000;2.093891
3339.000000;2.424990
3338.000000;3.337888
3337.000000;2.564221
3336.000000;2.251218
3335.000000;2.102045
3334.000000;2.006546
3333.000000;1.960030
3332.000000;1.915803
3331.000000;1.896390
3330.000000;1.919831
3329.000000;2.003140
3328.000000;2.161825
3327.000000;2.468478
3326.000000;2.804133
3325.000000;3.132819
3324.000000;2.928906
3323.000000;2.444473
3322.000000;2.267829
3321.000000;2.127152
3320.000000;1.954031
3319.000000;1.803387
3318.000000;1.740202
3317.000000;1.785530
3316.000000;1.905121
3315.000000;2.029098
3314.000000;2.082240
3313.000000;2.059998
3312.000000;2.017501
3311.000000;2.006812
3310.000000;2.032438
3309.000000;2.077073
3308.000000;2.148187
3307.000000;2.277132
3306.000000;2.378778
3305.000000;2.247022
3304.000000;2.078523
3303.000000;2.048457
3302.000000;2.166089
3301.000000;2.321611
3300.000000;2.322895
3299.000000;2.273382
3298.000000;2.321251
3297.000000;2.358205
3296.000000;2.228891
3295.000000;2.103162
3294.000000;2.049543
3293.000000;2.030665
3292.000000;2.010888
3291.000000;1.982514
3290.000000;1.967767
3289.000000;1.992474
3288.000000;2.068040
3287.000000;2.183648
3286.000000;2.263707
3285.000000;2.170836
3284.000000;2.019351
3283.000000;1.933306
3282.000000;1.919369
3281.000000;1.969444
3280.000000;2.066898
3279.000000;2.168171
3278.000000;2.210122
3277.000000;2.152746
3276.000000;2.093650
3275.000000;2.090708
3274.000000;2.095128
3273.000000;2.094428
3272.000000;2.055331
3271.000000;1.984135
3270.000000;1.917019
3269.000000;1.856951
3268.000000;1.852487
3267.000000;1.929280
3266.000000;2.066688
3265.000000;2.174768
3264.000000;2.142051
3263.000000;2.072732
3262.000000;2.076813
3261.000000;2.156963
3260.000000;2.260569
3259.000000;2.318246
3258.000000;2.321142
3257.000000;2.308736
3256.000000;2.174769
3255.000000;1.957320
3254.000000;1.806932
3253.000000;1.725087
3252.000000;1.688420
3251.000000;1.689189
3250.000000;1.719512
3249.000000;1.752133
3248.000000;1.778834
3247.000000;1.834835
3246.000000;1.896417
3245.000000;1.917557
3244.000000;1.934347
3243.000000;1.975823
3242.000000;2.064148
3241.000000;2.213367
3240.000000;2.510866
3239.000000;2.940194
3238.000000;2.435543
3237.000000;2.127623
3236.000000;1.997228
3235.000000;1.905078
3234.000000;1.862116
3233.000000;1.873702
3232.000000;1.941427
3231.000000;2.060804
3230.000000;2.170483
3229.000000;2.155361
3228.000000;2.035567
3227.000000;1.934361
3226.000000;1.878526
3225.000000;1.849446
3224.000000;1.853327
3223.000000;1.911584
3222.000000;2.037327
3221.000000;2.276494
3220.000000;2.506477
3219.000000;2.329001
3218.000000;2.133175
3217.000000;2.004789
3216.000000;1.917906
3215.000000;1.885627
3214.000000;1.912188
3213.000000;1.986482
3212.000000;2.054075
3211.000000;2.047592
3210.000000;2.013848
3209.000000;2.031182
3208.000000;2.130964
3207.000000;2.300265
3206.000000;2.272699
3205.000000;2.066478
3204.000000;1.919317
3203.000000;1.848232
3202.000000;1.842055
3201.000000;1.845452
3200.000000;1.782682
3199.000000;1.674851
3198.000000;1.579825
3197.000000;1.527713
3196.000000;1.523840
3195.000000;1.575713
3194.000000;1.679782
3193.000000;1.778561
3192.000000;1.810764
3191.000000;1.796324
3190.000000;1.774975
3189.000000;1.740731
3188.000000;1.687702
3187.000000;1.651973
3186.000000;1.683719
3185.000000;1.803005
3184.000000;1.928009
3183.000000;1.971710
3182.000000;2.113960
3181.000000;2.333170
3180.000000;2.073861
3179.000000;1.866089
3178.000000;1.778675
3177.000000;1.743670
3176.000000;1.759981
3175.000000;1.792707
3174.000000;1.798064
3173.000000;1.796933
3172.000000;1.870404
3171.000000;2.040440
3170.000000;2.396186
3169.000000;2.962212
3168.000000;2.276279
3167.000000;1.988828
3166.000000;1.878989
3165.000000;1.820329
3164.000000;1.766191
3163.000000;1.741013
3162.000000;1.789166
3161.000000;1.896139
3160.000000;1.976367
3159.000000;1.977466
3158.000000;1.981179
3157.000000;2.024221
3156.000000;2.019514
3155.000000;1.928510
3154.000000;1.866361
3153.000000;1.894148
3152.000000;1.919704
3151.000000;1.862741
3150.000000;1.837024
3149.000000;1.848853
3148.000000;1.792208
3147.000000;1.736021
3146.000000;1.736665
3145.000000;1.729574
3144.000000;1.713225
3143.000000;1.769649
3142.000000;1.865689
3141.000000;1.801964
3140.000000;1.682866
3139.000000;1.643792
3138.000000;1.657554
3137.000000;1.686500
3136.000000;1.722939
3135.000000;1.766671
3134.000000;1.782666
3133.000000;1.765050
3132.000000;1.776471
3131.000000;1.862917
3130.000000;1.946852
3129.000000;1.892334
3128.000000;1.772298
3127.000000;1.689945
3126.000000;1.670544
3125.000000;1.686606
3124.000000;1.693310
3123.000000;1.690095
3122.000000;1.722797
3121.000000;1.824018
3120.000000;1.966993
3119.000000;2.034966
3118.000000;1.947588
3117.000000;1.810851
3116.000000;1.721122
3115.000000;1.692860
3114.000000;1.691708
3113.000000;1.694152
3112.000000;1.724278
3111.000000;1.800469
3110.000000;1.890523
3109.000000;1.923612
3108.000000;1.892811
3107.000000;1.857159
3106.000000;1.844552
3105.000000;1.849726
3104.000000;1.851798
3103.000000;1.831843
3102.000000;1.788382
3101.000000;1.736155
3100.000000;1.687051
3099.000000;1.649400
3098.000000;1.631555
3097.000000;1.647261
3096.000000;1.700251
3095.000000;1.739607
3094.000000;1.688590
3093.000000;1.580442
3092.000000;1.497380
3091.000000;1.462151
3090.000000;1.452498
3089.000000;1.448739
3088.000000;1.467428
3087.000000;1.545780
3086.000000;1.706884
3085.000000;1.970270
3084.000000;2.285346
3083.000000;2.172717
3082.000000;1.935390
3081.000000;1.806577
3080.000000;1.710748
3079.000000;1.654135
3078.000000;1.655374
3077.000000;1.714693
3076.000000;1.811779
3075.000000;1.943460
3074.000000;2.120203
3073.000000;2.447350
3072.000000;2.789988
3071.000000;2.212334
3070.000000;1.941109
3069.000000;1.793320
3068.000000;1.693711
3067.000000;1.637502
3066.000000;1.611872
3065.000000;1.618911
3064.000000;1.684802
3063.000000;1.855650
3062.000000;2.100989
3061.000000;2.082349
3060.000000;1.876673
3059.000000;1.732701
3058.000000;1.653725
3057.000000;1.621294
3056.000000;1.624342
3055.000000;1.673493
3054.000000;1.744801
3053.000000;1.776893
3052.000000;1.751754
3051.000000;1.706200
3050.000000;1.682567
3049.000000;1.708784
3048.000000;1.772312
3047.000000;1.823250
3046.000000;1.905720
3045.000000;2.136206
3044.000000;2.394505
3043.000000;2.229459
3042.000000;2.161034
3041.000000;2.119796
3040.000000;2.088074
3039.000000;2.148923
3038.000000;2.123813
3037.000000;1.999134
3036.000000;1.970631
3035.000000;2.034990
3034.000000;2.134043
3033.000000;2.275607
3032.000000;2.373883
3031.000000;2.324205
3030.000000;2.306758
3029.000000;2.744366
3028.000000;2.896849
3027.000000;2.197569
3026.000000;1.972540
3025.000000;1.853815
3024.000000;1.849142
3023.000000;1.901500
3022.000000;1.944581
3021.000000;1.978610
3020.000000;2.065415
3019.000000;2.152943
3018.000000;2.149290
3017.000000;2.204905
3016.000000;2.656778
3015.000000;2.583277
3014.000000;2.263727
3013.000000;2.241007
3012.000000;2.291259
3011.000000;2.507212
3010.000000;2.702017
3009.000000;2.368586
3008.000000;2.193264
3007.000000;1.989579
3006.000000;1.825356
3005.000000;1.748599
3004.000000;1.751345
3003.000000;1.810158
3002.000000;1.917999
3001.000000;2.042185
3000.000000;2.098829
2999.000000;2.029775
2998.000000;1.879738
2997.000000;1.763581
2996.000000;1.715040
2995.000000;1.692922
2994.000000;1.666325
2993.000000;1.641265
2992.000000;1.630931
2991.000000;1.635633
2990.000000;1.660084
2989.000000;1.713130
2988.000000;1.759663
2987.000000;1.762331
2986.000000;1.698934
2985.000000;1.580647
2984.000000;1.487307
2983.000000;1.462802
2982.000000;1.496144
2981.000000;1.541602
2980.000000;1.578667
2979.000000;1.639429
2978.000000;1.738502
2977.000000;1.838650
2976.000000;1.881085
2975.000000;1.870023
2974.000000;1.870001
2973.000000;1.894741
2972.000000;1.893481
2971.000000;1.897317
2970.000000;1.998789
2969.000000;2.119276
2968.000000;2.047936
2967.000000;2.008155
2966.000000;2.050507
2965.000000;1.997565
2964.000000;1.930848
2963.000000;1.974167
2962.000000;2.153053
2961.000000;2.334636
2960.000000;2.804769
2959.000000;2.455883
2958.000000;2.141513
2957.000000;2.112335
2956.000000;2.132790
2955.000000;2.142609
2954.000000;2.203484
2953.000000;2.149548
2952.000000;1.994880
2951.000000;1.890256
2950.000000;1.788901
2949.000000;1.725275
2948.000000;1.745651
2947.000000;1.826621
2946.000000;1.893442
2945.000000;1.964226
2944.000000;2.120588
2943.000000;2.177048
2942.000000;2.054649
2941.000000;1.862952
2940.000000;1.714195
2939.000000;1.659332
2938.000000;1.634184
2937.000000;1.598515
2936.000000;1.588848
2935.000000;1.621412
2934.000000;1.654813
2933.000000;1.661749
2932.000000;1.680467
2931.000000;1.716617
2930.000000;1.744805
2929.000000;1.790419
2928.000000;1.871579
2927.000000;1.927701
2926.000000;1.904469
2925.000000;1.846430
2924.000000;1.825532
2923.000000;1.843047
2922.000000;1.830531
2921.000000;1.775443
2920.000000;1.743023
2919.000000;1.763228
2918.000000;1.822845
2917.000000;1.907057
2916.000000;2.037149
2915.000000;2.243355
2914.000000;2.496174
2913.000000;2.247401
2912.000000;1.987130
2911.000000;1.833184
2910.000000;1.717323
2909.000000;1.666366
2908.000000;1.675528
2907.000000;1.714258
2906.000000;1.768832
2905.000000;1.851413
2904.000000;1.921089
2903.000000;1.880959
2902.000000;1.787942
2901.000000;1.727096
2900.000000;1.727631
2899.000000;1.750567
2898.000000;1.714643
2897.000000;1.660666
2896.000000;1.668204
2895.000000;1.739824
2894.000000;1.789790
2893.000000;1.817431
2892.000000;1.909381
2891.000000;2.320162
2890.000000;2.546893
2889.000000;2.015908
2888.000000;1.814884
2887.000000;1.743066
2886.000000;1.739644
2885.000000;1.746656
2884.000000;1.749931
2883.000000;1.797517
2882.000000;1.952746
2881.000000;2.256478
2880.000000;2.183250
2879.000000;2.010263
2878.000000;1.920477
2877.000000;1.881634
2876.000000;1.893449
2875.000000;1.882782
2874.000000;1.798894
2873.000000;1.769823
2872.000000;1.848983
2871.000000;2.015249
2870.000000;2.271741
2869.000000;2.490862
2868.000000;2.243157
2867.000000;2.012399
2866.000000;1.896626
2865.000000;1.884793
2864.000000;2.089256
2863.000000;2.623620
2862.000000;2.408497
2861.000000;2.354065
2860.000000;2.644412
2859.000000;2.609017
2858.000000;2.569689
2857.000000;2.696975
2856.000000;2.368677
2855.000000;2.233335
2854.000000;2.043064
2853.000000;1.829259
2852.000000;1.710863
2851.000000;1.650754
2850.000000;1.635176
2849.000000;1.696144
2848.000000;1.879181
2847.000000;2.137300
2846.000000;2.232400
2845.000000;2.453787
2844.000000;2.593443
2843.000000;2.183081
2842.000000;1.958932
2841.000000;1.798689
2840.000000;1.713792
2839.000000;1.698447
2838.000000;1.731049
2837.000000;1.774714
2836.000000;1.833204
2835.000000;1.932554
2834.000000;2.068830
2833.000000;2.112897
2832.000000;1.969113
2831.000000;1.804958
2830.000000;1.710922
2829.000000;1.676641
2828.000000;1.671166
2827.000000;1.691384
2826.000000;1.743190
2825.000000;1.812776
2824.000000;1.869781
2823.000000;1.912599
2822.000000;1.956723
2821.000000;1.873756
2820.000000;1.775063
2819.000000;1.768276
2818.000000;1.764362
2817.000000;1.670517
2816.000000;1.570234
2815.000000;1.551723
2814.000000;1.606695
2813.000000;1.679125
2812.000000;1.730792
2811.000000;1.788964
2810.000000;1.894051
2809.000000;1.879426
2808.000000;1.706290
2807.000000;1.577700
2806.000000;1.510911
2805.000000;1.471120
2804.000000;1.437633
2803.000000;1.420037
2802.000000;1.425946
2801.000000;1.433610
2800.000000;1.409368
2799.000000;1.349694
2798.000000;1.288010
2797.000000;1.241940
2796.000000;1.213430
2795.000000;1.209451
2794.000000;1.233202
2793.000000;1.272590
2792.000000;1.318221
2791.000000;1.374653
2790.000000;1.443158
2789.000000;1.510737
2788.000000;1.539796
2787.000000;1.508437
2786.000000;1.468333
2785.000000;1.469325
2784.000000;1.510540
2783.000000;1.567095
2782.000000;1.614734
2781.000000;1.649389
2780.000000;1.666666
2779.000000;1.660443
2778.000000;1.660072
2777.000000;1.711437
2776.000000;1.804680
2775.000000;1.837735
2774.000000;1.810522
2773.000000;1.811486
2772.000000;1.878354
2771.000000;1.940612
2770.000000;1.958260
2769.000000;2.001298
2768.000000;2.022905
2767.000000;1.962723
2766.000000;1.868530
2765.000000;1.778130
2764.000000;1.696398
2763.000000;1.640247
2762.000000;1.621354
2761.000000;1.626237
2760.000000;1.625515
2759.000000;1.610798
2758.000000;1.605150
2757.000000;1.625698
2756.000000;1.637893
2755.000000;1.589496
2754.000000;1.507392
2753.000000;1.439992
2752.000000;1.401580
2751.000000;1.387061
2750.000000;1.387900
2749.000000;1.399843
2748.000000;1.420858
2747.000000;1.442279
2746.000000;1.441710
2745.000000;1.404954
2744.000000;1.354090
2743.000000;1.320446
2742.000000;1.312053
2741.000000;1.319773
2740.000000;1.340189
2739.000000;1.384264
2738.000000;1.460691
2737.000000;1.549940
2736.000000;1.601858
2735.000000;1.602894
2734.000000;1.600105
2733.000000;1.615129
2732.000000;1.635223
2731.000000;1.655847
2730.000000;1.729166
2729.000000;1.887967
2728.000000;2.333831
2727.000000;2.146062
2726.000000;1.797824
2725.000000;1.693021
2724.000000;1.643295
2723.000000;1.605734
2722.000000;1.583869
2721.000000;1.629765
2720.000000;1.761806
2719.000000;1.971014
2718.000000;2.220379
2717.000000;2.013180
2716.000000;1.795981
2715.000000;1.679123
2714.000000;1.639771
2713.000000;1.679757
2712.000000;1.813672
2711.000000;2.053835
2710.000000;2.426102
2709.000000;2.722305
2708.000000;2.281343
2707.000000;1.892217
2706.000000;1.635064
2705.000000;1.503099
2704.000000;1.490825
2703.000000;1.571162
2702.000000;1.665290
2701.000000;1.690485
2700.000000;1.693859
2699.000000;1.761689
2698.000000;1.819928
2697.000000;1.738444
2696.000000;1.617695
2695.000000;1.534686
2694.000000;1.505708
2693.000000;1.510657
2692.000000;1.505713
2691.000000;1.478452
2690.000000;1.454667
2689.000000;1.446473
2688.000000;1.441141
2687.000000;1.436825
2686.000000;1.448874
2685.000000;1.471416
2684.000000;1.469331
2683.000000;1.427114
2682.000000;1.378729
2681.000000;1.358186
2680.000000;1.359567
2679.000000;1.358098
2678.000000;1.352704
2677.000000;1.365066
2676.000000;1.403421
2675.000000;1.452452
2674.000000;1.498270
2673.000000;1.545015
2672.000000;1.589946
2671.000000;1.598468
2670.000000;1.551200
2669.000000;1.509834
2668.000000;1.531613
2667.000000;1.615214
2666.000000;1.707739
2665.000000;1.747063
2664.000000;1.751500
2663.000000;1.779206
2662.000000;1.824316
2661.000000;1.830205
2660.000000;1.820652
2659.000000;1.866356
2658.000000;2.166216
2657.000000;2.735219
2656.000000;2.053675
2655.000000;1.844932
2654.000000;1.752571
2653.000000;1.779118
2652.000000;1.810423
2651.000000;1.729643
2650.000000;1.624081
2649.000000;1.600288
2648.000000;1.641909
2647.000000;1.641812
2646.000000;1.561611
2645.000000;1.502511
2644.000000;1.512067
2643.000000;1.541817
2642.000000;1.532378
2641.000000;1.501129
2640.000000;1.491172
2639.000000;1.518140
2638.000000;1.607116
2637.000000;1.752627
2636.000000;1.840673
2635.000000;1.866170
2634.000000;1.814358
2633.000000;1.699018
2632.000000;1.598171
2631.000000;1.525945
2630.000000;1.449726
2629.000000;1.409705
2628.000000;1.471687
2627.000000;1.636838
2626.000000;1.955379
2625.000000;2.218406
2624.000000;1.803340
2623.000000;1.559260
2622.000000;1.480127
2621.000000;1.438085
2620.000000;1.383931
2619.000000;1.362690
2618.000000;1.406720
2617.000000;1.502982
2616.000000;1.668587
2615.000000;1.849577
2614.000000;1.677595
2613.000000;1.522746
2612.000000;1.472437
2611.000000;1.451639
2610.000000;1.465649
2609.000000;1.560685
2608.000000;1.729002
2607.000000;1.908998
2606.000000;2.037637
2605.000000;1.873320
2604.000000;1.707080
2603.000000;1.637503
2602.000000;1.597401
2601.000000;1.581746
2600.000000;1.637278
2599.000000;1.734756
2598.000000;1.801680
2597.000000;1.814110
2596.000000;1.749827
2595.000000;1.672751
2594.000000;1.669255
2593.000000;1.730321
2592.000000;1.786827
2591.000000;1.814281
2590.000000;1.778667
2589.000000;1.676915
2588.000000;1.551909
2587.000000;1.442358
2586.000000;1.382528
2585.000000;1.376038
2584.000000;1.391675
2583.000000;1.387045
2582.000000;1.360145
2581.000000;1.347357
2580.000000;1.367208
2579.000000;1.392368
2578.000000;1.393691
2577.000000;1.397222
2576.000000;1.437656
2575.000000;1.523337
2574.000000;1.632187
2573.000000;1.718382
2572.000000;1.749086
2571.000000;1.696200
2570.000000;1.583980
2569.000000;1.481904
2568.000000;1.449202
2567.000000;1.499997
2566.000000;1.615696
2565.000000;1.751870
2564.000000;1.906251
2563.000000;2.730732
2562.000000;2.083366
2561.000000;1.698686
2560.000000;1.594884
2559.000000;1.525388
2558.000000;1.463210
2557.000000;1.408606
2556.000000;1.379275
2555.000000;1.362005
2554.000000;1.345837
2553.000000;1.333333
2552.000000;1.316988
2551.000000;1.299179
2550.000000;1.299699
2549.000000;1.321943
2548.000000;1.348370
2547.000000;1.358889
2546.000000;1.373705
2545.000000;1.417951
2544.000000;1.491440
2543.000000;1.583349
2542.000000;1.773651
2541.000000;2.238305
2540.000000;1.860029
2539.000000;1.541589
2538.000000;1.447363
2537.000000;1.377882
2536.000000;1.329221
2535.000000;1.302109
2534.000000;1.293992
2533.000000;1.312455
2532.000000;1.368936
2531.000000;1.468609
2530.000000;1.597284
2529.000000;1.855153
2528.000000;2.263339
2527.000000;1.760426
2526.000000;1.583915
2525.000000;1.513036
2524.000000;1.442934
2523.000000;1.431200
2522.000000;1.502809
2521.000000;1.655404
2520.000000;1.747101
2519.000000;1.592281
2518.000000;1.386787
2517.000000;1.267474
2516.000000;1.229261
2515.000000;1.223597
2514.000000;1.202686
2513.000000;1.187461
2512.000000;1.226170
2511.000000;1.348004
2510.000000;1.556519
2509.000000;1.851086
2508.000000;2.254280
2507.000000;1.976021
2506.000000;1.693316
2505.000000;1.587234
2504.000000;1.556612
2503.000000;1.568706
2502.000000;1.584879
2501.000000;1.581970
2500.000000;1.587220
2499.000000;1.679539
2498.000000;1.946214
2497.000000;2.326715
2496.000000;2.673968
2495.000000;2.704375
2494.000000;2.176396
2493.000000;2.089156
2492.000000;2.375935
2491.000000;2.158592
2490.000000;1.713919
2489.000000;1.600042
2488.000000;1.585914
2487.000000;1.581535
2486.000000;1.574131
2485.000000;1.612754
2484.000000;1.698442
2483.000000;1.776485
2482.000000;1.852865
2481.000000;1.969822
2480.000000;2.390683
2479.000000;2.304481
2478.000000;1.859824
2477.000000;1.724700
2476.000000;1.728972
2475.000000;1.762287
2474.000000;1.751040
2473.000000;1.727058
2472.000000;1.684133
2471.000000;1.612989
2470.000000;1.565624
2469.000000;1.569083
2468.000000;1.648136
2467.000000;1.815280
2466.000000;2.038424
2465.000000;2.171102
2464.000000;1.958857
2463.000000;1.683591
2462.000000;1.527743
2461.000000;1.473487
2460.000000;1.482468
2459.000000;1.510635
2458.000000;1.531310
2457.000000;1.557866
2456.000000;1.597387
2455.000000;1.607273
2454.000000;1.572574
2453.000000;1.527888
2452.000000;1.477825
2451.000000;1.436264
2450.000000;1.425399
2449.000000;1.454675
2448.000000;1.519676
2447.000000;1.591940
2446.000000;1.669258
2445.000000;1.878479
2444.000000;2.277741
2443.000000;2.103923
2442.000000;1.857692
2441.000000;1.667875
2440.000000;1.494532
2439.000000;1.406592
2438.000000;1.392084
2437.000000;1.422313
2436.000000;1.477585
2435.000000;1.553126
2434.000000;1.632596
2433.000000;1.718535
2432.000000;1.713078
2431.000000;1.564245
2430.000000;1.443546
2429.000000;1.374609
2428.000000;1.321549
2427.000000;1.286062
2426.000000;1.280751
2425.000000;1.298316
2424.000000;1.323164
2423.000000;1.372063
2422.000000;1.460768
2421.000000;1.550944
2420.000000;1.567342
2419.000000;1.511872
2418.000000;1.463735
2417.000000;1.461947
2416.000000;1.476424
2415.000000;1.464974
2414.000000;1.435874
2413.000000;1.403615
2412.000000;1.372706
2411.000000;1.339663
2410.000000;1.300055
2409.000000;1.268924
2408.000000;1.254694
2407.000000;1.241127
2406.000000;1.217555
2405.000000;1.201672
2404.000000;1.209663
2403.000000;1.239925
2402.000000;1.294087
2401.000000;1.388320
2400.000000;1.497570
2399.000000;1.523094
2398.000000;1.452472
2397.000000;1.370408
2396.000000;1.341415
2395.000000;1.381650
2394.000000;1.450293
2393.000000;1.513679
2392.000000;1.627885
2391.000000;1.831886
2390.000000;1.834952
2389.000000;1.655317
2388.000000;1.579334
2387.000000;1.530951
2386.000000;1.474880
2385.000000;1.453989
2384.000000;1.489156
2383.000000;1.577025
2382.000000;1.662946
2381.000000;1.715286
2380.000000;1.766491
2379.000000;1.807949
2378.000000;1.800172
2377.000000;1.750323
2376.000000;1.694697
2375.000000;1.654889
2374.000000;1.631702
2373.000000;1.636141
2372.000000;1.708165
2371.000000;1.883802
2370.000000;2.088174
2369.000000;2.051664
2368.000000;1.884566
2367.000000;1.796590
2366.000000;1.791450
2365.000000;1.809404
2364.000000;1.799327
2363.000000;1.778930
2362.000000;1.777575
2361.000000;1.794482
2360.000000;1.798929
2359.000000;1.771655
2358.000000;1.750020
2357.000000;1.761623
2356.000000;1.794638
2355.000000;1.816444
2354.000000;1.817371
2353.000000;1.811404
2352.000000;1.819547
2351.000000;1.885962
2350.000000;2.047172
2349.000000;2.233827
2348.000000;2.259703
2347.000000;2.205632
2346.000000;2.165086
2345.000000;2.080572
2344.000000;1.960643
2343.000000;1.863131
2342.000000;1.799679
2341.000000;1.742958
2340.000000;1.709158
2339.000000;1.742436
2338.000000;1.855000
2337.000000;1.993093
2336.000000;2.018090
2335.000000;1.885440
2334.000000;1.768205
2333.000000;1.737436
2332.000000;1.730197
2331.000000;1.677804
2330.000000;1.571617
2329.000000;1.471623
2328.000000;1.407861
2327.000000;1.397111
2326.000000;1.437325
2325.000000;1.491645
2324.000000;1.527940
2323.000000;1.545437
2322.000000;1.584260
2321.000000;1.649139
2320.000000;1.691544
2319.000000;1.664280
2318.000000;1.594684
2317.000000;1.547114
2316.000000;1.536054
2315.000000;1.545994
2314.000000;1.567989
2313.000000;1.613646
2312.000000;1.705757
2311.000000;1.839735
2310.000000;2.122608
2309.000000;2.257707
2308.000000;1.814626
2307.000000;1.591109
2306.000000;1.476909
2305.000000;1.413350
2304.000000;1.385097
2303.000000;1.367057
2302.000000;1.360076
2301.000000;1.376902
2300.000000;1.430430
2299.000000;1.470217
2298.000000;1.447100
2297.000000;1.392783
2296.000000;1.335532
2295.000000;1.279227
2294.000000;1.239244
2293.000000;1.233415
2292.000000;1.261178
2291.000000;1.317892
2290.000000;1.401401
2289.000000;1.509441
2288.000000;1.576250
2287.000000;1.498112
2286.000000;1.389577
2285.000000;1.332160
2284.000000;1.319708
2283.000000;1.319760
2282.000000;1.293198
2281.000000;1.256563
2280.000000;1.241786
2279.000000;1.243790
2278.000000;1.249271
2277.000000;1.270081
2276.000000;1.336176
2275.000000;1.484242
2274.000000;1.674123
2273.000000;1.678310
2272.000000;1.529728
2271.000000;1.432576
2270.000000;1.404359
2269.000000;1.413903
2268.000000;1.418847
2267.000000;1.414117
2266.000000;1.436537
2265.000000;1.497521
2264.000000;1.531776
2263.000000;1.486413
2262.000000;1.467909
2261.000000;1.481442
2260.000000;1.412000
2259.000000;1.285834
2258.000000;1.209890
2257.000000;1.211194
2256.000000;1.241473
2255.000000;1.243526
2254.000000;1.232118
2253.000000;1.252826
2252.000000;1.300241
2251.000000;1.322927
2250.000000;1.312656
2249.000000;1.318529
2248.000000;1.351422
2247.000000;1.359233
2246.000000;1.316485
2245.000000;1.284106
2244.000000;1.321783
2243.000000;1.427239
2242.000000;1.514081
2241.000000;1.508619
2240.000000;1.504022
2239.000000;1.576178
2238.000000;1.681832
2237.000000;1.690257
2236.000000;1.616080
2235.000000;1.593986
2234.000000;1.731197
2233.000000;1.985866
2232.000000;1.838609
2231.000000;1.621004
2230.000000;1.547774
2229.000000;1.493345
2228.000000;1.377799
2227.000000;1.265846
2226.000000;1.228342
2225.000000;1.260725
2224.000000;1.308180
2223.000000;1.330504
2222.000000;1.378084
2221.000000;1.501477
2220.000000;1.830934
2219.000000;2.299420
2218.000000;1.908232
2217.000000;1.742712
2216.000000;1.716997
2215.000000;1.651524
2214.000000;1.632699
2213.000000;1.695951
2212.000000;1.810073
2211.000000;1.845434
2210.000000;1.992787
2209.000000;2.058836
2208.000000;2.019529
2207.000000;2.048261
2206.000000;1.646408
2205.000000;1.379459
2204.000000;1.245566
2203.000000;1.166691
2202.000000;1.133754
2201.000000;1.129820
2200.000000;1.133814
2199.000000;1.114545
2198.000000;1.086455
2197.000000;1.077002
2196.000000;1.090183
2195.000000;1.109012
2194.000000;1.121794
2193.000000;1.145947
2192.000000;1.204893
2191.000000;1.276598
2190.000000;1.303423
2189.000000;1.277435
2188.000000;1.220494
2187.000000;1.160600
2186.000000;1.118647
2185.000000;1.093352
2184.000000;1.081075
2183.000000;1.071115
2182.000000;1.071345
2181.000000;1.102415
2180.000000;1.165971
2179.000000;1.263094
2178.000000;1.387031
2177.000000;1.461442
2176.000000;1.426543
2175.000000;1.360850
2174.000000;1.314772
2173.000000;1.291084
2172.000000;1.313978
2171.000000;1.406881
2170.000000;1.603611
2169.000000;1.798519
2168.000000;1.592324
2167.000000;1.410382
2166.000000;1.420610
2165.000000;1.528322
2164.000000;1.613214
2163.000000;1.648977
2162.000000;1.748143
2161.000000;1.718683
2160.000000;1.506671
2159.000000;1.372324
2158.000000;1.349745
2157.000000;1.427583
2156.000000;1.543497
2155.000000;1.622137
2154.000000;1.854671
2153.000000;1.899774
2152.000000;1.552407
2151.000000;1.471403
2150.000000;1.543330
2149.000000;1.648170
2148.000000;1.731478
2147.000000;1.893735
2146.000000;2.343446
2145.000000;2.005803
2144.000000;1.655424
2143.000000;1.548262
2142.000000;1.468794
2141.000000;1.354578
2140.000000;1.255362
2139.000000;1.225529
2138.000000;1.268853
2137.000000;1.348218
2136.000000;1.443663
2135.000000;1.584344
2134.000000;1.757125
2133.000000;1.970001
2132.000000;2.089259
2131.000000;1.800674
2130.000000;1.544952
2129.000000;1.405006
2128.000000;1.365431
2127.000000;1.450110
2126.000000;1.597964
2125.000000;1.618687
2124.000000;1.623150
2123.000000;1.711064
2122.000000;1.783258
2121.000000;1.827579
2120.000000;1.743675
2119.000000;1.768847
2118.000000;2.189416
2117.000000;2.162454
2116.000000;1.922205
2115.000000;2.030207
2114.000000;1.858864
2113.000000;1.621521
2112.000000;1.481056
2111.000000;1.400835
2110.000000;1.400406
2109.000000;1.458705
2108.000000;1.550161
2107.000000;1.649022
2106.000000;1.671852
2105.000000;1.617530
2104.000000;1.637046
2103.000000;1.714576
2102.000000;1.608706
2101.000000;1.469677
2100.000000;1.490527
2099.000000;1.638115
2098.000000;1.734467
2097.000000;1.649915
2096.000000;1.587392
2095.000000;1.685448
2094.000000;2.018726
2093.000000;2.375927
2092.000000;2.405337
2091.000000;2.244634
2090.000000;1.871347
2089.000000;1.808495
2088.000000;1.954225
2087.000000;1.896277
2086.000000;1.642634
2085.000000;1.453845
2084.000000;1.395781
2083.000000;1.387886
2082.000000;1.359695
2081.000000;1.361981
2080.000000;1.432432
2079.000000;1.504703
2078.000000;1.602076
2077.000000;1.761169
2076.000000;1.980539
2075.000000;2.373294
2074.000000;1.991429
2073.000000;1.789794
2072.000000;1.681229
2071.000000;1.435094
2070.000000;1.291959
2069.000000;1.242225
2068.000000;1.215590
2067.000000;1.172635
2066.000000;1.143210
2065.000000;1.156723
2064.000000;1.212652
2063.000000;1.297399
2062.000000;1.374738
2061.000000;1.435880
2060.000000;1.506881
2059.000000;1.572451
2058.000000;1.573678
2057.000000;1.509958
2056.000000;1.443835
2055.000000;1.417618
2054.000000;1.466131
2053.000000;1.596232
2052.000000;1.667791
2051.000000;1.593469
2050.000000;1.553132
2049.000000;1.601512
2048.000000;1.774939
2047.000000;1.841033
2046.000000;1.546213
2045.000000;1.368544
2044.000000;1.331535
2043.000000;1.371435
2042.000000;1.448937
2041.000000;1.539288
2040.000000;1.665950
2039.000000;1.845039
2038.000000;2.057405
2037.000000;1.941312
2036.000000;1.665398
2035.000000;1.508521
2034.000000;1.438234
2033.000000;1.413164
2032.000000;1.389148
2031.000000;1.348502
2030.000000;1.339408
2029.000000;1.416743
2028.000000;1.562625
2027.000000;1.742584
2026.000000;1.791456
2025.000000;1.627678
2024.000000;1.522868
2023.000000;1.469305
2022.000000;1.406570
2021.000000;1.333738
2020.000000;1.260920
2019.000000;1.209185
2018.000000;1.217051
2017.000000;1.330336
2016.000000;1.583857
2015.000000;2.018587
2014.000000;2.374363
2013.000000;2.024874
2012.000000;1.795753
2011.000000;1.721899
2010.000000;1.762113
2009.000000;1.874846
2008.000000;1.742234
2007.000000;1.639261
2006.000000;1.596417
2005.000000;1.418638
2004.000000;1.287098
2003.000000;1.242960
2002.000000;1.230449
2001.000000;1.204776
2000.000000;1.151883
1999.000000;1.106799
1998.000000;1.102255
1997.000000;1.142891
1996.000000;1.198561
1995.000000;1.221971
1994.000000;1.189917
1993.000000;1.117373
1992.000000;1.036402
1991.000000;0.982620
1990.000000;0.983988
1989.000000;1.049363
1988.000000;1.181731
1987.000000;1.348712
1986.000000;1.581089
1985.000000;1.879306
1984.000000;1.699478
1983.000000;1.540359
1982.000000;1.605078
1981.000000;1.582300
1980.000000;1.404835
1979.000000;1.321078
1978.000000;1.384068
1977.000000;1.600473
1976.000000;1.732549
1975.000000;1.588560
1974.000000;1.596453
1973.000000;1.811772
1972.000000;2.112018
1971.000000;2.165318
1970.000000;1.682390
1969.000000;1.423449
1968.000000;1.361513
1967.000000;1.340853
1966.000000;1.295438
1965.000000;1.249993
1964.000000;1.221586
1963.000000;1.194784
1962.000000;1.165908
1961.000000;1.143953
1960.000000;1.133037
1959.000000;1.138073
1958.000000;1.169368
1957.000000;1.227789
1956.000000;1.288619
1955.000000;1.331173
1954.000000;1.377200
1953.000000;1.421005
1952.000000;1.418412
1951.000000;1.397889
1950.000000;1.428030
1949.000000;1.525603
1948.000000;1.617081
1947.000000;1.586307
1946.000000;1.472377
1945.000000;1.382057
1944.000000;1.320069
1943.000000;1.269377
1942.000000;1.272061
1941.000000;1.392706
1940.000000;1.774992
1939.000000;2.175550
1938.000000;1.805570
1937.000000;1.703515
1936.000000;1.689985
1935.000000;1.647458
1934.000000;1.552847
1933.000000;1.413059
1932.000000;1.298511
1931.000000;1.220070
1930.000000;1.180692
1929.000000;1.166153
1928.000000;1.173403
1927.000000;1.208162
1926.000000;1.254512
1925.000000;1.293364
1924.000000;1.323214
1923.000000;1.331291
1922.000000;1.300786
1921.000000;1.242296
1920.000000;1.197560
1919.000000;1.214254
1918.000000;1.310475
1917.000000;1.456943
1916.000000;1.565267
1915.000000;1.583458
1914.000000;1.621940
1913.000000;1.759062
1912.000000;1.809396
1911.000000;1.726216
1910.000000;1.681805
1909.000000;1.749537
1908.000000;1.901950
1907.000000;1.672464
1906.000000;1.429055
1905.000000;1.381557
1904.000000;1.478271
1903.000000;1.809231
1902.000000;1.931399
1901.000000;1.552044
1900.000000;1.433098
1899.000000;1.420268
1898.000000;1.444789
1897.000000;1.484625
1896.000000;1.528466
1895.000000;1.526036
1894.000000;1.414873
1893.000000;1.316140
1892.000000;1.285223
1891.000000;1.312335
1890.000000;1.379431
1889.000000;1.459553
1888.000000;1.515321
1887.000000;1.552615
1886.000000;1.593098
1885.000000;1.568918
1884.000000;1.489216
1883.000000;1.448218
1882.000000;1.409416
1881.000000;1.375431
1880.000000;1.423095
1879.000000;1.691605
1878.000000;1.796489
1877.000000;1.428790
1876.000000;1.251675
1875.000000;1.131285
1874.000000;1.060267
1873.000000;1.062545
1872.000000;1.110195
1871.000000;1.149135
1870.000000;1.145169
1869.000000;1.137543
1868.000000;1.132044
1867.000000;1.091195
1866.000000;1.010870
1865.000000;0.938146
1864.000000;0.904865
1863.000000;0.906139
1862.000000;0.922434
1861.000000;0.957296
1860.000000;1.036713
1859.000000;1.161922
1858.000000;1.250339
1857.000000;1.233297
1856.000000;1.203056
1855.000000;1.239254
1854.000000;1.358610
1853.000000;1.517472
1852.000000;1.574825
1851.000000;1.489298
1850.000000;1.397770
1849.000000;1.378983
1848.000000;1.392393
1847.000000;1.288649
1846.000000;1.135536
1845.000000;1.083864
1844.000000;1.154460
1843.000000;1.272948
1842.000000;1.291616
1841.000000;1.230710
1840.000000;1.198860
1839.000000;1.178916
1838.000000;1.125479
1837.000000;1.061838
1836.000000;1.045362
1835.000000;1.078687
1834.000000;1.127596
1833.000000;1.199914
1832.000000;1.322408
1831.000000;1.493532
1830.000000;1.562681
1829.000000;1.476448
1828.000000;1.412351
1827.000000;1.376756
1826.000000;1.338149
1825.000000;1.274195
1824.000000;1.221282
1823.000000;1.270715
1822.000000;1.477336
1821.000000;1.667517
1820.000000;1.462365
1819.000000;1.227509
1818.000000;1.126920
1817.000000;1.110755
1816.000000;1.091882
1815.000000;1.060563
1814.000000;1.061929
1813.000000;1.073662
1812.000000;1.105278
1811.000000;1.221232
1810.000000;1.538227
1809.000000;2.170379
1808.000000;1.973878
1807.000000;1.809337
1806.000000;1.557195
1805.000000;1.378660
1804.000000;1.270176
1803.000000;1.196294
1802.000000;1.241833
1801.000000;1.416028
1800.000000;1.593001
1799.000000;1.520914
1798.000000;1.422659
1797.000000;1.447812
1796.000000;1.478230
1795.000000;1.359928
1794.000000;1.200259
1793.000000;1.135949
1792.000000;1.174137
1791.000000;1.240080
1790.000000;1.298167
1789.000000;1.437340
1788.000000;1.658392
1787.000000;1.737310
1786.000000;1.646867
1785.000000;1.435626
1784.000000;1.301814
1783.000000;1.309360
1782.000000;1.392456
1781.000000;1.460539
1780.000000;1.487644
1779.000000;1.563506
1778.000000;1.746508
1777.000000;1.900968
1776.000000;1.636681
1775.000000;1.295940
1774.000000;1.047273
1773.000000;0.902060
1772.000000;0.859514
1771.000000;0.886992
1770.000000;0.938206
1769.000000;0.973395
1768.000000;0.984730
1767.000000;0.990004
1766.000000;0.998435
1765.000000;0.989709
1764.000000;0.932635
1763.000000;0.852976
1762.000000;0.815639
1761.000000;0.851953
1760.000000;0.939891
1759.000000;1.021183
1758.000000;1.062166
1757.000000;1.091994
1756.000000;1.152405
1755.000000;1.246973
1754.000000;1.354851
1753.000000;1.394709
1752.000000;1.344841
1751.000000;1.340174
1750.000000;1.402410
1749.000000;1.391785
1748.000000;1.301529
1747.000000;1.276534
1746.000000;1.363535
1745.000000;1.515836
1744.000000;1.575532
1743.000000;1.465525
1742.000000;1.301011
1741.000000;1.152089
1740.000000;1.069182
1739.000000;1.084000
1738.000000;1.176686
1737.000000;1.260868
1736.000000;1.253070
1735.000000;1.231881
1734.000000;1.296240
1733.000000;1.386727
1732.000000;1.371590
1731.000000;1.245392
1730.000000;1.112319
1729.000000;1.035982
1728.000000;1.012678
1727.000000;1.006890
1726.000000;1.001643
1725.000000;1.013622
1724.000000;1.026951
1723.000000;1.010563
1722.000000;0.984419
1721.000000;0.960262
1720.000000;0.932350
1719.000000;0.907267
1718.000000;0.905569
1717.000000;0.932042
1716.000000;0.979862
1715.000000;1.023145
1714.000000;1.024538
1713.000000;1.002362
1712.000000;0.998008
1711.000000;1.021239
1710.000000;1.051443
1709.000000;1.057960
1708.000000;1.030958
1707.000000;1.058206
1706.000000;1.256380
1705.000000;1.405643
1704.000000;1.340721
1703.000000;1.285169
1702.000000;1.176801
1701.000000;1.063849
1700.000000;1.022917
1699.000000;1.026125
1698.000000;0.990451
1697.000000;0.941262
1696.000000;0.947280
1695.000000;0.990637
1694.000000;1.018493
1693.000000;1.026413
1692.000000;1.037494
1691.000000;1.061557
1690.000000;1.103278
1689.000000;1.198754
1688.000000;1.389301
1687.000000;1.591650
1686.000000;1.613023
1685.000000;1.482594
1684.000000;1.414460
1683.000000;1.354762
1682.000000;1.212773
1681.000000;1.153281
1680.000000;1.145726
1679.000000;1.127519
1678.000000;1.131449
1677.000000;1.148142
1676.000000;1.147262
1675.000000;1.143659
1674.000000;1.188757
1673.000000;1.272594
1672.000000;1.296838
1671.000000;1.213150
1670.000000;1.143489
1669.000000;1.177023
1668.000000;1.266442
1667.000000;1.291741
1666.000000;1.259928
1665.000000;1.296335
1664.000000;1.453404
1663.000000;1.437822
1662.000000;1.217123
1661.000000;1.092399
1660.000000;1.059984
1659.000000;1.085828
1658.000000;1.096039
1657.000000;1.088678
1656.000000;1.106300
1655.000000;1.108414
1654.000000;1.108879
1653.000000;1.125596
1652.000000;1.142500
1651.000000;1.226005
1650.000000;1.283504
1649.000000;1.219987
1648.000000;1.104769
1647.000000;1.009888
1646.000000;0.944465
1645.000000;0.880826
1644.000000;0.852641
1643.000000;0.898515
1642.000000;1.025605
1641.000000;1.224664
1640.000000;1.499574
1639.000000;1.977408
1638.000000;2.174292
1637.000000;1.589586
1636.000000;1.257684
1635.000000;1.088302
1634.000000;1.049688
1633.000000;1.080883
1632.000000;1.137531
1631.000000;1.234067
1630.000000;1.389576
1629.000000;1.369509
1628.000000;1.264215
1627.000000;1.305381
1626.000000;1.285671
1625.000000;1.199563
1624.000000;1.127589
1623.000000;1.018663
1622.000000;0.959212
1621.000000;0.990907
1620.000000;1.049014
1619.000000;1.043175
1618.000000;0.986292
1617.000000;0.974294
1616.000000;1.050907
1615.000000;1.220546
1614.000000;1.448598
1613.000000;1.443764
1612.000000;1.276387
1611.000000;1.145908
1610.000000;1.056780
1609.000000;0.987830
1608.000000;0.911713
1607.000000;0.845601
1606.000000;0.819688
1605.000000;0.837479
1604.000000;0.883394
1603.000000;0.938739
1602.000000;1.007369
1601.000000;1.116208
1600.000000;1.254830
1599.000000;1.268688
1598.000000;1.087501
1597.000000;0.912761
1596.000000;0.829701
1595.000000;0.832871
1594.000000;0.888611
1593.000000;0.955509
1592.000000;1.035384
1591.000000;1.183368
1590.000000;1.608564
1589.000000;1.686666
1588.000000;1.274291
1587.000000;1.160993
1586.000000;1.182991
1585.000000;1.243685
1584.000000;1.216880
1583.000000;1.117860
1582.000000;1.068183
1581.000000;1.110637
1580.000000;1.197374
1579.000000;1.246185
1578.000000;1.239315
1577.000000;1.247436
1576.000000;1.345926
1575.000000;1.616752
1574.000000;1.650948
1573.000000;1.415970
1572.000000;1.331621
1571.000000;1.269445
1570.000000;1.225851
1569.000000;1.233345
1568.000000;1.276351
1567.000000;1.399138
1566.000000;1.659543
1565.000000;1.924976
1564.000000;2.124663
1563.000000;2.497121
1562.000000;2.195122
1561.000000;1.671102
1560.000000;1.251722
1559.000000;1.079835
1558.000000;1.063280
1557.000000;1.063697
1556.000000;1.104518
1555.000000;1.195623
1554.000000;1.251740
1553.000000;1.224264
1552.000000;1.201888
1551.000000;1.194821
1550.000000;1.116338
1549.000000;1.027371
1548.000000;0.996892
1547.000000;1.020894
1546.000000;1.065239
1545.000000;1.074302
1544.000000;1.056573
1543.000000;1.066325
1542.000000;1.123747
1541.000000;1.248658
1540.000000;1.382022
1539.000000;1.285595
1538.000000;1.130173
1537.000000;1.100976
1536.000000;1.197677
1535.000000;1.264249
1534.000000;1.109823
1533.000000;1.016578
1532.000000;1.030211
1531.000000;1.099159
1530.000000;1.173885
1529.000000;1.326345
1528.000000;1.772136
1527.000000;1.547290
1526.000000;1.248338
1525.000000;1.254971
1524.000000;1.229959
1523.000000;1.039832
1522.000000;0.874563
1521.000000;0.812288
1520.000000;0.791907
1519.000000;0.747531
1518.000000;0.706400
1517.000000;0.733540
1516.000000;0.823325
1515.000000;0.888582
1514.000000;0.899799
1513.000000;0.958356
1512.000000;1.099067
1511.000000;1.176398
1510.000000;1.106339
1509.000000;1.002636
1508.000000;1.018822
1507.000000;1.289371
1506.000000;1.525756
1505.000000;1.337939
1504.000000;1.174636
1503.000000;1.164524
1502.000000;1.187448
1501.000000;1.128238
1500.000000;1.079517
1499.000000;1.150840
1498.000000;1.566367
1497.000000;1.538198
1496.000000;1.037021
1495.000000;0.961730
1494.000000;1.008400
1493.000000;1.067650
1492.000000;0.999003
1491.000000;0.926852
1490.000000;0.953017
1489.000000;1.084635
1488.000000;1.299218
1487.000000;1.706638
1486.000000;1.490275
1485.000000;1.425678
1484.000000;1.440899
1483.000000;1.269521
1482.000000;1.118632
1481.000000;0.994940
1480.000000;0.938517
1479.000000;0.927139
1478.000000;0.915675
1477.000000;0.920801
1476.000000;0.943099
1475.000000;0.921292
1474.000000;0.832840
1473.000000;0.774959
1472.000000;0.820453
1471.000000;0.940358
1470.000000;1.035083
1469.000000;1.045444
1468.000000;1.047921
1467.000000;1.117421
1466.000000;1.294100
1465.000000;1.481623
1464.000000;1.337852
1463.000000;1.078813
1462.000000;0.905647
1461.000000;0.826877
1460.000000;0.812422
1459.000000;0.818090
1458.000000;0.826686
1457.000000;0.831899
1456.000000;0.819824
1455.000000;0.823981
1454.000000;0.882604
1453.000000;1.010860
1452.000000;1.235187
1451.000000;1.422344
1450.000000;1.260054
1449.000000;1.138608
1448.000000;1.049267
1447.000000;0.961854
1446.000000;0.915260
1445.000000;0.930168
1444.000000;0.976507
1443.000000;1.013871
1442.000000;1.031406
1441.000000;1.030988
1440.000000;1.007360
1439.000000;0.970586
1438.000000;0.920776
1437.000000;0.862734
1436.000000;0.812511
1435.000000;0.790168
1434.000000;0.822818
1433.000000;0.926133
1432.000000;1.074613
1431.000000;1.083608
1430.000000;0.985119
1429.000000;0.995819
1428.000000;1.191803
1427.000000;1.761851
1426.000000;1.719608
1425.000000;1.311285
1424.000000;1.079527
1423.000000;1.013982
1422.000000;1.042817
1421.000000;1.085120
1420.000000;1.109689
1419.000000;1.141523
1418.000000;1.145957
1417.000000;1.068713
1416.000000;0.949770
1415.000000;0.881198
1414.000000;0.904875
1413.000000;0.980791
1412.000000;1.057651
1411.000000;1.020787
1410.000000;0.886817
1409.000000;0.813000
1408.000000;0.796189
1407.000000;0.825820
1406.000000;0.941378
1405.000000;1.194397
1404.000000;1.213806
1403.000000;1.064479
1402.000000;0.989663
1401.000000;0.950276
1400.000000;0.928966
1399.000000;0.908382
1398.000000;0.879401
1397.000000;0.881671
1396.000000;0.981988
1395.000000;1.209336
1394.000000;1.438162
1393.000000;1.491281
1392.000000;1.573889
1391.000000;1.863241
1390.000000;1.850153
1389.000000;1.496721
1388.000000;1.265885
1387.000000;1.108657
1386.000000;1.061947
1385.000000;1.035796
1384.000000;0.979865
1383.000000;1.017150
1382.000000;1.171935
1381.000000;1.295310
1380.000000;1.231738
1379.000000;1.147629
1378.000000;1.204665
1377.000000;1.256653
1376.000000;1.258092
1375.000000;1.487657
1374.000000;1.420797
1373.000000;1.226809
1372.000000;1.141418
1371.000000;1.050209
1370.000000;1.003533
1369.000000;1.054178
1368.000000;1.159516
1367.000000;1.186629
1366.000000;1.232052
1365.000000;1.458636
1364.000000;1.995662
1363.000000;1.815878
1362.000000;1.579773
1361.000000;1.590643
1360.000000;1.458682
1359.000000;1.245364
1358.000000;1.065616
1357.000000;0.956667
1356.000000;0.932660
1355.000000;0.955178
1354.000000;0.978085
1353.000000;1.036532
1352.000000;1.160771
1351.000000;1.203120
1350.000000;1.134417
1349.000000;1.205714
1348.000000;1.179056
1347.000000;0.950568
1346.000000;0.849817
1345.000000;0.846523
1344.000000;0.878829
1343.000000;0.963517
1342.000000;1.214475
1341.000000;1.864324
1340.000000;1.472558
1339.000000;1.160292
1338.000000;1.028077
1337.000000;0.998840
1336.000000;1.006318
1335.000000;1.006958
1334.000000;1.048818
1333.000000;1.182571
1332.000000;1.334482
1331.000000;1.296949
1330.000000;1.188655
1329.000000;1.147925
1328.000000;1.135952
1327.000000;1.239761
1326.000000;1.429614
1325.000000;1.750982
1324.000000;1.386033
1323.000000;1.050318
1322.000000;0.945908
1321.000000;0.954729
1320.000000;1.006065
1319.000000;1.053565
1318.000000;1.088008
1317.000000;1.155657
1316.000000;1.425653
1315.000000;1.562632
1314.000000;1.137816
1313.000000;1.136423
1312.000000;1.261058
1311.000000;1.202543
1310.000000;1.188815
1309.000000;1.371628
1308.000000;1.506068
1307.000000;1.738228
1306.000000;1.575173
1305.000000;1.207241
1304.000000;1.154295
1303.000000;1.188369
1302.000000;1.170001
1301.000000;1.069064
1300.000000;1.030843
1299.000000;1.074201
1298.000000;1.067934
1297.000000;1.013544
1296.000000;1.034581
1295.000000;1.174631
1294.000000;1.135195
1293.000000;1.119782
1292.000000;1.620350
1291.000000;1.236582
1290.000000;1.012065
1289.000000;0.975833
1288.000000;0.882336
1287.000000;0.783688
1286.000000;0.750056
1285.000000;0.758489
1284.000000;0.786002
1283.000000;0.833513
1282.000000;0.906743
1281.000000;0.982944
1280.000000;1.018815
1279.000000;1.017515
1278.000000;1.027140
1277.000000;1.071362
1276.000000;1.102623
1275.000000;1.027628
1274.000000;0.899808
1273.000000;0.825647
1272.000000;0.817445
1271.000000;0.821707
1270.000000;0.824243
1269.000000;0.856339
1268.000000;0.905278
1267.000000;0.926589
1266.000000;0.902016
1265.000000;0.865950
1264.000000;0.858124
1263.000000;0.869283
1262.000000;0.854480
1261.000000;0.818980
1260.000000;0.805727
1259.000000;0.813974
1258.000000;0.818954
1257.000000;0.819641
1256.000000;0.870362
1255.000000;1.010593
1254.000000;1.009947
1253.000000;0.838891
1252.000000;0.755722
1251.000000;0.809875
1250.000000;0.941553
1249.000000;0.932863
1248.000000;0.907828
1247.000000;1.012986
1246.000000;1.235390
1245.000000;1.855602
1244.000000;1.643176
1243.000000;1.363057
1242.000000;1.351761
1241.000000;1.356768
1240.000000;1.291681
1239.000000;1.136062
1238.000000;0.981353
1237.000000;0.900316
1236.000000;0.911269
1235.000000;1.003452
1234.000000;1.194635
1233.000000;1.489184
1232.000000;1.370643
1231.000000;1.168356
1230.000000;1.075851
1229.000000;0.936893
1228.000000;0.815566
1227.000000;0.757609
1226.000000;0.715412
1225.000000;0.667052
1224.000000;0.660280
1223.000000;0.739434
1222.000000;0.911800
1221.000000;1.091985
1220.000000;1.158106
1219.000000;1.190210
1218.000000;1.218067
1217.000000;1.211627
1216.000000;1.235331
1215.000000;1.393739
1214.000000;1.757904
1213.000000;1.345075
1212.000000;1.015308
1211.000000;0.809288
1210.000000;0.693067
1209.000000;0.665890
1208.000000;0.705037
1207.000000;0.792793
1206.000000;0.970151
1205.000000;1.161620
1204.000000;1.064424
1203.000000;0.960335
1202.000000;0.893139
1201.000000;0.803170
1200.000000;0.726033
