Criado como novo conjunto de dados;"2706_e01_daniel.spp","69845.4 Secs"
cm-1;Abs
10000.000000;0.794290
9999.000000;0.793965
9998.000000;0.793488
9997.000000;0.792805
9996.000000;0.792027
9995.000000;0.791295
9994.000000;0.790674
9993.000000;0.790142
9992.000000;0.789658
9991.000000;0.789225
9990.000000;0.788916
9989.000000;0.788832
9988.000000;0.789005
9987.000000;0.789365
9986.000000;0.789803
9985.000000;0.790232
9984.000000;0.790558
9983.000000;0.790686
9982.000000;0.790599
9981.000000;0.790372
9980.000000;0.790075
9979.000000;0.789731
9978.000000;0.789406
9977.000000;0.789237
9976.000000;0.789289
9975.000000;0.789430
9974.000000;0.789443
9973.000000;0.789208
9972.000000;0.788779
9971.000000;0.788349
9970.000000;0.788176
9969.000000;0.788396
9968.000000;0.788786
9967.000000;0.788872
9966.000000;0.788413
9965.000000;0.787697
9964.000000;0.787194
9963.000000;0.787017
9962.000000;0.786912
9961.000000;0.786686
9960.000000;0.786433
9959.000000;0.786333
9958.000000;0.786459
9957.000000;0.786784
9956.000000;0.787184
9955.000000;0.787409
9954.000000;0.787242
9953.000000;0.786762
9952.000000;0.786296
9951.000000;0.786061
9950.000000;0.785997
9949.000000;0.785983
9948.000000;0.786006
9947.000000;0.786056
9946.000000;0.786029
9945.000000;0.785892
9944.000000;0.785783
9943.000000;0.785809
9942.000000;0.785855
9941.000000;0.785735
9940.000000;0.785437
9939.000000;0.785092
9938.000000;0.784784
9937.000000;0.784520
9936.000000;0.784311
9935.000000;0.784195
9934.000000;0.784216
9933.000000;0.784450
9932.000000;0.784958
9931.000000;0.785597
9930.000000;0.785999
9929.000000;0.785886
9928.000000;0.785338
9927.000000;0.784654
9926.000000;0.784040
9925.000000;0.783597
9924.000000;0.783464
9923.000000;0.783738
9922.000000;0.784266
9921.000000;0.784748
9920.000000;0.785052
9919.000000;0.785247
9918.000000;0.785302
9917.000000;0.785030
9916.000000;0.784432
9915.000000;0.783852
9914.000000;0.783609
9913.000000;0.783607
9912.000000;0.783512
9911.000000;0.783226
9910.000000;0.782978
9909.000000;0.782946
9908.000000;0.783005
9907.000000;0.782937
9906.000000;0.782740
9905.000000;0.782592
9904.000000;0.782579
9903.000000;0.782583
9902.000000;0.782467
9901.000000;0.782243
9900.000000;0.782013
9899.000000;0.781815
9898.000000;0.781632
9897.000000;0.781513
9896.000000;0.781569
9895.000000;0.781766
9894.000000;0.781793
9893.000000;0.781267
9892.000000;0.780162
9891.000000;0.779000
9890.000000;0.778503
9889.000000;0.778946
9888.000000;0.779848
9887.000000;0.780409
9886.000000;0.780315
9885.000000;0.779987
9884.000000;0.779971
9883.000000;0.780229
9882.000000;0.780246
9881.000000;0.779770
9880.000000;0.779133
9879.000000;0.778755
9878.000000;0.778624
9877.000000;0.778469
9876.000000;0.778234
9875.000000;0.778096
9874.000000;0.778125
9873.000000;0.778210
9872.000000;0.778285
9871.000000;0.778355
9870.000000;0.778286
9869.000000;0.777856
9868.000000;0.777122
9867.000000;0.776517
9866.000000;0.776426
9865.000000;0.776800
9864.000000;0.777308
9863.000000;0.777714
9862.000000;0.777968
9861.000000;0.778055
9860.000000;0.777984
9859.000000;0.777872
9858.000000;0.777824
9857.000000;0.777752
9856.000000;0.777460
9855.000000;0.776922
9854.000000;0.776332
9853.000000;0.775860
9852.000000;0.775486
9851.000000;0.775122
9850.000000;0.774787
9849.000000;0.774576
9848.000000;0.774551
9847.000000;0.774726
9846.000000;0.775096
9845.000000;0.775578
9844.000000;0.775968
9843.000000;0.776048
9842.000000;0.775789
9841.000000;0.775393
9840.000000;0.775104
9839.000000;0.775002
9838.000000;0.774988
9837.000000;0.774966
9836.000000;0.774995
9835.000000;0.775239
9834.000000;0.775728
9833.000000;0.776195
9832.000000;0.776204
9831.000000;0.775497
9830.000000;0.774263
9829.000000;0.773035
9828.000000;0.772305
9827.000000;0.772196
9826.000000;0.772452
9825.000000;0.772712
9824.000000;0.772759
9823.000000;0.772573
9822.000000;0.772267
9821.000000;0.772058
9820.000000;0.772183
9819.000000;0.772679
9818.000000;0.773255
9817.000000;0.773535
9816.000000;0.773472
9815.000000;0.773403
9814.000000;0.773566
9813.000000;0.773735
9812.000000;0.773490
9811.000000;0.772771
9810.000000;0.771965
9809.000000;0.771461
9808.000000;0.771288
9807.000000;0.771215
9806.000000;0.771044
9805.000000;0.770717
9804.000000;0.770267
9803.000000;0.769812
9802.000000;0.769560
9801.000000;0.769692
9800.000000;0.770189
9799.000000;0.770808
9798.000000;0.771227
9797.000000;0.771243
9796.000000;0.770866
9795.000000;0.770274
9794.000000;0.769698
9793.000000;0.769331
9792.000000;0.769299
9791.000000;0.769608
9790.000000;0.770061
9789.000000;0.770322
9788.000000;0.770178
9787.000000;0.769748
9786.000000;0.769329
9785.000000;0.769069
9784.000000;0.768899
9783.000000;0.768739
9782.000000;0.768614
9781.000000;0.768548
9780.000000;0.768540
9779.000000;0.768681
9778.000000;0.769073
9777.000000;0.769509
9776.000000;0.769495
9775.000000;0.768814
9774.000000;0.767932
9773.000000;0.767564
9772.000000;0.767890
9771.000000;0.768436
9770.000000;0.768659
9769.000000;0.768432
9768.000000;0.767941
9767.000000;0.767403
9766.000000;0.766985
9765.000000;0.766795
9764.000000;0.766772
9763.000000;0.766700
9762.000000;0.766427
9761.000000;0.766020
9760.000000;0.765643
9759.000000;0.765422
9758.000000;0.765470
9757.000000;0.765871
9756.000000;0.766495
9755.000000;0.766921
9754.000000;0.766764
9753.000000;0.766096
9752.000000;0.765426
9751.000000;0.765215
9750.000000;0.765462
9749.000000;0.765769
9748.000000;0.765741
9747.000000;0.765335
9746.000000;0.764849
9745.000000;0.764623
9744.000000;0.764729
9743.000000;0.764967
9742.000000;0.765109
9741.000000;0.765106
9740.000000;0.765035
9739.000000;0.764947
9738.000000;0.764836
9737.000000;0.764716
9736.000000;0.764635
9735.000000;0.764588
9734.000000;0.764500
9733.000000;0.764341
9732.000000;0.764227
9731.000000;0.764341
9730.000000;0.764714
9729.000000;0.765102
9728.000000;0.765168
9727.000000;0.764827
9726.000000;0.764352
9725.000000;0.764082
9724.000000;0.764045
9723.000000;0.763943
9722.000000;0.763495
9721.000000;0.762778
9720.000000;0.762188
9719.000000;0.762098
9718.000000;0.762533
9717.000000;0.763127
9716.000000;0.763431
9715.000000;0.763308
9714.000000;0.763003
9713.000000;0.762823
9712.000000;0.762846
9711.000000;0.762975
9710.000000;0.763141
9709.000000;0.763290
9708.000000;0.763254
9707.000000;0.762881
9706.000000;0.762284
9705.000000;0.761784
9704.000000;0.761568
9703.000000;0.761567
9702.000000;0.761654
9701.000000;0.761750
9700.000000;0.761700
9699.000000;0.761293
9698.000000;0.760583
9697.000000;0.759995
9696.000000;0.759929
9695.000000;0.760358
9694.000000;0.760941
9693.000000;0.761387
9692.000000;0.761583
9691.000000;0.761477
9690.000000;0.761085
9689.000000;0.760608
9688.000000;0.760338
9687.000000;0.760401
9686.000000;0.760677
9685.000000;0.760976
9684.000000;0.761186
9683.000000;0.761280
9682.000000;0.761254
9681.000000;0.761068
9680.000000;0.760633
9679.000000;0.759906
9678.000000;0.759037
9677.000000;0.758346
9676.000000;0.758069
9675.000000;0.758176
9674.000000;0.758492
9673.000000;0.758890
9672.000000;0.759266
9671.000000;0.759466
9670.000000;0.759426
9669.000000;0.759333
9668.000000;0.759457
9667.000000;0.759807
9666.000000;0.760074
9665.000000;0.759948
9664.000000;0.759394
9663.000000;0.758634
9662.000000;0.757959
9661.000000;0.757556
9660.000000;0.757425
9659.000000;0.757435
9658.000000;0.757500
9657.000000;0.757642
9656.000000;0.757822
9655.000000;0.757824
9654.000000;0.757500
9653.000000;0.757071
9652.000000;0.756968
9651.000000;0.757325
9650.000000;0.757783
9649.000000;0.757870
9648.000000;0.757457
9647.000000;0.756802
9646.000000;0.756215
9645.000000;0.755814
9644.000000;0.755554
9643.000000;0.755404
9642.000000;0.755435
9641.000000;0.755713
9640.000000;0.756138
9639.000000;0.756500
9638.000000;0.756704
9637.000000;0.756840
9636.000000;0.756965
9635.000000;0.756956
9634.000000;0.756685
9633.000000;0.756214
9632.000000;0.755665
9631.000000;0.754999
9630.000000;0.754178
9629.000000;0.753442
9628.000000;0.753163
9627.000000;0.753406
9626.000000;0.753866
9625.000000;0.754297
9624.000000;0.754728
9623.000000;0.755171
9622.000000;0.755387
9621.000000;0.755173
9620.000000;0.754695
9619.000000;0.754326
9618.000000;0.754224
9617.000000;0.754253
9616.000000;0.754271
9615.000000;0.754288
9614.000000;0.754344
9613.000000;0.754392
9612.000000;0.754351
9611.000000;0.754207
9610.000000;0.753976
9609.000000;0.753639
9608.000000;0.753136
9607.000000;0.752471
9606.000000;0.751827
9605.000000;0.751531
9604.000000;0.751776
9603.000000;0.752333
9602.000000;0.752656
9601.000000;0.752407
9600.000000;0.751816
9599.000000;0.751433
9598.000000;0.751551
9597.000000;0.752008
9596.000000;0.752478
9595.000000;0.752795
9594.000000;0.752936
9593.000000;0.752873
9592.000000;0.752614
9591.000000;0.752320
9590.000000;0.752170
9589.000000;0.752083
9588.000000;0.751721
9587.000000;0.750912
9586.000000;0.750001
9585.000000;0.749609
9584.000000;0.750019
9583.000000;0.750891
9582.000000;0.751596
9581.000000;0.751738
9580.000000;0.751329
9579.000000;0.750599
9578.000000;0.749781
9577.000000;0.749067
9576.000000;0.748609
9575.000000;0.748504
9574.000000;0.748754
9573.000000;0.749242
9572.000000;0.749728
9571.000000;0.749951
9570.000000;0.749815
9569.000000;0.749477
9568.000000;0.749195
9567.000000;0.749098
9566.000000;0.749142
9565.000000;0.749240
9564.000000;0.749365
9563.000000;0.749542
9562.000000;0.749779
9561.000000;0.750012
9560.000000;0.750088
9559.000000;0.749888
9558.000000;0.749471
9557.000000;0.749054
9556.000000;0.748797
9555.000000;0.748700
9554.000000;0.748746
9553.000000;0.748984
9552.000000;0.749343
9551.000000;0.749507
9550.000000;0.749207
9549.000000;0.748582
9548.000000;0.748039
9547.000000;0.747749
9546.000000;0.747503
9545.000000;0.747085
9544.000000;0.746608
9543.000000;0.746382
9542.000000;0.746594
9541.000000;0.747164
9540.000000;0.747784
9539.000000;0.748070
9538.000000;0.747819
9537.000000;0.747202
9536.000000;0.746614
9535.000000;0.746319
9534.000000;0.746327
9533.000000;0.746573
9532.000000;0.746998
9531.000000;0.747384
9530.000000;0.747371
9529.000000;0.746824
9528.000000;0.746047
9527.000000;0.745476
9526.000000;0.745269
9525.000000;0.745329
9524.000000;0.745560
9523.000000;0.745897
9522.000000;0.746143
9521.000000;0.746055
9520.000000;0.745615
9519.000000;0.745064
9518.000000;0.744626
9517.000000;0.744338
9516.000000;0.744155
9515.000000;0.744064
9514.000000;0.744051
9513.000000;0.744079
9512.000000;0.744179
9511.000000;0.744461
9510.000000;0.744917
9509.000000;0.745282
9508.000000;0.745237
9507.000000;0.744761
9506.000000;0.744209
9505.000000;0.743971
9504.000000;0.744116
9503.000000;0.744390
9502.000000;0.744526
9501.000000;0.744469
9500.000000;0.744321
9499.000000;0.744175
9498.000000;0.744086
9497.000000;0.744118
9496.000000;0.744296
9495.000000;0.744504
9494.000000;0.744511
9493.000000;0.744132
9492.000000;0.743373
9491.000000;0.742439
9490.000000;0.741667
9489.000000;0.741367
9488.000000;0.741603
9487.000000;0.742083
9486.000000;0.742363
9485.000000;0.742212
9484.000000;0.741744
9483.000000;0.741223
9482.000000;0.740838
9481.000000;0.740668
9480.000000;0.740719
9479.000000;0.740915
9478.000000;0.741126
9477.000000;0.741281
9476.000000;0.741415
9475.000000;0.741576
9474.000000;0.741727
9473.000000;0.741775
9472.000000;0.741648
9471.000000;0.741320
9470.000000;0.740837
9469.000000;0.740345
9468.000000;0.740011
9467.000000;0.739888
9466.000000;0.739915
9465.000000;0.740052
9464.000000;0.740300
9463.000000;0.740541
9462.000000;0.740524
9461.000000;0.740152
9460.000000;0.739703
9459.000000;0.739616
9458.000000;0.740053
9457.000000;0.740739
9456.000000;0.741206
9455.000000;0.741153
9454.000000;0.740632
9453.000000;0.739984
9452.000000;0.739570
9451.000000;0.739496
9450.000000;0.739576
9449.000000;0.739589
9448.000000;0.739518
9447.000000;0.739488
9446.000000;0.739542
9445.000000;0.739570
9444.000000;0.739432
9443.000000;0.739110
9442.000000;0.738743
9441.000000;0.738556
9440.000000;0.738696
9439.000000;0.739065
9438.000000;0.739380
9437.000000;0.739464
9436.000000;0.739409
9435.000000;0.739402
9434.000000;0.739462
9433.000000;0.739459
9432.000000;0.739318
9431.000000;0.739077
9430.000000;0.738780
9429.000000;0.738457
9428.000000;0.738174
9427.000000;0.737976
9426.000000;0.737782
9425.000000;0.737470
9424.000000;0.737095
9423.000000;0.736871
9422.000000;0.736921
9421.000000;0.737139
9420.000000;0.737363
9419.000000;0.737521
9418.000000;0.737523
9417.000000;0.737176
9416.000000;0.736395
9415.000000;0.735466
9414.000000;0.734897
9413.000000;0.734956
9412.000000;0.735404
9411.000000;0.735750
9410.000000;0.735726
9409.000000;0.735493
9408.000000;0.735403
9407.000000;0.735625
9406.000000;0.735998
9405.000000;0.736226
9404.000000;0.736164
9403.000000;0.735910
9402.000000;0.735652
9401.000000;0.735489
9400.000000;0.735410
9399.000000;0.735374
9398.000000;0.735351
9397.000000;0.735312
9396.000000;0.735243
9395.000000;0.735158
9394.000000;0.735062
9393.000000;0.734905
9392.000000;0.734633
9391.000000;0.734309
9390.000000;0.734104
9389.000000;0.734127
9388.000000;0.734303
9387.000000;0.734457
9386.000000;0.734485
9385.000000;0.734398
9384.000000;0.734239
9383.000000;0.734025
9382.000000;0.733786
9381.000000;0.733576
9380.000000;0.733410
9379.000000;0.733263
9378.000000;0.733170
9377.000000;0.733245
9376.000000;0.733528
9375.000000;0.733829
9374.000000;0.733834
9373.000000;0.733395
9372.000000;0.732694
9371.000000;0.732097
9370.000000;0.731852
9369.000000;0.731941
9368.000000;0.732187
9367.000000;0.732486
9366.000000;0.732868
9365.000000;0.733300
9364.000000;0.733523
9363.000000;0.733246
9362.000000;0.732534
9361.000000;0.731852
9360.000000;0.731588
9359.000000;0.731656
9358.000000;0.731693
9357.000000;0.731562
9356.000000;0.731456
9355.000000;0.731554
9354.000000;0.731795
9353.000000;0.732008
9352.000000;0.732078
9351.000000;0.731905
9350.000000;0.731389
9349.000000;0.730619
9348.000000;0.729934
9347.000000;0.729660
9346.000000;0.729811
9345.000000;0.730133
9344.000000;0.730397
9343.000000;0.730542
9342.000000;0.730580
9341.000000;0.730509
9340.000000;0.730338
9339.000000;0.730116
9338.000000;0.729897
9337.000000;0.729689
9336.000000;0.729461
9335.000000;0.729180
9334.000000;0.728854
9333.000000;0.728577
9332.000000;0.728490
9331.000000;0.728656
9330.000000;0.728978
9329.000000;0.729245
9328.000000;0.729293
9327.000000;0.729144
9326.000000;0.729021
9325.000000;0.729161
9324.000000;0.729547
9323.000000;0.729839
9322.000000;0.729690
9321.000000;0.729150
9320.000000;0.728630
9319.000000;0.728444
9318.000000;0.728524
9317.000000;0.728609
9316.000000;0.728548
9315.000000;0.728324
9314.000000;0.727959
9313.000000;0.727598
9312.000000;0.727538
9311.000000;0.727940
9310.000000;0.728516
9309.000000;0.728734
9308.000000;0.728397
9307.000000;0.727878
9306.000000;0.727695
9305.000000;0.727984
9304.000000;0.728444
9303.000000;0.728711
9302.000000;0.728659
9301.000000;0.728395
9300.000000;0.728056
9299.000000;0.727666
9298.000000;0.727162
9297.000000;0.726554
9296.000000;0.725987
9295.000000;0.725635
9294.000000;0.725532
9293.000000;0.725585
9292.000000;0.725702
9291.000000;0.725859
9290.000000;0.726059
9289.000000;0.726294
9288.000000;0.726541
9287.000000;0.726734
9286.000000;0.726758
9285.000000;0.726555
9284.000000;0.726208
9283.000000;0.725872
9282.000000;0.725604
9281.000000;0.725365
9280.000000;0.725173
9279.000000;0.725124
9278.000000;0.725235
9277.000000;0.725349
9276.000000;0.725265
9275.000000;0.724930
9274.000000;0.724474
9273.000000;0.724103
9272.000000;0.723994
9271.000000;0.724190
9270.000000;0.724541
9269.000000;0.724788
9268.000000;0.724774
9267.000000;0.724570
9266.000000;0.724360
9265.000000;0.724225
9264.000000;0.724075
9263.000000;0.723804
9262.000000;0.723450
9261.000000;0.723200
9260.000000;0.723213
9259.000000;0.723440
9258.000000;0.723640
9257.000000;0.723600
9256.000000;0.723338
9255.000000;0.723053
9254.000000;0.722912
9253.000000;0.722934
9252.000000;0.723047
9251.000000;0.723159
9250.000000;0.723178
9249.000000;0.723063
9248.000000;0.722885
9247.000000;0.722765
9246.000000;0.722711
9245.000000;0.722595
9244.000000;0.722345
9243.000000;0.722050
9242.000000;0.721843
9241.000000;0.721741
9240.000000;0.721706
9239.000000;0.721760
9238.000000;0.721906
9237.000000;0.722000
9236.000000;0.721867
9235.000000;0.721560
9234.000000;0.721353
9233.000000;0.721435
9232.000000;0.721698
9231.000000;0.721888
9230.000000;0.721874
9229.000000;0.721707
9228.000000;0.721493
9227.000000;0.721325
9226.000000;0.721284
9225.000000;0.721401
9224.000000;0.721581
9223.000000;0.721627
9222.000000;0.721381
9221.000000;0.720853
9220.000000;0.720213
9219.000000;0.719673
9218.000000;0.719362
9217.000000;0.719244
9216.000000;0.719181
9215.000000;0.719090
9214.000000;0.719038
9213.000000;0.719145
9212.000000;0.719414
9211.000000;0.719708
9210.000000;0.719877
9209.000000;0.719860
9208.000000;0.719650
9207.000000;0.719267
9206.000000;0.718804
9205.000000;0.718415
9204.000000;0.718182
9203.000000;0.718040
9202.000000;0.717901
9201.000000;0.717808
9200.000000;0.717862
9199.000000;0.718022
9198.000000;0.718102
9197.000000;0.717979
9196.000000;0.717715
9195.000000;0.717450
9194.000000;0.717267
9193.000000;0.717194
9192.000000;0.717250
9191.000000;0.717398
9190.000000;0.717526
9189.000000;0.717534
9188.000000;0.717410
9187.000000;0.717174
9186.000000;0.716840
9185.000000;0.716491
9184.000000;0.716295
9183.000000;0.716337
9182.000000;0.716477
9181.000000;0.716503
9180.000000;0.716396
9179.000000;0.716340
9178.000000;0.716465
9177.000000;0.716712
9176.000000;0.716948
9175.000000;0.717113
9174.000000;0.717210
9173.000000;0.717241
9172.000000;0.717208
9171.000000;0.717101
9170.000000;0.716842
9169.000000;0.716346
9168.000000;0.715696
9167.000000;0.715162
9166.000000;0.714968
9165.000000;0.715064
9164.000000;0.715189
9163.000000;0.715132
9162.000000;0.714887
9161.000000;0.714606
9160.000000;0.714477
9159.000000;0.714599
9158.000000;0.714910
9157.000000;0.715229
9156.000000;0.715412
9155.000000;0.715451
9154.000000;0.715400
9153.000000;0.715253
9152.000000;0.714976
9151.000000;0.714608
9150.000000;0.714240
9149.000000;0.713901
9148.000000;0.713583
9147.000000;0.713345
9146.000000;0.713301
9145.000000;0.713462
9144.000000;0.713669
9143.000000;0.713739
9142.000000;0.713617
9141.000000;0.713376
9140.000000;0.713116
9139.000000;0.712937
9138.000000;0.712923
9137.000000;0.713078
9136.000000;0.713267
9135.000000;0.713311
9134.000000;0.713151
9133.000000;0.712916
9132.000000;0.712798
9131.000000;0.712878
9130.000000;0.713037
9129.000000;0.713051
9128.000000;0.712803
9127.000000;0.712424
9126.000000;0.712186
9125.000000;0.712205
9124.000000;0.712288
9123.000000;0.712152
9122.000000;0.711772
9121.000000;0.711421
9120.000000;0.711347
9119.000000;0.711473
9118.000000;0.711499
9117.000000;0.711245
9116.000000;0.710841
9115.000000;0.710572
9114.000000;0.710595
9113.000000;0.710832
9112.000000;0.711080
9111.000000;0.711177
9110.000000;0.711086
9109.000000;0.710867
9108.000000;0.710626
9107.000000;0.710457
9106.000000;0.710393
9105.000000;0.710383
9104.000000;0.710333
9103.000000;0.710198
9102.000000;0.710031
9101.000000;0.709925
9100.000000;0.709922
9099.000000;0.709981
9098.000000;0.710038
9097.000000;0.710064
9096.000000;0.710068
9095.000000;0.710058
9094.000000;0.710020
9093.000000;0.709921
9092.000000;0.709730
9091.000000;0.709455
9090.000000;0.709179
9089.000000;0.709018
9088.000000;0.709007
9087.000000;0.709045
9086.000000;0.709008
9085.000000;0.708908
9084.000000;0.708867
9083.000000;0.708944
9082.000000;0.709036
9081.000000;0.709002
9080.000000;0.708821
9079.000000;0.708575
9078.000000;0.708336
9077.000000;0.708130
9076.000000;0.707988
9075.000000;0.707926
9074.000000;0.707886
9073.000000;0.707770
9072.000000;0.707572
9071.000000;0.707387
9070.000000;0.707263
9069.000000;0.707126
9068.000000;0.706922
9067.000000;0.706755
9066.000000;0.706797
9065.000000;0.707057
9064.000000;0.707344
9063.000000;0.707459
9062.000000;0.707377
9061.000000;0.707207
9060.000000;0.707049
9059.000000;0.706924
9058.000000;0.706808
9057.000000;0.706683
9056.000000;0.706538
9055.000000;0.706362
9054.000000;0.706147
9053.000000;0.705922
9052.000000;0.705756
9051.000000;0.705697
9050.000000;0.705696
9049.000000;0.705640
9048.000000;0.705479
9047.000000;0.705291
9046.000000;0.705155
9045.000000;0.705047
9044.000000;0.704910
9043.000000;0.704802
9042.000000;0.704839
9041.000000;0.704985
9040.000000;0.705040
9039.000000;0.704883
9038.000000;0.704610
9037.000000;0.704370
9036.000000;0.704170
9035.000000;0.703949
9034.000000;0.703763
9033.000000;0.703749
9032.000000;0.703912
9031.000000;0.704095
9030.000000;0.704168
9029.000000;0.704168
9028.000000;0.704191
9027.000000;0.704255
9026.000000;0.704283
9025.000000;0.704196
9024.000000;0.703984
9023.000000;0.703734
9022.000000;0.703576
9021.000000;0.703564
9020.000000;0.703599
9019.000000;0.703542
9018.000000;0.703378
9017.000000;0.703203
9016.000000;0.703045
9015.000000;0.702845
9014.000000;0.702620
9013.000000;0.702521
9012.000000;0.702607
9011.000000;0.702694
9010.000000;0.702574
9009.000000;0.702324
9008.000000;0.702239
9007.000000;0.702460
9006.000000;0.702785
9005.000000;0.702907
9004.000000;0.702708
9003.000000;0.702308
9002.000000;0.701899
9001.000000;0.701631
9000.000000;0.701593
8999.000000;0.701811
8998.000000;0.702209
8997.000000;0.702593
8996.000000;0.702702
8995.000000;0.702356
8994.000000;0.701643
8993.000000;0.700933
8992.000000;0.700614
8991.000000;0.700746
8990.000000;0.701023
8989.000000;0.701101
8988.000000;0.700941
8987.000000;0.700775
8986.000000;0.700797
8985.000000;0.700956
8984.000000;0.701056
8983.000000;0.700974
8982.000000;0.700748
8981.000000;0.700486
8980.000000;0.700256
8979.000000;0.700072
8978.000000;0.699949
8977.000000;0.699934
8976.000000;0.700029
8975.000000;0.700121
8974.000000;0.700054
8973.000000;0.699806
8972.000000;0.699525
8971.000000;0.699353
8970.000000;0.699242
8969.000000;0.699028
8968.000000;0.698665
8967.000000;0.698300
8966.000000;0.698091
8965.000000;0.698043
8964.000000;0.698059
8963.000000;0.698088
8962.000000;0.698141
8961.000000;0.698205
8960.000000;0.698244
8959.000000;0.698283
8958.000000;0.698387
8957.000000;0.698534
8956.000000;0.698574
8955.000000;0.698404
8954.000000;0.698131
8953.000000;0.697990
8952.000000;0.698103
8951.000000;0.698365
8950.000000;0.698568
8949.000000;0.698559
8948.000000;0.698292
8947.000000;0.697813
8946.000000;0.697245
8945.000000;0.696732
8944.000000;0.696348
8943.000000;0.696084
8942.000000;0.695942
8941.000000;0.695974
8940.000000;0.696192
8939.000000;0.696472
8938.000000;0.696634
8937.000000;0.696610
8936.000000;0.696491
8935.000000;0.696404
8934.000000;0.696386
8933.000000;0.696396
8932.000000;0.696398
8931.000000;0.696405
8930.000000;0.696461
8929.000000;0.696601
8928.000000;0.696784
8927.000000;0.696881
8926.000000;0.696743
8925.000000;0.696331
8924.000000;0.695777
8923.000000;0.695295
8922.000000;0.695041
8921.000000;0.695034
8920.000000;0.695176
8919.000000;0.695337
8918.000000;0.695437
8917.000000;0.695474
8916.000000;0.695474
8915.000000;0.695445
8914.000000;0.695389
8913.000000;0.695344
8912.000000;0.695377
8911.000000;0.695500
8910.000000;0.695621
8909.000000;0.695595
8908.000000;0.695329
8907.000000;0.694863
8906.000000;0.694374
8905.000000;0.694077
8904.000000;0.694075
8903.000000;0.694270
8902.000000;0.694435
8901.000000;0.694388
8900.000000;0.694100
8899.000000;0.693661
8898.000000;0.693219
8897.000000;0.692932
8896.000000;0.692872
8895.000000;0.692932
8894.000000;0.692868
8893.000000;0.692550
8892.000000;0.692131
8891.000000;0.691921
8890.000000;0.692064
8889.000000;0.692387
8888.000000;0.692575
8887.000000;0.692459
8886.000000;0.692154
8885.000000;0.691936
8884.000000;0.692002
8883.000000;0.692319
8882.000000;0.692671
8881.000000;0.692860
8880.000000;0.692854
8879.000000;0.692761
8878.000000;0.692690
8877.000000;0.692656
8876.000000;0.692595
8875.000000;0.692467
8874.000000;0.692316
8873.000000;0.692224
8872.000000;0.692194
8871.000000;0.692096
8870.000000;0.691818
8869.000000;0.691460
8868.000000;0.691297
8867.000000;0.691480
8866.000000;0.691818
8865.000000;0.691962
8864.000000;0.691754
8863.000000;0.691349
8862.000000;0.690997
8861.000000;0.690825
8860.000000;0.690843
8859.000000;0.691010
8858.000000;0.691241
8857.000000;0.691391
8856.000000;0.691334
8855.000000;0.691070
8854.000000;0.690726
8853.000000;0.690464
8852.000000;0.690376
8851.000000;0.690435
8850.000000;0.690514
8849.000000;0.690478
8848.000000;0.690288
8847.000000;0.690009
8846.000000;0.689718
8845.000000;0.689450
8844.000000;0.689222
8843.000000;0.689056
8842.000000;0.688951
8841.000000;0.688880
8840.000000;0.688841
8839.000000;0.688884
8838.000000;0.689023
8837.000000;0.689179
8836.000000;0.689241
8835.000000;0.689181
8834.000000;0.689066
8833.000000;0.688956
8832.000000;0.688854
8831.000000;0.688751
8830.000000;0.688670
8829.000000;0.688648
8828.000000;0.688676
8827.000000;0.688691
8826.000000;0.688646
8825.000000;0.688589
8824.000000;0.688632
8823.000000;0.688820
8822.000000;0.689037
8821.000000;0.689124
8820.000000;0.689073
8819.000000;0.689039
8818.000000;0.689115
8817.000000;0.689194
8816.000000;0.689105
8815.000000;0.688831
8814.000000;0.688517
8813.000000;0.688281
8812.000000;0.688100
8811.000000;0.687883
8810.000000;0.687598
8809.000000;0.687312
8808.000000;0.687135
8807.000000;0.687131
8806.000000;0.687251
8805.000000;0.687374
8804.000000;0.687407
8803.000000;0.687332
8802.000000;0.687144
8801.000000;0.686841
8800.000000;0.686507
8799.000000;0.686305
8798.000000;0.686311
8797.000000;0.686414
8796.000000;0.686474
8795.000000;0.686510
8794.000000;0.686613
8793.000000;0.686740
8792.000000;0.686737
8791.000000;0.686579
8790.000000;0.686433
8789.000000;0.686445
8788.000000;0.686588
8787.000000;0.686738
8786.000000;0.686798
8785.000000;0.686714
8784.000000;0.686477
8783.000000;0.686176
8782.000000;0.685945
8781.000000;0.685786
8780.000000;0.685557
8779.000000;0.685193
8778.000000;0.684842
8777.000000;0.684694
8776.000000;0.684753
8775.000000;0.684875
8774.000000;0.684960
8773.000000;0.685003
8772.000000;0.685006
8771.000000;0.684975
8770.000000;0.684978
8769.000000;0.685089
8768.000000;0.685273
8767.000000;0.685409
8766.000000;0.685424
8765.000000;0.685339
8764.000000;0.685183
8763.000000;0.684965
8762.000000;0.684744
8761.000000;0.684646
8760.000000;0.684756
8759.000000;0.685009
8758.000000;0.685221
8757.000000;0.685224
8756.000000;0.684996
8755.000000;0.684668
8754.000000;0.684402
8753.000000;0.684265
8752.000000;0.684224
8751.000000;0.684263
8750.000000;0.684421
8749.000000;0.684681
8748.000000;0.684918
8747.000000;0.685009
8746.000000;0.684957
8745.000000;0.684826
8744.000000;0.684642
8743.000000;0.684429
8742.000000;0.684281
8741.000000;0.684281
8740.000000;0.684356
8739.000000;0.684331
8738.000000;0.684144
8737.000000;0.683897
8736.000000;0.683718
8735.000000;0.683626
8734.000000;0.683559
8733.000000;0.683461
8732.000000;0.683335
8731.000000;0.683263
8730.000000;0.683358
8729.000000;0.683640
8728.000000;0.683982
8727.000000;0.684248
8726.000000;0.684440
8725.000000;0.684604
8724.000000;0.684665
8723.000000;0.684502
8722.000000;0.684188
8721.000000;0.683945
8720.000000;0.683848
8719.000000;0.683732
8718.000000;0.683480
8717.000000;0.683229
8716.000000;0.683184
8715.000000;0.683353
8714.000000;0.683580
8713.000000;0.683734
8712.000000;0.683732
8711.000000;0.683509
8710.000000;0.683105
8709.000000;0.682750
8708.000000;0.682677
8707.000000;0.682861
8706.000000;0.683070
8705.000000;0.683158
8704.000000;0.683177
8703.000000;0.683215
8702.000000;0.683250
8701.000000;0.683207
8700.000000;0.683039
8699.000000;0.682739
8698.000000;0.682346
8697.000000;0.681994
8696.000000;0.681850
8695.000000;0.681962
8694.000000;0.682199
8693.000000;0.682399
8692.000000;0.682509
8691.000000;0.682561
8690.000000;0.682577
8689.000000;0.682547
8688.000000;0.682472
8687.000000;0.682367
8686.000000;0.682254
8685.000000;0.682166
8684.000000;0.682132
8683.000000;0.682137
8682.000000;0.682109
8681.000000;0.681987
8680.000000;0.681781
8679.000000;0.681557
8678.000000;0.681368
8677.000000;0.681235
8676.000000;0.681150
8675.000000;0.681083
8674.000000;0.680995
8673.000000;0.680868
8672.000000;0.680738
8671.000000;0.680671
8670.000000;0.680717
8669.000000;0.680855
8668.000000;0.680988
8667.000000;0.680984
8666.000000;0.680769
8665.000000;0.680395
8664.000000;0.680009
8663.000000;0.679757
8662.000000;0.679714
8661.000000;0.679864
8660.000000;0.680099
8659.000000;0.680231
8658.000000;0.680090
8657.000000;0.679681
8656.000000;0.679205
8655.000000;0.678887
8654.000000;0.678776
8653.000000;0.678756
8652.000000;0.678741
8651.000000;0.678785
8650.000000;0.678956
8649.000000;0.679169
8648.000000;0.679209
8647.000000;0.678947
8646.000000;0.678494
8645.000000;0.678116
8644.000000;0.677992
8643.000000;0.678077
8642.000000;0.678182
8641.000000;0.678153
8640.000000;0.677969
8639.000000;0.677703
8638.000000;0.677444
8637.000000;0.677255
8636.000000;0.677181
8635.000000;0.677238
8634.000000;0.677385
8633.000000;0.677504
8632.000000;0.677440
8631.000000;0.677108
8630.000000;0.676584
8629.000000;0.676066
8628.000000;0.675723
8627.000000;0.675578
8626.000000;0.675533
8625.000000;0.675491
8624.000000;0.675415
8623.000000;0.675316
8622.000000;0.675231
8621.000000;0.675213
8620.000000;0.675263
8619.000000;0.675264
8618.000000;0.675059
8617.000000;0.674650
8616.000000;0.674260
8615.000000;0.674133
8614.000000;0.674293
8613.000000;0.674545
8612.000000;0.674682
8611.000000;0.674617
8610.000000;0.674356
8609.000000;0.673957
8608.000000;0.673555
8607.000000;0.673326
8606.000000;0.673331
8605.000000;0.673443
8604.000000;0.673477
8603.000000;0.673388
8602.000000;0.673283
8601.000000;0.673271
8600.000000;0.673339
8599.000000;0.673376
8598.000000;0.673270
8597.000000;0.672983
8596.000000;0.672577
8595.000000;0.672188
8594.000000;0.671938
8593.000000;0.671858
8592.000000;0.671897
8591.000000;0.671977
8590.000000;0.672013
8589.000000;0.671926
8588.000000;0.671688
8587.000000;0.671393
8586.000000;0.671193
8585.000000;0.671150
8584.000000;0.671166
8583.000000;0.671100
8582.000000;0.670909
8581.000000;0.670659
8580.000000;0.670410
8579.000000;0.670167
8578.000000;0.669938
8577.000000;0.669793
8576.000000;0.669813
8575.000000;0.669977
8574.000000;0.670125
8573.000000;0.670085
8572.000000;0.669841
8571.000000;0.669552
8570.000000;0.669360
8569.000000;0.669240
8568.000000;0.669070
8567.000000;0.668825
8566.000000;0.668616
8565.000000;0.668517
8564.000000;0.668456
8563.000000;0.668312
8562.000000;0.668051
8561.000000;0.667730
8560.000000;0.667428
8559.000000;0.667227
8558.000000;0.667199
8557.000000;0.667304
8556.000000;0.667348
8555.000000;0.667175
8554.000000;0.666873
8553.000000;0.666700
8552.000000;0.666780
8551.000000;0.666963
8550.000000;0.667020
8549.000000;0.666887
8548.000000;0.666658
8547.000000;0.666414
8546.000000;0.666155
8545.000000;0.665877
8544.000000;0.665645
8543.000000;0.665543
8542.000000;0.665597
8541.000000;0.665735
8540.000000;0.665826
8539.000000;0.665766
8538.000000;0.665539
8537.000000;0.665211
8536.000000;0.664867
8535.000000;0.664575
8534.000000;0.664378
8533.000000;0.664283
8532.000000;0.664252
8531.000000;0.664241
8530.000000;0.664247
8529.000000;0.664281
8528.000000;0.664276
8527.000000;0.664106
8526.000000;0.663732
8525.000000;0.663276
8524.000000;0.662908
8523.000000;0.662695
8522.000000;0.662610
8521.000000;0.662631
8520.000000;0.662748
8519.000000;0.662884
8518.000000;0.662898
8517.000000;0.662730
8516.000000;0.662472
8515.000000;0.662274
8514.000000;0.662192
8513.000000;0.662172
8512.000000;0.662140
8511.000000;0.662069
8510.000000;0.661963
8509.000000;0.661815
8508.000000;0.661623
8507.000000;0.661427
8506.000000;0.661301
8505.000000;0.661275
8504.000000;0.661275
8503.000000;0.661183
8502.000000;0.660964
8501.000000;0.660712
8500.000000;0.660547
8499.000000;0.660482
8498.000000;0.660429
8497.000000;0.660313
8496.000000;0.660134
8495.000000;0.659931
8494.000000;0.659725
8493.000000;0.659525
8492.000000;0.659351
8491.000000;0.659225
8490.000000;0.659142
8489.000000;0.659097
8488.000000;0.659097
8487.000000;0.659145
8486.000000;0.659198
8485.000000;0.659176
8484.000000;0.659021
8483.000000;0.658745
8482.000000;0.658417
8481.000000;0.658127
8480.000000;0.657937
8479.000000;0.657847
8478.000000;0.657801
8477.000000;0.657742
8476.000000;0.657661
8475.000000;0.657572
8474.000000;0.657450
8473.000000;0.657246
8472.000000;0.656967
8471.000000;0.656719
8470.000000;0.656604
8469.000000;0.656594
8468.000000;0.656562
8467.000000;0.656438
8466.000000;0.656293
8465.000000;0.656242
8464.000000;0.656301
8463.000000;0.656371
8462.000000;0.656351
8461.000000;0.656215
8460.000000;0.656005
8459.000000;0.655778
8458.000000;0.655567
8457.000000;0.655384
8456.000000;0.655220
8455.000000;0.655060
8454.000000;0.654890
8453.000000;0.654694
8452.000000;0.654472
8451.000000;0.654274
8450.000000;0.654178
8449.000000;0.654213
8448.000000;0.654298
8447.000000;0.654314
8446.000000;0.654224
8445.000000;0.654105
8444.000000;0.654040
8443.000000;0.654026
8442.000000;0.653996
8441.000000;0.653901
8440.000000;0.653733
8439.000000;0.653505
8438.000000;0.653242
8437.000000;0.653004
8436.000000;0.652853
8435.000000;0.652789
8434.000000;0.652735
8433.000000;0.652621
8432.000000;0.652467
8431.000000;0.652360
8430.000000;0.652348
8429.000000;0.652388
8428.000000;0.652394
8427.000000;0.652317
8426.000000;0.652158
8425.000000;0.651937
8424.000000;0.651703
8423.000000;0.651548
8422.000000;0.651549
8421.000000;0.651664
8420.000000;0.651735
8419.000000;0.651637
8418.000000;0.651391
8417.000000;0.651114
8416.000000;0.650880
8415.000000;0.650696
8414.000000;0.650572
8413.000000;0.650544
8412.000000;0.650603
8411.000000;0.650681
8410.000000;0.650717
8409.000000;0.650702
8408.000000;0.650620
8407.000000;0.650410
8406.000000;0.650047
8405.000000;0.649637
8404.000000;0.649354
8403.000000;0.649286
8402.000000;0.649363
8401.000000;0.649441
8400.000000;0.649412
8399.000000;0.649247
8398.000000;0.648972
8397.000000;0.648659
8396.000000;0.648395
8395.000000;0.648235
8394.000000;0.648171
8393.000000;0.648170
8392.000000;0.648214
8391.000000;0.648293
8390.000000;0.648363
8389.000000;0.648356
8388.000000;0.648244
8387.000000;0.648079
8386.000000;0.647938
8385.000000;0.647839
8384.000000;0.647741
8383.000000;0.647617
8382.000000;0.647492
8381.000000;0.647392
8380.000000;0.647279
8379.000000;0.647086
8378.000000;0.646812
8377.000000;0.646548
8376.000000;0.646399
8375.000000;0.646387
8374.000000;0.646451
8373.000000;0.646504
8372.000000;0.646475
8371.000000;0.646338
8370.000000;0.646125
8369.000000;0.645941
8368.000000;0.645893
8367.000000;0.645983
8366.000000;0.646077
8365.000000;0.646021
8364.000000;0.645790
8363.000000;0.645500
8362.000000;0.645282
8361.000000;0.645155
8360.000000;0.645047
8359.000000;0.644901
8358.000000;0.644728
8357.000000;0.644573
8356.000000;0.644446
8355.000000;0.644323
8354.000000;0.644179
8353.000000;0.644021
8352.000000;0.643898
8351.000000;0.643876
8350.000000;0.643961
8349.000000;0.644061
8348.000000;0.644046
8347.000000;0.643873
8346.000000;0.643630
8345.000000;0.643442
8344.000000;0.643349
8343.000000;0.643306
8342.000000;0.643248
8341.000000;0.643140
8340.000000;0.642960
8339.000000;0.642715
8338.000000;0.642476
8337.000000;0.642346
8336.000000;0.642361
8335.000000;0.642445
8334.000000;0.642480
8333.000000;0.642407
8332.000000;0.642247
8331.000000;0.642040
8330.000000;0.641818
8329.000000;0.641618
8328.000000;0.641487
8327.000000;0.641447
8326.000000;0.641467
8325.000000;0.641485
8324.000000;0.641469
8323.000000;0.641433
8322.000000;0.641402
8321.000000;0.641360
8320.000000;0.641264
8319.000000;0.641099
8318.000000;0.640907
8317.000000;0.640738
8316.000000;0.640600
8315.000000;0.640474
8314.000000;0.640353
8313.000000;0.640235
8312.000000;0.640102
8311.000000;0.639924
8310.000000;0.639720
8309.000000;0.639554
8308.000000;0.639467
8307.000000;0.639420
8306.000000;0.639342
8305.000000;0.639222
8304.000000;0.639117
8303.000000;0.639079
8302.000000;0.639095
8301.000000;0.639094
8300.000000;0.639022
8299.000000;0.638881
8298.000000;0.638721
8297.000000;0.638601
8296.000000;0.638548
8295.000000;0.638542
8294.000000;0.638525
8293.000000;0.638439
8292.000000;0.638275
8291.000000;0.638091
8290.000000;0.637958
8289.000000;0.637890
8288.000000;0.637825
8287.000000;0.637698
8286.000000;0.637515
8285.000000;0.637343
8284.000000;0.637243
8283.000000;0.637218
8282.000000;0.637221
8281.000000;0.637186
8280.000000;0.637059
8279.000000;0.636841
8278.000000;0.636596
8277.000000;0.636397
8276.000000;0.636267
8275.000000;0.636178
8274.000000;0.636113
8273.000000;0.636077
8272.000000;0.636055
8271.000000;0.635998
8270.000000;0.635892
8269.000000;0.635794
8268.000000;0.635766
8267.000000;0.635788
8266.000000;0.635783
8265.000000;0.635715
8264.000000;0.635621
8263.000000;0.635543
8262.000000;0.635478
8261.000000;0.635398
8260.000000;0.635293
8259.000000;0.635175
8258.000000;0.635061
8257.000000;0.634976
8256.000000;0.634929
8255.000000;0.634882
8254.000000;0.634774
8253.000000;0.634595
8252.000000;0.634401
8251.000000;0.634242
8250.000000;0.634090
8249.000000;0.633888
8248.000000;0.633638
8247.000000;0.633412
8246.000000;0.633272
8245.000000;0.633229
8244.000000;0.633264
8243.000000;0.633350
8242.000000;0.633433
8241.000000;0.633427
8240.000000;0.633285
8239.000000;0.633034
8238.000000;0.632761
8237.000000;0.632557
8236.000000;0.632483
8235.000000;0.632535
8234.000000;0.632629
8233.000000;0.632644
8232.000000;0.632526
8231.000000;0.632336
8230.000000;0.632188
8229.000000;0.632139
8228.000000;0.632169
8227.000000;0.632210
8226.000000;0.632195
8225.000000;0.632076
8224.000000;0.631849
8223.000000;0.631559
8222.000000;0.631275
8221.000000;0.631055
8220.000000;0.630936
8219.000000;0.630913
8218.000000;0.630936
8217.000000;0.630934
8216.000000;0.630894
8215.000000;0.630873
8214.000000;0.630907
8213.000000;0.630923
8212.000000;0.630801
8211.000000;0.630519
8210.000000;0.630182
8209.000000;0.629932
8208.000000;0.629841
8207.000000;0.629886
8206.000000;0.629975
8205.000000;0.629995
8204.000000;0.629893
8203.000000;0.629741
8202.000000;0.629652
8201.000000;0.629652
8200.000000;0.629647
8199.000000;0.629559
8198.000000;0.629437
8197.000000;0.629378
8196.000000;0.629381
8195.000000;0.629329
8194.000000;0.629132
8193.000000;0.628842
8192.000000;0.628606
8191.000000;0.628512
8190.000000;0.628501
8189.000000;0.628451
8188.000000;0.628317
8187.000000;0.628154
8186.000000;0.628017
8185.000000;0.627889
8184.000000;0.627749
8183.000000;0.627658
8182.000000;0.627698
8181.000000;0.627855
8180.000000;0.628026
8179.000000;0.628125
8178.000000;0.628127
8177.000000;0.628020
8176.000000;0.627795
8175.000000;0.627516
8174.000000;0.627320
8173.000000;0.627284
8172.000000;0.627349
8171.000000;0.627392
8170.000000;0.627349
8169.000000;0.627227
8168.000000;0.627053
8167.000000;0.626849
8166.000000;0.626627
8165.000000;0.626385
8164.000000;0.626141
8163.000000;0.625975
8162.000000;0.625978
8161.000000;0.626122
8160.000000;0.626233
8159.000000;0.626162
8158.000000;0.625929
8157.000000;0.625663
8156.000000;0.625453
8155.000000;0.625302
8154.000000;0.625195
8153.000000;0.625120
8152.000000;0.625055
8151.000000;0.624980
8150.000000;0.624916
8149.000000;0.624877
8148.000000;0.624832
8147.000000;0.624751
8146.000000;0.624678
8145.000000;0.624693
8144.000000;0.624809
8143.000000;0.624950
8142.000000;0.625042
8141.000000;0.625066
8140.000000;0.625026
8139.000000;0.624926
8138.000000;0.624772
8137.000000;0.624559
8136.000000;0.624279
8135.000000;0.623960
8134.000000;0.623676
8133.000000;0.623474
8132.000000;0.623313
8131.000000;0.623144
8130.000000;0.623015
8129.000000;0.623012
8128.000000;0.623110
8127.000000;0.623171
8126.000000;0.623100
8125.000000;0.622937
8124.000000;0.622777
8123.000000;0.622655
8122.000000;0.622566
8121.000000;0.622524
8120.000000;0.622542
8119.000000;0.622585
8118.000000;0.622588
8117.000000;0.622497
8116.000000;0.622307
8115.000000;0.622064
8114.000000;0.621860
8113.000000;0.621791
8112.000000;0.621864
8111.000000;0.621984
8110.000000;0.622035
8109.000000;0.621975
8108.000000;0.621831
8107.000000;0.621655
8106.000000;0.621488
8105.000000;0.621349
8104.000000;0.621223
8103.000000;0.621078
8102.000000;0.620920
8101.000000;0.620801
8100.000000;0.620773
8099.000000;0.620821
8098.000000;0.620885
8097.000000;0.620909
8096.000000;0.620873
8095.000000;0.620793
8094.000000;0.620706
8093.000000;0.620640
8092.000000;0.620581
8091.000000;0.620485
8090.000000;0.620338
8089.000000;0.620182
8088.000000;0.620057
8087.000000;0.619949
8086.000000;0.619814
8085.000000;0.619650
8084.000000;0.619508
8083.000000;0.619431
8082.000000;0.619405
8081.000000;0.619394
8080.000000;0.619389
8079.000000;0.619395
8078.000000;0.619377
8077.000000;0.619254
8076.000000;0.619009
8075.000000;0.618765
8074.000000;0.618695
8073.000000;0.618835
8072.000000;0.619022
8071.000000;0.619058
8070.000000;0.618890
8069.000000;0.618621
8068.000000;0.618371
8067.000000;0.618193
8066.000000;0.618093
8065.000000;0.618056
8064.000000;0.618044
8063.000000;0.618017
8062.000000;0.617978
8061.000000;0.617960
8060.000000;0.617959
8059.000000;0.617920
8058.000000;0.617801
8057.000000;0.617630
8056.000000;0.617468
8055.000000;0.617342
8054.000000;0.617236
8053.000000;0.617150
8052.000000;0.617121
8051.000000;0.617177
8050.000000;0.617265
8049.000000;0.617259
8048.000000;0.617077
8047.000000;0.616787
8046.000000;0.616563
8045.000000;0.616509
8044.000000;0.616555
8043.000000;0.616559
8042.000000;0.616473
8041.000000;0.616368
8040.000000;0.616315
8039.000000;0.616304
8038.000000;0.616294
8037.000000;0.616266
8036.000000;0.616223
8035.000000;0.616166
8034.000000;0.616091
8033.000000;0.615993
8032.000000;0.615853
8031.000000;0.615662
8030.000000;0.615465
8029.000000;0.615332
8028.000000;0.615289
8027.000000;0.615288
8026.000000;0.615262
8025.000000;0.615165
8024.000000;0.614981
8023.000000;0.614736
8022.000000;0.614499
8021.000000;0.614348
8020.000000;0.614293
8019.000000;0.614296
8018.000000;0.614331
8017.000000;0.614408
8016.000000;0.614509
8015.000000;0.614582
8014.000000;0.614596
8013.000000;0.614567
8012.000000;0.614502
8011.000000;0.614381
8010.000000;0.614223
8009.000000;0.614104
8008.000000;0.614069
8007.000000;0.614078
8006.000000;0.614066
8005.000000;0.614025
8004.000000;0.613971
8003.000000;0.613887
8002.000000;0.613741
8001.000000;0.613551
8000.000000;0.613354
7999.000000;0.613153
7998.000000;0.612953
7997.000000;0.612809
7996.000000;0.612783
7995.000000;0.612845
7994.000000;0.612891
7993.000000;0.612873
7992.000000;0.612836
7991.000000;0.612820
7990.000000;0.612792
7989.000000;0.612701
7988.000000;0.612565
7987.000000;0.612446
7986.000000;0.612384
7985.000000;0.612365
7984.000000;0.612356
7983.000000;0.612317
7982.000000;0.612207
7981.000000;0.612010
7980.000000;0.611779
7979.000000;0.611615
7978.000000;0.611586
7977.000000;0.611660
7976.000000;0.611727
7975.000000;0.611699
7974.000000;0.611582
7973.000000;0.611458
7972.000000;0.611402
7971.000000;0.611423
7970.000000;0.611466
7969.000000;0.611464
7968.000000;0.611396
7967.000000;0.611298
7966.000000;0.611225
7965.000000;0.611185
7964.000000;0.611121
7963.000000;0.610973
7962.000000;0.610744
7961.000000;0.610502
7960.000000;0.610309
7959.000000;0.610177
7958.000000;0.610085
7957.000000;0.610009
7956.000000;0.609932
7955.000000;0.609839
7954.000000;0.609732
7953.000000;0.609627
7952.000000;0.609525
7951.000000;0.609420
7950.000000;0.609322
7949.000000;0.609272
7948.000000;0.609283
7947.000000;0.609291
7946.000000;0.609195
7945.000000;0.608967
7944.000000;0.608687
7943.000000;0.608484
7942.000000;0.608428
7941.000000;0.608480
7940.000000;0.608533
7939.000000;0.608506
7938.000000;0.608416
7937.000000;0.608344
7936.000000;0.608349
7935.000000;0.608398
7934.000000;0.608413
7933.000000;0.608357
7932.000000;0.608260
7931.000000;0.608170
7930.000000;0.608094
7929.000000;0.608016
7928.000000;0.607927
7927.000000;0.607831
7926.000000;0.607725
7925.000000;0.607611
7924.000000;0.607519
7923.000000;0.607498
7922.000000;0.607563
7921.000000;0.607661
7920.000000;0.607703
7919.000000;0.607630
7918.000000;0.607443
7917.000000;0.607192
7916.000000;0.606965
7915.000000;0.606850
7914.000000;0.606866
7913.000000;0.606916
7912.000000;0.606858
7911.000000;0.606666
7910.000000;0.606473
7909.000000;0.606423
7908.000000;0.606510
7907.000000;0.606607
7906.000000;0.606607
7905.000000;0.606508
7904.000000;0.606366
7903.000000;0.606247
7902.000000;0.606209
7901.000000;0.606269
7900.000000;0.606354
7899.000000;0.606342
7898.000000;0.606175
7897.000000;0.605915
7896.000000;0.605669
7895.000000;0.605498
7894.000000;0.605395
7893.000000;0.605323
7892.000000;0.605244
7891.000000;0.605143
7890.000000;0.605043
7889.000000;0.604986
7888.000000;0.604971
7887.000000;0.604965
7886.000000;0.604950
7885.000000;0.604953
7884.000000;0.604987
7883.000000;0.605012
7882.000000;0.604965
7881.000000;0.604829
7880.000000;0.604651
7879.000000;0.604506
7878.000000;0.604441
7877.000000;0.604428
7876.000000;0.604378
7875.000000;0.604236
7874.000000;0.604049
7873.000000;0.603910
7872.000000;0.603840
7871.000000;0.603775
7870.000000;0.603685
7869.000000;0.603621
7868.000000;0.603611
7867.000000;0.603571
7866.000000;0.603405
7865.000000;0.603144
7864.000000;0.602940
7863.000000;0.602909
7862.000000;0.603029
7861.000000;0.603168
7860.000000;0.603203
7859.000000;0.603110
7858.000000;0.602992
7857.000000;0.602976
7856.000000;0.603069
7855.000000;0.603136
7854.000000;0.603055
7853.000000;0.602859
7852.000000;0.602690
7851.000000;0.602623
7850.000000;0.602606
7849.000000;0.602543
7848.000000;0.602392
7847.000000;0.602177
7846.000000;0.601967
7845.000000;0.601840
7844.000000;0.601817
7843.000000;0.601834
7842.000000;0.601809
7841.000000;0.601740
7840.000000;0.601688
7839.000000;0.601685
7838.000000;0.601687
7837.000000;0.601640
7836.000000;0.601527
7835.000000;0.601367
7834.000000;0.601204
7833.000000;0.601101
7832.000000;0.601095
7831.000000;0.601135
7830.000000;0.601113
7829.000000;0.600983
7828.000000;0.600807
7827.000000;0.600683
7826.000000;0.600647
7825.000000;0.600674
7824.000000;0.600722
7823.000000;0.600752
7822.000000;0.600724
7821.000000;0.600628
7820.000000;0.600489
7819.000000;0.600338
7818.000000;0.600187
7817.000000;0.600058
7816.000000;0.599983
7815.000000;0.599962
7814.000000;0.599937
7813.000000;0.599844
7812.000000;0.599680
7811.000000;0.599494
7810.000000;0.599345
7809.000000;0.599275
7808.000000;0.599297
7807.000000;0.599375
7806.000000;0.599426
7805.000000;0.599386
7804.000000;0.599270
7803.000000;0.599149
7802.000000;0.599083
7801.000000;0.599068
7800.000000;0.599055
7799.000000;0.598986
7798.000000;0.598842
7797.000000;0.598678
7796.000000;0.598587
7795.000000;0.598600
7794.000000;0.598644
7793.000000;0.598616
7792.000000;0.598496
7791.000000;0.598350
7790.000000;0.598241
7789.000000;0.598169
7788.000000;0.598110
7787.000000;0.598064
7786.000000;0.598040
7785.000000;0.598024
7784.000000;0.597981
7783.000000;0.597884
7782.000000;0.597731
7781.000000;0.597550
7780.000000;0.597399
7779.000000;0.597330
7778.000000;0.597357
7777.000000;0.597441
7776.000000;0.597508
7775.000000;0.597487
7774.000000;0.597349
7773.000000;0.597131
7772.000000;0.596920
7771.000000;0.596777
7770.000000;0.596694
7769.000000;0.596622
7768.000000;0.596555
7767.000000;0.596537
7766.000000;0.596590
7765.000000;0.596667
7764.000000;0.596695
7763.000000;0.596645
7762.000000;0.596538
7761.000000;0.596395
7760.000000;0.596227
7759.000000;0.596065
7758.000000;0.595955
7757.000000;0.595913
7756.000000;0.595891
7755.000000;0.595817
7754.000000;0.595667
7753.000000;0.595478
7752.000000;0.595320
7751.000000;0.595240
7750.000000;0.595238
7749.000000;0.595279
7748.000000;0.595305
7747.000000;0.595266
7746.000000;0.595156
7745.000000;0.595015
7744.000000;0.594894
7743.000000;0.594814
7742.000000;0.594771
7741.000000;0.594765
7740.000000;0.594795
7739.000000;0.594839
7738.000000;0.594863
7737.000000;0.594853
7736.000000;0.594834
7735.000000;0.594811
7734.000000;0.594747
7733.000000;0.594611
7732.000000;0.594444
7731.000000;0.594320
7730.000000;0.594254
7729.000000;0.594176
7728.000000;0.594014
7727.000000;0.593775
7726.000000;0.593538
7725.000000;0.593375
7724.000000;0.593316
7723.000000;0.593356
7722.000000;0.593459
7721.000000;0.593563
7720.000000;0.593606
7719.000000;0.593567
7718.000000;0.593469
7717.000000;0.593357
7716.000000;0.593256
7715.000000;0.593165
7714.000000;0.593079
7713.000000;0.592994
7712.000000;0.592907
7711.000000;0.592808
7710.000000;0.592697
7709.000000;0.592585
7708.000000;0.592474
7707.000000;0.592342
7706.000000;0.592173
7705.000000;0.592005
7704.000000;0.591905
7703.000000;0.591886
7702.000000;0.591867
7701.000000;0.591771
7700.000000;0.591637
7699.000000;0.591579
7698.000000;0.591635
7697.000000;0.591705
7696.000000;0.591672
7695.000000;0.591526
7694.000000;0.591367
7693.000000;0.591286
7692.000000;0.591291
7691.000000;0.591325
7690.000000;0.591319
7689.000000;0.591252
7688.000000;0.591158
7687.000000;0.591083
7686.000000;0.591020
7685.000000;0.590912
7684.000000;0.590739
7683.000000;0.590561
7682.000000;0.590447
7681.000000;0.590399
7680.000000;0.590372
7679.000000;0.590343
7678.000000;0.590328
7677.000000;0.590324
7676.000000;0.590302
7675.000000;0.590237
7674.000000;0.590134
7673.000000;0.590024
7672.000000;0.589957
7671.000000;0.589976
7670.000000;0.590063
7669.000000;0.590116
7668.000000;0.590031
7667.000000;0.589815
7666.000000;0.589587
7665.000000;0.589463
7664.000000;0.589461
7663.000000;0.589518
7662.000000;0.589555
7661.000000;0.589521
7660.000000;0.589413
7659.000000;0.589282
7658.000000;0.589192
7657.000000;0.589159
7656.000000;0.589134
7655.000000;0.589057
7654.000000;0.588930
7653.000000;0.588803
7652.000000;0.588728
7651.000000;0.588707
7650.000000;0.588698
7649.000000;0.588644
7648.000000;0.588517
7647.000000;0.588341
7646.000000;0.588164
7645.000000;0.588029
7644.000000;0.587950
7643.000000;0.587918
7642.000000;0.587905
7641.000000;0.587881
7640.000000;0.587854
7639.000000;0.587865
7638.000000;0.587920
7637.000000;0.587955
7636.000000;0.587898
7635.000000;0.587772
7634.000000;0.587673
7633.000000;0.587650
7632.000000;0.587653
7631.000000;0.587614
7630.000000;0.587526
7629.000000;0.587423
7628.000000;0.587324
7627.000000;0.587226
7626.000000;0.587140
7625.000000;0.587073
7624.000000;0.587012
7623.000000;0.586939
7622.000000;0.586849
7621.000000;0.586745
7620.000000;0.586642
7619.000000;0.586574
7618.000000;0.586561
7617.000000;0.586555
7616.000000;0.586466
7615.000000;0.586286
7614.000000;0.586138
7613.000000;0.586144
7612.000000;0.586268
7611.000000;0.586355
7610.000000;0.586306
7609.000000;0.586170
7608.000000;0.586048
7607.000000;0.585978
7606.000000;0.585939
7605.000000;0.585914
7604.000000;0.585904
7603.000000;0.585893
7602.000000;0.585836
7601.000000;0.585706
7600.000000;0.585533
7599.000000;0.585383
7598.000000;0.585301
7597.000000;0.585273
7596.000000;0.585242
7595.000000;0.585164
7594.000000;0.585042
7593.000000;0.584912
7592.000000;0.584813
7591.000000;0.584749
7590.000000;0.584692
7589.000000;0.584621
7588.000000;0.584569
7587.000000;0.584607
7586.000000;0.584759
7585.000000;0.584943
7584.000000;0.585030
7583.000000;0.584973
7582.000000;0.584846
7581.000000;0.584747
7580.000000;0.584706
7579.000000;0.584676
7578.000000;0.584604
7577.000000;0.584466
7576.000000;0.584286
7575.000000;0.584134
7574.000000;0.584080
7573.000000;0.584126
7572.000000;0.584182
7571.000000;0.584151
7570.000000;0.584019
7569.000000;0.583856
7568.000000;0.583736
7567.000000;0.583679
7566.000000;0.583659
7565.000000;0.583632
7564.000000;0.583568
7563.000000;0.583476
7562.000000;0.583401
7561.000000;0.583373
7560.000000;0.583365
7559.000000;0.583333
7558.000000;0.583273
7557.000000;0.583230
7556.000000;0.583233
7555.000000;0.583261
7554.000000;0.583265
7553.000000;0.583231
7552.000000;0.583189
7551.000000;0.583187
7550.000000;0.583229
7549.000000;0.583249
7548.000000;0.583172
7547.000000;0.582997
7546.000000;0.582807
7545.000000;0.582685
7544.000000;0.582640
7543.000000;0.582629
7542.000000;0.582621
7541.000000;0.582615
7540.000000;0.582619
7539.000000;0.582639
7538.000000;0.582684
7537.000000;0.582743
7536.000000;0.582767
7535.000000;0.582707
7534.000000;0.582575
7533.000000;0.582440
7532.000000;0.582361
7531.000000;0.582343
7530.000000;0.582343
7529.000000;0.582323
7528.000000;0.582278
7527.000000;0.582239
7526.000000;0.582236
7525.000000;0.582251
7524.000000;0.582237
7523.000000;0.582185
7522.000000;0.582146
7521.000000;0.582164
7520.000000;0.582220
7519.000000;0.582269
7518.000000;0.582304
7517.000000;0.582333
7516.000000;0.582320
7515.000000;0.582215
7514.000000;0.582034
7513.000000;0.581862
7512.000000;0.581755
7511.000000;0.581682
7510.000000;0.581591
7509.000000;0.581484
7508.000000;0.581414
7507.000000;0.581416
7506.000000;0.581464
7505.000000;0.581499
7504.000000;0.581481
7503.000000;0.581436
7502.000000;0.581425
7501.000000;0.581481
7500.000000;0.581561
7499.000000;0.581596
7498.000000;0.581564
7497.000000;0.581493
7496.000000;0.581402
7495.000000;0.581297
7494.000000;0.581209
7493.000000;0.581190
7492.000000;0.581241
7491.000000;0.581287
7490.000000;0.581257
7489.000000;0.581160
7488.000000;0.581059
7487.000000;0.580993
7486.000000;0.580949
7485.000000;0.580903
7484.000000;0.580853
7483.000000;0.580812
7482.000000;0.580798
7481.000000;0.580824
7480.000000;0.580887
7479.000000;0.580953
7478.000000;0.580979
7477.000000;0.580955
7476.000000;0.580931
7475.000000;0.580966
7474.000000;0.581053
7473.000000;0.581101
7472.000000;0.581017
7471.000000;0.580816
7470.000000;0.580636
7469.000000;0.580607
7468.000000;0.580733
7467.000000;0.580905
7466.000000;0.581025
7465.000000;0.581071
7464.000000;0.581066
7463.000000;0.581022
7462.000000;0.580937
7461.000000;0.580821
7460.000000;0.580694
7459.000000;0.580569
7458.000000;0.580463
7457.000000;0.580412
7456.000000;0.580451
7455.000000;0.580573
7454.000000;0.580713
7453.000000;0.580780
7452.000000;0.580722
7451.000000;0.580567
7450.000000;0.580393
7449.000000;0.580268
7448.000000;0.580222
7447.000000;0.580251
7446.000000;0.580330
7445.000000;0.580409
7444.000000;0.580428
7443.000000;0.580370
7442.000000;0.580289
7441.000000;0.580264
7440.000000;0.580323
7439.000000;0.580430
7438.000000;0.580535
7437.000000;0.580615
7436.000000;0.580662
7435.000000;0.580675
7434.000000;0.580664
7433.000000;0.580643
7432.000000;0.580601
7431.000000;0.580515
7430.000000;0.580395
7429.000000;0.580301
7428.000000;0.580290
7427.000000;0.580361
7426.000000;0.580458
7425.000000;0.580532
7424.000000;0.580573
7423.000000;0.580592
7422.000000;0.580581
7421.000000;0.580526
7420.000000;0.580435
7419.000000;0.580345
7418.000000;0.580295
7417.000000;0.580296
7416.000000;0.580337
7415.000000;0.580411
7414.000000;0.580519
7413.000000;0.580638
7412.000000;0.580720
7411.000000;0.580723
7410.000000;0.580654
7409.000000;0.580556
7408.000000;0.580487
7407.000000;0.580474
7406.000000;0.580503
7405.000000;0.580528
7404.000000;0.580506
7403.000000;0.580443
7402.000000;0.580388
7401.000000;0.580377
7400.000000;0.580405
7399.000000;0.580441
7398.000000;0.580472
7397.000000;0.580508
7396.000000;0.580566
7395.000000;0.580660
7394.000000;0.580782
7393.000000;0.580895
7392.000000;0.580957
7391.000000;0.580955
7390.000000;0.580908
7389.000000;0.580831
7388.000000;0.580718
7387.000000;0.580582
7386.000000;0.580478
7385.000000;0.580466
7384.000000;0.580559
7383.000000;0.580711
7382.000000;0.580844
7381.000000;0.580886
7380.000000;0.580815
7379.000000;0.580693
7378.000000;0.580625
7377.000000;0.580658
7376.000000;0.580743
7375.000000;0.580800
7374.000000;0.580803
7373.000000;0.580790
7372.000000;0.580796
7371.000000;0.580835
7370.000000;0.580921
7369.000000;0.581050
7368.000000;0.581182
7367.000000;0.581256
7366.000000;0.581243
7365.000000;0.581173
7364.000000;0.581105
7363.000000;0.581087
7362.000000;0.581131
7361.000000;0.581219
7360.000000;0.581324
7359.000000;0.581439
7358.000000;0.581561
7357.000000;0.581663
7356.000000;0.581695
7355.000000;0.581644
7354.000000;0.581562
7353.000000;0.581519
7352.000000;0.581537
7351.000000;0.581591
7350.000000;0.581643
7349.000000;0.581654
7348.000000;0.581607
7347.000000;0.581536
7346.000000;0.581496
7345.000000;0.581502
7344.000000;0.581522
7343.000000;0.581548
7342.000000;0.581625
7341.000000;0.581761
7340.000000;0.581893
7339.000000;0.581970
7338.000000;0.582036
7337.000000;0.582156
7336.000000;0.582295
7335.000000;0.582360
7334.000000;0.582335
7333.000000;0.582297
7332.000000;0.582317
7331.000000;0.582407
7330.000000;0.582553
7329.000000;0.582735
7328.000000;0.582890
7327.000000;0.582938
7326.000000;0.582877
7325.000000;0.582805
7324.000000;0.582819
7323.000000;0.582924
7322.000000;0.583065
7321.000000;0.583195
7320.000000;0.583306
7319.000000;0.583407
7318.000000;0.583505
7317.000000;0.583600
7316.000000;0.583685
7315.000000;0.583758
7314.000000;0.583825
7313.000000;0.583888
7312.000000;0.583945
7311.000000;0.584010
7310.000000;0.584123
7309.000000;0.584288
7308.000000;0.584441
7307.000000;0.584512
7306.000000;0.584521
7305.000000;0.584552
7304.000000;0.584655
7303.000000;0.584827
7302.000000;0.585058
7301.000000;0.585309
7300.000000;0.585478
7299.000000;0.585474
7298.000000;0.585353
7297.000000;0.585300
7296.000000;0.585426
7295.000000;0.585664
7294.000000;0.585901
7293.000000;0.586124
7292.000000;0.586370
7291.000000;0.586601
7290.000000;0.586725
7289.000000;0.586742
7288.000000;0.586783
7287.000000;0.586990
7286.000000;0.587375
7285.000000;0.587809
7284.000000;0.588142
7283.000000;0.588313
7282.000000;0.588383
7281.000000;0.588457
7280.000000;0.588592
7279.000000;0.588759
7278.000000;0.588906
7277.000000;0.589019
7276.000000;0.589124
7275.000000;0.589250
7274.000000;0.589408
7273.000000;0.589581
7272.000000;0.589747
7271.000000;0.589906
7270.000000;0.590112
7269.000000;0.590410
7268.000000;0.590765
7267.000000;0.591082
7266.000000;0.591312
7265.000000;0.591506
7264.000000;0.591729
7263.000000;0.591977
7262.000000;0.592210
7261.000000;0.592433
7260.000000;0.592683
7259.000000;0.592962
7258.000000;0.593227
7257.000000;0.593449
7256.000000;0.593636
7255.000000;0.593804
7254.000000;0.593970
7253.000000;0.594163
7252.000000;0.594424
7251.000000;0.594754
7250.000000;0.595100
7249.000000;0.595402
7248.000000;0.595654
7247.000000;0.595925
7246.000000;0.596298
7245.000000;0.596776
7244.000000;0.597242
7243.000000;0.597562
7242.000000;0.597728
7241.000000;0.597883
7240.000000;0.598153
7239.000000;0.598508
7238.000000;0.598832
7237.000000;0.599087
7236.000000;0.599361
7235.000000;0.599756
7234.000000;0.600270
7233.000000;0.600791
7232.000000;0.601201
7231.000000;0.601471
7230.000000;0.601678
7229.000000;0.601933
7228.000000;0.602283
7227.000000;0.602693
7226.000000;0.603100
7225.000000;0.603490
7224.000000;0.603887
7223.000000;0.604309
7222.000000;0.604744
7221.000000;0.605180
7220.000000;0.605621
7219.000000;0.606078
7218.000000;0.606550
7217.000000;0.607016
7216.000000;0.607459
7215.000000;0.607876
7214.000000;0.608275
7213.000000;0.608657
7212.000000;0.609013
7211.000000;0.609347
7210.000000;0.609701
7209.000000;0.610131
7208.000000;0.610650
7207.000000;0.611212
7206.000000;0.611755
7205.000000;0.612250
7204.000000;0.612707
7203.000000;0.613155
7202.000000;0.613643
7201.000000;0.614204
7200.000000;0.614788
7199.000000;0.615264
7198.000000;0.615563
7197.000000;0.615793
7196.000000;0.616151
7195.000000;0.616703
7194.000000;0.617310
7193.000000;0.617809
7192.000000;0.618205
7191.000000;0.618648
7190.000000;0.619247
7189.000000;0.619967
7188.000000;0.620674
7187.000000;0.621246
7186.000000;0.621642
7185.000000;0.621926
7184.000000;0.622235
7183.000000;0.622677
7182.000000;0.623246
7181.000000;0.623842
7180.000000;0.624375
7179.000000;0.624848
7178.000000;0.625334
7177.000000;0.625911
7176.000000;0.626628
7175.000000;0.627463
7174.000000;0.628293
7173.000000;0.628949
7172.000000;0.629358
7171.000000;0.629644
7170.000000;0.630046
7169.000000;0.630725
7168.000000;0.631632
7167.000000;0.632566
7166.000000;0.633357
7165.000000;0.634005
7164.000000;0.634641
7163.000000;0.635357
7162.000000;0.636102
7161.000000;0.636758
7160.000000;0.637297
7159.000000;0.637791
7158.000000;0.638278
7157.000000;0.638724
7156.000000;0.639163
7155.000000;0.639772
7154.000000;0.640685
7153.000000;0.641780
7152.000000;0.642776
7151.000000;0.643529
7150.000000;0.644105
7149.000000;0.644586
7148.000000;0.644951
7147.000000;0.645195
7146.000000;0.645421
7145.000000;0.645740
7144.000000;0.646186
7143.000000;0.646772
7142.000000;0.647500
7141.000000;0.648250
7140.000000;0.648801
7139.000000;0.649112
7138.000000;0.649446
7137.000000;0.650041
7136.000000;0.650775
7135.000000;0.651348
7134.000000;0.651708
7133.000000;0.652060
7132.000000;0.652500
7131.000000;0.652899
7130.000000;0.653171
7129.000000;0.653443
7128.000000;0.653875
7127.000000;0.654509
7126.000000;0.655335
7125.000000;0.656321
7124.000000;0.657288
7123.000000;0.657915
7122.000000;0.658035
7121.000000;0.657794
7120.000000;0.657458
7119.000000;0.657153
7118.000000;0.656908
7117.000000;0.656793
7116.000000;0.656864
7115.000000;0.657049
7114.000000;0.657249
7113.000000;0.657482
7112.000000;0.657784
7111.000000;0.658047
7110.000000;0.658102
7109.000000;0.657971
7108.000000;0.657886
7107.000000;0.658003
7106.000000;0.658206
7105.000000;0.658221
7104.000000;0.657912
7103.000000;0.657364
7102.000000;0.656707
7101.000000;0.655970
7100.000000;0.655183
7099.000000;0.654523
7098.000000;0.654197
7097.000000;0.654130
7096.000000;0.653970
7095.000000;0.653500
7094.000000;0.652906
7093.000000;0.652472
7092.000000;0.652173
7091.000000;0.651813
7090.000000;0.651393
7089.000000;0.651018
7088.000000;0.650510
7087.000000;0.649518
7086.000000;0.648077
7085.000000;0.646703
7084.000000;0.645809
7083.000000;0.645316
7082.000000;0.644964
7081.000000;0.644676
7080.000000;0.644402
7079.000000;0.643898
7078.000000;0.642984
7077.000000;0.641855
7076.000000;0.640819
7075.000000;0.639806
7074.000000;0.638435
7073.000000;0.636560
7072.000000;0.634558
7071.000000;0.632961
7070.000000;0.631923
7069.000000;0.631075
7068.000000;0.629887
7067.000000;0.628141
7066.000000;0.626057
7065.000000;0.623986
7064.000000;0.622064
7063.000000;0.620284
7062.000000;0.618738
7061.000000;0.617574
7060.000000;0.616698
7059.000000;0.615764
7058.000000;0.614503
7057.000000;0.612890
7056.000000;0.610955
7055.000000;0.608708
7054.000000;0.606339
7053.000000;0.604273
7052.000000;0.602859
7051.000000;0.602070
7050.000000;0.601554
7049.000000;0.600790
7048.000000;0.599216
7047.000000;0.596508
7046.000000;0.592959
7045.000000;0.589393
7044.000000;0.586538
7043.000000;0.584526
7042.000000;0.583024
7041.000000;0.581665
7040.000000;0.580252
7039.000000;0.578682
7038.000000;0.576798
7037.000000;0.574359
7036.000000;0.571308
7035.000000;0.568150
7034.000000;0.565789
7033.000000;0.564605
7032.000000;0.563764
7031.000000;0.561937
7030.000000;0.558808
7029.000000;0.555449
7028.000000;0.553017
7027.000000;0.551528
7026.000000;0.550099
7025.000000;0.547972
7024.000000;0.544996
7023.000000;0.541462
7022.000000;0.537960
7021.000000;0.535229
7020.000000;0.533668
7019.000000;0.532922
7018.000000;0.532116
7017.000000;0.530560
7016.000000;0.528175
7015.000000;0.525328
7014.000000;0.522378
7013.000000;0.519356
7012.000000;0.516037
7011.000000;0.512400
7010.000000;0.508927
7009.000000;0.506194
7008.000000;0.504132
7007.000000;0.501970
7006.000000;0.499100
7005.000000;0.495801
7004.000000;0.492876
7003.000000;0.490701
7002.000000;0.488832
7001.000000;0.486468
7000.000000;0.483172
6999.000000;0.479217
6998.000000;0.475357
6997.000000;0.472227
6996.000000;0.469916
6995.000000;0.468095
6994.000000;0.466433
6993.000000;0.464731
6992.000000;0.462779
6991.000000;0.460393
6990.000000;0.457674
6989.000000;0.455060
6988.000000;0.452962
6987.000000;0.451393
6986.000000;0.449916
6985.000000;0.447861
6984.000000;0.444697
6983.000000;0.440441
6982.000000;0.435797
6981.000000;0.431724
6980.000000;0.428752
6979.000000;0.426711
6978.000000;0.424997
6977.000000;0.422947
6976.000000;0.420175
6975.000000;0.416845
6974.000000;0.413581
6973.000000;0.410864
6972.000000;0.408537
6971.000000;0.406133
6970.000000;0.403597
6969.000000;0.401328
6968.000000;0.399462
6967.000000;0.397478
6966.000000;0.394739
6965.000000;0.391237
6964.000000;0.387656
6963.000000;0.384752
6962.000000;0.382732
6961.000000;0.381141
6960.000000;0.379296
6959.000000;0.376834
6958.000000;0.373848
6957.000000;0.370593
6956.000000;0.367260
6955.000000;0.364067
6954.000000;0.361272
6953.000000;0.358892
6952.000000;0.356621
6951.000000;0.354264
6950.000000;0.352055
6949.000000;0.350256
6948.000000;0.348608
6947.000000;0.346520
6946.000000;0.343720
6945.000000;0.340480
6944.000000;0.337256
6943.000000;0.334323
6942.000000;0.331677
6941.000000;0.329080
6940.000000;0.326300
6939.000000;0.323474
6938.000000;0.321104
6937.000000;0.319470
6936.000000;0.318237
6935.000000;0.316870
6934.000000;0.315231
6933.000000;0.313481
6932.000000;0.311605
6931.000000;0.309408
6930.000000;0.306927
6929.000000;0.304539
6928.000000;0.302553
6927.000000;0.300851
6926.000000;0.299000
6925.000000;0.296697
6924.000000;0.294174
6923.000000;0.292074
6922.000000;0.290715
6921.000000;0.289535
6920.000000;0.287638
6919.000000;0.284912
6918.000000;0.282210
6917.000000;0.280320
6916.000000;0.279238
6915.000000;0.278581
6914.000000;0.278102
6913.000000;0.277460
6912.000000;0.276058
6911.000000;0.273697
6910.000000;0.271014
6909.000000;0.268764
6908.000000;0.266960
6907.000000;0.265149
6906.000000;0.263206
6905.000000;0.261305
6904.000000;0.259345
6903.000000;0.257052
6902.000000;0.254598
6901.000000;0.252598
6900.000000;0.251400
6899.000000;0.250654
6898.000000;0.249630
6897.000000;0.247798
6896.000000;0.245243
6895.000000;0.242684
6894.000000;0.240944
6893.000000;0.240214
6892.000000;0.239936
6891.000000;0.239415
6890.000000;0.238305
6889.000000;0.236569
6888.000000;0.234484
6887.000000;0.232799
6886.000000;0.232302
6885.000000;0.232874
6884.000000;0.233382
6883.000000;0.232814
6882.000000;0.231105
6881.000000;0.228667
6880.000000;0.225806
6879.000000;0.223022
6878.000000;0.221240
6877.000000;0.221025
6876.000000;0.221858
6875.000000;0.222652
6874.000000;0.222777
6873.000000;0.222287
6872.000000;0.221510
6871.000000;0.220743
6870.000000;0.220011
6869.000000;0.218863
6868.000000;0.216862
6867.000000;0.214525
6866.000000;0.213147
6865.000000;0.213245
6864.000000;0.213847
6863.000000;0.213859
6862.000000;0.213415
6861.000000;0.213116
6860.000000;0.212678
6859.000000;0.211331
6858.000000;0.209163
6857.000000;0.207107
6856.000000;0.205773
6855.000000;0.205094
6854.000000;0.204935
6853.000000;0.205186
6852.000000;0.205369
6851.000000;0.204956
6850.000000;0.204178
6849.000000;0.203879
6848.000000;0.204489
6847.000000;0.205597
6846.000000;0.206526
6845.000000;0.206854
6844.000000;0.206468
6843.000000;0.205642
6842.000000;0.205055
6841.000000;0.205264
6840.000000;0.206046
6839.000000;0.206607
6838.000000;0.206418
6837.000000;0.205588
6836.000000;0.204607
6835.000000;0.204080
6834.000000;0.204404
6833.000000;0.205285
6832.000000;0.205801
6831.000000;0.205398
6830.000000;0.204586
6829.000000;0.204231
6828.000000;0.204434
6827.000000;0.204618
6826.000000;0.204470
6825.000000;0.204179
6824.000000;0.203875
6823.000000;0.203435
6822.000000;0.202851
6821.000000;0.202347
6820.000000;0.202140
6819.000000;0.202382
6818.000000;0.203178
6817.000000;0.204321
6816.000000;0.205237
6815.000000;0.205617
6814.000000;0.205891
6813.000000;0.206639
6812.000000;0.207702
6811.000000;0.208424
6810.000000;0.208614
6809.000000;0.208747
6808.000000;0.209265
6807.000000;0.210130
6806.000000;0.211029
6805.000000;0.211605
6804.000000;0.211592
6803.000000;0.211137
6802.000000;0.210900
6801.000000;0.211390
6800.000000;0.212315
6799.000000;0.213000
6798.000000;0.213315
6797.000000;0.213676
6796.000000;0.214229
6795.000000;0.214644
6794.000000;0.214784
6793.000000;0.215037
6792.000000;0.215827
6791.000000;0.217192
6790.000000;0.218934
6789.000000;0.220801
6788.000000;0.222386
6787.000000;0.223215
6786.000000;0.223196
6785.000000;0.222786
6784.000000;0.222607
6783.000000;0.222968
6782.000000;0.223747
6781.000000;0.224542
6780.000000;0.224932
6779.000000;0.224823
6778.000000;0.224593
6777.000000;0.224764
6776.000000;0.225510
6775.000000;0.226598
6774.000000;0.227708
6773.000000;0.228623
6772.000000;0.229213
6771.000000;0.229470
6770.000000;0.229568
6769.000000;0.229757
6768.000000;0.230210
6767.000000;0.231025
6766.000000;0.232218
6765.000000;0.233536
6764.000000;0.234504
6763.000000;0.234912
6762.000000;0.235119
6761.000000;0.235638
6760.000000;0.236539
6759.000000;0.237534
6758.000000;0.238450
6757.000000;0.239310
6756.000000;0.240048
6755.000000;0.240546
6754.000000;0.240965
6753.000000;0.241690
6752.000000;0.242818
6751.000000;0.243957
6750.000000;0.244643
6749.000000;0.244821
6748.000000;0.244866
6747.000000;0.245204
6746.000000;0.245934
6745.000000;0.246745
6744.000000;0.247284
6743.000000;0.247634
6742.000000;0.248245
6741.000000;0.249275
6740.000000;0.250264
6739.000000;0.250737
6738.000000;0.250904
6737.000000;0.251393
6736.000000;0.252397
6735.000000;0.253465
6734.000000;0.254142
6733.000000;0.254455
6732.000000;0.254711
6731.000000;0.255148
6730.000000;0.255867
6729.000000;0.256869
6728.000000;0.257978
6727.000000;0.258907
6726.000000;0.259524
6725.000000;0.259970
6724.000000;0.260472
6723.000000;0.261113
6722.000000;0.261786
6721.000000;0.262325
6720.000000;0.262660
6719.000000;0.262943
6718.000000;0.263460
6717.000000;0.264345
6716.000000;0.265403
6715.000000;0.266344
6714.000000;0.267099
6713.000000;0.267812
6712.000000;0.268607
6711.000000;0.269490
6710.000000;0.270407
6709.000000;0.271235
6708.000000;0.271794
6707.000000;0.272047
6706.000000;0.272209
6705.000000;0.272480
6704.000000;0.272807
6703.000000;0.273076
6702.000000;0.273427
6701.000000;0.274143
6700.000000;0.275216
6699.000000;0.276337
6698.000000;0.277279
6697.000000;0.278064
6696.000000;0.278730
6695.000000;0.279228
6694.000000;0.279602
6693.000000;0.280042
6692.000000;0.280651
6691.000000;0.281323
6690.000000;0.281936
6689.000000;0.282510
6688.000000;0.283108
6687.000000;0.283749
6686.000000;0.284445
6685.000000;0.285191
6684.000000;0.285854
6683.000000;0.286253
6682.000000;0.286435
6681.000000;0.286700
6680.000000;0.287276
6679.000000;0.288092
6678.000000;0.288955
6677.000000;0.289803
6676.000000;0.290674
6675.000000;0.291531
6674.000000;0.292257
6673.000000;0.292782
6672.000000;0.293141
6671.000000;0.293450
6670.000000;0.293856
6669.000000;0.294449
6668.000000;0.295154
6667.000000;0.295769
6666.000000;0.296187
6665.000000;0.296524
6664.000000;0.296987
6663.000000;0.297670
6662.000000;0.298494
6661.000000;0.299300
6660.000000;0.299967
6659.000000;0.300488
6658.000000;0.300977
6657.000000;0.301550
6656.000000;0.302183
6655.000000;0.302749
6654.000000;0.303191
6653.000000;0.303613
6652.000000;0.304153
6651.000000;0.304840
6650.000000;0.305599
6649.000000;0.306350
6648.000000;0.307055
6647.000000;0.307712
6646.000000;0.308339
6645.000000;0.308941
6644.000000;0.309498
6643.000000;0.309995
6642.000000;0.310471
6641.000000;0.310969
6640.000000;0.311464
6639.000000;0.311876
6638.000000;0.312194
6637.000000;0.312516
6636.000000;0.312974
6635.000000;0.313631
6634.000000;0.314460
6633.000000;0.315358
6632.000000;0.316172
6631.000000;0.316772
6630.000000;0.317131
6629.000000;0.317345
6628.000000;0.317549
6627.000000;0.317836
6626.000000;0.318223
6625.000000;0.318657
6624.000000;0.319056
6623.000000;0.319403
6622.000000;0.319791
6621.000000;0.320346
6620.000000;0.321097
6619.000000;0.321958
6618.000000;0.322815
6617.000000;0.323593
6616.000000;0.324246
6615.000000;0.324753
6614.000000;0.325139
6613.000000;0.325483
6612.000000;0.325882
6611.000000;0.326391
6610.000000;0.327000
6609.000000;0.327639
6608.000000;0.328238
6607.000000;0.328784
6606.000000;0.329310
6605.000000;0.329793
6604.000000;0.330144
6603.000000;0.330338
6602.000000;0.330506
6601.000000;0.330826
6600.000000;0.331340
6599.000000;0.331944
6598.000000;0.332519
6597.000000;0.333019
6596.000000;0.333443
6595.000000;0.333821
6594.000000;0.334212
6593.000000;0.334654
6592.000000;0.335097
6591.000000;0.335459
6590.000000;0.335760
6589.000000;0.336140
6588.000000;0.336716
6587.000000;0.337457
6586.000000;0.338216
6585.000000;0.338860
6584.000000;0.339352
6583.000000;0.339761
6582.000000;0.340195
6581.000000;0.340709
6580.000000;0.341263
6579.000000;0.341783
6578.000000;0.342241
6577.000000;0.342661
6576.000000;0.343055
6575.000000;0.343414
6574.000000;0.343738
6573.000000;0.344035
6572.000000;0.344307
6571.000000;0.344586
6570.000000;0.344958
6569.000000;0.345493
6568.000000;0.346137
6567.000000;0.346735
6566.000000;0.347185
6565.000000;0.347536
6564.000000;0.347910
6563.000000;0.348364
6562.000000;0.348863
6561.000000;0.349353
6560.000000;0.349840
6559.000000;0.350376
6558.000000;0.350973
6557.000000;0.351541
6556.000000;0.351968
6555.000000;0.352255
6554.000000;0.352539
6553.000000;0.352939
6552.000000;0.353423
6551.000000;0.353866
6550.000000;0.354203
6549.000000;0.354486
6548.000000;0.354804
6547.000000;0.355204
6546.000000;0.355679
6545.000000;0.356182
6544.000000;0.356643
6543.000000;0.357024
6542.000000;0.357351
6541.000000;0.357675
6540.000000;0.358008
6539.000000;0.358327
6538.000000;0.358644
6537.000000;0.359015
6536.000000;0.359476
6535.000000;0.360000
6534.000000;0.360523
6533.000000;0.360990
6532.000000;0.361374
6531.000000;0.361669
6530.000000;0.361902
6529.000000;0.362138
6528.000000;0.362466
6527.000000;0.362955
6526.000000;0.363581
6525.000000;0.364200
6524.000000;0.364643
6523.000000;0.364857
6522.000000;0.364944
6521.000000;0.365046
6520.000000;0.365240
6519.000000;0.365536
6518.000000;0.365928
6517.000000;0.366384
6516.000000;0.366832
6515.000000;0.367215
6514.000000;0.367541
6513.000000;0.367859
6512.000000;0.368212
6511.000000;0.368628
6510.000000;0.369112
6509.000000;0.369614
6508.000000;0.370039
6507.000000;0.370336
6506.000000;0.370563
6505.000000;0.370820
6504.000000;0.371155
6503.000000;0.371565
6502.000000;0.372020
6501.000000;0.372456
6500.000000;0.372791
6499.000000;0.373027
6498.000000;0.373275
6497.000000;0.373624
6496.000000;0.374021
6495.000000;0.374349
6494.000000;0.374596
6493.000000;0.374848
6492.000000;0.375154
6491.000000;0.375477
6490.000000;0.375777
6489.000000;0.376064
6488.000000;0.376363
6487.000000;0.376701
6486.000000;0.377112
6485.000000;0.377585
6484.000000;0.378028
6483.000000;0.378352
6482.000000;0.378587
6481.000000;0.378836
6480.000000;0.379131
6479.000000;0.379426
6478.000000;0.379714
6477.000000;0.380055
6476.000000;0.380450
6475.000000;0.380798
6474.000000;0.381030
6473.000000;0.381202
6472.000000;0.381419
6471.000000;0.381708
6470.000000;0.382033
6469.000000;0.382360
6468.000000;0.382679
6467.000000;0.382979
6466.000000;0.383260
6465.000000;0.383533
6464.000000;0.383799
6463.000000;0.384049
6462.000000;0.384296
6461.000000;0.384568
6460.000000;0.384856
6459.000000;0.385127
6458.000000;0.385392
6457.000000;0.385710
6456.000000;0.386090
6455.000000;0.386438
6454.000000;0.386659
6453.000000;0.386765
6452.000000;0.386866
6451.000000;0.387066
6450.000000;0.387396
6449.000000;0.387816
6448.000000;0.388234
6447.000000;0.388573
6446.000000;0.388823
6445.000000;0.389040
6444.000000;0.389265
6443.000000;0.389480
6442.000000;0.389660
6441.000000;0.389824
6440.000000;0.390016
6439.000000;0.390255
6438.000000;0.390530
6437.000000;0.390828
6436.000000;0.391146
6435.000000;0.391476
6434.000000;0.391802
6433.000000;0.392086
6432.000000;0.392288
6431.000000;0.392399
6430.000000;0.392485
6429.000000;0.392640
6428.000000;0.392905
6427.000000;0.393246
6426.000000;0.393614
6425.000000;0.393976
6424.000000;0.394297
6423.000000;0.394530
6422.000000;0.394672
6421.000000;0.394776
6420.000000;0.394901
6419.000000;0.395069
6418.000000;0.395281
6417.000000;0.395532
6416.000000;0.395796
6415.000000;0.396021
6414.000000;0.396185
6413.000000;0.396320
6412.000000;0.396467
6411.000000;0.396641
6410.000000;0.396841
6409.000000;0.397073
6408.000000;0.397318
6407.000000;0.397530
6406.000000;0.397686
6405.000000;0.397824
6404.000000;0.398006
6403.000000;0.398250
6402.000000;0.398535
6401.000000;0.398843
6400.000000;0.399164
6399.000000;0.399472
6398.000000;0.399734
6397.000000;0.399938
6396.000000;0.400107
6395.000000;0.400266
6394.000000;0.400427
6393.000000;0.400576
6392.000000;0.400696
6391.000000;0.400784
6390.000000;0.400873
6389.000000;0.401006
6388.000000;0.401189
6387.000000;0.401392
6386.000000;0.401592
6385.000000;0.401800
6384.000000;0.402026
6383.000000;0.402251
6382.000000;0.402449
6381.000000;0.402619
6380.000000;0.402776
6379.000000;0.402936
6378.000000;0.403107
6377.000000;0.403289
6376.000000;0.403469
6375.000000;0.403638
6374.000000;0.403807
6373.000000;0.403998
6372.000000;0.404200
6371.000000;0.404381
6370.000000;0.404539
6369.000000;0.404708
6368.000000;0.404898
6367.000000;0.405067
6366.000000;0.405184
6365.000000;0.405279
6364.000000;0.405398
6363.000000;0.405530
6362.000000;0.405632
6361.000000;0.405694
6360.000000;0.405758
6359.000000;0.405864
6358.000000;0.406014
6357.000000;0.406186
6356.000000;0.406344
6355.000000;0.406465
6354.000000;0.406561
6353.000000;0.406683
6352.000000;0.406871
6351.000000;0.407107
6350.000000;0.407328
6349.000000;0.407490
6348.000000;0.407598
6347.000000;0.407680
6346.000000;0.407763
6345.000000;0.407868
6344.000000;0.407998
6343.000000;0.408124
6342.000000;0.408213
6341.000000;0.408264
6340.000000;0.408315
6339.000000;0.408405
6338.000000;0.408537
6337.000000;0.408680
6336.000000;0.408805
6335.000000;0.408898
6334.000000;0.408972
6333.000000;0.409055
6332.000000;0.409167
6331.000000;0.409293
6330.000000;0.409400
6329.000000;0.409464
6328.000000;0.409499
6327.000000;0.409546
6326.000000;0.409634
6325.000000;0.409755
6324.000000;0.409879
6323.000000;0.409997
6322.000000;0.410134
6321.000000;0.410310
6320.000000;0.410511
6319.000000;0.410699
6318.000000;0.410858
6317.000000;0.410999
6316.000000;0.411133
6315.000000;0.411247
6314.000000;0.411331
6313.000000;0.411386
6312.000000;0.411414
6311.000000;0.411417
6310.000000;0.411414
6309.000000;0.411446
6308.000000;0.411534
6307.000000;0.411661
6306.000000;0.411798
6305.000000;0.411932
6304.000000;0.412058
6303.000000;0.412160
6302.000000;0.412231
6301.000000;0.412291
6300.000000;0.412362
6299.000000;0.412434
6298.000000;0.412469
6297.000000;0.412451
6296.000000;0.412409
6295.000000;0.412389
6294.000000;0.412422
6293.000000;0.412503
6292.000000;0.412604
6291.000000;0.412694
6290.000000;0.412769
6289.000000;0.412858
6288.000000;0.412977
6287.000000;0.413102
6286.000000;0.413188
6285.000000;0.413223
6284.000000;0.413238
6283.000000;0.413267
6282.000000;0.413311
6281.000000;0.413354
6280.000000;0.413400
6279.000000;0.413466
6278.000000;0.413563
6277.000000;0.413678
6276.000000;0.413787
6275.000000;0.413883
6274.000000;0.413965
6273.000000;0.414037
6272.000000;0.414093
6271.000000;0.414133
6270.000000;0.414165
6269.000000;0.414192
6268.000000;0.414211
6267.000000;0.414225
6266.000000;0.414249
6265.000000;0.414300
6264.000000;0.414375
6263.000000;0.414448
6262.000000;0.414498
6261.000000;0.414522
6260.000000;0.414525
6259.000000;0.414520
6258.000000;0.414530
6257.000000;0.414567
6256.000000;0.414624
6255.000000;0.414679
6254.000000;0.414731
6253.000000;0.414792
6252.000000;0.414866
6251.000000;0.414936
6250.000000;0.414981
6249.000000;0.415001
6248.000000;0.414992
6247.000000;0.414956
6246.000000;0.414912
6245.000000;0.414897
6244.000000;0.414922
6243.000000;0.414955
6242.000000;0.414968
6241.000000;0.414981
6240.000000;0.415035
6239.000000;0.415123
6238.000000;0.415192
6237.000000;0.415206
6236.000000;0.415191
6235.000000;0.415205
6234.000000;0.415277
6233.000000;0.415386
6232.000000;0.415487
6231.000000;0.415543
6230.000000;0.415551
6229.000000;0.415539
6228.000000;0.415544
6227.000000;0.415572
6226.000000;0.415600
6225.000000;0.415603
6224.000000;0.415582
6223.000000;0.415556
6222.000000;0.415538
6221.000000;0.415535
6220.000000;0.415546
6219.000000;0.415562
6218.000000;0.415575
6217.000000;0.415588
6216.000000;0.415613
6215.000000;0.415658
6214.000000;0.415698
6213.000000;0.415697
6212.000000;0.415647
6211.000000;0.415591
6210.000000;0.415583
6209.000000;0.415650
6208.000000;0.415763
6207.000000;0.415868
6206.000000;0.415928
6205.000000;0.415945
6204.000000;0.415951
6203.000000;0.415971
6202.000000;0.415995
6201.000000;0.415988
6200.000000;0.415940
6199.000000;0.415883
6198.000000;0.415868
6197.000000;0.415913
6196.000000;0.415990
6195.000000;0.416062
6194.000000;0.416115
6193.000000;0.416152
6192.000000;0.416168
6191.000000;0.416146
6190.000000;0.416077
6189.000000;0.415980
6188.000000;0.415892
6187.000000;0.415850
6186.000000;0.415853
6185.000000;0.415875
6184.000000;0.415886
6183.000000;0.415887
6182.000000;0.415887
6181.000000;0.415888
6180.000000;0.415879
6179.000000;0.415864
6178.000000;0.415858
6177.000000;0.415860
6176.000000;0.415849
6175.000000;0.415815
6174.000000;0.415784
6173.000000;0.415786
6172.000000;0.415823
6171.000000;0.415868
6170.000000;0.415892
6169.000000;0.415876
6168.000000;0.415819
6167.000000;0.415746
6166.000000;0.415702
6165.000000;0.415711
6164.000000;0.415759
6163.000000;0.415813
6162.000000;0.415847
6161.000000;0.415854
6160.000000;0.415832
6159.000000;0.415793
6158.000000;0.415768
6157.000000;0.415774
6156.000000;0.415788
6155.000000;0.415776
6154.000000;0.415743
6153.000000;0.415728
6152.000000;0.415748
6151.000000;0.415783
6150.000000;0.415810
6149.000000;0.415828
6148.000000;0.415839
6147.000000;0.415832
6146.000000;0.415800
6145.000000;0.415756
6144.000000;0.415713
6143.000000;0.415671
6142.000000;0.415620
6141.000000;0.415567
6140.000000;0.415527
6139.000000;0.415513
6138.000000;0.415519
6137.000000;0.415526
6136.000000;0.415517
6135.000000;0.415499
6134.000000;0.415503
6133.000000;0.415548
6132.000000;0.415609
6131.000000;0.415635
6130.000000;0.415604
6129.000000;0.415540
6128.000000;0.415484
6127.000000;0.415456
6126.000000;0.415449
6125.000000;0.415451
6124.000000;0.415453
6123.000000;0.415448
6122.000000;0.415443
6121.000000;0.415452
6120.000000;0.415480
6119.000000;0.415507
6118.000000;0.415503
6117.000000;0.415455
6116.000000;0.415382
6115.000000;0.415323
6114.000000;0.415308
6113.000000;0.415332
6112.000000;0.415360
6111.000000;0.415351
6110.000000;0.415291
6109.000000;0.415204
6108.000000;0.415130
6107.000000;0.415094
6106.000000;0.415098
6105.000000;0.415123
6104.000000;0.415145
6103.000000;0.415148
6102.000000;0.415138
6101.000000;0.415131
6100.000000;0.415143
6099.000000;0.415178
6098.000000;0.415229
6097.000000;0.415269
6096.000000;0.415273
6095.000000;0.415232
6094.000000;0.415168
6093.000000;0.415113
6092.000000;0.415078
6091.000000;0.415060
6090.000000;0.415055
6089.000000;0.415060
6088.000000;0.415070
6087.000000;0.415077
6086.000000;0.415079
6085.000000;0.415077
6084.000000;0.415067
6083.000000;0.415047
6082.000000;0.415027
6081.000000;0.415025
6080.000000;0.415047
6079.000000;0.415077
6078.000000;0.415094
6077.000000;0.415086
6076.000000;0.415044
6075.000000;0.414967
6074.000000;0.414873
6073.000000;0.414802
6072.000000;0.414785
6071.000000;0.414818
6070.000000;0.414861
6069.000000;0.414866
6068.000000;0.414810
6067.000000;0.414718
6066.000000;0.414635
6065.000000;0.414588
6064.000000;0.414573
6063.000000;0.414583
6062.000000;0.414621
6061.000000;0.414690
6060.000000;0.414767
6059.000000;0.414826
6058.000000;0.414856
6057.000000;0.414867
6056.000000;0.414862
6055.000000;0.414832
6054.000000;0.414777
6053.000000;0.414710
6052.000000;0.414641
6051.000000;0.414577
6050.000000;0.414535
6049.000000;0.414540
6048.000000;0.414599
6047.000000;0.414691
6046.000000;0.414772
6045.000000;0.414802
6044.000000;0.414769
6043.000000;0.414697
6042.000000;0.414636
6041.000000;0.414616
6040.000000;0.414618
6039.000000;0.414606
6038.000000;0.414578
6037.000000;0.414554
6036.000000;0.414536
6035.000000;0.414496
6034.000000;0.414427
6033.000000;0.414370
6032.000000;0.414376
6031.000000;0.414442
6030.000000;0.414513
6029.000000;0.414546
6028.000000;0.414541
6027.000000;0.414529
6026.000000;0.414525
6025.000000;0.414513
6024.000000;0.414470
6023.000000;0.414406
6022.000000;0.414366
6021.000000;0.414391
6020.000000;0.414473
6019.000000;0.414566
6018.000000;0.414623
6017.000000;0.414631
6016.000000;0.414601
6015.000000;0.414555
6014.000000;0.414515
6013.000000;0.414503
6012.000000;0.414529
6011.000000;0.414582
6010.000000;0.414633
6009.000000;0.414658
6008.000000;0.414660
6007.000000;0.414659
6006.000000;0.414669
6005.000000;0.414671
6004.000000;0.414623
6003.000000;0.414512
6002.000000;0.414380
6001.000000;0.414290
6000.000000;0.414275
5999.000000;0.414324
5998.000000;0.414402
5997.000000;0.414475
5996.000000;0.414512
5995.000000;0.414500
5994.000000;0.414458
5993.000000;0.414427
5992.000000;0.414431
5991.000000;0.414454
5990.000000;0.414464
5989.000000;0.414443
5988.000000;0.414395
5987.000000;0.414344
5986.000000;0.414327
5985.000000;0.414370
5984.000000;0.414467
5983.000000;0.414578
5982.000000;0.414656
5981.000000;0.414678
5980.000000;0.414660
5979.000000;0.414631
5978.000000;0.414616
5977.000000;0.414612
5976.000000;0.414601
5975.000000;0.414581
5974.000000;0.414580
5973.000000;0.414632
5972.000000;0.414725
5971.000000;0.414806
5970.000000;0.414833
5969.000000;0.414813
5968.000000;0.414793
5967.000000;0.414810
5966.000000;0.414864
5965.000000;0.414920
5964.000000;0.414944
5963.000000;0.414931
5962.000000;0.414910
5961.000000;0.414897
5960.000000;0.414879
5959.000000;0.414838
5958.000000;0.414786
5957.000000;0.414752
5956.000000;0.414740
5955.000000;0.414734
5954.000000;0.414723
5953.000000;0.414714
5952.000000;0.414714
5951.000000;0.414716
5950.000000;0.414722
5949.000000;0.414752
5948.000000;0.414812
5947.000000;0.414881
5946.000000;0.414932
5945.000000;0.414963
5944.000000;0.414998
5943.000000;0.415053
5942.000000;0.415116
5941.000000;0.415159
5940.000000;0.415163
5939.000000;0.415138
5938.000000;0.415124
5937.000000;0.415151
5936.000000;0.415216
5935.000000;0.415286
5934.000000;0.415330
5933.000000;0.415347
5932.000000;0.415353
5931.000000;0.415360
5930.000000;0.415375
5929.000000;0.415397
5928.000000;0.415422
5927.000000;0.415443
5926.000000;0.415468
5925.000000;0.415511
5924.000000;0.415579
5923.000000;0.415655
5922.000000;0.415722
5921.000000;0.415766
5920.000000;0.415783
5919.000000;0.415771
5918.000000;0.415734
5917.000000;0.415682
5916.000000;0.415626
5915.000000;0.415572
5914.000000;0.415533
5913.000000;0.415528
5912.000000;0.415563
5911.000000;0.415610
5910.000000;0.415628
5909.000000;0.415600
5908.000000;0.415546
5907.000000;0.415515
5906.000000;0.415540
5905.000000;0.415612
5904.000000;0.415688
5903.000000;0.415730
5902.000000;0.415736
5901.000000;0.415731
5900.000000;0.415725
5899.000000;0.415704
5898.000000;0.415660
5897.000000;0.415619
5896.000000;0.415629
5895.000000;0.415710
5894.000000;0.415831
5893.000000;0.415927
5892.000000;0.415951
5891.000000;0.415905
5890.000000;0.415824
5889.000000;0.415746
5888.000000;0.415690
5887.000000;0.415664
5886.000000;0.415663
5885.000000;0.415669
5884.000000;0.415654
5883.000000;0.415614
5882.000000;0.415571
5881.000000;0.415559
5880.000000;0.415596
5879.000000;0.415682
5878.000000;0.415794
5877.000000;0.415890
5876.000000;0.415935
5875.000000;0.415935
5874.000000;0.415933
5873.000000;0.415963
5872.000000;0.416011
5871.000000;0.416042
5870.000000;0.416044
5869.000000;0.416029
5868.000000;0.416003
5867.000000;0.415963
5866.000000;0.415928
5865.000000;0.415931
5864.000000;0.415976
5863.000000;0.416033
5862.000000;0.416069
5861.000000;0.416075
5860.000000;0.416054
5859.000000;0.416007
5858.000000;0.415950
5857.000000;0.415910
5856.000000;0.415905
5855.000000;0.415918
5854.000000;0.415936
5853.000000;0.415971
5852.000000;0.416050
5851.000000;0.416164
5850.000000;0.416263
5849.000000;0.416304
5848.000000;0.416296
5847.000000;0.416286
5846.000000;0.416309
5845.000000;0.416347
5844.000000;0.416361
5843.000000;0.416344
5842.000000;0.416334
5841.000000;0.416364
5840.000000;0.416416
5839.000000;0.416439
5838.000000;0.416411
5837.000000;0.416354
5836.000000;0.416307
5835.000000;0.416297
5834.000000;0.416333
5833.000000;0.416405
5832.000000;0.416486
5831.000000;0.416546
5830.000000;0.416583
5829.000000;0.416612
5828.000000;0.416637
5827.000000;0.416659
5826.000000;0.416691
5825.000000;0.416742
5824.000000;0.416786
5823.000000;0.416783
5822.000000;0.416735
5821.000000;0.416702
5820.000000;0.416726
5819.000000;0.416785
5818.000000;0.416830
5817.000000;0.416849
5816.000000;0.416867
5815.000000;0.416904
5814.000000;0.416959
5813.000000;0.417021
5812.000000;0.417074
5811.000000;0.417100
5810.000000;0.417091
5809.000000;0.417069
5808.000000;0.417063
5807.000000;0.417077
5806.000000;0.417089
5805.000000;0.417084
5804.000000;0.417065
5803.000000;0.417042
5802.000000;0.417018
5801.000000;0.417004
5800.000000;0.417014
5799.000000;0.417050
5798.000000;0.417111
5797.000000;0.417190
5796.000000;0.417281
5795.000000;0.417366
5794.000000;0.417418
5793.000000;0.417429
5792.000000;0.417411
5791.000000;0.417383
5790.000000;0.417362
5789.000000;0.417365
5788.000000;0.417410
5787.000000;0.417495
5786.000000;0.417587
5785.000000;0.417640
5784.000000;0.417630
5783.000000;0.417578
5782.000000;0.417523
5781.000000;0.417496
5780.000000;0.417498
5779.000000;0.417513
5778.000000;0.417529
5777.000000;0.417536
5776.000000;0.417529
5775.000000;0.417512
5774.000000;0.417503
5773.000000;0.417525
5772.000000;0.417573
5771.000000;0.417615
5770.000000;0.417620
5769.000000;0.417595
5768.000000;0.417580
5767.000000;0.417605
5766.000000;0.417665
5765.000000;0.417728
5764.000000;0.417757
5763.000000;0.417729
5762.000000;0.417644
5761.000000;0.417530
5760.000000;0.417429
5759.000000;0.417367
5758.000000;0.417339
5757.000000;0.417323
5756.000000;0.417308
5755.000000;0.417304
5754.000000;0.417319
5753.000000;0.417353
5752.000000;0.417400
5751.000000;0.417455
5750.000000;0.417510
5749.000000;0.417544
5748.000000;0.417537
5747.000000;0.417492
5746.000000;0.417443
5745.000000;0.417421
5744.000000;0.417426
5743.000000;0.417433
5742.000000;0.417429
5741.000000;0.417422
5740.000000;0.417422
5739.000000;0.417425
5738.000000;0.417409
5737.000000;0.417369
5736.000000;0.417321
5735.000000;0.417295
5734.000000;0.417303
5733.000000;0.417334
5732.000000;0.417367
5731.000000;0.417385
5730.000000;0.417378
5729.000000;0.417334
5728.000000;0.417255
5727.000000;0.417166
5726.000000;0.417109
5725.000000;0.417107
5724.000000;0.417147
5723.000000;0.417191
5722.000000;0.417213
5721.000000;0.417218
5720.000000;0.417213
5719.000000;0.417188
5718.000000;0.417120
5717.000000;0.417007
5716.000000;0.416889
5715.000000;0.416825
5714.000000;0.416832
5713.000000;0.416876
5712.000000;0.416914
5711.000000;0.416927
5710.000000;0.416911
5709.000000;0.416863
5708.000000;0.416796
5707.000000;0.416741
5706.000000;0.416721
5705.000000;0.416711
5704.000000;0.416680
5703.000000;0.416644
5702.000000;0.416653
5701.000000;0.416725
5700.000000;0.416825
5699.000000;0.416911
5698.000000;0.416968
5697.000000;0.417002
5696.000000;0.416997
5695.000000;0.416943
5694.000000;0.416866
5693.000000;0.416808
5692.000000;0.416797
5691.000000;0.416837
5690.000000;0.416908
5689.000000;0.416973
5688.000000;0.416999
5687.000000;0.416988
5686.000000;0.416967
5685.000000;0.416956
5684.000000;0.416944
5683.000000;0.416929
5682.000000;0.416921
5681.000000;0.416913
5680.000000;0.416871
5679.000000;0.416787
5678.000000;0.416704
5677.000000;0.416667
5676.000000;0.416674
5675.000000;0.416696
5674.000000;0.416739
5673.000000;0.416821
5672.000000;0.416930
5671.000000;0.417019
5670.000000;0.417054
5669.000000;0.417039
5668.000000;0.416998
5667.000000;0.416970
5666.000000;0.416992
5665.000000;0.417060
5664.000000;0.417119
5663.000000;0.417112
5662.000000;0.417055
5661.000000;0.417016
5660.000000;0.417045
5659.000000;0.417141
5658.000000;0.417279
5657.000000;0.417423
5656.000000;0.417532
5655.000000;0.417587
5654.000000;0.417623
5653.000000;0.417679
5652.000000;0.417736
5651.000000;0.417738
5650.000000;0.417685
5649.000000;0.417649
5648.000000;0.417689
5647.000000;0.417778
5646.000000;0.417860
5645.000000;0.417921
5644.000000;0.417994
5643.000000;0.418104
5642.000000;0.418245
5641.000000;0.418395
5640.000000;0.418522
5639.000000;0.418601
5638.000000;0.418639
5637.000000;0.418680
5636.000000;0.418757
5635.000000;0.418854
5634.000000;0.418936
5633.000000;0.418999
5632.000000;0.419073
5631.000000;0.419180
5630.000000;0.419301
5629.000000;0.419403
5628.000000;0.419471
5627.000000;0.419526
5626.000000;0.419602
5625.000000;0.419707
5624.000000;0.419821
5623.000000;0.419918
5622.000000;0.419998
5621.000000;0.420081
5620.000000;0.420176
5619.000000;0.420273
5618.000000;0.420371
5617.000000;0.420495
5616.000000;0.420662
5615.000000;0.420858
5614.000000;0.421031
5613.000000;0.421143
5612.000000;0.421201
5611.000000;0.421260
5610.000000;0.421382
5609.000000;0.421588
5608.000000;0.421834
5607.000000;0.422052
5606.000000;0.422200
5605.000000;0.422287
5604.000000;0.422345
5603.000000;0.422404
5602.000000;0.422494
5601.000000;0.422631
5600.000000;0.422803
5599.000000;0.422970
5598.000000;0.423104
5597.000000;0.423222
5596.000000;0.423369
5595.000000;0.423562
5594.000000;0.423770
5593.000000;0.423937
5592.000000;0.424046
5591.000000;0.424135
5590.000000;0.424259
5589.000000;0.424434
5588.000000;0.424613
5587.000000;0.424743
5586.000000;0.424826
5585.000000;0.424919
5584.000000;0.425074
5583.000000;0.425282
5582.000000;0.425488
5581.000000;0.425642
5580.000000;0.425747
5579.000000;0.425841
5578.000000;0.425956
5577.000000;0.426090
5576.000000;0.426231
5575.000000;0.426376
5574.000000;0.426531
5573.000000;0.426688
5572.000000;0.426835
5571.000000;0.426968
5570.000000;0.427093
5569.000000;0.427204
5568.000000;0.427303
5567.000000;0.427424
5566.000000;0.427614
5565.000000;0.427867
5564.000000;0.428105
5563.000000;0.428252
5562.000000;0.428309
5561.000000;0.428336
5560.000000;0.428384
5559.000000;0.428469
5558.000000;0.428591
5557.000000;0.428737
5556.000000;0.428889
5555.000000;0.429037
5554.000000;0.429195
5553.000000;0.429361
5552.000000;0.429494
5551.000000;0.429559
5550.000000;0.429588
5549.000000;0.429654
5548.000000;0.429789
5547.000000;0.429958
5546.000000;0.430113
5545.000000;0.430249
5544.000000;0.430379
5543.000000;0.430498
5542.000000;0.430592
5541.000000;0.430666
5540.000000;0.430744
5539.000000;0.430844
5538.000000;0.430959
5537.000000;0.431067
5536.000000;0.431146
5535.000000;0.431196
5534.000000;0.431240
5533.000000;0.431309
5532.000000;0.431405
5531.000000;0.431505
5530.000000;0.431594
5529.000000;0.431688
5528.000000;0.431817
5527.000000;0.431992
5526.000000;0.432198
5525.000000;0.432400
5524.000000;0.432561
5523.000000;0.432664
5522.000000;0.432715
5521.000000;0.432738
5520.000000;0.432765
5519.000000;0.432820
5518.000000;0.432911
5517.000000;0.433023
5516.000000;0.433128
5515.000000;0.433209
5514.000000;0.433271
5513.000000;0.433324
5512.000000;0.433380
5511.000000;0.433459
5510.000000;0.433587
5509.000000;0.433764
5508.000000;0.433953
5507.000000;0.434116
5506.000000;0.434242
5505.000000;0.434332
5504.000000;0.434375
5503.000000;0.434375
5502.000000;0.434376
5501.000000;0.434431
5500.000000;0.434550
5499.000000;0.434683
5498.000000;0.434790
5497.000000;0.434886
5496.000000;0.435022
5495.000000;0.435212
5494.000000;0.435416
5493.000000;0.435567
5492.000000;0.435642
5491.000000;0.435676
5490.000000;0.435712
5489.000000;0.435751
5488.000000;0.435771
5487.000000;0.435781
5486.000000;0.435827
5485.000000;0.435934
5484.000000;0.436077
5483.000000;0.436224
5482.000000;0.436367
5481.000000;0.436500
5480.000000;0.436591
5479.000000;0.436640
5478.000000;0.436709
5477.000000;0.436861
5476.000000;0.437068
5475.000000;0.437229
5474.000000;0.437292
5473.000000;0.437301
5472.000000;0.437328
5471.000000;0.437394
5470.000000;0.437482
5469.000000;0.437572
5468.000000;0.437662
5467.000000;0.437761
5466.000000;0.437877
5465.000000;0.438012
5464.000000;0.438167
5463.000000;0.438340
5462.000000;0.438518
5461.000000;0.438665
5460.000000;0.438747
5459.000000;0.438785
5458.000000;0.438856
5457.000000;0.439013
5456.000000;0.439227
5455.000000;0.439419
5454.000000;0.439545
5453.000000;0.439630
5452.000000;0.439733
5451.000000;0.439881
5450.000000;0.440055
5449.000000;0.440225
5448.000000;0.440377
5447.000000;0.440510
5446.000000;0.440626
5445.000000;0.440735
5444.000000;0.440859
5443.000000;0.441015
5442.000000;0.441183
5441.000000;0.441320
5440.000000;0.441404
5439.000000;0.441471
5438.000000;0.441577
5437.000000;0.441735
5436.000000;0.441916
5435.000000;0.442092
5434.000000;0.442274
5433.000000;0.442493
5432.000000;0.442759
5431.000000;0.443061
5430.000000;0.443383
5429.000000;0.443701
5428.000000;0.443989
5427.000000;0.444240
5426.000000;0.444481
5425.000000;0.444738
5424.000000;0.444988
5423.000000;0.445187
5422.000000;0.445343
5421.000000;0.445516
5420.000000;0.445740
5419.000000;0.445978
5418.000000;0.446176
5417.000000;0.446332
5416.000000;0.446486
5415.000000;0.446678
5414.000000;0.446917
5413.000000;0.447192
5412.000000;0.447492
5411.000000;0.447815
5410.000000;0.448160
5409.000000;0.448514
5408.000000;0.448857
5407.000000;0.449184
5406.000000;0.449521
5405.000000;0.449908
5404.000000;0.450360
5403.000000;0.450847
5402.000000;0.451309
5401.000000;0.451702
5400.000000;0.452033
5399.000000;0.452349
5398.000000;0.452706
5397.000000;0.453133
5396.000000;0.453603
5395.000000;0.454057
5394.000000;0.454462
5393.000000;0.454830
5392.000000;0.455197
5391.000000;0.455602
5390.000000;0.456081
5389.000000;0.456646
5388.000000;0.457269
5387.000000;0.457884
5386.000000;0.458437
5385.000000;0.458929
5384.000000;0.459417
5383.000000;0.459964
5382.000000;0.460580
5381.000000;0.461228
5380.000000;0.461867
5379.000000;0.462500
5378.000000;0.463180
5377.000000;0.463955
5376.000000;0.464811
5375.000000;0.465677
5374.000000;0.466491
5373.000000;0.467245
5372.000000;0.467982
5371.000000;0.468754
5370.000000;0.469583
5369.000000;0.470454
5368.000000;0.471356
5367.000000;0.472319
5366.000000;0.473378
5365.000000;0.474493
5364.000000;0.475578
5363.000000;0.476598
5362.000000;0.477625
5361.000000;0.478730
5360.000000;0.479886
5359.000000;0.481031
5358.000000;0.482175
5357.000000;0.483374
5356.000000;0.484617
5355.000000;0.485822
5354.000000;0.486957
5353.000000;0.488092
5352.000000;0.489315
5351.000000;0.490648
5350.000000;0.492060
5349.000000;0.493507
5348.000000;0.494939
5347.000000;0.496331
5346.000000;0.497728
5345.000000;0.499220
5344.000000;0.500850
5343.000000;0.502576
5342.000000;0.504303
5341.000000;0.505923
5340.000000;0.507382
5339.000000;0.508765
5338.000000;0.510296
5337.000000;0.512142
5336.000000;0.514224
5335.000000;0.516316
5334.000000;0.518261
5333.000000;0.520031
5332.000000;0.521668
5331.000000;0.523250
5330.000000;0.524848
5329.000000;0.526395
5328.000000;0.527686
5327.000000;0.528624
5326.000000;0.529386
5325.000000;0.530170
5324.000000;0.530906
5323.000000;0.531408
5322.000000;0.531655
5321.000000;0.531679
5320.000000;0.531386
5319.000000;0.530704
5318.000000;0.529760
5317.000000;0.528596
5316.000000;0.526921
5315.000000;0.524443
5314.000000;0.521147
5313.000000;0.516875
5312.000000;0.511074
5311.000000;0.503527
5310.000000;0.494826
5309.000000;0.485407
5308.000000;0.474626
5307.000000;0.461692
5306.000000;0.447041
5305.000000;0.431660
5304.000000;0.415602
5303.000000;0.398454
5302.000000;0.380900
5301.000000;0.364778
5300.000000;0.351950
5299.000000;0.344304
5298.000000;0.344953
5297.000000;0.357128
5296.000000;0.379850
5295.000000;0.408384
5294.000000;0.441632
5293.000000;0.482185
5292.000000;0.527660
5291.000000;0.571305
5290.000000;0.611310
5289.000000;0.649707
5288.000000;0.684064
5287.000000;0.710785
5286.000000;0.733878
5285.000000;0.759766
5284.000000;0.786838
5283.000000;0.809664
5282.000000;0.829529
5281.000000;0.850160
5280.000000;0.867690
5279.000000;0.876649
5278.000000;0.881729
5277.000000;0.891461
5276.000000;0.904819
5275.000000;0.914531
5274.000000;0.919734
5273.000000;0.925067
5272.000000;0.931194
5271.000000;0.936315
5270.000000;0.942367
5269.000000;0.950591
5268.000000;0.956177
5267.000000;0.956107
5266.000000;0.956363
5265.000000;0.961764
5264.000000;0.966027
5263.000000;0.962511
5262.000000;0.957254
5261.000000;0.958987
5260.000000;0.964632
5259.000000;0.965284
5258.000000;0.961289
5257.000000;0.959963
5256.000000;0.962940
5255.000000;0.966575
5254.000000;0.969686
5253.000000;0.971692
5252.000000;0.968784
5251.000000;0.961766
5250.000000;0.960476
5249.000000;0.970408
5248.000000;0.982073
5247.000000;0.983140
5246.000000;0.976866
5245.000000;0.974851
5244.000000;0.978113
5243.000000;0.978612
5242.000000;0.974060
5241.000000;0.969102
5240.000000;0.965346
5239.000000;0.961838
5238.000000;0.961504
5237.000000;0.967102
5236.000000;0.973831
5235.000000;0.974712
5234.000000;0.971499
5233.000000;0.971050
5232.000000;0.973874
5231.000000;0.975719
5230.000000;0.977041
5229.000000;0.981239
5228.000000;0.985909
5227.000000;0.985350
5226.000000;0.979540
5225.000000;0.972054
5224.000000;0.963414
5223.000000;0.954086
5222.000000;0.948901
5221.000000;0.951245
5220.000000;0.956418
5219.000000;0.957666
5218.000000;0.955973
5217.000000;0.956075
5216.000000;0.957414
5215.000000;0.957289
5214.000000;0.958441
5213.000000;0.964552
5212.000000;0.972161
5211.000000;0.975938
5210.000000;0.978528
5209.000000;0.985661
5208.000000;0.994345
5207.000000;0.995432
5206.000000;0.987519
5205.000000;0.978271
5204.000000;0.972660
5203.000000;0.969743
5202.000000;0.968834
5201.000000;0.970482
5200.000000;0.972924
5199.000000;0.974554
5198.000000;0.977876
5197.000000;0.984526
5196.000000;0.989105
5195.000000;0.985609
5194.000000;0.977673
5193.000000;0.973685
5192.000000;0.975178
5191.000000;0.977789
5190.000000;0.980288
5189.000000;0.984505
5188.000000;0.988218
5187.000000;0.987237
5186.000000;0.984266
5185.000000;0.986772
5184.000000;0.996335
5183.000000;1.006787
5182.000000;1.012415
5181.000000;1.012482
5180.000000;1.007461
5179.000000;0.998064
5178.000000;0.987911
5177.000000;0.980824
5176.000000;0.976206
5175.000000;0.970984
5174.000000;0.965269
5173.000000;0.961938
5172.000000;0.961788
5171.000000;0.963631
5170.000000;0.967339
5169.000000;0.972359
5168.000000;0.975185
5167.000000;0.973268
5166.000000;0.969802
5165.000000;0.969536
5164.000000;0.972255
5163.000000;0.974789
5162.000000;0.976473
5161.000000;0.978001
5160.000000;0.978037
5159.000000;0.976481
5158.000000;0.978088
5157.000000;0.986494
5156.000000;0.996732
5155.000000;0.999454
5154.000000;0.992853
5153.000000;0.984395
5152.000000;0.980797
5151.000000;0.982658
5150.000000;0.986769
5149.000000;0.988511
5148.000000;0.984176
5147.000000;0.975523
5146.000000;0.969751
5145.000000;0.971487
5144.000000;0.977272
5143.000000;0.980433
5142.000000;0.979402
5141.000000;0.977660
5140.000000;0.977831
5139.000000;0.980402
5138.000000;0.985291
5137.000000;0.990669
5136.000000;0.992734
5135.000000;0.990326
5134.000000;0.987329
5133.000000;0.986870
5132.000000;0.986849
5131.000000;0.984783
5130.000000;0.982782
5129.000000;0.983260
5128.000000;0.984021
5127.000000;0.982576
5126.000000;0.981190
5125.000000;0.982333
5124.000000;0.983079
5123.000000;0.979673
5122.000000;0.974582
5121.000000;0.972939
5120.000000;0.974753
5119.000000;0.976084
5118.000000;0.975595
5117.000000;0.974717
5116.000000;0.973674
5115.000000;0.972371
5114.000000;0.972914
5113.000000;0.977036
5112.000000;0.983080
5111.000000;0.988938
5110.000000;0.995716
5109.000000;1.004472
5108.000000;1.011436
5107.000000;1.011608
5106.000000;1.005494
5105.000000;0.996959
5104.000000;0.987432
5103.000000;0.977048
5102.000000;0.968090
5101.000000;0.963052
5100.000000;0.961707
5099.000000;0.963439
5098.000000;0.969870
5097.000000;0.981507
5096.000000;0.993485
5095.000000;0.998325
5094.000000;0.993345
5093.000000;0.982126
5092.000000;0.970035
5091.000000;0.962030
5090.000000;0.961099
5089.000000;0.965652
5088.000000;0.971425
5087.000000;0.977571
5086.000000;0.986807
5085.000000;0.998024
5084.000000;1.004577
5083.000000;1.003590
5082.000000;1.000415
5081.000000;0.998983
5080.000000;0.995564
5079.000000;0.986923
5078.000000;0.977613
5077.000000;0.973269
5076.000000;0.973137
5075.000000;0.974379
5074.000000;0.977336
5073.000000;0.980715
5072.000000;0.978215
5071.000000;0.967752
5070.000000;0.957681
5069.000000;0.955977
5068.000000;0.959894
5067.000000;0.961843
5066.000000;0.960384
5065.000000;0.958803
5064.000000;0.957477
5063.000000;0.955117
5062.000000;0.953780
5061.000000;0.955195
5060.000000;0.955167
5059.000000;0.949383
5058.000000;0.942012
5057.000000;0.940607
5056.000000;0.945537
5055.000000;0.950472
5054.000000;0.951315
5053.000000;0.948723
5052.000000;0.943207
5051.000000;0.935152
5050.000000;0.928259
5049.000000;0.926225
5048.000000;0.927164
5047.000000;0.926549
5046.000000;0.924595
5045.000000;0.925135
5044.000000;0.928511
5043.000000;0.931500
5042.000000;0.932918
5041.000000;0.933366
5040.000000;0.930653
5039.000000;0.922315
5038.000000;0.912008
5037.000000;0.906722
5036.000000;0.908208
5035.000000;0.912168
5034.000000;0.914817
5033.000000;0.915329
5032.000000;0.912461
5031.000000;0.904923
5030.000000;0.895755
5029.000000;0.890769
5028.000000;0.891589
5027.000000;0.894147
5026.000000;0.894342
5025.000000;0.891674
5024.000000;0.887303
5023.000000;0.882366
5022.000000;0.878450
5021.000000;0.876276
5020.000000;0.873520
5019.000000;0.867249
5018.000000;0.858746
5017.000000;0.852364
5016.000000;0.849669
5015.000000;0.848072
5014.000000;0.845020
5013.000000;0.840327
5012.000000;0.834435
5011.000000;0.827611
5010.000000;0.821027
5009.000000;0.815981
5008.000000;0.811966
5007.000000;0.807721
5006.000000;0.803986
5005.000000;0.802378
5004.000000;0.801423
5003.000000;0.797217
5002.000000;0.788805
5001.000000;0.779900
5000.000000;0.774495
4999.000000;0.773195
4998.000000;0.773843
4997.000000;0.773729
4996.000000;0.771134
4995.000000;0.765998
4994.000000;0.759244
4993.000000;0.751434
4992.000000;0.742861
4991.000000;0.734459
4990.000000;0.727606
4989.000000;0.722795
4988.000000;0.719061
4987.000000;0.715395
4986.000000;0.711524
4985.000000;0.706371
4984.000000;0.698058
4983.000000;0.687244
4982.000000;0.678092
4981.000000;0.673609
4980.000000;0.671670
4979.000000;0.667703
4978.000000;0.660400
4977.000000;0.652130
4976.000000;0.644446
4975.000000;0.636454
4974.000000;0.627447
4973.000000;0.618838
4972.000000;0.612686
4971.000000;0.609247
4970.000000;0.606139
4969.000000;0.599773
4968.000000;0.588562
4967.000000;0.575062
4966.000000;0.563823
4965.000000;0.556929
4964.000000;0.552562
4963.000000;0.548161
4962.000000;0.543308
4961.000000;0.538576
4960.000000;0.533404
4959.000000;0.526649
4958.000000;0.518077
4957.000000;0.508275
4956.000000;0.498280
4955.000000;0.489822
4954.000000;0.484166
4953.000000;0.479805
4952.000000;0.473120
4951.000000;0.462623
4950.000000;0.450805
4949.000000;0.440699
4948.000000;0.432611
4947.000000;0.425335
4946.000000;0.418497
4945.000000;0.412107
4944.000000;0.405356
4943.000000;0.397733
4942.000000;0.390240
4941.000000;0.383750
4940.000000;0.377138
4939.000000;0.368843
4938.000000;0.359420
4937.000000;0.350873
4936.000000;0.344085
4935.000000;0.338176
4934.000000;0.331783
4933.000000;0.324005
4932.000000;0.314784
4931.000000;0.305275
4930.000000;0.297050
4929.000000;0.290262
4928.000000;0.283372
4927.000000;0.275120
4926.000000;0.265708
4925.000000;0.255707
4924.000000;0.245459
4923.000000;0.236181
4922.000000;0.229769
4921.000000;0.226187
4920.000000;0.222574
4919.000000;0.216296
4918.000000;0.207725
4917.000000;0.198878
4916.000000;0.190678
4915.000000;0.182828
4914.000000;0.175094
4913.000000;0.167163
4912.000000;0.158125
4911.000000;0.147686
4910.000000;0.137320
4909.000000;0.128823
4908.000000;0.122222
4907.000000;0.116204
4906.000000;0.109984
4905.000000;0.103516
4904.000000;0.096618
4903.000000;0.089188
4902.000000;0.081697
4901.000000;0.074360
4900.000000;0.066314
4899.000000;0.056764
4898.000000;0.046605
4897.000000;0.037786
4896.000000;0.031146
4895.000000;0.025718
4894.000000;0.020007
4893.000000;0.013216
4892.000000;0.005467
4891.000000;-0.002418
4890.000000;-0.009388
4889.000000;-0.014915
4888.000000;-0.019210
4887.000000;-0.022657
4886.000000;-0.025540
4885.000000;-0.028584
4884.000000;-0.032887
4883.000000;-0.038592
4882.000000;-0.044242
4881.000000;-0.048275
4880.000000;-0.050849
4879.000000;-0.053554
4878.000000;-0.057543
4877.000000;-0.062646
4876.000000;-0.068147
4875.000000;-0.073429
4874.000000;-0.077694
4873.000000;-0.079964
4872.000000;-0.080068
4871.000000;-0.079313
4870.000000;-0.079466
4869.000000;-0.080951
4868.000000;-0.082542
4867.000000;-0.082985
4866.000000;-0.082455
4865.000000;-0.082169
4864.000000;-0.082956
4863.000000;-0.084453
4862.000000;-0.085587
4861.000000;-0.085551
4860.000000;-0.084308
4859.000000;-0.082542
4858.000000;-0.081193
4857.000000;-0.080706
4856.000000;-0.080548
4855.000000;-0.079575
4854.000000;-0.077128
4853.000000;-0.073771
4852.000000;-0.070687
4851.000000;-0.068355
4850.000000;-0.066113
4849.000000;-0.063199
4848.000000;-0.059873
4847.000000;-0.057022
4846.000000;-0.054860
4845.000000;-0.052705
4844.000000;-0.050133
4843.000000;-0.047597
4842.000000;-0.045478
4841.000000;-0.043137
4840.000000;-0.039599
4839.000000;-0.034918
4838.000000;-0.030240
4837.000000;-0.026595
4836.000000;-0.024109
4835.000000;-0.022288
4834.000000;-0.020519
4833.000000;-0.018291
4832.000000;-0.015462
4831.000000;-0.012450
4830.000000;-0.009789
4829.000000;-0.007414
4828.000000;-0.004725
4827.000000;-0.001392
4826.000000;0.002279
4825.000000;0.005891
4824.000000;0.009375
4823.000000;0.012689
4822.000000;0.015588
4821.000000;0.018063
4820.000000;0.020721
4819.000000;0.024243
4818.000000;0.028520
4817.000000;0.032702
4816.000000;0.036120
4815.000000;0.038897
4814.000000;0.041603
4813.000000;0.044536
4812.000000;0.047544
4811.000000;0.050431
4810.000000;0.053239
4809.000000;0.056137
4808.000000;0.059181
4807.000000;0.062325
4806.000000;0.065511
4805.000000;0.068650
4804.000000;0.071641
4803.000000;0.074494
4802.000000;0.077357
4801.000000;0.080290
4800.000000;0.083153
4799.000000;0.085852
4798.000000;0.088558
4797.000000;0.091398
4796.000000;0.094092
4795.000000;0.096261
4794.000000;0.098092
4793.000000;0.100273
4792.000000;0.103121
4791.000000;0.106141
4790.000000;0.108678
4789.000000;0.110711
4788.000000;0.112720
4787.000000;0.114991
4786.000000;0.117379
4785.000000;0.119689
4784.000000;0.121986
4783.000000;0.124447
4782.000000;0.127065
4781.000000;0.129624
4780.000000;0.131937
4779.000000;0.134087
4778.000000;0.136366
4777.000000;0.138924
4776.000000;0.141539
4775.000000;0.143886
4774.000000;0.145985
4773.000000;0.148185
4772.000000;0.150715
4771.000000;0.153428
4770.000000;0.156061
4769.000000;0.158498
4768.000000;0.160693
4767.000000;0.162535
4766.000000;0.163970
4765.000000;0.165147
4764.000000;0.166327
4763.000000;0.167736
4762.000000;0.169521
4761.000000;0.171720
4760.000000;0.174164
4759.000000;0.176570
4758.000000;0.178793
4757.000000;0.180864
4756.000000;0.182776
4755.000000;0.184457
4754.000000;0.186002
4753.000000;0.187695
4752.000000;0.189621
4751.000000;0.191466
4750.000000;0.192895
4749.000000;0.193980
4748.000000;0.195103
4747.000000;0.196537
4746.000000;0.198291
4745.000000;0.200217
4744.000000;0.202108
4743.000000;0.203806
4742.000000;0.205375
4741.000000;0.207078
4740.000000;0.209037
4739.000000;0.211027
4738.000000;0.212770
4737.000000;0.214305
4736.000000;0.215865
4735.000000;0.217525
4734.000000;0.219177
4733.000000;0.220780
4732.000000;0.222374
4731.000000;0.223895
4730.000000;0.225218
4729.000000;0.226401
4728.000000;0.227668
4727.000000;0.229099
4726.000000;0.230536
4725.000000;0.231828
4724.000000;0.232998
4723.000000;0.234096
4722.000000;0.235061
4721.000000;0.235864
4720.000000;0.236665
4719.000000;0.237692
4718.000000;0.238981
4717.000000;0.240363
4716.000000;0.241698
4715.000000;0.243052
4714.000000;0.244585
4713.000000;0.246300
4712.000000;0.247951
4711.000000;0.249241
4710.000000;0.250109
4709.000000;0.250784
4708.000000;0.251562
4707.000000;0.252583
4706.000000;0.253813
4705.000000;0.255150
4704.000000;0.256476
4703.000000;0.257673
4702.000000;0.258711
4701.000000;0.259712
4700.000000;0.260850
4699.000000;0.262164
4698.000000;0.263500
4697.000000;0.264656
4696.000000;0.265563
4695.000000;0.266343
4694.000000;0.267198
4693.000000;0.268243
4692.000000;0.269415
4691.000000;0.270545
4690.000000;0.271505
4689.000000;0.272281
4688.000000;0.272955
4687.000000;0.273671
4686.000000;0.274589
4685.000000;0.275747
4684.000000;0.276951
4683.000000;0.277903
4682.000000;0.278505
4681.000000;0.278969
4680.000000;0.279574
4679.000000;0.280387
4678.000000;0.281277
4677.000000;0.282140
4676.000000;0.283013
4675.000000;0.283995
4674.000000;0.285125
4673.000000;0.286325
4672.000000;0.287423
4671.000000;0.288269
4670.000000;0.288904
4669.000000;0.289561
4668.000000;0.290456
4667.000000;0.291584
4666.000000;0.292766
4665.000000;0.293837
4664.000000;0.294734
4663.000000;0.295429
4662.000000;0.295923
4661.000000;0.296304
4660.000000;0.296729
4659.000000;0.297315
4658.000000;0.298057
4657.000000;0.298873
4656.000000;0.299672
4655.000000;0.300381
4654.000000;0.300964
4653.000000;0.301469
4652.000000;0.302022
4651.000000;0.302738
4650.000000;0.303617
4649.000000;0.304536
4648.000000;0.305343
4647.000000;0.305985
4646.000000;0.306560
4645.000000;0.307217
4644.000000;0.307993
4643.000000;0.308738
4642.000000;0.309270
4641.000000;0.309585
4640.000000;0.309886
4639.000000;0.310396
4638.000000;0.311154
4637.000000;0.312001
4636.000000;0.312734
4635.000000;0.313266
4634.000000;0.313664
4633.000000;0.314086
4632.000000;0.314686
4631.000000;0.315508
4630.000000;0.316420
4629.000000;0.317198
4628.000000;0.317734
4627.000000;0.318135
4626.000000;0.318575
4625.000000;0.319056
4624.000000;0.319415
4623.000000;0.319589
4622.000000;0.319758
4621.000000;0.320148
4620.000000;0.320772
4619.000000;0.321451
4618.000000;0.322047
4617.000000;0.322565
4616.000000;0.323050
4615.000000;0.323527
4614.000000;0.324051
4613.000000;0.324703
4612.000000;0.325481
4611.000000;0.326242
4610.000000;0.326813
4609.000000;0.327118
4608.000000;0.327205
4607.000000;0.327214
4606.000000;0.327335
4605.000000;0.327702
4604.000000;0.328294
4603.000000;0.328959
4602.000000;0.329568
4601.000000;0.330111
4600.000000;0.330612
4599.000000;0.331050
4598.000000;0.331405
4597.000000;0.331722
4596.000000;0.332066
4595.000000;0.332444
4594.000000;0.332840
4593.000000;0.333278
4592.000000;0.333780
4591.000000;0.334274
4590.000000;0.334645
4589.000000;0.334884
4588.000000;0.335115
4587.000000;0.335445
4586.000000;0.335828
4585.000000;0.336130
4584.000000;0.336300
4583.000000;0.336441
4582.000000;0.336705
4581.000000;0.337154
4580.000000;0.337719
4579.000000;0.338250
4578.000000;0.338614
4577.000000;0.338787
4576.000000;0.338876
4575.000000;0.339031
4574.000000;0.339293
4573.000000;0.339553
4572.000000;0.339705
4571.000000;0.339801
4570.000000;0.339991
4569.000000;0.340314
4568.000000;0.340636
4567.000000;0.340837
4566.000000;0.340965
4565.000000;0.341147
4564.000000;0.341411
4563.000000;0.341683
4562.000000;0.341923
4561.000000;0.342173
4560.000000;0.342462
4559.000000;0.342752
4558.000000;0.343006
4557.000000;0.343264
4556.000000;0.343588
4555.000000;0.343975
4554.000000;0.344341
4553.000000;0.344607
4552.000000;0.344796
4551.000000;0.345014
4550.000000;0.345320
4549.000000;0.345622
4548.000000;0.345755
4547.000000;0.345670
4546.000000;0.345488
4545.000000;0.345376
4544.000000;0.345410
4543.000000;0.345590
4542.000000;0.345894
4541.000000;0.346259
4540.000000;0.346584
4539.000000;0.346812
4538.000000;0.346980
4537.000000;0.347145
4536.000000;0.347305
4535.000000;0.347432
4534.000000;0.347524
4533.000000;0.347568
4532.000000;0.347520
4531.000000;0.347412
4530.000000;0.347397
4529.000000;0.347601
4528.000000;0.347963
4527.000000;0.348317
4526.000000;0.348554
4525.000000;0.348639
4524.000000;0.348538
4523.000000;0.348276
4522.000000;0.348032
4521.000000;0.348009
4520.000000;0.348209
4519.000000;0.348438
4518.000000;0.348556
4517.000000;0.348589
4516.000000;0.348616
4515.000000;0.348680
4514.000000;0.348814
4513.000000;0.349038
4512.000000;0.349295
4511.000000;0.349509
4510.000000;0.349712
4509.000000;0.350014
4508.000000;0.350419
4507.000000;0.350789
4506.000000;0.351001
4505.000000;0.351060
4504.000000;0.351018
4503.000000;0.350909
4502.000000;0.350790
4501.000000;0.350743
4500.000000;0.350779
4499.000000;0.350854
4498.000000;0.351006
4497.000000;0.351329
4496.000000;0.351760
4495.000000;0.352018
4494.000000;0.351889
4493.000000;0.351496
4492.000000;0.351172
4491.000000;0.351131
4490.000000;0.351315
4489.000000;0.351511
4488.000000;0.351540
4487.000000;0.351381
4486.000000;0.351199
4485.000000;0.351217
4484.000000;0.351498
4483.000000;0.351889
4482.000000;0.352196
4481.000000;0.352358
4480.000000;0.352406
4479.000000;0.352332
4478.000000;0.352132
4477.000000;0.351897
4476.000000;0.351763
4475.000000;0.351763
4474.000000;0.351829
4473.000000;0.351951
4472.000000;0.352215
4471.000000;0.352665
4470.000000;0.353170
4469.000000;0.353502
4468.000000;0.353537
4467.000000;0.353354
4466.000000;0.353147
4465.000000;0.353047
4464.000000;0.353018
4463.000000;0.352934
4462.000000;0.352740
4461.000000;0.352537
4460.000000;0.352483
4459.000000;0.352616
4458.000000;0.352794
4457.000000;0.352825
4456.000000;0.352671
4455.000000;0.352491
4454.000000;0.352469
4453.000000;0.352623
4452.000000;0.352807
4451.000000;0.352890
4450.000000;0.352857
4449.000000;0.352730
4448.000000;0.352528
4447.000000;0.352319
4446.000000;0.352236
4445.000000;0.352334
4444.000000;0.352517
4443.000000;0.352682
4442.000000;0.352854
4441.000000;0.353071
4440.000000;0.353236
4439.000000;0.353213
4438.000000;0.353030
4437.000000;0.352842
4436.000000;0.352725
4435.000000;0.352670
4434.000000;0.352727
4433.000000;0.352960
4432.000000;0.353268
4431.000000;0.353440
4430.000000;0.353446
4429.000000;0.353480
4428.000000;0.353639
4427.000000;0.353748
4426.000000;0.353634
4425.000000;0.353412
4424.000000;0.353335
4423.000000;0.353455
4422.000000;0.353597
4421.000000;0.353613
4420.000000;0.353495
4419.000000;0.353270
4418.000000;0.352934
4417.000000;0.352537
4416.000000;0.352205
4415.000000;0.352014
4414.000000;0.351897
4413.000000;0.351729
4412.000000;0.351474
4411.000000;0.351195
4410.000000;0.350940
4409.000000;0.350659
4408.000000;0.350284
4407.000000;0.349854
4406.000000;0.349503
4405.000000;0.349306
4404.000000;0.349214
4403.000000;0.349154
4402.000000;0.349096
4401.000000;0.348957
4400.000000;0.348536
4399.000000;0.347703
4398.000000;0.346636
4397.000000;0.345744
4396.000000;0.345306
4395.000000;0.345233
4394.000000;0.345202
4393.000000;0.344964
4392.000000;0.344502
4391.000000;0.343956
4390.000000;0.343418
4389.000000;0.342824
4388.000000;0.342056
4387.000000;0.341126
4386.000000;0.340182
4385.000000;0.339324
4384.000000;0.338532
4383.000000;0.337813
4382.000000;0.337247
4381.000000;0.336780
4380.000000;0.336149
4379.000000;0.335211
4378.000000;0.334234
4377.000000;0.333588
4376.000000;0.333213
4375.000000;0.332633
4374.000000;0.331551
4373.000000;0.330180
4372.000000;0.328945
4371.000000;0.328023
4370.000000;0.327285
4369.000000;0.326518
4368.000000;0.325619
4367.000000;0.324645
4366.000000;0.323759
4365.000000;0.323075
4364.000000;0.322504
4363.000000;0.321801
4362.000000;0.320771
4361.000000;0.319437
4360.000000;0.318041
4359.000000;0.316898
4358.000000;0.316150
4357.000000;0.315579
4356.000000;0.314813
4355.000000;0.313798
4354.000000;0.312889
4353.000000;0.312288
4352.000000;0.311638
4351.000000;0.310471
4350.000000;0.308920
4349.000000;0.307584
4348.000000;0.306714
4347.000000;0.305884
4346.000000;0.304517
4345.000000;0.302473
4344.000000;0.300097
4343.000000;0.297980
4342.000000;0.296697
4341.000000;0.296413
4340.000000;0.296600
4339.000000;0.296384
4338.000000;0.295308
4337.000000;0.293579
4336.000000;0.291618
4335.000000;0.289712
4334.000000;0.288096
4333.000000;0.286893
4332.000000;0.285789
4331.000000;0.284171
4330.000000;0.281908
4329.000000;0.279719
4328.000000;0.278417
4327.000000;0.277943
4326.000000;0.277463
4325.000000;0.276351
4324.000000;0.274846
4323.000000;0.273713
4322.000000;0.273411
4321.000000;0.273580
4320.000000;0.273312
4319.000000;0.271968
4318.000000;0.269699
4317.000000;0.267084
4316.000000;0.264478
4315.000000;0.262053
4314.000000;0.260261
4313.000000;0.259628
4312.000000;0.259914
4311.000000;0.260037
4310.000000;0.259205
4309.000000;0.257743
4308.000000;0.256465
4307.000000;0.255612
4306.000000;0.254829
4305.000000;0.253942
4304.000000;0.253217
4303.000000;0.252845
4302.000000;0.252558
4301.000000;0.251896
4300.000000;0.250713
4299.000000;0.249403
4298.000000;0.248619
4297.000000;0.248609
4296.000000;0.248744
4295.000000;0.247997
4294.000000;0.246182
4293.000000;0.244477
4292.000000;0.244402
4291.000000;0.246311
4290.000000;0.249123
4289.000000;0.251488
4288.000000;0.252925
4287.000000;0.253728
4286.000000;0.254167
4285.000000;0.254176
4284.000000;0.253813
4283.000000;0.253657
4282.000000;0.254504
4281.000000;0.256731
4280.000000;0.260101
4279.000000;0.264096
4278.000000;0.268204
4277.000000;0.271885
4276.000000;0.274632
4275.000000;0.276357
4274.000000;0.277568
4273.000000;0.279043
4272.000000;0.281501
4271.000000;0.285399
4270.000000;0.290475
4269.000000;0.295572
4268.000000;0.299772
4267.000000;0.303847
4266.000000;0.309608
4265.000000;0.317437
4264.000000;0.325617
4263.000000;0.332777
4262.000000;0.339721
4261.000000;0.347715
4260.000000;0.356232
4259.000000;0.364013
4258.000000;0.371371
4257.000000;0.379565
4256.000000;0.388367
4255.000000;0.396129
4254.000000;0.402297
4253.000000;0.408130
4252.000000;0.414819
4251.000000;0.422550
4250.000000;0.431494
4249.000000;0.441971
4248.000000;0.453257
4247.000000;0.463496
4246.000000;0.471757
4245.000000;0.478996
4244.000000;0.486568
4243.000000;0.494905
4242.000000;0.503773
4241.000000;0.512736
4240.000000;0.521356
4239.000000;0.530027
4238.000000;0.540591
4237.000000;0.554787
4236.000000;0.571654
4235.000000;0.587421
4234.000000;0.598657
4233.000000;0.604938
4232.000000;0.608447
4231.000000;0.612193
4230.000000;0.618529
4229.000000;0.628111
4228.000000;0.639673
4227.000000;0.651399
4226.000000;0.662738
4225.000000;0.674400
4224.000000;0.686892
4223.000000;0.699993
4222.000000;0.713545
4221.000000;0.727533
4220.000000;0.741071
4219.000000;0.752437
4218.000000;0.760659
4217.000000;0.766634
4216.000000;0.772476
4215.000000;0.779958
4214.000000;0.789274
4213.000000;0.798929
4212.000000;0.807332
4211.000000;0.814787
4210.000000;0.823177
4209.000000;0.833667
4208.000000;0.845880
4207.000000;0.859194
4206.000000;0.872986
4205.000000;0.885248
4204.000000;0.893515
4203.000000;0.898445
4202.000000;0.903717
4201.000000;0.911391
4200.000000;0.920898
4199.000000;0.932949
4198.000000;0.950085
4197.000000;0.971878
4196.000000;0.992753
4195.000000;1.008183
4194.000000;1.020279
4193.000000;1.032090
4192.000000;1.040904
4191.000000;1.043249
4190.000000;1.042816
4189.000000;1.047206
4188.000000;1.058972
4187.000000;1.074259
4186.000000;1.089266
4185.000000;1.103388
4184.000000;1.116019
4183.000000;1.126188
4182.000000;1.136049
4181.000000;1.149844
4180.000000;1.168894
4179.000000;1.190141
4178.000000;1.208712
4177.000000;1.221051
4176.000000;1.227180
4175.000000;1.230520
4174.000000;1.233920
4173.000000;1.235430
4172.000000;1.231992
4171.000000;1.229103
4170.000000;1.240073
4169.000000;1.272416
4168.000000;1.317787
4167.000000;1.357055
4166.000000;1.377470
4165.000000;1.379558
4164.000000;1.368541
4163.000000;1.351327
4162.000000;1.336239
4161.000000;1.327909
4160.000000;1.325740
4159.000000;1.330877
4158.000000;1.350311
4157.000000;1.386877
4156.000000;1.426991
4155.000000;1.449285
4154.000000;1.451329
4153.000000;1.450172
4152.000000;1.456322
4151.000000;1.466643
4150.000000;1.475887
4149.000000;1.483357
4148.000000;1.488633
4147.000000;1.488569
4146.000000;1.482151
4145.000000;1.474491
4144.000000;1.474958
4143.000000;1.491639
4142.000000;1.526447
4141.000000;1.570153
4140.000000;1.597481
4139.000000;1.586934
4138.000000;1.558370
4137.000000;1.550490
4136.000000;1.575162
4135.000000;1.612707
4134.000000;1.637060
4133.000000;1.641768
4132.000000;1.639980
4131.000000;1.645446
4130.000000;1.658892
4129.000000;1.674593
4128.000000;1.687921
4127.000000;1.692715
4126.000000;1.682546
4125.000000;1.662826
4124.000000;1.650752
4123.000000;1.662687
4122.000000;1.698973
4121.000000;1.735309
4120.000000;1.745377
4119.000000;1.732560
4118.000000;1.723749
4117.000000;1.743686
4116.000000;1.795771
4115.000000;1.851636
4114.000000;1.869426
4113.000000;1.839691
4112.000000;1.780253
4111.000000;1.721778
4110.000000;1.689054
4109.000000;1.688478
4108.000000;1.719602
4107.000000;1.788115
4106.000000;1.897067
4105.000000;2.020950
4104.000000;2.079791
4103.000000;1.996501
4102.000000;1.885544
4101.000000;1.846740
4100.000000;1.877164
4099.000000;1.950384
4098.000000;2.025017
4097.000000;2.035138
4096.000000;1.978108
4095.000000;1.905674
4094.000000;1.861755
4093.000000;1.865711
4092.000000;1.899873
4091.000000;1.934433
4090.000000;1.959928
4089.000000;1.979127
4088.000000;1.976715
4087.000000;1.940501
4086.000000;1.887170
4085.000000;1.845232
4084.000000;1.824574
4083.000000;1.827179
4082.000000;1.864428
4081.000000;1.940527
4080.000000;2.025869
4079.000000;2.070628
4078.000000;2.071956
4077.000000;2.064857
4076.000000;2.057124
4075.000000;2.041288
4074.000000;2.034814
4073.000000;2.051878
4072.000000;2.063092
4071.000000;2.043967
4070.000000;2.003777
4069.000000;1.962682
4068.000000;1.953206
4067.000000;1.991913
4066.000000;2.067311
4065.000000;2.142124
4064.000000;2.154606
4063.000000;2.096063
4062.000000;2.047598
4061.000000;2.071287
4060.000000;2.166670
4059.000000;2.268849
4058.000000;2.298302
4057.000000;2.283766
4056.000000;2.270578
4055.000000;2.257359
4054.000000;2.276579
4053.000000;2.353607
4052.000000;2.389235
4051.000000;2.284845
4050.000000;2.162845
4049.000000;2.121768
4048.000000;2.151593
4047.000000;2.193844
4046.000000;2.222553
4045.000000;2.272636
4044.000000;2.360356
4043.000000;2.432329
4042.000000;2.440685
4041.000000;2.447820
4040.000000;2.452294
4039.000000;2.430652
4038.000000;2.437231
4037.000000;2.475257
4036.000000;2.494159
4035.000000;2.422319
4034.000000;2.301189
4033.000000;2.266536
4032.000000;2.372501
4031.000000;2.586670
4030.000000;2.525541
4029.000000;2.285620
4028.000000;2.115201
4027.000000;1.994101
4026.000000;1.932434
4025.000000;1.946593
4024.000000;2.051866
4023.000000;2.265726
4022.000000;2.541175
4021.000000;2.669313
4020.000000;2.477486
4019.000000;2.253255
4018.000000;2.186058
4017.000000;2.213612
4016.000000;2.185307
4015.000000;2.132634
4014.000000;2.101426
4013.000000;2.060914
4012.000000;2.021222
4011.000000;2.015038
4010.000000;2.084145
4009.000000;2.267144
4008.000000;2.448823
4007.000000;2.374240
4006.000000;2.213598
4005.000000;2.107979
4004.000000;2.089013
4003.000000;2.121842
4002.000000;2.179135
4001.000000;2.253641
4000.000000;2.311308
3999.000000;2.268560
3998.000000;2.201615
3997.000000;2.242901
3996.000000;2.401605
3995.000000;2.355413
3994.000000;2.149100
3993.000000;2.028651
3992.000000;1.968350
3991.000000;1.959916
3990.000000;2.010689
3989.000000;2.133609
3988.000000;2.302481
3987.000000;2.494932
3986.000000;2.607404
3985.000000;2.503909
3984.000000;2.488000
3983.000000;2.506193
3982.000000;2.413000
3981.000000;2.388721
3980.000000;2.451483
3979.000000;2.476771
3978.000000;2.534647
3977.000000;2.537039
3976.000000;2.219280
3975.000000;2.031591
3974.000000;1.979028
3973.000000;2.024439
3972.000000;2.131527
3971.000000;2.252648
3970.000000;2.357580
3969.000000;2.567372
3968.000000;2.520416
3967.000000;2.249954
3966.000000;2.147829
3965.000000;2.181996
3964.000000;2.397482
3963.000000;2.639635
3962.000000;2.475278
3961.000000;2.323641
3960.000000;2.254643
3959.000000;2.231078
3958.000000;2.241768
3957.000000;2.261884
3956.000000;2.317035
3955.000000;2.431701
3954.000000;2.490910
3953.000000;2.379903
3952.000000;2.284820
3951.000000;2.254341
3950.000000;2.213481
3949.000000;2.091388
3948.000000;1.992881
3947.000000;2.003451
3946.000000;2.184521
3945.000000;2.619999
3944.000000;2.373285
3943.000000;2.062030
3942.000000;2.017884
3941.000000;2.071885
3940.000000;2.189470
3939.000000;2.326952
3938.000000;2.424185
3937.000000;2.427931
3936.000000;2.450992
3935.000000;2.753575
3934.000000;2.609126
3933.000000;2.306305
3932.000000;2.295217
3931.000000;2.465192
3930.000000;2.577579
3929.000000;2.496644
3928.000000;2.339326
3927.000000;2.200561
3926.000000;2.117235
3925.000000;2.112467
3924.000000;2.199716
3923.000000;2.339759
3922.000000;2.417113
3921.000000;2.413617
3920.000000;2.435733
3919.000000;2.703048
3918.000000;2.924622
3917.000000;2.532045
3916.000000;2.716358
3915.000000;2.803375
3914.000000;2.495489
3913.000000;2.425995
3912.000000;2.505283
3911.000000;2.527064
3910.000000;2.389820
3909.000000;2.303650
3908.000000;2.298469
3907.000000;2.354743
3906.000000;2.484285
3905.000000;2.814096
3904.000000;2.800831
3903.000000;2.575565
3902.000000;2.483908
3901.000000;2.408050
3900.000000;2.490050
3899.000000;3.098924
3898.000000;2.541069
3897.000000;2.301933
3896.000000;2.219672
3895.000000;2.207426
3894.000000;2.292596
3893.000000;2.569881
3892.000000;3.000655
3891.000000;3.261412
3890.000000;3.443766
3889.000000;2.893847
3888.000000;2.573085
3887.000000;2.384192
3886.000000;2.353268
3885.000000;2.406140
3884.000000;2.371255
3883.000000;2.261318
3882.000000;2.179625
3881.000000;2.173674
3880.000000;2.271824
3879.000000;2.472005
3878.000000;2.708046
3877.000000;2.913628
3876.000000;2.799253
3875.000000;2.764704
3874.000000;3.141094
3873.000000;3.081356
3872.000000;2.910820
3871.000000;3.050478
3870.000000;3.493558
3869.000000;2.830902
3868.000000;2.434889
3867.000000;2.214585
3866.000000;2.086187
3865.000000;2.056325
3864.000000;2.146071
3863.000000;2.464104
3862.000000;2.943576
3861.000000;2.703202
3860.000000;2.715130
3859.000000;2.791442
3858.000000;3.045373
3857.000000;3.110420
3856.000000;2.768760
3855.000000;2.665286
3854.000000;2.665135
3853.000000;2.635097
3852.000000;2.487019
3851.000000;2.375326
3850.000000;2.329154
3849.000000;2.279285
3848.000000;2.228970
3847.000000;2.224688
3846.000000;2.251575
3845.000000;2.271567
3844.000000;2.268441
3843.000000;2.265609
3842.000000;2.315890
3841.000000;2.431422
3840.000000;2.510506
3839.000000;2.466292
3838.000000;2.459040
3837.000000;2.563348
3836.000000;2.674326
3835.000000;3.051540
3834.000000;3.132554
3833.000000;2.697253
3832.000000;2.560037
3831.000000;2.424958
3830.000000;2.389086
3829.000000;2.614855
3828.000000;2.969123
3827.000000;2.494616
3826.000000;2.383071
3825.000000;2.546735
3824.000000;2.727697
3823.000000;2.677839
3822.000000;2.512903
3821.000000;2.402982
3820.000000;2.399388
3819.000000;2.459352
3818.000000;2.454526
3817.000000;2.384732
3816.000000;2.376867
3815.000000;2.478076
3814.000000;2.525066
3813.000000;2.480049
3812.000000;2.569722
3811.000000;2.771898
3810.000000;2.982586
3809.000000;2.899102
3808.000000;2.802303
3807.000000;2.846324
3806.000000;2.803613
3805.000000;2.634543
3804.000000;2.528795
3803.000000;2.560195
3802.000000;3.133679
3801.000000;2.508431
3800.000000;2.166150
3799.000000;2.107772
3798.000000;2.171635
3797.000000;2.289650
3796.000000;2.314888
3795.000000;2.346107
3794.000000;2.417847
3793.000000;2.397402
3792.000000;2.305148
3791.000000;2.276676
3790.000000;2.342378
3789.000000;2.456051
3788.000000;2.556220
3787.000000;2.710444
3786.000000;2.986559
3785.000000;2.902039
3784.000000;2.672785
3783.000000;2.513054
3782.000000;2.479094
3781.000000;2.515739
3780.000000;2.484043
3779.000000;2.394465
3778.000000;2.339520
3777.000000;2.347996
3776.000000;2.431376
3775.000000;2.918691
3774.000000;2.825231
3773.000000;2.525603
3772.000000;2.529282
3771.000000;2.676810
3770.000000;3.205051
3769.000000;2.610929
3768.000000;2.362671
3767.000000;2.370026
3766.000000;2.427209
3765.000000;2.316862
3764.000000;2.296638
3763.000000;2.379191
3762.000000;2.455569
3761.000000;2.468214
3760.000000;2.471615
3759.000000;2.544256
3758.000000;2.985002
3757.000000;3.164971
3756.000000;2.618016
3755.000000;2.605420
3754.000000;2.603260
3753.000000;2.474242
3752.000000;2.330324
3751.000000;2.284821
3750.000000;2.333348
3749.000000;2.465964
3748.000000;2.651724
3747.000000;2.995740
3746.000000;3.163300
3745.000000;2.791661
3744.000000;2.600955
3743.000000;2.544405
3742.000000;2.496768
3741.000000;2.436854
3740.000000;2.460524
3739.000000;2.527420
3738.000000;2.470170
3737.000000;2.384665
3736.000000;2.430591
3735.000000;2.751113
3734.000000;3.149843
3733.000000;2.670841
3732.000000;2.419909
3731.000000;2.301795
3730.000000;2.276245
3729.000000;2.299474
3728.000000;2.324769
3727.000000;2.264353
3726.000000;2.237195
3725.000000;2.293590
3724.000000;2.522977
3723.000000;2.727600
3722.000000;2.502363
3721.000000;2.507193
3720.000000;2.905513
3719.000000;2.657547
3718.000000;2.471673
3717.000000;2.540404
3716.000000;2.741916
3715.000000;3.319362
3714.000000;3.156654
3713.000000;2.792529
3712.000000;2.508004
3711.000000;2.327611
3710.000000;2.266914
3709.000000;2.279236
3708.000000;2.325890
3707.000000;2.384229
3706.000000;2.480840
3705.000000;2.739504
3704.000000;3.037144
3703.000000;2.751162
3702.000000;2.558058
3701.000000;2.476945
3700.000000;2.417009
3699.000000;2.370257
3698.000000;2.443415
3697.000000;2.632163
3696.000000;2.389579
3695.000000;2.213280
3694.000000;2.254905
3693.000000;2.415678
3692.000000;2.624812
3691.000000;2.728091
3690.000000;2.662734
3689.000000;2.620925
3688.000000;2.567877
3687.000000;2.441386
3686.000000;2.465379
3685.000000;2.708620
3684.000000;2.825261
3683.000000;2.676213
3682.000000;2.580116
3681.000000;2.482245
3680.000000;2.465341
3679.000000;2.634495
3678.000000;2.893223
3677.000000;3.081586
3676.000000;3.469073
3675.000000;3.571050
3674.000000;3.210676
3673.000000;2.772892
3672.000000;2.513133
3671.000000;2.385932
3670.000000;2.346210
3669.000000;2.362238
3668.000000;2.356697
3667.000000;2.298571
3666.000000;2.270672
3665.000000;2.360865
3664.000000;2.797615
3663.000000;2.671668
3662.000000;2.409518
3661.000000;2.392131
3660.000000;2.465800
3659.000000;2.534953
3658.000000;2.493202
3657.000000;2.373275
3656.000000;2.288713
3655.000000;2.271546
3654.000000;2.313133
3653.000000;2.423112
3652.000000;2.592819
3651.000000;2.694802
3650.000000;2.571886
3649.000000;2.512426
3648.000000;2.631207
3647.000000;2.995343
3646.000000;2.766493
3645.000000;2.374692
3644.000000;2.227223
3643.000000;2.216470
3642.000000;2.380846
3641.000000;2.683800
3640.000000;2.588628
3639.000000;2.473044
3638.000000;2.519043
3637.000000;2.557236
3636.000000;2.489140
3635.000000;2.337083
3634.000000;2.249274
3633.000000;2.314612
3632.000000;2.573459
3631.000000;3.098650
3630.000000;2.886211
3629.000000;2.530088
3628.000000;2.344650
3627.000000;2.302725
3626.000000;2.588942
3625.000000;2.887435
3624.000000;2.359630
3623.000000;2.231594
3622.000000;2.165888
3621.000000;2.152892
3620.000000;2.162021
3619.000000;2.154207
3618.000000;2.131685
3617.000000;2.153596
3616.000000;2.367779
3615.000000;2.679425
3614.000000;2.525361
3613.000000;2.725366
3612.000000;2.790566
3611.000000;2.508197
3610.000000;2.476640
3609.000000;2.728709
3608.000000;2.807607
3607.000000;2.360661
3606.000000;2.311779
3605.000000;2.488439
3604.000000;2.478069
3603.000000;2.326801
3602.000000;2.174625
3601.000000;2.094742
3600.000000;2.161023
3599.000000;2.449735
3598.000000;2.852463
3597.000000;2.677884
3596.000000;2.645962
3595.000000;2.343398
3594.000000;2.177645
3593.000000;2.241697
3592.000000;2.394910
3591.000000;2.510803
3590.000000;3.114351
3589.000000;2.855966
3588.000000;2.396320
3587.000000;2.431148
3586.000000;2.408287
3585.000000;2.426396
3584.000000;2.540933
3583.000000;2.693314
3582.000000;2.910676
3581.000000;2.717235
3580.000000;2.462868
3579.000000;2.443354
3578.000000;2.825618
3577.000000;2.591407
3576.000000;2.167500
3575.000000;2.032954
3574.000000;2.018915
3573.000000;2.058791
3572.000000;2.119446
3571.000000;2.207229
3570.000000;2.286605
3569.000000;2.275395
3568.000000;2.246760
3567.000000;2.315133
3566.000000;2.553976
3565.000000;2.617453
3564.000000;2.475113
3563.000000;2.390399
3562.000000;2.291508
3561.000000;2.257434
3560.000000;2.343871
3559.000000;2.492619
3558.000000;2.415557
3557.000000;2.334403
3556.000000;2.390928
3555.000000;2.509693
3554.000000;2.609767
3553.000000;2.652604
3552.000000;2.463484
3551.000000;2.323658
3550.000000;2.270432
3549.000000;2.192708
3548.000000;2.073605
3547.000000;1.989588
3546.000000;1.979886
3545.000000;2.029231
3544.000000;2.137560
3543.000000;2.306460
3542.000000;2.307713
3541.000000;2.120499
3540.000000;1.992073
3539.000000;1.953846
3538.000000;2.025357
3537.000000;2.349399
3536.000000;2.676481
3535.000000;2.327316
3534.000000;2.161669
3533.000000;2.157733
3532.000000;2.238200
3531.000000;2.232939
3530.000000;2.228795
3529.000000;2.387011
3528.000000;2.327753
3527.000000;2.063668
3526.000000;1.943402
3525.000000;1.980229
3524.000000;2.191651
3523.000000;2.458191
3522.000000;2.433852
3521.000000;2.459350
3520.000000;2.368117
3519.000000;2.221839
3518.000000;2.269790
3517.000000;2.425904
3516.000000;2.277411
3515.000000;2.082512
3514.000000;2.020387
3513.000000;2.053916
3512.000000;2.176212
3511.000000;2.328395
3510.000000;2.327940
3509.000000;2.191530
3508.000000;2.105021
3507.000000;2.117691
3506.000000;2.223885
3505.000000;2.371765
3504.000000;2.485482
3503.000000;2.535467
3502.000000;2.637332
3501.000000;2.667488
3500.000000;2.650888
3499.000000;3.303398
3498.000000;2.517321
3497.000000;2.274021
3496.000000;2.286737
3495.000000;2.212016
3494.000000;2.108547
3493.000000;2.141300
3492.000000;2.308935
3491.000000;2.628271
3490.000000;2.828137
3489.000000;2.520040
3488.000000;2.388466
3487.000000;2.465342
3486.000000;2.541452
3485.000000;2.316470
3484.000000;2.132004
3483.000000;2.065229
3482.000000;2.086738
3481.000000;2.172417
3480.000000;2.252089
3479.000000;2.242650
3478.000000;2.175329
3477.000000;2.146114
3476.000000;2.183465
3475.000000;2.225618
3474.000000;2.186671
3473.000000;2.075745
3472.000000;1.996852
3471.000000;2.005119
3470.000000;2.086195
3469.000000;2.210867
3468.000000;2.352133
3467.000000;2.382601
3466.000000;2.338689
3465.000000;2.370520
3464.000000;2.604754
3463.000000;3.073597
3462.000000;2.545972
3461.000000;2.259008
3460.000000;2.211968
3459.000000;2.304137
3458.000000;2.369651
3457.000000;2.345780
3456.000000;2.431088
3455.000000;2.399196
3454.000000;2.216027
3453.000000;2.139941
3452.000000;2.190314
3451.000000;2.556605
3450.000000;2.554263
3449.000000;2.187452
3448.000000;2.163398
3447.000000;2.409745
3446.000000;2.482970
3445.000000;2.567369
3444.000000;2.742412
3443.000000;2.263031
3442.000000;2.093323
3441.000000;2.099520
3440.000000;2.270034
3439.000000;2.592032
3438.000000;2.616974
3437.000000;2.518610
3436.000000;2.365538
3435.000000;2.250480
3434.000000;2.267104
3433.000000;2.243471
3432.000000;2.081189
3431.000000;1.956349
3430.000000;1.920288
3429.000000;1.959293
3428.000000;2.099352
3427.000000;2.190106
3426.000000;2.112143
3425.000000;2.152134
3424.000000;2.402597
3423.000000;2.871836
3422.000000;2.467695
3421.000000;2.135653
3420.000000;2.089070
3419.000000;2.179035
3418.000000;2.208400
3417.000000;2.343090
3416.000000;2.763188
3415.000000;2.504686
3414.000000;2.359671
3413.000000;2.216221
3412.000000;2.085307
3411.000000;2.067078
3410.000000;2.175992
3409.000000;2.623125
3408.000000;2.773297
3407.000000;2.284405
3406.000000;2.258382
3405.000000;2.249748
3404.000000;2.166099
3403.000000;2.074787
3402.000000;2.076393
3401.000000;2.346690
3400.000000;2.525273
3399.000000;2.165431
3398.000000;2.047958
3397.000000;2.094934
3396.000000;2.129171
3395.000000;2.120410
3394.000000;2.167632
3393.000000;2.413404
3392.000000;2.783878
3391.000000;2.319655
3390.000000;2.121063
3389.000000;2.081310
3388.000000;2.129005
3387.000000;2.190507
3386.000000;2.174771
3385.000000;2.091354
3384.000000;1.972912
3383.000000;1.896047
3382.000000;1.912451
3381.000000;2.049412
3380.000000;2.262992
3379.000000;2.622182
3378.000000;2.840658
3377.000000;2.304832
3376.000000;2.087956
3375.000000;2.061177
3374.000000;2.146239
3373.000000;2.378349
3372.000000;2.443561
3371.000000;2.190841
3370.000000;2.097070
3369.000000;2.185864
3368.000000;2.261387
3367.000000;2.150211
3366.000000;2.053333
3365.000000;2.024951
3364.000000;2.093428
3363.000000;2.318297
3362.000000;2.474653
3361.000000;2.408312
3360.000000;2.545307
3359.000000;2.873068
3358.000000;2.830739
3357.000000;2.539840
3356.000000;2.489431
3355.000000;2.726068
3354.000000;3.247241
3353.000000;3.164506
3352.000000;2.667523
3351.000000;2.354929
3350.000000;2.196956
3349.000000;2.147219
3348.000000;2.141448
3347.000000;2.131859
3346.000000;2.177758
3345.000000;2.385958
3344.000000;2.864492
3343.000000;2.670961
3342.000000;2.389378
3341.000000;2.201683
3340.000000;2.115034
3339.000000;2.210120
3338.000000;2.461976
3337.000000;2.585274
3336.000000;2.430269
3335.000000;2.260405
3334.000000;2.114611
3333.000000;2.018708
3332.000000;2.005318
3331.000000;2.079407
3330.000000;2.162562
3329.000000;2.269447
3328.000000;2.684607
3327.000000;2.605879
3326.000000;2.244788
3325.000000;2.255563
3324.000000;2.278289
3323.000000;2.308246
3322.000000;2.523347
3321.000000;2.983901
3320.000000;2.665282
3319.000000;2.456648
3318.000000;2.316913
3317.000000;2.125021
3316.000000;2.038044
3315.000000;2.004915
3314.000000;1.989764
3313.000000;2.009302
3312.000000;2.035250
3311.000000;2.027636
3310.000000;2.002375
3309.000000;1.990183
3308.000000;2.050173
3307.000000;2.292168
3306.000000;2.695229
3305.000000;2.553583
3304.000000;2.598688
3303.000000;2.892404
3302.000000;2.558396
3301.000000;2.217851
3300.000000;2.136023
3299.000000;2.323083
3298.000000;2.553680
3297.000000;2.623684
3296.000000;2.762142
3295.000000;2.393165
3294.000000;2.247010
3293.000000;2.285934
3292.000000;2.313510
3291.000000;2.292754
3290.000000;2.387327
3289.000000;2.811230
3288.000000;2.373535
3287.000000;2.065345
3286.000000;2.003910
3285.000000;2.086704
3284.000000;2.275015
3283.000000;2.451490
3282.000000;2.420094
3281.000000;2.253117
3280.000000;2.213155
3279.000000;2.254665
3278.000000;2.329314
3277.000000;2.475156
3276.000000;2.398635
3275.000000;2.196332
3274.000000;2.114156
3273.000000;2.090217
3272.000000;2.106778
3271.000000;2.131556
3270.000000;2.166432
3269.000000;2.335487
3268.000000;2.513230
3267.000000;2.277120
3266.000000;2.084960
3265.000000;2.076968
3264.000000;2.199325
3263.000000;2.279605
3262.000000;2.312058
3261.000000;2.408683
3260.000000;2.524372
3259.000000;2.505753
3258.000000;2.389523
3257.000000;2.301468
3256.000000;2.445932
3255.000000;2.894063
3254.000000;2.244517
3253.000000;2.076577
3252.000000;2.193305
3251.000000;2.312625
3250.000000;2.104980
3249.000000;1.983522
3248.000000;2.125250
3247.000000;2.502801
3246.000000;2.108038
3245.000000;1.839607
3244.000000;1.827523
3243.000000;1.955695
3242.000000;2.194570
3241.000000;2.458381
3240.000000;2.553376
3239.000000;2.513370
3238.000000;2.434771
3237.000000;2.286976
3236.000000;2.218955
3235.000000;2.427342
3234.000000;2.719958
3233.000000;2.224028
3232.000000;1.987253
3231.000000;1.929720
3230.000000;1.987042
3229.000000;2.211809
3228.000000;2.398934
3227.000000;2.197812
3226.000000;2.136056
3225.000000;2.210192
3224.000000;2.339320
3223.000000;2.563130
3222.000000;2.867614
3221.000000;2.691180
3220.000000;2.472874
3219.000000;2.670846
3218.000000;2.893321
3217.000000;2.571451
3216.000000;2.466744
3215.000000;2.341058
3214.000000;2.218524
3213.000000;2.168410
3212.000000;2.196389
3211.000000;2.267963
3210.000000;2.214272
3209.000000;2.114377
3208.000000;2.106277
3207.000000;2.193538
3206.000000;2.295402
3205.000000;2.257247
3204.000000;2.170595
3203.000000;2.134487
3202.000000;2.147449
3201.000000;2.211119
3200.000000;2.319498
3199.000000;2.383569
3198.000000;2.350955
3197.000000;2.383088
3196.000000;2.478595
3195.000000;2.539082
3194.000000;2.608072
3193.000000;2.597169
3192.000000;2.443565
3191.000000;2.357726
3190.000000;2.373859
3189.000000;2.470234
3188.000000;2.575518
3187.000000;2.518140
3186.000000;2.414141
3185.000000;2.474211
3184.000000;2.789241
3183.000000;2.634330
3182.000000;2.428367
3181.000000;2.553210
3180.000000;2.999773
3179.000000;2.886531
3178.000000;2.665877
3177.000000;2.707153
3176.000000;3.006811
3175.000000;2.818175
3174.000000;2.438442
3173.000000;2.293625
3172.000000;2.297723
3171.000000;2.289564
3170.000000;2.178794
3169.000000;2.163893
3168.000000;2.281798
3167.000000;2.354529
3166.000000;2.280278
3165.000000;2.264400
3164.000000;2.490435
3163.000000;2.854359
3162.000000;2.673624
3161.000000;2.762616
3160.000000;3.052911
3159.000000;2.610996
3158.000000;2.323165
3157.000000;2.193781
3156.000000;2.170860
3155.000000;2.224299
3154.000000;2.401517
3153.000000;3.158108
3152.000000;2.858440
3151.000000;2.653264
3150.000000;2.722103
3149.000000;2.648682
3148.000000;2.617890
3147.000000;2.537825
3146.000000;2.406861
3145.000000;2.277368
3144.000000;2.220818
3143.000000;2.333462
3142.000000;2.669270
3141.000000;2.542775
3140.000000;2.257225
3139.000000;2.174436
3138.000000;2.202785
3137.000000;2.391192
3136.000000;2.655907
3135.000000;2.823474
3134.000000;2.738962
3133.000000;2.480357
3132.000000;2.407134
3131.000000;2.439741
3130.000000;2.444506
3129.000000;2.300141
3128.000000;2.128950
3127.000000;2.041709
3126.000000;2.038665
3125.000000;2.113338
3124.000000;2.209198
3123.000000;2.269482
3122.000000;2.265264
3121.000000;2.174643
3120.000000;2.138692
3119.000000;2.253053
3118.000000;2.455044
3117.000000;2.399729
3116.000000;2.371455
3115.000000;2.622434
3114.000000;2.478587
3113.000000;2.199761
3112.000000;2.223167
3111.000000;2.420610
3110.000000;2.588101
3109.000000;2.611465
3108.000000;2.699983
3107.000000;2.871241
3106.000000;2.816926
3105.000000;2.577048
3104.000000;2.518314
3103.000000;2.679790
3102.000000;2.623683
3101.000000;2.504690
3100.000000;2.632770
3099.000000;2.856508
3098.000000;2.708473
3097.000000;2.499555
3096.000000;2.417814
3095.000000;2.535673
3094.000000;2.675823
3093.000000;2.409913
3092.000000;2.245840
3091.000000;2.186131
3090.000000;2.165618
3089.000000;2.180144
3088.000000;2.239861
3087.000000;2.341988
3086.000000;2.414016
3085.000000;2.520643
3084.000000;2.589316
3083.000000;2.415206
3082.000000;2.329575
3081.000000;2.387997
3080.000000;2.433550
3079.000000;2.331264
3078.000000;2.183432
3077.000000;2.125395
3076.000000;2.193525
3075.000000;2.441176
3074.000000;2.965209
3073.000000;3.079554
3072.000000;2.744040
3071.000000;2.420401
3070.000000;2.243316
3069.000000;2.211730
3068.000000;2.236188
3067.000000;2.233505
3066.000000;2.197999
3065.000000;2.170585
3064.000000;2.185566
3063.000000;2.254004
3062.000000;2.337984
3061.000000;2.397601
3060.000000;2.505070
3059.000000;2.692967
3058.000000;2.629935
3057.000000;2.688656
3056.000000;2.996455
3055.000000;2.592142
3054.000000;2.339966
3053.000000;2.299559
3052.000000;2.433262
3051.000000;2.467941
3050.000000;2.234704
3049.000000;2.159217
3048.000000;2.286277
3047.000000;2.585527
3046.000000;2.838870
3045.000000;3.100682
3044.000000;3.169982
3043.000000;2.694963
3042.000000;2.715974
3041.000000;2.806697
3040.000000;2.379018
3039.000000;2.237581
3038.000000;2.287806
3037.000000;2.425649
3036.000000;2.589310
3035.000000;2.674274
3034.000000;2.575300
3033.000000;2.376705
3032.000000;2.258947
3031.000000;2.239016
3030.000000;2.284973
3029.000000;2.327744
3028.000000;2.321749
3027.000000;2.300255
3026.000000;2.310168
3025.000000;2.355266
3024.000000;2.439523
3023.000000;2.520203
3022.000000;2.478735
3021.000000;2.320151
3020.000000;2.236411
3019.000000;2.262501
3018.000000;2.472302
3017.000000;3.270236
3016.000000;2.695195
3015.000000;2.374612
3014.000000;2.242275
3013.000000;2.108972
3012.000000;2.070134
3011.000000;2.123146
3010.000000;2.420941
3009.000000;3.034189
3008.000000;2.490767
3007.000000;2.525662
3006.000000;2.804534
3005.000000;2.678928
3004.000000;2.627179
3003.000000;2.653168
3002.000000;2.869164
3001.000000;2.974232
3000.000000;2.618346
2999.000000;2.468868
2998.000000;2.509777
2997.000000;2.630017
2996.000000;2.608774
2995.000000;2.442758
2994.000000;2.331005
2993.000000;2.304408
2992.000000;2.338977
2991.000000;2.367814
2990.000000;2.343761
2989.000000;2.290609
2988.000000;2.275061
2987.000000;2.301408
2986.000000;2.326840
2985.000000;2.333521
2984.000000;2.505643
2983.000000;2.830612
2982.000000;2.459145
2981.000000;2.260491
2980.000000;2.386987
2979.000000;2.839136
2978.000000;2.713656
2977.000000;2.825581
2976.000000;2.776918
2975.000000;2.350376
2974.000000;2.436966
2973.000000;2.554346
2972.000000;2.322707
2971.000000;2.291904
2970.000000;2.463309
2969.000000;2.404412
2968.000000;2.285394
2967.000000;2.410180
2966.000000;3.096550
2965.000000;2.750189
2964.000000;2.337629
2963.000000;2.261823
2962.000000;2.331568
2961.000000;2.573931
2960.000000;3.045364
2959.000000;3.746531
2958.000000;3.037484
2957.000000;3.128519
2956.000000;3.096440
2955.000000;2.689677
2954.000000;2.731258
2953.000000;2.709865
2952.000000;2.496250
2951.000000;2.426630
2950.000000;2.542284
2949.000000;2.581785
2948.000000;2.314114
2947.000000;2.183190
2946.000000;2.230272
2945.000000;2.513145
2944.000000;2.799921
2943.000000;2.638106
2942.000000;2.770817
2941.000000;2.795926
2940.000000;2.574375
2939.000000;2.574500
2938.000000;2.635003
2937.000000;2.572479
2936.000000;2.470511
2935.000000;2.444793
2934.000000;2.563162
2933.000000;2.562504
2932.000000;2.387438
2931.000000;2.399849
2930.000000;2.637834
2929.000000;3.080913
2928.000000;3.221732
2927.000000;2.815702
2926.000000;2.553168
2925.000000;2.515537
2924.000000;2.602686
2923.000000;2.403085
2922.000000;2.193097
2921.000000;2.164641
2920.000000;2.274651
2919.000000;2.459201
2918.000000;2.541050
2917.000000;2.495419
2916.000000;2.548316
2915.000000;2.726707
2914.000000;2.610113
2913.000000;2.459536
2912.000000;2.503484
2911.000000;2.638101
2910.000000;2.832658
2909.000000;3.244748
2908.000000;3.082212
2907.000000;2.819840
2906.000000;2.674052
2905.000000;2.377418
2904.000000;2.206363
2903.000000;2.226058
2902.000000;2.446725
2901.000000;2.661229
2900.000000;2.539649
2899.000000;2.512842
2898.000000;2.546152
2897.000000;2.640696
2896.000000;2.956463
2895.000000;2.798047
2894.000000;2.513782
2893.000000;2.551413
2892.000000;2.680218
2891.000000;2.737064
2890.000000;2.657124
2889.000000;2.548454
2888.000000;2.545686
2887.000000;2.679586
2886.000000;3.218055
2885.000000;2.632058
2884.000000;2.177141
2883.000000;2.036832
2882.000000;2.070670
2881.000000;2.390564
2880.000000;2.629799
2879.000000;2.159468
2878.000000;2.042248
2877.000000;2.108813
2876.000000;2.353100
2875.000000;2.893133
2874.000000;2.583843
2873.000000;2.335295
2872.000000;2.384265
2871.000000;2.769165
2870.000000;2.760733
2869.000000;2.479622
2868.000000;2.651260
2867.000000;2.727769
2866.000000;2.442221
2865.000000;2.274690
2864.000000;2.242603
2863.000000;2.355180
2862.000000;2.684206
2861.000000;2.629937
2860.000000;2.340264
2859.000000;2.221392
2858.000000;2.276615
2857.000000;2.709610
2856.000000;2.598127
2855.000000;2.302664
2854.000000;2.272229
2853.000000;2.255349
2852.000000;2.222781
2851.000000;2.178854
2850.000000;2.134707
2849.000000;2.129472
2848.000000;2.201459
2847.000000;2.470945
2846.000000;2.692109
2845.000000;2.365257
2844.000000;2.249049
2843.000000;2.250690
2842.000000;2.330210
2841.000000;2.620380
2840.000000;2.644741
2839.000000;2.415687
2838.000000;2.459329
2837.000000;2.419583
2836.000000;2.275804
2835.000000;2.338174
2834.000000;2.368030
2833.000000;2.336526
2832.000000;2.686342
2831.000000;2.699512
2830.000000;2.336216
2829.000000;2.440791
2828.000000;2.991406
2827.000000;2.467604
2826.000000;2.444352
2825.000000;2.892268
2824.000000;2.300405
2823.000000;2.083276
2822.000000;2.100594
2821.000000;2.244007
2820.000000;2.348608
2819.000000;2.306599
2818.000000;2.338823
2817.000000;2.409855
2816.000000;2.731608
2815.000000;3.042550
2814.000000;2.498524
2813.000000;2.346271
2812.000000;2.395713
2811.000000;2.454187
2810.000000;2.378894
2809.000000;2.396185
2808.000000;2.448606
2807.000000;2.284617
2806.000000;2.212325
2805.000000;2.222545
2804.000000;2.150428
2803.000000;2.077921
2802.000000;2.052333
2801.000000;2.028189
2800.000000;2.013339
2799.000000;2.055105
2798.000000;2.148832
2797.000000;2.199472
2796.000000;2.217775
2795.000000;2.330996
2794.000000;2.350856
2793.000000;2.215033
2792.000000;2.188196
2791.000000;2.400486
2790.000000;2.524866
2789.000000;2.169293
2788.000000;2.029508
2787.000000;2.108153
2786.000000;2.487130
2785.000000;2.717385
2784.000000;2.419049
2783.000000;2.459460
2782.000000;2.715702
2781.000000;2.747457
2780.000000;2.468209
2779.000000;2.481626
2778.000000;2.821629
2777.000000;2.843582
2776.000000;2.555807
2775.000000;2.253316
2774.000000;2.037975
2773.000000;1.956577
2772.000000;1.992322
2771.000000;2.084337
2770.000000;2.078136
2769.000000;2.022999
2768.000000;2.040859
2767.000000;2.134274
2766.000000;2.278723
2765.000000;2.411856
2764.000000;2.429618
2763.000000;2.347756
2762.000000;2.286858
2761.000000;2.321939
2760.000000;2.405790
2759.000000;2.381325
2758.000000;2.329222
2757.000000;2.313686
2756.000000;2.273566
2755.000000;2.266211
2754.000000;2.325844
2753.000000;2.501509
2752.000000;2.554819
2751.000000;2.251305
2750.000000;2.097011
2749.000000;2.146561
2748.000000;2.382787
2747.000000;2.860133
2746.000000;3.677925
2745.000000;3.523727
2744.000000;2.891121
2743.000000;2.554263
2742.000000;2.389074
2741.000000;2.264842
2740.000000;2.161606
2739.000000;2.132829
2738.000000;2.211505
2737.000000;2.518927
2736.000000;2.797483
2735.000000;2.532055
2734.000000;2.519049
2733.000000;2.590725
2732.000000;2.540527
2731.000000;2.458227
2730.000000;2.443706
2729.000000;2.436985
2728.000000;2.293903
2727.000000;2.095678
2726.000000;1.991257
2725.000000;2.016848
2724.000000;2.081198
2723.000000;2.053130
2722.000000;2.074769
2721.000000;2.319051
2720.000000;2.311447
2719.000000;2.007501
2718.000000;1.924466
2717.000000;1.998738
2716.000000;2.284062
2715.000000;2.969606
2714.000000;2.873331
2713.000000;2.784578
2712.000000;2.534304
2711.000000;2.306771
2710.000000;2.248508
2709.000000;2.233755
2708.000000;2.243299
2707.000000;2.264135
2706.000000;2.317891
2705.000000;2.555460
2704.000000;2.853212
2703.000000;2.625108
2702.000000;2.499607
2701.000000;2.776945
2700.000000;3.168501
2699.000000;2.853565
2698.000000;3.391104
2697.000000;2.614186
2696.000000;2.139866
2695.000000;2.002170
2694.000000;1.993542
2693.000000;2.141143
2692.000000;2.315243
2691.000000;2.206624
2690.000000;2.081540
2689.000000;2.181873
2688.000000;2.610816
2687.000000;2.365136
2686.000000;2.062021
2685.000000;2.017289
2684.000000;2.063501
2683.000000;2.251407
2682.000000;2.217371
2681.000000;1.930288
2680.000000;1.835153
2679.000000;1.895223
2678.000000;2.047672
2677.000000;2.138951
2676.000000;2.125079
2675.000000;2.127691
2674.000000;2.139392
2673.000000;2.369078
2672.000000;2.423377
2671.000000;2.082500
2670.000000;1.955664
2669.000000;2.083437
2668.000000;2.379544
2667.000000;2.124902
2666.000000;1.936568
2665.000000;2.004138
2664.000000;2.210841
2663.000000;2.125238
2662.000000;1.884762
2661.000000;1.805988
2660.000000;1.825701
2659.000000;2.023837
2658.000000;2.340280
2657.000000;2.068603
2656.000000;1.939533
2655.000000;2.111200
2654.000000;2.182052
2653.000000;1.999156
2652.000000;1.914101
2651.000000;1.900183
2650.000000;1.925106
2649.000000;2.032794
2648.000000;2.368987
2647.000000;2.214645
2646.000000;1.874122
2645.000000;1.781126
2644.000000;1.949519
2643.000000;2.231881
2642.000000;1.744517
2641.000000;1.535849
2640.000000;1.558647
2639.000000;1.803955
2638.000000;2.190963
2637.000000;1.727330
2636.000000;1.543576
2635.000000;1.536322
2634.000000;1.816796
2633.000000;2.114573
2632.000000;1.584910
2631.000000;1.489855
2630.000000;1.685363
2629.000000;1.889080
2628.000000;1.609461
2627.000000;1.480674
2626.000000;1.616794
2625.000000;1.961288
2624.000000;1.957535
2623.000000;1.779833
2622.000000;1.864595
2621.000000;1.981382
2620.000000;2.014661
2619.000000;1.895297
2618.000000;1.767246
2617.000000;1.685535
2616.000000;1.668112
2615.000000;1.683607
2614.000000;1.673351
2613.000000;1.646833
2612.000000;1.662333
2611.000000;1.707515
2610.000000;1.851450
2609.000000;2.299861
2608.000000;2.019228
2607.000000;1.685330
2606.000000;1.622750
2605.000000;1.807724
2604.000000;1.933437
2603.000000;1.614872
2602.000000;1.523753
2601.000000;1.620757
2600.000000;2.108816
2599.000000;2.426624
2598.000000;1.816037
2597.000000;1.754673
2596.000000;1.727732
2595.000000;1.689853
2594.000000;1.663566
2593.000000;1.694107
2592.000000;1.993522
2591.000000;2.268378
2590.000000;1.852869
2589.000000;1.681945
2588.000000;1.683362
2587.000000;1.752441
2586.000000;1.940293
2585.000000;2.440056
2584.000000;2.513948
2583.000000;2.098114
2582.000000;1.922097
2581.000000;2.066965
2580.000000;2.685214
2579.000000;2.013358
2578.000000;1.754384
2577.000000;1.714115
2576.000000;1.768930
2575.000000;1.870245
2574.000000;1.840889
2573.000000;1.790596
2572.000000;1.868754
2571.000000;2.184287
2570.000000;2.170452
2569.000000;1.931337
2568.000000;2.008493
2567.000000;2.339307
2566.000000;2.166378
2565.000000;1.902985
2564.000000;1.823470
2563.000000;1.805380
2562.000000;1.818375
2561.000000;1.934651
2560.000000;2.284702
2559.000000;2.186496
2558.000000;1.938288
2557.000000;1.974094
2556.000000;2.243352
2555.000000;2.295607
2554.000000;1.958764
2553.000000;1.790402
2552.000000;1.771848
2551.000000;1.873140
2550.000000;2.233925
2549.000000;2.918375
2548.000000;2.377644
2547.000000;2.449854
2546.000000;2.501274
2545.000000;2.047777
2544.000000;1.892237
2543.000000;1.913194
2542.000000;2.161551
2541.000000;2.678097
2540.000000;2.723096
2539.000000;2.535617
2538.000000;2.243222
2537.000000;2.028452
2536.000000;2.088642
2535.000000;2.396178
2534.000000;2.246784
2533.000000;2.050341
2532.000000;2.075839
2531.000000;2.175308
2530.000000;2.311805
2529.000000;2.457463
2528.000000;2.592608
2527.000000;2.570640
2526.000000;2.433184
2525.000000;2.318964
2524.000000;2.213488
2523.000000;2.168458
2522.000000;2.276810
2521.000000;2.151164
2520.000000;1.878866
2519.000000;1.797452
2518.000000;1.892665
2517.000000;2.067887
2516.000000;1.993866
2515.000000;1.864987
2514.000000;1.888096
2513.000000;2.023427
2512.000000;2.179964
2511.000000;2.173127
2510.000000;2.128861
2509.000000;2.096962
2508.000000;2.007641
2507.000000;1.947864
2506.000000;1.971428
2505.000000;2.029136
2504.000000;2.051944
2503.000000;2.099248
2502.000000;2.237395
2501.000000;2.523994
2500.000000;3.045869
2499.000000;3.262619
2498.000000;3.416793
2497.000000;3.169614
2496.000000;2.603583
2495.000000;2.313150
2494.000000;2.209553
2493.000000;2.151403
2492.000000;2.043203
2491.000000;2.024760
2490.000000;2.152732
2489.000000;2.427101
2488.000000;3.014025
2487.000000;2.984548
2486.000000;2.503244
2485.000000;2.380380
2484.000000;2.515795
2483.000000;2.723650
2482.000000;2.430904
2481.000000;2.441885
2480.000000;2.745038
2479.000000;2.333939
2478.000000;2.233307
2477.000000;2.446825
2476.000000;2.400975
2475.000000;2.187181
2474.000000;2.072401
2473.000000;2.044375
2472.000000;2.164553
2471.000000;2.416395
2470.000000;2.369308
2469.000000;2.222962
2468.000000;2.261483
2467.000000;2.569557
2466.000000;2.687372
2465.000000;2.433798
2464.000000;2.461294
2463.000000;2.512414
2462.000000;2.500105
2461.000000;2.720135
2460.000000;2.868797
2459.000000;2.347939
2458.000000;2.129232
2457.000000;2.159017
2456.000000;2.434193
2455.000000;2.672910
2454.000000;2.261355
2453.000000;2.039054
2452.000000;1.986134
2451.000000;2.064767
2450.000000;2.256045
2449.000000;2.329581
2448.000000;2.191537
2447.000000;2.100840
2446.000000;2.024895
2445.000000;1.839383
2444.000000;1.690637
2443.000000;1.660208
2442.000000;1.759706
2441.000000;1.953278
2440.000000;1.956541
2439.000000;1.925104
2438.000000;1.998302
2437.000000;1.977186
2436.000000;1.885009
2435.000000;1.955316
2434.000000;2.531044
2433.000000;2.362660
2432.000000;1.921181
2431.000000;1.964966
2430.000000;2.388856
2429.000000;2.437462
2428.000000;2.043513
2427.000000;1.975846
2426.000000;1.981371
2425.000000;1.942127
2424.000000;1.904036
2423.000000;1.971671
2422.000000;2.152426
2421.000000;2.157638
2420.000000;2.022671
2419.000000;2.181657
2418.000000;2.560794
2417.000000;2.205582
2416.000000;2.085811
2415.000000;2.243243
2414.000000;2.645738
2413.000000;2.674040
2412.000000;2.454347
2411.000000;2.494931
2410.000000;2.432281
2409.000000;2.341309
2408.000000;2.444177
2407.000000;2.892915
2406.000000;2.659304
2405.000000;2.300700
2404.000000;2.164927
2403.000000;2.110401
2402.000000;2.239645
2401.000000;2.427644
2400.000000;2.539499
2399.000000;2.779532
2398.000000;2.445036
2397.000000;2.224654
2396.000000;2.146697
2395.000000;2.126595
2394.000000;2.212640
2393.000000;2.186068
2392.000000;2.070899
2391.000000;2.072059
2390.000000;2.252256
2389.000000;2.637584
2388.000000;2.722696
2387.000000;2.389678
2386.000000;2.299283
2385.000000;2.382169
2384.000000;2.530417
2383.000000;2.616774
2382.000000;2.588728
2381.000000;2.618652
2380.000000;2.446127
2379.000000;2.214344
2378.000000;2.123564
2377.000000;2.103738
2376.000000;2.138618
2375.000000;2.244700
2374.000000;2.446245
2373.000000;2.793931
2372.000000;2.818079
2371.000000;2.514866
2370.000000;2.358108
2369.000000;2.347041
2368.000000;2.445866
2367.000000;2.677202
2366.000000;3.207481
2365.000000;3.101882
2364.000000;2.698149
2363.000000;2.506099
2362.000000;2.417859
2361.000000;2.436628
2360.000000;2.429692
2359.000000;2.331751
2358.000000;2.229446
2357.000000;2.196041
2356.000000;2.230150
2355.000000;2.347321
2354.000000;2.655433
2353.000000;2.622816
2352.000000;2.338774
2351.000000;2.356968
2350.000000;2.487312
2349.000000;2.511052
2348.000000;2.350022
2347.000000;2.313792
2346.000000;2.732234
2345.000000;2.691142
2344.000000;2.375037
2343.000000;2.436695
2342.000000;2.682512
2341.000000;3.031803
2340.000000;3.313569
2339.000000;2.958033
2338.000000;2.494308
2337.000000;2.329095
2336.000000;2.415641
2335.000000;2.661537
2334.000000;2.590826
2333.000000;2.421912
2332.000000;2.390932
2331.000000;2.345738
2330.000000;2.312552
2329.000000;2.350699
2328.000000;2.436134
2327.000000;2.546910
2326.000000;2.699213
2325.000000;2.942493
2324.000000;3.028216
2323.000000;2.830339
2322.000000;2.794221
2321.000000;2.963271
2320.000000;3.199383
2319.000000;3.051432
2318.000000;2.759900
2317.000000;2.556586
2316.000000;2.631591
2315.000000;2.935316
2314.000000;2.558772
2313.000000;2.281868
2312.000000;2.234002
2311.000000;2.369910
2310.000000;2.396477
2309.000000;2.285126
2308.000000;2.297486
2307.000000;2.229681
2306.000000;2.204574
2305.000000;2.244577
2304.000000;2.177116
2303.000000;2.091161
2302.000000;2.055323
2301.000000;2.065495
2300.000000;2.115587
2299.000000;2.172167
2298.000000;2.165949
2297.000000;2.082658
2296.000000;1.998984
2295.000000;1.936697
2294.000000;1.892751
2293.000000;1.897430
2292.000000;1.947860
2291.000000;2.008298
2290.000000;2.057616
2289.000000;2.086027
2288.000000;2.132769
2287.000000;2.132172
2286.000000;1.983280
2285.000000;1.862097
2284.000000;1.865686
2283.000000;1.995990
2282.000000;2.154117
2281.000000;2.245767
2280.000000;2.376960
2279.000000;2.863942
2278.000000;3.275236
2277.000000;2.469585
2276.000000;2.254899
2275.000000;2.145200
2274.000000;2.021821
2273.000000;1.939733
2272.000000;1.964548
2271.000000;2.136820
2270.000000;2.339946
2269.000000;2.251125
2268.000000;2.105459
2267.000000;2.114941
2266.000000;2.150403
2265.000000;2.122317
2264.000000;2.073178
2263.000000;2.179717
2262.000000;2.523417
2261.000000;2.344700
2260.000000;2.175798
2259.000000;2.158039
2258.000000;1.994152
2257.000000;1.849167
2256.000000;1.829631
2255.000000;1.881877
2254.000000;1.965542
2253.000000;2.294658
2252.000000;2.247014
2251.000000;1.900486
2250.000000;1.892567
2249.000000;2.104788
2248.000000;2.485856
2247.000000;2.306848
2246.000000;2.181301
2245.000000;2.291106
2244.000000;2.156853
2243.000000;2.047987
2242.000000;1.984573
2241.000000;1.992037
2240.000000;2.295854
2239.000000;2.645006
2238.000000;2.332978
2237.000000;2.342241
2236.000000;2.594407
2235.000000;2.523864
2234.000000;2.345080
2233.000000;2.336690
2232.000000;2.660502
2231.000000;2.679535
2230.000000;2.130896
2229.000000;1.947141
2228.000000;1.961013
2227.000000;2.298476
2226.000000;2.778881
2225.000000;2.399162
2224.000000;2.305279
2223.000000;2.141051
2222.000000;2.041598
2221.000000;2.159726
2220.000000;2.528321
2219.000000;2.713329
2218.000000;2.775660
2217.000000;2.292162
2216.000000;1.947460
2215.000000;1.885090
2214.000000;1.883420
2213.000000;1.943834
2212.000000;2.169216
2211.000000;2.450779
2210.000000;2.368272
2209.000000;2.304930
2208.000000;2.322196
2207.000000;2.361230
2206.000000;2.379590
2205.000000;2.314347
2204.000000;2.411340
2203.000000;2.803828
2202.000000;2.816407
2201.000000;2.509261
2200.000000;2.306561
2199.000000;2.130691
2198.000000;2.106824
2197.000000;2.263038
2196.000000;2.532789
2195.000000;2.481225
2194.000000;2.239792
2193.000000;2.139614
2192.000000;2.127635
2191.000000;2.128174
2190.000000;2.101570
2189.000000;2.098971
2188.000000;2.120146
2187.000000;2.134389
2186.000000;2.154042
2185.000000;2.237706
2184.000000;2.599059
2183.000000;2.752481
2182.000000;2.223533
2181.000000;1.974064
2180.000000;1.871379
2179.000000;1.899233
2178.000000;2.054239
2177.000000;2.337055
2176.000000;2.782162
2175.000000;2.517858
2174.000000;2.236467
2173.000000;2.270061
2172.000000;2.315353
2171.000000;2.311075
2170.000000;2.419828
2169.000000;2.316418
2168.000000;2.165743
2167.000000;2.278271
2166.000000;2.773183
2165.000000;2.356863
2164.000000;1.991522
2163.000000;1.950194
2162.000000;2.108421
2161.000000;2.612704
2160.000000;2.712343
2159.000000;2.394177
2158.000000;2.383747
2157.000000;2.420611
2156.000000;2.625999
2155.000000;3.043564
2154.000000;2.465833
2153.000000;2.001950
2152.000000;1.787293
2151.000000;1.767379
2150.000000;1.913649
2149.000000;2.238771
2148.000000;2.490907
2147.000000;2.228255
2146.000000;2.195552
2145.000000;2.304703
2144.000000;2.279320
2143.000000;2.126010
2142.000000;2.019830
2141.000000;2.049585
2140.000000;2.095352
2139.000000;2.055630
2138.000000;2.135488
2137.000000;2.589769
2136.000000;2.545915
2135.000000;2.333666
2134.000000;2.480342
2133.000000;2.825636
2132.000000;2.771371
2131.000000;2.321075
2130.000000;2.110124
2129.000000;2.249567
2128.000000;3.012190
2127.000000;2.368771
2126.000000;2.061376
2125.000000;1.936282
2124.000000;1.880737
2123.000000;2.008838
2122.000000;2.423272
2121.000000;3.023731
2120.000000;2.504703
2119.000000;2.394953
2118.000000;2.238285
2117.000000;2.105723
2116.000000;2.041590
2115.000000;2.010765
2114.000000;2.009874
2113.000000;2.091701
2112.000000;2.446146
2111.000000;2.592485
2110.000000;2.734152
2109.000000;2.682921
2108.000000;2.151098
2107.000000;2.037763
2106.000000;2.147541
2105.000000;2.442302
2104.000000;2.838022
2103.000000;2.707409
2102.000000;2.383469
2101.000000;2.216510
2100.000000;2.234426
2099.000000;2.313051
2098.000000;2.252881
2097.000000;2.065349
2096.000000;1.958942
2095.000000;2.028103
2094.000000;2.341783
2093.000000;2.970562
2092.000000;2.954479
2091.000000;2.207622
2090.000000;1.851141
2089.000000;1.760685
2088.000000;1.836894
2087.000000;2.025448
2086.000000;2.258721
2085.000000;2.402690
2084.000000;2.287250
2083.000000;2.118594
2082.000000;2.086200
2081.000000;2.066601
2080.000000;1.959683
2079.000000;1.876697
2078.000000;1.912224
2077.000000;2.032554
2076.000000;2.047461
2075.000000;2.028272
2074.000000;2.107968
2073.000000;2.196767
2072.000000;2.147004
2071.000000;2.055040
2070.000000;2.013948
2069.000000;2.122143
2068.000000;2.484762
2067.000000;2.525839
2066.000000;2.674960
2065.000000;2.667146
2064.000000;2.426550
2063.000000;2.256958
2062.000000;1.866224
2061.000000;1.751929
2060.000000;1.823986
2059.000000;2.011342
2058.000000;2.295645
2057.000000;2.479004
2056.000000;3.161104
2055.000000;2.779935
2054.000000;2.293574
2053.000000;2.140123
2052.000000;2.039332
2051.000000;1.986314
2050.000000;2.116588
2049.000000;2.660924
2048.000000;2.636984
2047.000000;2.369993
2046.000000;2.307045
2045.000000;2.230764
2044.000000;2.319491
2043.000000;2.642644
2042.000000;2.906574
2041.000000;2.522262
2040.000000;2.300633
2039.000000;2.353808
2038.000000;2.462355
2037.000000;2.767832
2036.000000;2.820764
2035.000000;2.320583
2034.000000;2.489202
2033.000000;2.458385
2032.000000;2.056059
2031.000000;1.917177
2030.000000;1.872330
2029.000000;1.900419
2028.000000;1.975627
2027.000000;2.029600
2026.000000;2.058738
2025.000000;2.151754
2024.000000;2.113574
2023.000000;1.965547
2022.000000;1.936918
2021.000000;2.100997
2020.000000;2.409144
2019.000000;2.478031
2018.000000;2.297899
2017.000000;2.032696
2016.000000;1.963081
2015.000000;2.103322
2014.000000;2.146068
2013.000000;2.050839
2012.000000;2.084465
2011.000000;2.382209
2010.000000;2.894505
2009.000000;2.569028
2008.000000;2.418588
2007.000000;2.413158
2006.000000;2.497000
2005.000000;2.641718
2004.000000;2.326956
2003.000000;2.103030
2002.000000;2.095094
2001.000000;2.405055
2000.000000;2.764089
1999.000000;2.469118
1998.000000;2.641078
1997.000000;2.821492
1996.000000;2.531222
1995.000000;2.534578
1994.000000;2.709899
1993.000000;2.501612
1992.000000;2.195188
1991.000000;2.127841
1990.000000;2.331665
1989.000000;2.449065
1988.000000;2.130391
1987.000000;2.156319
1986.000000;2.584545
1985.000000;2.355696
1984.000000;2.095510
1983.000000;2.142494
1982.000000;2.363955
1981.000000;2.828205
1980.000000;2.732869
1979.000000;2.388993
1978.000000;2.353330
1977.000000;2.467893
1976.000000;2.490484
1975.000000;2.348010
1974.000000;2.256970
1973.000000;2.285798
1972.000000;2.468200
1971.000000;2.323311
1970.000000;2.107335
1969.000000;2.097506
1968.000000;2.282981
1967.000000;2.657464
1966.000000;3.208828
1965.000000;2.940948
1964.000000;2.366248
1963.000000;2.122075
1962.000000;2.258651
1961.000000;2.796349
1960.000000;2.278381
1959.000000;2.011016
1958.000000;1.937507
1957.000000;1.900034
1956.000000;1.930408
1955.000000;1.954819
1954.000000;2.173683
1953.000000;2.680242
1952.000000;2.442661
1951.000000;2.780823
1950.000000;2.704020
1949.000000;2.210323
1948.000000;2.278525
1947.000000;2.277156
1946.000000;2.264622
1945.000000;2.415735
1944.000000;2.663450
1943.000000;2.625756
1942.000000;2.299275
1941.000000;2.123235
1940.000000;2.170939
1939.000000;2.130439
1938.000000;1.900908
1937.000000;1.857974
1936.000000;1.990726
1935.000000;2.271176
1934.000000;2.836986
1933.000000;2.684033
1932.000000;2.621423
1931.000000;2.878045
1930.000000;2.364184
1929.000000;2.120001
1928.000000;2.162560
1927.000000;2.593758
1926.000000;2.434660
1925.000000;1.978270
1924.000000;1.879149
1923.000000;1.886867
1922.000000;1.935622
1921.000000;2.039040
1920.000000;2.003276
1919.000000;1.838936
1918.000000;1.808685
1917.000000;1.931423
1916.000000;2.096574
1915.000000;2.130755
1914.000000;2.093557
1913.000000;2.127995
1912.000000;2.163681
1911.000000;2.084785
1910.000000;1.975190
1909.000000;1.972894
1908.000000;2.191017
1907.000000;2.688590
1906.000000;2.626778
1905.000000;2.394708
1904.000000;2.442340
1903.000000;2.476656
1902.000000;2.253840
1901.000000;2.056341
1900.000000;2.110932
1899.000000;2.536612
1898.000000;2.230857
1897.000000;1.921487
1896.000000;1.935103
1895.000000;2.199746
1894.000000;2.515793
1893.000000;2.068740
1892.000000;1.866134
1891.000000;1.914271
1890.000000;2.009621
1889.000000;2.214062
1888.000000;2.948188
1887.000000;2.644730
1886.000000;2.336724
1885.000000;2.222945
1884.000000;2.038920
1883.000000;1.967602
1882.000000;2.015687
1881.000000;2.135179
1880.000000;2.315653
1879.000000;2.485684
1878.000000;2.356897
1877.000000;2.245988
1876.000000;2.148128
1875.000000;2.175609
1874.000000;2.171412
1873.000000;1.970369
1872.000000;1.933160
1871.000000;2.017121
1870.000000;1.947790
1869.000000;1.853652
1868.000000;1.907384
1867.000000;2.234167
1866.000000;2.732851
1865.000000;2.472480
1864.000000;2.397207
1863.000000;2.192985
1862.000000;1.961598
1861.000000;1.994320
1860.000000;2.389185
1859.000000;2.398437
1858.000000;2.147662
1857.000000;2.168872
1856.000000;2.102384
1855.000000;2.050878
1854.000000;2.107698
1853.000000;2.229357
1852.000000;2.393029
1851.000000;2.670147
1850.000000;2.642141
1849.000000;2.410789
1848.000000;2.472742
1847.000000;2.602243
1846.000000;2.967870
1845.000000;2.929222
1844.000000;2.614054
1843.000000;2.551788
1842.000000;2.330786
1841.000000;2.284146
1840.000000;2.302647
1839.000000;2.313513
1838.000000;2.253110
1837.000000;2.033952
1836.000000;1.937411
1835.000000;1.933961
1834.000000;1.875366
1833.000000;1.831908
1832.000000;1.874657
1831.000000;2.070342
1830.000000;2.425086
1829.000000;2.378654
1828.000000;2.165214
1827.000000;2.049304
1826.000000;2.068778
1825.000000;2.230104
1824.000000;2.404930
1823.000000;2.490222
1822.000000;2.478480
1821.000000;2.325524
1820.000000;2.171067
1819.000000;2.133033
1818.000000;2.137365
1817.000000;2.087386
1816.000000;2.050347
1815.000000;2.165560
1814.000000;2.529194
1813.000000;3.154993
1812.000000;2.755781
1811.000000;2.635105
1810.000000;2.910874
1809.000000;2.946421
1808.000000;2.787727
1807.000000;2.400432
1806.000000;2.295917
1805.000000;2.635978
1804.000000;2.956020
1803.000000;2.496307
1802.000000;2.368367
1801.000000;2.377878
1800.000000;2.449514
1799.000000;2.595979
1798.000000;2.464777
1797.000000;2.260686
1796.000000;2.402436
1795.000000;2.707294
1794.000000;2.299491
1793.000000;2.169498
1792.000000;2.221643
1791.000000;2.265083
1790.000000;2.299034
1789.000000;2.181297
1788.000000;2.139007
1787.000000;2.256374
1786.000000;2.417313
1785.000000;2.587597
1784.000000;2.521666
1783.000000;2.246661
1782.000000;2.081050
1781.000000;2.090676
1780.000000;2.325155
1779.000000;2.727076
1778.000000;2.492909
1777.000000;2.114053
1776.000000;1.963864
1775.000000;1.995276
1774.000000;2.060754
1773.000000;1.995503
1772.000000;1.989420
1771.000000;2.187679
1770.000000;2.443571
1769.000000;2.610962
1768.000000;2.890659
1767.000000;2.517549
1766.000000;2.260423
1765.000000;2.313757
1764.000000;2.507596
1763.000000;2.670648
1762.000000;2.685309
1761.000000;2.548522
1760.000000;2.456294
1759.000000;2.417657
1758.000000;2.222280
1757.000000;2.006091
1756.000000;1.946226
1755.000000;2.193479
1754.000000;2.415420
1753.000000;2.093893
1752.000000;2.025583
1751.000000;2.254663
1750.000000;2.275201
1749.000000;1.945248
1748.000000;1.820379
1747.000000;1.983276
1746.000000;2.489624
1745.000000;2.269631
1744.000000;2.026955
1743.000000;2.301255
1742.000000;2.470673
1741.000000;1.963489
1740.000000;1.900103
1739.000000;2.090684
1738.000000;2.452888
1737.000000;2.996063
1736.000000;2.799918
1735.000000;2.499349
1734.000000;2.247040
1733.000000;2.170414
1732.000000;2.135649
1731.000000;2.063979
1730.000000;1.953378
1729.000000;1.876137
1728.000000;1.900318
1727.000000;2.033271
1726.000000;2.119921
1725.000000;2.093094
1724.000000;2.123781
1723.000000;2.414675
1722.000000;2.709017
1721.000000;2.307242
1720.000000;2.277500
1719.000000;2.626956
1718.000000;2.807418
1717.000000;2.488061
1716.000000;2.359782
1715.000000;2.441327
1714.000000;2.556424
1713.000000;2.287433
1712.000000;2.159795
1711.000000;2.210190
1710.000000;2.278374
1709.000000;2.323019
1708.000000;2.357707
1707.000000;2.385867
1706.000000;2.277150
1705.000000;2.296195
1704.000000;2.267616
1703.000000;2.086693
1702.000000;1.964408
1701.000000;1.993872
1700.000000;2.113609
1699.000000;2.086856
1698.000000;2.104362
1697.000000;2.134845
1696.000000;2.070576
1695.000000;2.002391
1694.000000;2.018619
1693.000000;2.047393
1692.000000;2.072890
1691.000000;2.247022
1690.000000;2.205655
1689.000000;2.065237
1688.000000;2.165138
1687.000000;2.262210
1686.000000;2.337553
1685.000000;2.697795
1684.000000;2.295119
1683.000000;1.891205
1682.000000;1.851725
1681.000000;2.105141
1680.000000;2.244708
1679.000000;1.979599
1678.000000;1.897348
1677.000000;1.938773
1676.000000;2.086235
1675.000000;2.076090
1674.000000;1.949213
1673.000000;1.953863
1672.000000;2.018049
1671.000000;2.162054
1670.000000;2.208080
1669.000000;2.070179
1668.000000;1.993914
1667.000000;1.974561
1666.000000;2.113488
1665.000000;2.289203
1664.000000;1.986729
1663.000000;1.808975
1662.000000;1.736469
1661.000000;1.685554
1660.000000;1.669837
1659.000000;1.693947
1658.000000;1.814608
1657.000000;2.033021
1656.000000;2.336659
1655.000000;2.637884
1654.000000;2.262482
1653.000000;2.033703
1652.000000;2.106749
1651.000000;2.110205
1650.000000;1.968376
1649.000000;1.908268
1648.000000;1.982233
1647.000000;2.131940
1646.000000;2.316348
1645.000000;2.679285
1644.000000;2.777760
1643.000000;2.541745
1642.000000;2.310001
1641.000000;2.080943
1640.000000;2.067869
1639.000000;2.285464
1638.000000;2.341214
1637.000000;2.046581
1636.000000;2.141029
1635.000000;2.455123
1634.000000;2.096848
1633.000000;2.013749
1632.000000;2.148614
1631.000000;2.187001
1630.000000;1.888808
1629.000000;1.734126
1628.000000;1.803003
1627.000000;2.007930
1626.000000;2.156490
1625.000000;2.161275
1624.000000;2.422638
1623.000000;2.209778
1622.000000;1.958480
1621.000000;2.044905
1620.000000;1.843066
1619.000000;1.684134
1618.000000;1.680078
1617.000000;1.925420
1616.000000;2.794346
1615.000000;2.096341
1614.000000;1.853914
1613.000000;1.769822
1612.000000;1.729862
1611.000000;2.076750
1610.000000;2.561000
1609.000000;1.941986
1608.000000;1.923334
1607.000000;2.182898
1606.000000;2.613807
1605.000000;2.625734
1604.000000;2.383650
1603.000000;2.263635
1602.000000;1.974436
1601.000000;1.858018
1600.000000;1.903428
1599.000000;1.916657
1598.000000;1.950071
1597.000000;2.287683
1596.000000;2.290518
1595.000000;1.945101
1594.000000;1.997931
1593.000000;2.465232
1592.000000;2.019835
1591.000000;1.758122
1590.000000;1.776496
1589.000000;2.045650
1588.000000;2.537707
1587.000000;2.058465
1586.000000;2.056988
1585.000000;2.444084
1584.000000;2.206529
1583.000000;1.900362
1582.000000;1.775270
1581.000000;1.744725
1580.000000;1.778961
1579.000000;1.917118
1578.000000;2.234857
1577.000000;2.384596
1576.000000;2.120874
1575.000000;2.100558
1574.000000;2.281009
1573.000000;2.570958
1572.000000;2.545820
1571.000000;1.921583
1570.000000;1.732546
1569.000000;1.883549
1568.000000;2.279820
1567.000000;2.890713
1566.000000;2.880940
1565.000000;2.780570
1564.000000;2.162181
1563.000000;1.968601
1562.000000;1.984662
1561.000000;2.017876
1560.000000;2.281094
1559.000000;2.201971
1558.000000;2.152654
1557.000000;2.150685
1556.000000;1.881025
1555.000000;1.821260
1554.000000;1.849499
1553.000000;2.010496
1552.000000;2.218391
1551.000000;2.292139
1550.000000;2.316609
1549.000000;2.021112
1548.000000;1.745228
1547.000000;1.633499
1546.000000;1.751643
1545.000000;2.282170
1544.000000;2.290818
1543.000000;1.895145
1542.000000;1.816502
1541.000000;1.865231
1540.000000;2.008558
1539.000000;2.097232
1538.000000;2.059710
1537.000000;1.842745
1536.000000;1.579768
1535.000000;1.472657
1534.000000;1.575733
1533.000000;1.773149
1532.000000;1.846564
1531.000000;1.914547
1530.000000;1.974476
1529.000000;2.049199
1528.000000;2.135491
1527.000000;2.202208
1526.000000;2.305488
1525.000000;2.475439
1524.000000;2.241066
1523.000000;2.211013
1522.000000;2.469619
1521.000000;2.207995
1520.000000;1.947244
1519.000000;1.943760
1518.000000;2.257512
1517.000000;2.163140
1516.000000;1.916327
1515.000000;1.960641
1514.000000;2.037365
1513.000000;2.112195
1512.000000;2.136700
1511.000000;2.084164
1510.000000;2.123979
1509.000000;2.105984
1508.000000;1.919356
1507.000000;1.747865
1506.000000;1.688843
1505.000000;1.738161
1504.000000;1.766094
1503.000000;1.762572
1502.000000;1.786849
1501.000000;1.809598
1500.000000;1.869160
1499.000000;1.990454
1498.000000;1.915774
1497.000000;1.761476
1496.000000;1.734710
1495.000000;1.797370
1494.000000;1.890941
1493.000000;1.871618
1492.000000;1.733553
1491.000000;1.681862
1490.000000;1.772618
1489.000000;2.023745
1488.000000;2.269672
1487.000000;2.000901
1486.000000;1.777623
1485.000000;1.802184
1484.000000;1.876464
1483.000000;1.697971
1482.000000;1.582042
1481.000000;1.665972
1480.000000;1.835207
1479.000000;1.757062
1478.000000;1.652785
1477.000000;1.671104
1476.000000;1.816288
1475.000000;2.085384
1474.000000;1.948096
1473.000000;1.696856
1472.000000;1.648480
1471.000000;1.908578
1470.000000;2.119045
1469.000000;1.782234
1468.000000;1.729240
1467.000000;1.855313
1466.000000;2.056594
1465.000000;2.012278
1464.000000;1.854547
1463.000000;1.826090
1462.000000;1.809748
1461.000000;1.802730
1460.000000;1.867046
1459.000000;1.990452
1458.000000;1.964461
1457.000000;1.905379
1456.000000;1.933128
1455.000000;2.066148
1454.000000;2.513675
1453.000000;2.451147
1452.000000;2.047171
1451.000000;1.901696
1450.000000;2.075844
1449.000000;2.132507
1448.000000;1.634567
1447.000000;1.497784
1446.000000;1.547614
1445.000000;1.916944
1444.000000;2.423958
1443.000000;1.774013
1442.000000;1.670012
1441.000000;1.720139
1440.000000;1.877096
1439.000000;2.001384
1438.000000;2.003893
1437.000000;1.981609
1436.000000;2.008695
1435.000000;2.703563
1434.000000;2.221212
1433.000000;1.820329
1432.000000;1.975933
1431.000000;2.223864
1430.000000;1.635088
1429.000000;1.404633
1428.000000;1.420925
1427.000000;1.720519
1426.000000;2.486815
1425.000000;1.808891
1424.000000;1.687298
1423.000000;1.766924
1422.000000;1.969898
1421.000000;2.267428
1420.000000;2.009931
1419.000000;1.917379
1418.000000;2.065479
1417.000000;2.359325
1416.000000;2.812167
1415.000000;2.466803
1414.000000;2.012900
1413.000000;2.053844
1412.000000;2.156719
1411.000000;1.943542
1410.000000;1.838442
1409.000000;2.134462
1408.000000;2.527222
1407.000000;2.255686
1406.000000;2.953886
1405.000000;2.248521
1404.000000;1.888789
1403.000000;1.859990
1402.000000;1.911855
1401.000000;2.039453
1400.000000;1.796998
1399.000000;1.612630
1398.000000;1.643641
1397.000000;1.784956
1396.000000;2.065261
1395.000000;2.326054
1394.000000;1.975355
1393.000000;1.824134
1392.000000;1.944291
1391.000000;2.182978
1390.000000;2.000083
1389.000000;1.925484
1388.000000;1.910139
1387.000000;1.741172
1386.000000;1.655550
1385.000000;1.682439
1384.000000;1.834545
1383.000000;2.114698
1382.000000;2.119397
1381.000000;1.835092
1380.000000;1.687170
1379.000000;1.800286
1378.000000;2.128111
1377.000000;1.948400
1376.000000;1.818973
1375.000000;1.997182
1374.000000;2.336767
1373.000000;2.020427
1372.000000;1.786393
1371.000000;1.742596
1370.000000;1.799866
1369.000000;1.879751
1368.000000;1.875837
1367.000000;1.909023
1366.000000;2.150789
1365.000000;2.534333
1364.000000;2.247087
1363.000000;2.036548
1362.000000;1.906539
1361.000000;1.803798
1360.000000;1.732424
1359.000000;1.703632
1358.000000;1.804779
1357.000000;1.826321
1356.000000;1.718465
1355.000000;1.756083
1354.000000;2.009369
1353.000000;2.810447
1352.000000;2.460522
1351.000000;2.120113
1350.000000;1.953084
1349.000000;1.759654
1348.000000;1.699614
1347.000000;1.892815
1346.000000;2.221930
1345.000000;1.819617
1344.000000;1.813531
1343.000000;2.164320
1342.000000;1.990137
1341.000000;1.820766
1340.000000;1.847850
1339.000000;1.899469
1338.000000;1.800699
1337.000000;1.751802
1336.000000;1.990462
1335.000000;2.063495
1334.000000;1.943845
1333.000000;2.386016
1332.000000;2.279349
1331.000000;2.134021
1330.000000;2.218536
1329.000000;1.952157
1328.000000;1.797459
1327.000000;1.870910
1326.000000;2.200999
1325.000000;1.749216
1324.000000;1.504124
1323.000000;1.553958
1322.000000;1.736186
1321.000000;1.829718
1320.000000;1.769733
1319.000000;1.776221
1318.000000;1.857748
1317.000000;1.969384
1316.000000;2.001816
1315.000000;1.992060
1314.000000;2.010599
1313.000000;2.109625
1312.000000;2.069952
1311.000000;1.815766
1310.000000;1.773413
1309.000000;1.863877
1308.000000;1.870681
1307.000000;1.716870
1306.000000;1.535676
1305.000000;1.553691
1304.000000;1.834512
1303.000000;2.141164
1302.000000;2.236983
1301.000000;2.185019
1300.000000;2.030042
1299.000000;1.991530
1298.000000;2.101200
1297.000000;2.188494
1296.000000;2.103081
1295.000000;1.997563
1294.000000;1.892785
1293.000000;2.140381
1292.000000;2.143050
1291.000000;1.692052
1290.000000;1.597590
1289.000000;1.725160
1288.000000;2.113995
1287.000000;2.404031
1286.000000;2.360995
1285.000000;2.475896
1284.000000;2.116667
1283.000000;1.747538
1282.000000;1.526133
1281.000000;1.511745
1280.000000;1.787139
1279.000000;2.157450
1278.000000;1.917276
1277.000000;1.972217
1276.000000;2.398531
1275.000000;2.097508
1274.000000;1.856860
1273.000000;1.914303
1272.000000;2.196621
1271.000000;2.431164
1270.000000;2.135858
1269.000000;1.985049
1268.000000;1.976794
1267.000000;1.925553
1266.000000;1.770953
1265.000000;1.678171
1264.000000;1.730073
1263.000000;1.928550
1262.000000;2.105207
1261.000000;2.035753
1260.000000;1.937665
1259.000000;1.850760
1258.000000;1.778480
1257.000000;1.758189
1256.000000;1.825783
1255.000000;1.872740
1254.000000;1.750177
1253.000000;1.642821
1252.000000;1.658293
1251.000000;1.594219
1250.000000;1.438542
1249.000000;1.398261
1248.000000;1.536781
1247.000000;1.856475
1246.000000;1.836104
1245.000000;1.654783
1244.000000;1.662703
1243.000000;1.728836
1242.000000;1.824715
1241.000000;2.036231
1240.000000;1.850660
1239.000000;1.644502
1238.000000;1.596684
1237.000000;1.564803
1236.000000;1.539031
1235.000000;1.581050
1234.000000;1.894479
1233.000000;2.069682
1232.000000;1.827651
1231.000000;2.001744
1230.000000;1.982562
1229.000000;2.059046
1228.000000;2.099787
1227.000000;1.820312
1226.000000;1.770305
1225.000000;1.705433
1224.000000;1.643001
1223.000000;1.702566
1222.000000;1.870811
1221.000000;1.725769
1220.000000;1.636717
1219.000000;1.887832
1218.000000;1.751759
1217.000000;1.508638
1216.000000;1.473750
1215.000000;1.544703
1214.000000;1.817493
1213.000000;2.100252
1212.000000;1.786747
1211.000000;1.780788
1210.000000;2.079706
1209.000000;2.010646
1208.000000;2.002955
1207.000000;2.332194
1206.000000;1.803472
1205.000000;1.549163
1204.000000;1.560907
1203.000000;1.610690
1202.000000;1.573025
1201.000000;1.659500
1200.000000;2.130402
