Criado como novo conjunto de dados;"2706_e01_daniel.spp","88567.0 Secs"
cm-1;Abs
10000.000000;0.650691
9999.000000;0.651128
9998.000000;0.651553
9997.000000;0.652006
9996.000000;0.652297
9995.000000;0.652265
9994.000000;0.651938
9993.000000;0.651374
9992.000000;0.650727
9991.000000;0.650168
9990.000000;0.649874
9989.000000;0.649931
9988.000000;0.650255
9987.000000;0.650602
9986.000000;0.650665
9985.000000;0.650179
9984.000000;0.649093
9983.000000;0.647739
9982.000000;0.646699
9981.000000;0.646336
9980.000000;0.646500
9979.000000;0.646804
9978.000000;0.647091
9977.000000;0.647452
9976.000000;0.647894
9975.000000;0.648236
9974.000000;0.648338
9973.000000;0.648254
9972.000000;0.648123
9971.000000;0.648055
9970.000000;0.648098
9969.000000;0.648185
9968.000000;0.648156
9967.000000;0.647943
9966.000000;0.647677
9965.000000;0.647480
9964.000000;0.647239
9963.000000;0.646799
9962.000000;0.646302
9961.000000;0.646064
9960.000000;0.646157
9959.000000;0.646352
9958.000000;0.646485
9957.000000;0.646593
9956.000000;0.646628
9955.000000;0.646366
9954.000000;0.645759
9953.000000;0.645159
9952.000000;0.644964
9951.000000;0.645194
9950.000000;0.645542
9949.000000;0.645731
9948.000000;0.645669
9947.000000;0.645369
9946.000000;0.644942
9945.000000;0.644647
9944.000000;0.644725
9943.000000;0.645129
9942.000000;0.645555
9941.000000;0.645797
9940.000000;0.645955
9939.000000;0.646196
9938.000000;0.646402
9937.000000;0.646243
9936.000000;0.645649
9935.000000;0.644994
9934.000000;0.644662
9933.000000;0.644556
9932.000000;0.644264
9931.000000;0.643669
9930.000000;0.643086
9929.000000;0.642759
9928.000000;0.642548
9927.000000;0.642314
9926.000000;0.642280
9925.000000;0.642702
9924.000000;0.643347
9923.000000;0.643718
9922.000000;0.643713
9921.000000;0.643708
9920.000000;0.643916
9919.000000;0.644033
9918.000000;0.643674
9917.000000;0.642909
9916.000000;0.642173
9915.000000;0.641808
9914.000000;0.641852
9913.000000;0.642156
9912.000000;0.642522
9911.000000;0.642774
9910.000000;0.642846
9909.000000;0.642812
9908.000000;0.642786
9907.000000;0.642788
9906.000000;0.642752
9905.000000;0.642614
9904.000000;0.642386
9903.000000;0.642144
9902.000000;0.641941
9901.000000;0.641725
9900.000000;0.641357
9899.000000;0.640798
9898.000000;0.640215
9897.000000;0.639813
9896.000000;0.639589
9895.000000;0.639341
9894.000000;0.638953
9893.000000;0.638539
9892.000000;0.638307
9891.000000;0.638353
9890.000000;0.638656
9889.000000;0.639156
9888.000000;0.639768
9887.000000;0.640341
9886.000000;0.640698
9885.000000;0.640748
9884.000000;0.640530
9883.000000;0.640153
9882.000000;0.639710
9881.000000;0.639294
9880.000000;0.639053
9879.000000;0.639154
9878.000000;0.639592
9877.000000;0.640080
9876.000000;0.640238
9875.000000;0.639946
9874.000000;0.639437
9873.000000;0.639042
9872.000000;0.638898
9871.000000;0.638923
9870.000000;0.638989
9869.000000;0.639046
9868.000000;0.639134
9867.000000;0.639299
9866.000000;0.639490
9865.000000;0.639543
9864.000000;0.639348
9863.000000;0.638984
9862.000000;0.638598
9861.000000;0.638211
9860.000000;0.637779
9859.000000;0.637420
9858.000000;0.637343
9857.000000;0.637547
9856.000000;0.637785
9855.000000;0.637905
9854.000000;0.638011
9853.000000;0.638185
9852.000000;0.638264
9851.000000;0.638050
9850.000000;0.637563
9849.000000;0.636975
9848.000000;0.636438
9847.000000;0.636130
9846.000000;0.636244
9845.000000;0.636709
9844.000000;0.637056
9843.000000;0.636841
9842.000000;0.636153
9841.000000;0.635504
9840.000000;0.635277
9839.000000;0.635427
9838.000000;0.635646
9837.000000;0.635656
9836.000000;0.635404
9835.000000;0.635138
9834.000000;0.635211
9833.000000;0.635661
9832.000000;0.636044
9831.000000;0.635861
9830.000000;0.635115
9829.000000;0.634277
9828.000000;0.633784
9827.000000;0.633728
9826.000000;0.633961
9825.000000;0.634294
9824.000000;0.634573
9823.000000;0.634722
9822.000000;0.634773
9821.000000;0.634751
9820.000000;0.634567
9819.000000;0.634128
9818.000000;0.633523
9817.000000;0.633004
9816.000000;0.632769
9815.000000;0.632835
9814.000000;0.633046
9813.000000;0.633169
9812.000000;0.633075
9811.000000;0.632901
9810.000000;0.632932
9809.000000;0.633226
9808.000000;0.633499
9807.000000;0.633487
9806.000000;0.633266
9805.000000;0.633074
9804.000000;0.632975
9803.000000;0.632895
9802.000000;0.632833
9801.000000;0.632840
9800.000000;0.632885
9799.000000;0.632932
9798.000000;0.633045
9797.000000;0.633201
9796.000000;0.633168
9795.000000;0.632808
9794.000000;0.632372
9793.000000;0.632196
9792.000000;0.632186
9791.000000;0.631948
9790.000000;0.631413
9789.000000;0.630991
9788.000000;0.631025
9787.000000;0.631384
9786.000000;0.631675
9785.000000;0.631687
9784.000000;0.631503
9783.000000;0.631319
9782.000000;0.631229
9781.000000;0.631089
9780.000000;0.630625
9779.000000;0.629779
9778.000000;0.628919
9777.000000;0.628531
9776.000000;0.628737
9775.000000;0.629265
9774.000000;0.629822
9773.000000;0.630284
9772.000000;0.630551
9771.000000;0.630513
9770.000000;0.630247
9769.000000;0.630041
9768.000000;0.630137
9767.000000;0.630536
9766.000000;0.631058
9765.000000;0.631445
9764.000000;0.631453
9763.000000;0.631041
9762.000000;0.630499
9761.000000;0.630191
9760.000000;0.630147
9759.000000;0.630066
9758.000000;0.629728
9757.000000;0.629219
9756.000000;0.628763
9755.000000;0.628528
9754.000000;0.628627
9753.000000;0.629061
9752.000000;0.629565
9751.000000;0.629734
9750.000000;0.629429
9749.000000;0.628941
9748.000000;0.628635
9747.000000;0.628565
9746.000000;0.628542
9745.000000;0.628446
9744.000000;0.628347
9743.000000;0.628368
9742.000000;0.628512
9741.000000;0.628627
9740.000000;0.628558
9739.000000;0.628363
9738.000000;0.628294
9737.000000;0.628472
9736.000000;0.628657
9735.000000;0.628500
9734.000000;0.627991
9733.000000;0.627475
9732.000000;0.627242
9731.000000;0.627277
9730.000000;0.627405
9729.000000;0.627465
9728.000000;0.627340
9727.000000;0.627017
9726.000000;0.626697
9725.000000;0.626658
9724.000000;0.626902
9723.000000;0.627074
9722.000000;0.626851
9721.000000;0.626330
9720.000000;0.625921
9719.000000;0.625913
9718.000000;0.626229
9717.000000;0.626526
9716.000000;0.626540
9715.000000;0.626355
9714.000000;0.626324
9713.000000;0.626613
9712.000000;0.626918
9711.000000;0.626785
9710.000000;0.626206
9709.000000;0.625665
9708.000000;0.625565
9707.000000;0.625780
9706.000000;0.625882
9705.000000;0.625633
9704.000000;0.625144
9703.000000;0.624687
9702.000000;0.624482
9701.000000;0.624582
9700.000000;0.624823
9699.000000;0.624892
9698.000000;0.624578
9697.000000;0.623987
9696.000000;0.623496
9695.000000;0.623467
9694.000000;0.623944
9693.000000;0.624566
9692.000000;0.624845
9691.000000;0.624625
9690.000000;0.624231
9689.000000;0.624091
9688.000000;0.624258
9687.000000;0.624432
9686.000000;0.624409
9685.000000;0.624290
9684.000000;0.624218
9683.000000;0.624110
9682.000000;0.623776
9681.000000;0.623220
9680.000000;0.622711
9679.000000;0.622541
9678.000000;0.622771
9677.000000;0.623152
9676.000000;0.623311
9675.000000;0.623066
9674.000000;0.622577
9673.000000;0.622151
9672.000000;0.621921
9671.000000;0.621805
9670.000000;0.621729
9669.000000;0.621743
9668.000000;0.621885
9667.000000;0.622065
9666.000000;0.622121
9665.000000;0.621968
9664.000000;0.621674
9663.000000;0.621433
9662.000000;0.621423
9661.000000;0.621606
9660.000000;0.621724
9659.000000;0.621596
9658.000000;0.621377
9657.000000;0.621384
9656.000000;0.621685
9655.000000;0.622031
9654.000000;0.622183
9653.000000;0.622116
9652.000000;0.621884
9651.000000;0.621485
9650.000000;0.620975
9649.000000;0.620557
9648.000000;0.620389
9647.000000;0.620397
9646.000000;0.620389
9645.000000;0.620327
9644.000000;0.620361
9643.000000;0.620588
9642.000000;0.620869
9641.000000;0.620935
9640.000000;0.620667
9639.000000;0.620235
9638.000000;0.619928
9637.000000;0.619855
9636.000000;0.619843
9635.000000;0.619665
9634.000000;0.619325
9633.000000;0.619020
9632.000000;0.618873
9631.000000;0.618781
9630.000000;0.618555
9629.000000;0.618153
9628.000000;0.617755
9627.000000;0.617616
9626.000000;0.617836
9625.000000;0.618275
9624.000000;0.618705
9623.000000;0.619039
9622.000000;0.619315
9621.000000;0.619489
9620.000000;0.619410
9619.000000;0.619093
9618.000000;0.618811
9617.000000;0.618790
9616.000000;0.618910
9615.000000;0.618888
9614.000000;0.618653
9613.000000;0.618380
9612.000000;0.618227
9611.000000;0.618213
9610.000000;0.618299
9609.000000;0.618392
9608.000000;0.618324
9607.000000;0.618021
9606.000000;0.617649
9605.000000;0.617397
9604.000000;0.617143
9603.000000;0.616619
9602.000000;0.615916
9601.000000;0.615531
9600.000000;0.615774
9599.000000;0.616347
9598.000000;0.616695
9597.000000;0.616637
9596.000000;0.616461
9595.000000;0.616504
9594.000000;0.616817
9593.000000;0.617221
9592.000000;0.617506
9591.000000;0.617524
9590.000000;0.617207
9589.000000;0.616616
9588.000000;0.615975
9587.000000;0.615581
9586.000000;0.615595
9585.000000;0.615889
9584.000000;0.616184
9583.000000;0.616341
9582.000000;0.616475
9581.000000;0.616708
9580.000000;0.616926
9579.000000;0.616896
9578.000000;0.616569
9577.000000;0.616162
9576.000000;0.615917
9575.000000;0.615909
9574.000000;0.616052
9573.000000;0.616202
9572.000000;0.616224
9571.000000;0.616072
9570.000000;0.615811
9569.000000;0.615515
9568.000000;0.615173
9567.000000;0.614766
9566.000000;0.614415
9565.000000;0.614309
9564.000000;0.614482
9563.000000;0.614739
9562.000000;0.614833
9561.000000;0.614660
9560.000000;0.614279
9559.000000;0.613836
9558.000000;0.613466
9557.000000;0.613224
9556.000000;0.613093
9555.000000;0.613072
9554.000000;0.613206
9553.000000;0.613470
9552.000000;0.613694
9551.000000;0.613710
9550.000000;0.613525
9549.000000;0.613273
9548.000000;0.613055
9547.000000;0.612924
9546.000000;0.612963
9545.000000;0.613223
9544.000000;0.613577
9543.000000;0.613788
9542.000000;0.613748
9541.000000;0.613556
9540.000000;0.613341
9539.000000;0.613122
9538.000000;0.612858
9537.000000;0.612553
9536.000000;0.612284
9535.000000;0.612146
9534.000000;0.612174
9533.000000;0.612276
9532.000000;0.612276
9531.000000;0.612076
9530.000000;0.611727
9529.000000;0.611317
9528.000000;0.610892
9527.000000;0.610559
9526.000000;0.610530
9525.000000;0.610903
9524.000000;0.611454
9523.000000;0.611817
9522.000000;0.611835
9521.000000;0.611633
9520.000000;0.611369
9519.000000;0.611099
9518.000000;0.610839
9517.000000;0.610605
9516.000000;0.610374
9515.000000;0.610139
9514.000000;0.610007
9513.000000;0.610089
9512.000000;0.610327
9511.000000;0.610548
9510.000000;0.610692
9509.000000;0.610839
9508.000000;0.611019
9507.000000;0.611144
9506.000000;0.611146
9505.000000;0.611011
9504.000000;0.610685
9503.000000;0.610114
9502.000000;0.609446
9501.000000;0.609029
9500.000000;0.609093
9499.000000;0.609527
9498.000000;0.610004
9497.000000;0.610243
9496.000000;0.610154
9495.000000;0.609829
9494.000000;0.609474
9493.000000;0.609225
9492.000000;0.609013
9491.000000;0.608693
9490.000000;0.608335
9489.000000;0.608233
9488.000000;0.608546
9487.000000;0.609046
9486.000000;0.609370
9485.000000;0.609432
9484.000000;0.609460
9483.000000;0.609613
9482.000000;0.609707
9481.000000;0.609418
9480.000000;0.608706
9479.000000;0.607931
9478.000000;0.607493
9477.000000;0.607431
9476.000000;0.607474
9475.000000;0.607451
9474.000000;0.607477
9473.000000;0.607687
9472.000000;0.607951
9471.000000;0.608009
9470.000000;0.607796
9469.000000;0.607499
9468.000000;0.607327
9467.000000;0.607339
9466.000000;0.607451
9465.000000;0.607510
9464.000000;0.607401
9463.000000;0.607188
9462.000000;0.607087
9461.000000;0.607214
9460.000000;0.607414
9459.000000;0.607463
9458.000000;0.607350
9457.000000;0.607217
9456.000000;0.607082
9455.000000;0.606834
9454.000000;0.606478
9453.000000;0.606182
9452.000000;0.606068
9451.000000;0.606092
9450.000000;0.606146
9449.000000;0.606153
9448.000000;0.606053
9447.000000;0.605850
9446.000000;0.605670
9445.000000;0.605631
9444.000000;0.605637
9443.000000;0.605459
9442.000000;0.605052
9441.000000;0.604629
9440.000000;0.604391
9439.000000;0.604337
9438.000000;0.604388
9437.000000;0.604533
9436.000000;0.604750
9435.000000;0.604914
9434.000000;0.604894
9433.000000;0.604692
9432.000000;0.604416
9431.000000;0.604169
9430.000000;0.604023
9429.000000;0.604013
9428.000000;0.604094
9427.000000;0.604178
9426.000000;0.604236
9425.000000;0.604308
9424.000000;0.604377
9423.000000;0.604341
9422.000000;0.604178
9421.000000;0.604043
9420.000000;0.604105
9419.000000;0.604310
9418.000000;0.604386
9417.000000;0.604129
9416.000000;0.603631
9415.000000;0.603189
9414.000000;0.603012
9413.000000;0.603045
9412.000000;0.603115
9411.000000;0.603161
9410.000000;0.603236
9409.000000;0.603304
9408.000000;0.603218
9407.000000;0.602938
9406.000000;0.602637
9405.000000;0.602486
9404.000000;0.602456
9403.000000;0.602466
9402.000000;0.602563
9401.000000;0.602798
9400.000000;0.603019
9399.000000;0.603007
9398.000000;0.602786
9397.000000;0.602592
9396.000000;0.602562
9395.000000;0.602609
9394.000000;0.602623
9393.000000;0.602599
9392.000000;0.602548
9391.000000;0.602474
9390.000000;0.602445
9389.000000;0.602537
9388.000000;0.602640
9387.000000;0.602489
9386.000000;0.601962
9385.000000;0.601251
9384.000000;0.600670
9383.000000;0.600387
9382.000000;0.600361
9381.000000;0.600428
9380.000000;0.600426
9379.000000;0.600324
9378.000000;0.600269
9377.000000;0.600401
9376.000000;0.600621
9375.000000;0.600692
9374.000000;0.600563
9373.000000;0.600475
9372.000000;0.600636
9371.000000;0.600934
9370.000000;0.601050
9369.000000;0.600791
9368.000000;0.600259
9367.000000;0.599749
9366.000000;0.599533
9365.000000;0.599662
9364.000000;0.599949
9363.000000;0.600143
9362.000000;0.600134
9361.000000;0.599934
9360.000000;0.599555
9359.000000;0.599033
9358.000000;0.598567
9357.000000;0.598423
9356.000000;0.598659
9355.000000;0.599034
9354.000000;0.599237
9353.000000;0.599139
9352.000000;0.598810
9351.000000;0.598437
9350.000000;0.598225
9349.000000;0.598233
9348.000000;0.598264
9347.000000;0.598077
9346.000000;0.597748
9345.000000;0.597662
9344.000000;0.598041
9343.000000;0.598625
9342.000000;0.598952
9341.000000;0.598853
9340.000000;0.598550
9339.000000;0.598351
9338.000000;0.598387
9337.000000;0.598588
9336.000000;0.598746
9335.000000;0.598639
9334.000000;0.598230
9333.000000;0.597762
9332.000000;0.597563
9331.000000;0.597702
9330.000000;0.597917
9329.000000;0.597913
9328.000000;0.597682
9327.000000;0.597465
9326.000000;0.597447
9325.000000;0.597558
9324.000000;0.597592
9323.000000;0.597451
9322.000000;0.597205
9321.000000;0.596934
9320.000000;0.596617
9319.000000;0.596231
9318.000000;0.595890
9317.000000;0.595761
9316.000000;0.595875
9315.000000;0.596094
9314.000000;0.596283
9313.000000;0.596439
9312.000000;0.596639
9311.000000;0.596895
9310.000000;0.597077
9309.000000;0.597004
9308.000000;0.596616
9307.000000;0.596104
9306.000000;0.595771
9305.000000;0.595714
9304.000000;0.595699
9303.000000;0.595434
9302.000000;0.594953
9301.000000;0.594603
9300.000000;0.594648
9299.000000;0.594992
9298.000000;0.595300
9297.000000;0.595336
9296.000000;0.595136
9295.000000;0.594916
9294.000000;0.594832
9293.000000;0.594851
9292.000000;0.594837
9291.000000;0.594759
9290.000000;0.594719
9289.000000;0.594753
9288.000000;0.594722
9287.000000;0.594504
9286.000000;0.594219
9285.000000;0.594102
9284.000000;0.594202
9283.000000;0.594340
9282.000000;0.594367
9281.000000;0.594332
9280.000000;0.594351
9279.000000;0.594435
9278.000000;0.594478
9277.000000;0.594364
9276.000000;0.594064
9275.000000;0.593712
9274.000000;0.593551
9273.000000;0.593721
9272.000000;0.594066
9271.000000;0.594240
9270.000000;0.594031
9269.000000;0.593533
9268.000000;0.593006
9267.000000;0.592667
9266.000000;0.592584
9265.000000;0.592658
9264.000000;0.592675
9263.000000;0.592487
9262.000000;0.592168
9261.000000;0.591928
9260.000000;0.591865
9259.000000;0.591894
9258.000000;0.591899
9257.000000;0.591869
9256.000000;0.591838
9255.000000;0.591822
9254.000000;0.591854
9253.000000;0.591992
9252.000000;0.592232
9251.000000;0.592460
9250.000000;0.592553
9249.000000;0.592483
9248.000000;0.592304
9247.000000;0.592090
9246.000000;0.591900
9245.000000;0.591763
9244.000000;0.591648
9243.000000;0.591509
9242.000000;0.591353
9241.000000;0.591253
9240.000000;0.591260
9239.000000;0.591361
9238.000000;0.591513
9237.000000;0.591656
9236.000000;0.591678
9235.000000;0.591435
9234.000000;0.590862
9233.000000;0.590077
9232.000000;0.589396
9231.000000;0.589182
9230.000000;0.589567
9229.000000;0.590263
9228.000000;0.590731
9227.000000;0.590669
9226.000000;0.590295
9225.000000;0.590045
9224.000000;0.590093
9223.000000;0.590266
9222.000000;0.590380
9221.000000;0.590423
9220.000000;0.590408
9219.000000;0.590240
9218.000000;0.589853
9217.000000;0.589383
9216.000000;0.589112
9215.000000;0.589233
9214.000000;0.589687
9213.000000;0.590171
9212.000000;0.590318
9211.000000;0.589981
9210.000000;0.589370
9209.000000;0.588858
9208.000000;0.588658
9207.000000;0.588742
9206.000000;0.588991
9205.000000;0.589279
9204.000000;0.589443
9203.000000;0.589355
9202.000000;0.589077
9201.000000;0.588824
9200.000000;0.588722
9199.000000;0.588724
9198.000000;0.588763
9197.000000;0.588836
9196.000000;0.588861
9195.000000;0.588650
9194.000000;0.588157
9193.000000;0.587625
9192.000000;0.587338
9191.000000;0.587311
9190.000000;0.587359
9189.000000;0.587392
9188.000000;0.587474
9187.000000;0.587623
9186.000000;0.587738
9185.000000;0.587753
9184.000000;0.587747
9183.000000;0.587831
9182.000000;0.587985
9181.000000;0.588091
9180.000000;0.588085
9179.000000;0.588028
9178.000000;0.588004
9177.000000;0.587992
9176.000000;0.587899
9175.000000;0.587706
9174.000000;0.587530
9173.000000;0.587477
9172.000000;0.587475
9171.000000;0.587339
9170.000000;0.587010
9169.000000;0.586651
9168.000000;0.586457
9167.000000;0.586450
9166.000000;0.586503
9165.000000;0.586504
9164.000000;0.586423
9163.000000;0.586268
9162.000000;0.586054
9161.000000;0.585832
9160.000000;0.585666
9159.000000;0.585568
9158.000000;0.585486
9157.000000;0.585378
9156.000000;0.585271
9155.000000;0.585247
9154.000000;0.585354
9153.000000;0.585551
9152.000000;0.585725
9151.000000;0.585781
9150.000000;0.585717
9149.000000;0.585610
9148.000000;0.585527
9147.000000;0.585448
9146.000000;0.585297
9145.000000;0.585038
9144.000000;0.584747
9143.000000;0.584583
9142.000000;0.584655
9141.000000;0.584919
9140.000000;0.585205
9139.000000;0.585355
9138.000000;0.585316
9137.000000;0.585128
9136.000000;0.584891
9135.000000;0.584717
9134.000000;0.584665
9133.000000;0.584674
9132.000000;0.584606
9131.000000;0.584391
9130.000000;0.584081
9129.000000;0.583767
9128.000000;0.583500
9127.000000;0.583323
9126.000000;0.583305
9125.000000;0.583443
9124.000000;0.583593
9123.000000;0.583582
9122.000000;0.583393
9121.000000;0.583175
9120.000000;0.583100
9119.000000;0.583235
9118.000000;0.583533
9117.000000;0.583846
9116.000000;0.583984
9115.000000;0.583835
9114.000000;0.583471
9113.000000;0.583090
9112.000000;0.582868
9111.000000;0.582865
9110.000000;0.583024
9109.000000;0.583201
9108.000000;0.583250
9107.000000;0.583158
9106.000000;0.583065
9105.000000;0.583076
9104.000000;0.583089
9103.000000;0.582909
9102.000000;0.582518
9101.000000;0.582142
9100.000000;0.582011
9099.000000;0.582122
9098.000000;0.582253
9097.000000;0.582162
9096.000000;0.581790
9095.000000;0.581332
9094.000000;0.581100
9093.000000;0.581244
9092.000000;0.581596
9091.000000;0.581833
9090.000000;0.581800
9089.000000;0.581633
9088.000000;0.581537
9087.000000;0.581544
9086.000000;0.581515
9085.000000;0.581318
9084.000000;0.580973
9083.000000;0.580646
9082.000000;0.580519
9081.000000;0.580632
9080.000000;0.580831
9079.000000;0.580910
9078.000000;0.580789
9077.000000;0.580556
9076.000000;0.580338
9075.000000;0.580184
9074.000000;0.580076
9073.000000;0.579993
9072.000000;0.579932
9071.000000;0.579904
9070.000000;0.579924
9069.000000;0.579984
9068.000000;0.580061
9067.000000;0.580167
9066.000000;0.580378
9065.000000;0.580719
9064.000000;0.581030
9063.000000;0.581017
9062.000000;0.580537
9061.000000;0.579788
9060.000000;0.579169
9059.000000;0.578943
9058.000000;0.579037
9057.000000;0.579180
9056.000000;0.579194
9055.000000;0.579133
9054.000000;0.579155
9053.000000;0.579300
9052.000000;0.579463
9051.000000;0.579544
9050.000000;0.579550
9049.000000;0.579506
9048.000000;0.579351
9047.000000;0.579012
9046.000000;0.578560
9045.000000;0.578203
9044.000000;0.578081
9043.000000;0.578110
9042.000000;0.578073
9041.000000;0.577854
9040.000000;0.577568
9039.000000;0.577442
9038.000000;0.577573
9037.000000;0.577833
9036.000000;0.578002
9035.000000;0.577975
9034.000000;0.577809
9033.000000;0.577604
9032.000000;0.577418
9031.000000;0.577276
9030.000000;0.577197
9029.000000;0.577190
9028.000000;0.577236
9027.000000;0.577300
9026.000000;0.577320
9025.000000;0.577220
9024.000000;0.577009
9023.000000;0.576842
9022.000000;0.576864
9021.000000;0.577012
9020.000000;0.577070
9019.000000;0.576946
9018.000000;0.576778
9017.000000;0.576708
9016.000000;0.576699
9015.000000;0.576647
9014.000000;0.576554
9013.000000;0.576486
9012.000000;0.576452
9011.000000;0.576422
9010.000000;0.576400
9009.000000;0.576361
9008.000000;0.576227
9007.000000;0.576013
9006.000000;0.575905
9005.000000;0.576025
9004.000000;0.576199
9003.000000;0.576149
9002.000000;0.575903
9001.000000;0.575795
9000.000000;0.576016
8999.000000;0.576339
8998.000000;0.576396
8997.000000;0.576107
8996.000000;0.575725
8995.000000;0.575522
8994.000000;0.575554
8993.000000;0.575700
8992.000000;0.575796
8991.000000;0.575731
8990.000000;0.575485
8989.000000;0.575134
8988.000000;0.574813
8987.000000;0.574623
8986.000000;0.574575
8985.000000;0.574616
8984.000000;0.574706
8983.000000;0.574830
8982.000000;0.574947
8981.000000;0.574958
8980.000000;0.574798
8979.000000;0.574542
8978.000000;0.574353
8977.000000;0.574307
8976.000000;0.574313
8975.000000;0.574237
8974.000000;0.574071
8973.000000;0.573945
8972.000000;0.573978
8971.000000;0.574137
8970.000000;0.574253
8969.000000;0.574160
8968.000000;0.573850
8967.000000;0.573498
8966.000000;0.573301
8965.000000;0.573321
8964.000000;0.573486
8963.000000;0.573694
8962.000000;0.573861
8961.000000;0.573894
8960.000000;0.573746
8959.000000;0.573508
8958.000000;0.573332
8957.000000;0.573247
8956.000000;0.573143
8955.000000;0.572971
8954.000000;0.572854
8953.000000;0.572920
8952.000000;0.573101
8951.000000;0.573190
8950.000000;0.573049
8949.000000;0.572711
8948.000000;0.572307
8947.000000;0.571974
8946.000000;0.571783
8945.000000;0.571710
8944.000000;0.571692
8943.000000;0.571704
8942.000000;0.571757
8941.000000;0.571806
8940.000000;0.571762
8939.000000;0.571616
8938.000000;0.571479
8937.000000;0.571435
8936.000000;0.571458
8935.000000;0.571516
8934.000000;0.571647
8933.000000;0.571867
8932.000000;0.572059
8931.000000;0.572079
8930.000000;0.571932
8929.000000;0.571766
8928.000000;0.571706
8927.000000;0.571744
8926.000000;0.571750
8925.000000;0.571565
8924.000000;0.571154
8923.000000;0.570692
8922.000000;0.570428
8921.000000;0.570416
8920.000000;0.570461
8919.000000;0.570393
8918.000000;0.570288
8917.000000;0.570333
8916.000000;0.570543
8915.000000;0.570743
8914.000000;0.570775
8913.000000;0.570638
8912.000000;0.570440
8911.000000;0.570312
8910.000000;0.570324
8909.000000;0.570406
8908.000000;0.570402
8907.000000;0.570265
8906.000000;0.570153
8905.000000;0.570231
8904.000000;0.570418
8903.000000;0.570463
8902.000000;0.570249
8901.000000;0.569927
8900.000000;0.569729
8899.000000;0.569718
8898.000000;0.569759
8897.000000;0.569662
8896.000000;0.569371
8895.000000;0.569020
8894.000000;0.568822
8893.000000;0.568873
8892.000000;0.569065
8891.000000;0.569197
8890.000000;0.569156
8889.000000;0.568993
8888.000000;0.568854
8887.000000;0.568848
8886.000000;0.568930
8885.000000;0.568935
8884.000000;0.568772
8883.000000;0.568561
8882.000000;0.568487
8881.000000;0.568528
8880.000000;0.568489
8879.000000;0.568296
8878.000000;0.568100
8877.000000;0.568036
8876.000000;0.568063
8875.000000;0.568108
8874.000000;0.568222
8873.000000;0.568419
8872.000000;0.568537
8871.000000;0.568428
8870.000000;0.568213
8869.000000;0.568149
8868.000000;0.568287
8867.000000;0.568446
8866.000000;0.568483
8865.000000;0.568440
8864.000000;0.568402
8863.000000;0.568360
8862.000000;0.568248
8861.000000;0.568037
8860.000000;0.567772
8859.000000;0.567553
8858.000000;0.567471
8857.000000;0.567499
8856.000000;0.567485
8855.000000;0.567317
8854.000000;0.567061
8853.000000;0.566880
8852.000000;0.566863
8851.000000;0.566992
8850.000000;0.567206
8849.000000;0.567399
8848.000000;0.567425
8847.000000;0.567222
8846.000000;0.566903
8845.000000;0.566647
8844.000000;0.566510
8843.000000;0.566448
8842.000000;0.566451
8841.000000;0.566543
8840.000000;0.566667
8839.000000;0.566688
8838.000000;0.566526
8837.000000;0.566219
8836.000000;0.565873
8835.000000;0.565627
8834.000000;0.565611
8833.000000;0.565826
8832.000000;0.566087
8831.000000;0.566180
8830.000000;0.566087
8829.000000;0.565959
8828.000000;0.565897
8827.000000;0.565839
8826.000000;0.565685
8825.000000;0.565449
8824.000000;0.565273
8823.000000;0.565317
8822.000000;0.565605
8821.000000;0.565961
8820.000000;0.566123
8819.000000;0.565990
8818.000000;0.565717
8817.000000;0.565538
8816.000000;0.565542
8815.000000;0.565663
8814.000000;0.565797
8813.000000;0.565862
8812.000000;0.565802
8811.000000;0.565637
8810.000000;0.565457
8809.000000;0.565306
8808.000000;0.565128
8807.000000;0.564904
8806.000000;0.564758
8805.000000;0.564820
8804.000000;0.565033
8803.000000;0.565208
8802.000000;0.565211
8801.000000;0.565034
8800.000000;0.564728
8799.000000;0.564384
8798.000000;0.564131
8797.000000;0.564036
8796.000000;0.564038
8795.000000;0.564067
8794.000000;0.564167
8793.000000;0.564401
8792.000000;0.564690
8791.000000;0.564879
8790.000000;0.564910
8789.000000;0.564832
8788.000000;0.564657
8787.000000;0.564354
8786.000000;0.563964
8785.000000;0.563613
8784.000000;0.563400
8783.000000;0.563362
8782.000000;0.563525
8781.000000;0.563857
8780.000000;0.564198
8779.000000;0.564343
8778.000000;0.564233
8777.000000;0.564000
8776.000000;0.563818
8775.000000;0.563763
8774.000000;0.563785
8773.000000;0.563751
8772.000000;0.563550
8771.000000;0.563233
8770.000000;0.563006
8769.000000;0.563022
8768.000000;0.563202
8767.000000;0.563352
8766.000000;0.563391
8765.000000;0.563383
8764.000000;0.563386
8763.000000;0.563400
8762.000000;0.563426
8761.000000;0.563465
8760.000000;0.563476
8759.000000;0.563421
8758.000000;0.563338
8757.000000;0.563290
8756.000000;0.563282
8755.000000;0.563302
8754.000000;0.563388
8753.000000;0.563558
8752.000000;0.563708
8751.000000;0.563691
8750.000000;0.563483
8749.000000;0.563181
8748.000000;0.562887
8747.000000;0.562679
8746.000000;0.562627
8745.000000;0.562714
8744.000000;0.562793
8743.000000;0.562748
8742.000000;0.562663
8741.000000;0.562692
8740.000000;0.562814
8739.000000;0.562872
8738.000000;0.562815
8737.000000;0.562748
8736.000000;0.562731
8735.000000;0.562711
8734.000000;0.562651
8733.000000;0.562597
8732.000000;0.562572
8731.000000;0.562543
8730.000000;0.562515
8729.000000;0.562535
8728.000000;0.562584
8727.000000;0.562575
8726.000000;0.562495
8725.000000;0.562435
8724.000000;0.562458
8723.000000;0.562535
8722.000000;0.562628
8721.000000;0.562726
8720.000000;0.562776
8719.000000;0.562682
8718.000000;0.562432
8717.000000;0.562144
8716.000000;0.561965
8715.000000;0.561953
8714.000000;0.562071
8713.000000;0.562211
8712.000000;0.562235
8711.000000;0.562089
8710.000000;0.561883
8709.000000;0.561786
8708.000000;0.561840
8707.000000;0.561944
8706.000000;0.562001
8705.000000;0.561990
8704.000000;0.561901
8703.000000;0.561714
8702.000000;0.561472
8701.000000;0.561280
8700.000000;0.561208
8699.000000;0.561262
8698.000000;0.561441
8697.000000;0.561733
8696.000000;0.562029
8695.000000;0.562146
8694.000000;0.561998
8693.000000;0.561681
8692.000000;0.561376
8691.000000;0.561196
8690.000000;0.561137
8689.000000;0.561118
8688.000000;0.561046
8687.000000;0.560906
8686.000000;0.560798
8685.000000;0.560830
8684.000000;0.561004
8683.000000;0.561217
8682.000000;0.561367
8681.000000;0.561394
8680.000000;0.561291
8679.000000;0.561135
8678.000000;0.561070
8677.000000;0.561152
8676.000000;0.561252
8675.000000;0.561205
8674.000000;0.561031
8673.000000;0.560887
8672.000000;0.560823
8671.000000;0.560706
8670.000000;0.560419
8669.000000;0.560044
8668.000000;0.559779
8667.000000;0.559745
8666.000000;0.559878
8665.000000;0.559974
8664.000000;0.559850
8663.000000;0.559517
8662.000000;0.559202
8661.000000;0.559126
8660.000000;0.559280
8659.000000;0.559470
8658.000000;0.559552
8657.000000;0.559523
8656.000000;0.559433
8655.000000;0.559302
8654.000000;0.559159
8653.000000;0.559063
8652.000000;0.559038
8651.000000;0.559050
8650.000000;0.559055
8649.000000;0.559028
8648.000000;0.558947
8647.000000;0.558812
8646.000000;0.558673
8645.000000;0.558575
8644.000000;0.558494
8643.000000;0.558367
8642.000000;0.558167
8641.000000;0.557918
8640.000000;0.557659
8639.000000;0.557439
8638.000000;0.557313
8637.000000;0.557290
8636.000000;0.557304
8635.000000;0.557304
8634.000000;0.557300
8633.000000;0.557285
8632.000000;0.557170
8631.000000;0.556903
8630.000000;0.556605
8629.000000;0.556479
8628.000000;0.556601
8627.000000;0.556875
8626.000000;0.557156
8625.000000;0.557320
8624.000000;0.557273
8623.000000;0.557006
8622.000000;0.556648
8621.000000;0.556352
8620.000000;0.556151
8619.000000;0.555989
8618.000000;0.555848
8617.000000;0.555752
8616.000000;0.555687
8615.000000;0.555626
8614.000000;0.555614
8613.000000;0.555688
8612.000000;0.555752
8611.000000;0.555644
8610.000000;0.555334
8609.000000;0.554948
8608.000000;0.554610
8607.000000;0.554358
8606.000000;0.554184
8605.000000;0.554059
8604.000000;0.553917
8603.000000;0.553746
8602.000000;0.553660
8601.000000;0.553765
8600.000000;0.553966
8599.000000;0.554041
8598.000000;0.553905
8597.000000;0.553666
8596.000000;0.553431
8595.000000;0.553230
8594.000000;0.553115
8593.000000;0.553177
8592.000000;0.553373
8591.000000;0.553505
8590.000000;0.553438
8589.000000;0.553235
8588.000000;0.552998
8587.000000;0.552696
8586.000000;0.552290
8585.000000;0.551921
8584.000000;0.551824
8583.000000;0.552047
8582.000000;0.552331
8581.000000;0.552328
8580.000000;0.551929
8579.000000;0.551382
8578.000000;0.551085
8577.000000;0.551232
8576.000000;0.551639
8575.000000;0.551953
8574.000000;0.551993
8573.000000;0.551845
8572.000000;0.551671
8571.000000;0.551523
8570.000000;0.551359
8569.000000;0.551160
8568.000000;0.550974
8567.000000;0.550875
8566.000000;0.550880
8565.000000;0.550881
8564.000000;0.550708
8563.000000;0.550296
8562.000000;0.549806
8561.000000;0.549499
8560.000000;0.549499
8559.000000;0.549704
8558.000000;0.549888
8557.000000;0.549852
8556.000000;0.549536
8555.000000;0.549079
8554.000000;0.548746
8553.000000;0.548693
8552.000000;0.548794
8551.000000;0.548789
8550.000000;0.548589
8549.000000;0.548341
8548.000000;0.548193
8547.000000;0.548108
8546.000000;0.547957
8545.000000;0.547702
8544.000000;0.547432
8543.000000;0.547267
8542.000000;0.547257
8541.000000;0.547330
8540.000000;0.547340
8539.000000;0.547211
8538.000000;0.547033
8537.000000;0.546962
8536.000000;0.547018
8535.000000;0.547052
8534.000000;0.546918
8533.000000;0.546637
8532.000000;0.546362
8531.000000;0.546234
8530.000000;0.546263
8529.000000;0.546315
8528.000000;0.546226
8527.000000;0.545970
8526.000000;0.545698
8525.000000;0.545551
8524.000000;0.545485
8523.000000;0.545352
8522.000000;0.545133
8521.000000;0.544970
8520.000000;0.544966
8519.000000;0.545059
8518.000000;0.545118
8517.000000;0.545090
8516.000000;0.545002
8515.000000;0.544864
8514.000000;0.544668
8513.000000;0.544450
8512.000000;0.544301
8511.000000;0.544288
8510.000000;0.544366
8509.000000;0.544411
8508.000000;0.544351
8507.000000;0.544253
8506.000000;0.544230
8505.000000;0.544286
8504.000000;0.544298
8503.000000;0.544177
8502.000000;0.543962
8501.000000;0.543729
8500.000000;0.543501
8499.000000;0.543296
8498.000000;0.543172
8497.000000;0.543141
8496.000000;0.543105
8495.000000;0.542967
8494.000000;0.542755
8493.000000;0.542567
8492.000000;0.542447
8491.000000;0.542377
8490.000000;0.542343
8489.000000;0.542320
8488.000000;0.542269
8487.000000;0.542192
8486.000000;0.542149
8485.000000;0.542129
8484.000000;0.542017
8483.000000;0.541770
8482.000000;0.541556
8481.000000;0.541549
8480.000000;0.541675
8479.000000;0.541702
8478.000000;0.541548
8477.000000;0.541355
8476.000000;0.541237
8475.000000;0.541138
8474.000000;0.540955
8473.000000;0.540679
8472.000000;0.540385
8471.000000;0.540152
8470.000000;0.540025
8469.000000;0.539985
8468.000000;0.539962
8467.000000;0.539926
8466.000000;0.539945
8465.000000;0.540057
8464.000000;0.540136
8463.000000;0.540011
8462.000000;0.539708
8461.000000;0.539442
8460.000000;0.539347
8459.000000;0.539336
8458.000000;0.539251
8457.000000;0.539056
8456.000000;0.538846
8455.000000;0.538749
8454.000000;0.538817
8453.000000;0.538958
8452.000000;0.538980
8451.000000;0.538780
8450.000000;0.538478
8449.000000;0.538287
8448.000000;0.538259
8447.000000;0.538251
8446.000000;0.538126
8445.000000;0.537898
8444.000000;0.537667
8443.000000;0.537513
8442.000000;0.537469
8441.000000;0.537494
8440.000000;0.537470
8439.000000;0.537315
8438.000000;0.537097
8437.000000;0.536955
8436.000000;0.536913
8435.000000;0.536871
8434.000000;0.536770
8433.000000;0.536650
8432.000000;0.536557
8431.000000;0.536487
8430.000000;0.536429
8429.000000;0.536370
8428.000000;0.536246
8427.000000;0.536028
8426.000000;0.535835
8425.000000;0.535840
8424.000000;0.536018
8423.000000;0.536118
8422.000000;0.535955
8421.000000;0.535608
8420.000000;0.535302
8419.000000;0.535169
8418.000000;0.535186
8417.000000;0.535240
8416.000000;0.535197
8415.000000;0.534995
8414.000000;0.534743
8413.000000;0.534652
8412.000000;0.534794
8411.000000;0.535009
8410.000000;0.535092
8409.000000;0.535010
8408.000000;0.534889
8407.000000;0.534818
8406.000000;0.534769
8405.000000;0.534662
8404.000000;0.534454
8403.000000;0.534199
8402.000000;0.534014
8401.000000;0.533976
8400.000000;0.534011
8399.000000;0.533946
8398.000000;0.533687
8397.000000;0.533328
8396.000000;0.533056
8395.000000;0.532992
8394.000000;0.533120
8393.000000;0.533320
8392.000000;0.533447
8391.000000;0.533414
8390.000000;0.533238
8389.000000;0.532993
8388.000000;0.532722
8387.000000;0.532447
8386.000000;0.532220
8385.000000;0.532102
8384.000000;0.532070
8383.000000;0.532026
8382.000000;0.531912
8381.000000;0.531765
8380.000000;0.531638
8379.000000;0.531555
8378.000000;0.531527
8377.000000;0.531554
8376.000000;0.531582
8375.000000;0.531532
8374.000000;0.531414
8373.000000;0.531349
8372.000000;0.531414
8371.000000;0.531523
8370.000000;0.531525
8369.000000;0.531384
8368.000000;0.531210
8367.000000;0.531111
8366.000000;0.531077
8365.000000;0.531010
8364.000000;0.530848
8363.000000;0.530635
8362.000000;0.530472
8361.000000;0.530404
8360.000000;0.530377
8359.000000;0.530303
8358.000000;0.530154
8357.000000;0.529955
8356.000000;0.529748
8355.000000;0.529580
8354.000000;0.529511
8353.000000;0.529565
8352.000000;0.529685
8351.000000;0.529762
8350.000000;0.529719
8349.000000;0.529541
8348.000000;0.529275
8347.000000;0.529022
8346.000000;0.528893
8345.000000;0.528919
8344.000000;0.529007
8343.000000;0.529032
8342.000000;0.528958
8341.000000;0.528827
8340.000000;0.528681
8339.000000;0.528549
8338.000000;0.528461
8337.000000;0.528418
8336.000000;0.528352
8335.000000;0.528203
8334.000000;0.528007
8333.000000;0.527854
8332.000000;0.527767
8331.000000;0.527695
8330.000000;0.527598
8329.000000;0.527478
8328.000000;0.527348
8327.000000;0.527228
8326.000000;0.527159
8325.000000;0.527148
8324.000000;0.527136
8323.000000;0.527078
8322.000000;0.527029
8321.000000;0.527073
8320.000000;0.527175
8319.000000;0.527195
8318.000000;0.527047
8317.000000;0.526777
8316.000000;0.526472
8315.000000;0.526184
8314.000000;0.525950
8313.000000;0.525814
8312.000000;0.525787
8311.000000;0.525828
8310.000000;0.525872
8309.000000;0.525858
8308.000000;0.525749
8307.000000;0.525577
8306.000000;0.525434
8305.000000;0.525367
8304.000000;0.525304
8303.000000;0.525152
8302.000000;0.524942
8301.000000;0.524797
8300.000000;0.524777
8299.000000;0.524836
8298.000000;0.524911
8297.000000;0.524972
8296.000000;0.524980
8295.000000;0.524890
8294.000000;0.524714
8293.000000;0.524520
8292.000000;0.524361
8291.000000;0.524261
8290.000000;0.524251
8289.000000;0.524327
8288.000000;0.524376
8287.000000;0.524259
8286.000000;0.523966
8285.000000;0.523632
8284.000000;0.523368
8283.000000;0.523176
8282.000000;0.523040
8281.000000;0.522994
8280.000000;0.523057
8279.000000;0.523168
8278.000000;0.523242
8277.000000;0.523229
8276.000000;0.523122
8275.000000;0.522955
8274.000000;0.522813
8273.000000;0.522774
8272.000000;0.522797
8271.000000;0.522738
8270.000000;0.522523
8269.000000;0.522244
8268.000000;0.522047
8267.000000;0.521969
8266.000000;0.521943
8265.000000;0.521905
8264.000000;0.521860
8263.000000;0.521844
8262.000000;0.521871
8261.000000;0.521905
8260.000000;0.521882
8259.000000;0.521787
8258.000000;0.521695
8257.000000;0.521693
8256.000000;0.521758
8255.000000;0.521762
8254.000000;0.521611
8253.000000;0.521335
8252.000000;0.521043
8251.000000;0.520836
8250.000000;0.520769
8249.000000;0.520833
8248.000000;0.520942
8247.000000;0.520971
8246.000000;0.520858
8245.000000;0.520643
8244.000000;0.520405
8243.000000;0.520202
8242.000000;0.520065
8241.000000;0.520022
8240.000000;0.520065
8239.000000;0.520130
8238.000000;0.520116
8237.000000;0.519959
8236.000000;0.519692
8235.000000;0.519444
8234.000000;0.519345
8233.000000;0.519382
8232.000000;0.519396
8231.000000;0.519251
8230.000000;0.519000
8229.000000;0.518831
8228.000000;0.518838
8227.000000;0.518920
8226.000000;0.518919
8225.000000;0.518800
8224.000000;0.518650
8223.000000;0.518553
8222.000000;0.518493
8221.000000;0.518400
8220.000000;0.518251
8219.000000;0.518105
8218.000000;0.518032
8217.000000;0.518019
8216.000000;0.517991
8215.000000;0.517932
8214.000000;0.517927
8213.000000;0.518035
8212.000000;0.518173
8211.000000;0.518179
8210.000000;0.517993
8209.000000;0.517719
8208.000000;0.517514
8207.000000;0.517441
8206.000000;0.517437
8205.000000;0.517389
8204.000000;0.517249
8203.000000;0.517084
8202.000000;0.517002
8201.000000;0.517023
8200.000000;0.517049
8199.000000;0.516994
8198.000000;0.516886
8197.000000;0.516806
8196.000000;0.516779
8195.000000;0.516771
8194.000000;0.516748
8193.000000;0.516688
8192.000000;0.516547
8191.000000;0.516293
8190.000000;0.515988
8189.000000;0.515768
8188.000000;0.515736
8187.000000;0.515874
8186.000000;0.516056
8185.000000;0.516124
8184.000000;0.516004
8183.000000;0.515778
8182.000000;0.515616
8181.000000;0.515584
8180.000000;0.515576
8179.000000;0.515465
8178.000000;0.515260
8177.000000;0.515076
8176.000000;0.514972
8175.000000;0.514904
8174.000000;0.514809
8173.000000;0.514673
8172.000000;0.514549
8171.000000;0.514539
8170.000000;0.514716
8169.000000;0.514994
8168.000000;0.515144
8167.000000;0.515018
8166.000000;0.514717
8165.000000;0.514456
8164.000000;0.514319
8163.000000;0.514234
8162.000000;0.514150
8161.000000;0.514103
8160.000000;0.514122
8159.000000;0.514165
8158.000000;0.514171
8157.000000;0.514100
8156.000000;0.513931
8155.000000;0.513700
8154.000000;0.513531
8153.000000;0.513529
8152.000000;0.513634
8151.000000;0.513660
8150.000000;0.513518
8149.000000;0.513311
8148.000000;0.513196
8147.000000;0.513219
8146.000000;0.513287
8145.000000;0.513273
8144.000000;0.513115
8143.000000;0.512876
8142.000000;0.512681
8141.000000;0.512588
8140.000000;0.512529
8139.000000;0.512431
8138.000000;0.512338
8137.000000;0.512341
8136.000000;0.512413
8135.000000;0.512428
8134.000000;0.512320
8133.000000;0.512147
8132.000000;0.511975
8131.000000;0.511810
8130.000000;0.511664
8129.000000;0.511588
8128.000000;0.511602
8127.000000;0.511658
8126.000000;0.511702
8125.000000;0.511701
8124.000000;0.511611
8123.000000;0.511410
8122.000000;0.511174
8121.000000;0.511042
8120.000000;0.511049
8119.000000;0.511071
8118.000000;0.510989
8117.000000;0.510843
8116.000000;0.510769
8115.000000;0.510821
8114.000000;0.510918
8113.000000;0.510938
8112.000000;0.510828
8111.000000;0.510639
8110.000000;0.510474
8109.000000;0.510400
8108.000000;0.510389
8107.000000;0.510359
8106.000000;0.510267
8105.000000;0.510150
8104.000000;0.510075
8103.000000;0.510073
8102.000000;0.510118
8101.000000;0.510140
8100.000000;0.510068
8099.000000;0.509906
8098.000000;0.509742
8097.000000;0.509661
8096.000000;0.509661
8095.000000;0.509677
8094.000000;0.509671
8093.000000;0.509631
8092.000000;0.509528
8091.000000;0.509343
8090.000000;0.509131
8089.000000;0.508991
8088.000000;0.508950
8087.000000;0.508935
8086.000000;0.508869
8085.000000;0.508742
8084.000000;0.508596
8083.000000;0.508487
8082.000000;0.508460
8081.000000;0.508510
8080.000000;0.508555
8079.000000;0.508501
8078.000000;0.508370
8077.000000;0.508278
8076.000000;0.508285
8075.000000;0.508312
8074.000000;0.508249
8073.000000;0.508100
8072.000000;0.507974
8071.000000;0.507959
8070.000000;0.508023
8069.000000;0.508052
8068.000000;0.507977
8067.000000;0.507847
8066.000000;0.507778
8065.000000;0.507802
8064.000000;0.507822
8063.000000;0.507715
8062.000000;0.507480
8061.000000;0.507229
8060.000000;0.507067
8059.000000;0.507011
8058.000000;0.507005
8057.000000;0.506971
8056.000000;0.506861
8055.000000;0.506705
8054.000000;0.506577
8053.000000;0.506510
8052.000000;0.506454
8051.000000;0.506375
8050.000000;0.506326
8049.000000;0.506361
8048.000000;0.506424
8047.000000;0.506411
8046.000000;0.506330
8045.000000;0.506286
8044.000000;0.506324
8043.000000;0.506367
8042.000000;0.506330
8041.000000;0.506211
8040.000000;0.506059
8039.000000;0.505919
8038.000000;0.505839
8037.000000;0.505859
8036.000000;0.505950
8035.000000;0.505997
8034.000000;0.505900
8033.000000;0.505669
8032.000000;0.505413
8031.000000;0.505242
8030.000000;0.505188
8029.000000;0.505191
8028.000000;0.505167
8027.000000;0.505102
8026.000000;0.505063
8025.000000;0.505090
8024.000000;0.505131
8023.000000;0.505114
8022.000000;0.505045
8021.000000;0.504967
8020.000000;0.504874
8019.000000;0.504731
8018.000000;0.504582
8017.000000;0.504520
8016.000000;0.504553
8015.000000;0.504580
8014.000000;0.504527
8013.000000;0.504427
8012.000000;0.504351
8011.000000;0.504314
8010.000000;0.504290
8009.000000;0.504260
8008.000000;0.504219
8007.000000;0.504171
8006.000000;0.504141
8005.000000;0.504143
8004.000000;0.504135
8003.000000;0.504051
8002.000000;0.503904
8001.000000;0.503781
8000.000000;0.503726
7999.000000;0.503680
7998.000000;0.503565
7997.000000;0.503395
7996.000000;0.503256
7995.000000;0.503206
7994.000000;0.503231
7993.000000;0.503278
7992.000000;0.503304
7991.000000;0.503293
7990.000000;0.503249
7989.000000;0.503181
7988.000000;0.503094
7987.000000;0.503009
7986.000000;0.502962
7985.000000;0.502954
7984.000000;0.502936
7983.000000;0.502856
7982.000000;0.502725
7981.000000;0.502597
7980.000000;0.502490
7979.000000;0.502383
7978.000000;0.502261
7977.000000;0.502150
7976.000000;0.502093
7975.000000;0.502115
7974.000000;0.502213
7973.000000;0.502335
7972.000000;0.502401
7971.000000;0.502370
7970.000000;0.502282
7969.000000;0.502193
7968.000000;0.502096
7967.000000;0.501959
7966.000000;0.501808
7965.000000;0.501697
7964.000000;0.501625
7963.000000;0.501533
7962.000000;0.501419
7961.000000;0.501342
7960.000000;0.501329
7959.000000;0.501311
7958.000000;0.501220
7957.000000;0.501085
7956.000000;0.500996
7955.000000;0.500997
7954.000000;0.501042
7953.000000;0.501044
7952.000000;0.500956
7951.000000;0.500815
7950.000000;0.500714
7949.000000;0.500711
7948.000000;0.500761
7947.000000;0.500756
7946.000000;0.500637
7945.000000;0.500447
7944.000000;0.500282
7943.000000;0.500192
7942.000000;0.500150
7941.000000;0.500095
7940.000000;0.500009
7939.000000;0.499933
7938.000000;0.499903
7937.000000;0.499886
7936.000000;0.499808
7935.000000;0.499660
7934.000000;0.499527
7933.000000;0.499490
7932.000000;0.499536
7931.000000;0.499595
7930.000000;0.499619
7929.000000;0.499604
7928.000000;0.499570
7927.000000;0.499552
7926.000000;0.499572
7925.000000;0.499584
7924.000000;0.499499
7923.000000;0.499308
7922.000000;0.499137
7921.000000;0.499110
7920.000000;0.499200
7919.000000;0.499268
7918.000000;0.499214
7917.000000;0.499052
7916.000000;0.498863
7915.000000;0.498739
7914.000000;0.498716
7913.000000;0.498723
7912.000000;0.498613
7911.000000;0.498342
7910.000000;0.498068
7909.000000;0.497986
7908.000000;0.498103
7907.000000;0.498249
7906.000000;0.498287
7905.000000;0.498230
7904.000000;0.498151
7903.000000;0.498094
7902.000000;0.498061
7901.000000;0.498037
7900.000000;0.497979
7899.000000;0.497864
7898.000000;0.497726
7897.000000;0.497615
7896.000000;0.497519
7895.000000;0.497409
7894.000000;0.497315
7893.000000;0.497295
7892.000000;0.497326
7891.000000;0.497326
7890.000000;0.497272
7889.000000;0.497215
7888.000000;0.497169
7887.000000;0.497097
7886.000000;0.496989
7885.000000;0.496892
7884.000000;0.496837
7883.000000;0.496798
7882.000000;0.496758
7881.000000;0.496724
7880.000000;0.496673
7879.000000;0.496570
7878.000000;0.496443
7877.000000;0.496368
7876.000000;0.496358
7875.000000;0.496348
7874.000000;0.496297
7873.000000;0.496239
7872.000000;0.496188
7871.000000;0.496102
7870.000000;0.495978
7869.000000;0.495880
7868.000000;0.495836
7867.000000;0.495785
7866.000000;0.495679
7865.000000;0.495580
7864.000000;0.495568
7863.000000;0.495623
7862.000000;0.495656
7861.000000;0.495621
7860.000000;0.495536
7859.000000;0.495447
7858.000000;0.495400
7857.000000;0.495430
7856.000000;0.495513
7855.000000;0.495560
7854.000000;0.495511
7853.000000;0.495396
7852.000000;0.495281
7851.000000;0.495181
7850.000000;0.495071
7849.000000;0.494949
7848.000000;0.494838
7847.000000;0.494748
7846.000000;0.494677
7845.000000;0.494635
7844.000000;0.494630
7843.000000;0.494646
7842.000000;0.494662
7841.000000;0.494661
7840.000000;0.494617
7839.000000;0.494501
7838.000000;0.494335
7837.000000;0.494206
7836.000000;0.494179
7835.000000;0.494212
7834.000000;0.494208
7833.000000;0.494121
7832.000000;0.493996
7831.000000;0.493900
7830.000000;0.493868
7829.000000;0.493885
7828.000000;0.493894
7827.000000;0.493837
7826.000000;0.493714
7825.000000;0.493592
7824.000000;0.493542
7823.000000;0.493570
7822.000000;0.493632
7821.000000;0.493687
7820.000000;0.493710
7819.000000;0.493673
7818.000000;0.493565
7817.000000;0.493427
7816.000000;0.493317
7815.000000;0.493253
7814.000000;0.493198
7813.000000;0.493117
7812.000000;0.493014
7811.000000;0.492906
7810.000000;0.492791
7809.000000;0.492667
7808.000000;0.492572
7807.000000;0.492558
7806.000000;0.492625
7805.000000;0.492695
7804.000000;0.492670
7803.000000;0.492528
7802.000000;0.492330
7801.000000;0.492149
7800.000000;0.492021
7799.000000;0.491955
7798.000000;0.491959
7797.000000;0.492015
7796.000000;0.492063
7795.000000;0.492046
7794.000000;0.491966
7793.000000;0.491871
7792.000000;0.491800
7791.000000;0.491756
7790.000000;0.491729
7789.000000;0.491711
7788.000000;0.491681
7787.000000;0.491613
7786.000000;0.491516
7785.000000;0.491432
7784.000000;0.491389
7783.000000;0.491362
7782.000000;0.491303
7781.000000;0.491198
7780.000000;0.491077
7779.000000;0.490984
7778.000000;0.490929
7777.000000;0.490888
7776.000000;0.490830
7775.000000;0.490753
7774.000000;0.490679
7773.000000;0.490622
7772.000000;0.490573
7771.000000;0.490526
7770.000000;0.490494
7769.000000;0.490486
7768.000000;0.490485
7767.000000;0.490463
7766.000000;0.490407
7765.000000;0.490324
7764.000000;0.490239
7763.000000;0.490187
7762.000000;0.490199
7761.000000;0.490262
7760.000000;0.490313
7759.000000;0.490295
7758.000000;0.490202
7757.000000;0.490061
7756.000000;0.489904
7755.000000;0.489760
7754.000000;0.489651
7753.000000;0.489559
7752.000000;0.489440
7751.000000;0.489292
7750.000000;0.489181
7749.000000;0.489169
7748.000000;0.489220
7747.000000;0.489248
7746.000000;0.489227
7745.000000;0.489204
7744.000000;0.489197
7743.000000;0.489158
7742.000000;0.489046
7741.000000;0.488902
7740.000000;0.488819
7739.000000;0.488837
7738.000000;0.488902
7737.000000;0.488914
7736.000000;0.488821
7735.000000;0.488670
7734.000000;0.488561
7733.000000;0.488542
7732.000000;0.488567
7731.000000;0.488556
7730.000000;0.488488
7729.000000;0.488402
7728.000000;0.488331
7727.000000;0.488268
7726.000000;0.488194
7725.000000;0.488115
7724.000000;0.488052
7723.000000;0.488006
7722.000000;0.487949
7721.000000;0.487849
7720.000000;0.487715
7719.000000;0.487602
7718.000000;0.487561
7717.000000;0.487571
7716.000000;0.487547
7715.000000;0.487443
7714.000000;0.487318
7713.000000;0.487274
7712.000000;0.487339
7711.000000;0.487437
7710.000000;0.487469
7709.000000;0.487399
7708.000000;0.487263
7707.000000;0.487129
7706.000000;0.487039
7705.000000;0.486990
7704.000000;0.486956
7703.000000;0.486917
7702.000000;0.486868
7701.000000;0.486801
7700.000000;0.486719
7699.000000;0.486657
7698.000000;0.486655
7697.000000;0.486692
7696.000000;0.486687
7695.000000;0.486586
7694.000000;0.486430
7693.000000;0.486307
7692.000000;0.486251
7691.000000;0.486219
7690.000000;0.486160
7689.000000;0.486074
7688.000000;0.486003
7687.000000;0.485978
7686.000000;0.485972
7685.000000;0.485912
7684.000000;0.485766
7683.000000;0.485599
7682.000000;0.485510
7681.000000;0.485519
7680.000000;0.485556
7679.000000;0.485557
7678.000000;0.485528
7677.000000;0.485488
7676.000000;0.485415
7675.000000;0.485297
7674.000000;0.485177
7673.000000;0.485107
7672.000000;0.485086
7671.000000;0.485074
7670.000000;0.485044
7669.000000;0.484980
7668.000000;0.484872
7667.000000;0.484741
7666.000000;0.484636
7665.000000;0.484574
7664.000000;0.484517
7663.000000;0.484441
7662.000000;0.484390
7661.000000;0.484418
7660.000000;0.484504
7659.000000;0.484580
7658.000000;0.484601
7657.000000;0.484564
7656.000000;0.484483
7655.000000;0.484394
7654.000000;0.484339
7653.000000;0.484317
7652.000000;0.484266
7651.000000;0.484149
7650.000000;0.484021
7649.000000;0.483955
7648.000000;0.483936
7647.000000;0.483892
7646.000000;0.483799
7645.000000;0.483705
7644.000000;0.483656
7643.000000;0.483647
7642.000000;0.483653
7641.000000;0.483651
7640.000000;0.483618
7639.000000;0.483549
7638.000000;0.483467
7637.000000;0.483395
7636.000000;0.483318
7635.000000;0.483226
7634.000000;0.483159
7633.000000;0.483160
7632.000000;0.483206
7631.000000;0.483221
7630.000000;0.483165
7629.000000;0.483062
7628.000000;0.482954
7627.000000;0.482862
7626.000000;0.482788
7625.000000;0.482718
7624.000000;0.482640
7623.000000;0.482573
7622.000000;0.482561
7621.000000;0.482612
7620.000000;0.482671
7619.000000;0.482669
7618.000000;0.482590
7617.000000;0.482462
7616.000000;0.482316
7615.000000;0.482188
7614.000000;0.482113
7613.000000;0.482080
7612.000000;0.482033
7611.000000;0.481961
7610.000000;0.481932
7609.000000;0.481991
7608.000000;0.482070
7607.000000;0.482074
7606.000000;0.482022
7605.000000;0.482012
7604.000000;0.482069
7603.000000;0.482105
7602.000000;0.482040
7601.000000;0.481886
7600.000000;0.481712
7599.000000;0.481569
7598.000000;0.481480
7597.000000;0.481436
7596.000000;0.481393
7595.000000;0.481314
7594.000000;0.481218
7593.000000;0.481151
7592.000000;0.481121
7591.000000;0.481101
7590.000000;0.481079
7589.000000;0.481074
7588.000000;0.481078
7587.000000;0.481062
7586.000000;0.481012
7585.000000;0.480951
7584.000000;0.480899
7583.000000;0.480854
7582.000000;0.480810
7581.000000;0.480766
7580.000000;0.480721
7579.000000;0.480689
7578.000000;0.480691
7577.000000;0.480714
7576.000000;0.480712
7575.000000;0.480676
7574.000000;0.480657
7573.000000;0.480694
7572.000000;0.480744
7571.000000;0.480750
7570.000000;0.480720
7569.000000;0.480694
7568.000000;0.480662
7567.000000;0.480588
7566.000000;0.480496
7565.000000;0.480446
7564.000000;0.480437
7563.000000;0.480409
7562.000000;0.480331
7561.000000;0.480231
7560.000000;0.480133
7559.000000;0.480035
7558.000000;0.479944
7557.000000;0.479880
7556.000000;0.479843
7555.000000;0.479830
7554.000000;0.479882
7553.000000;0.480026
7552.000000;0.480188
7551.000000;0.480221
7550.000000;0.480065
7549.000000;0.479817
7548.000000;0.479626
7547.000000;0.479568
7546.000000;0.479623
7545.000000;0.479713
7544.000000;0.479753
7543.000000;0.479711
7542.000000;0.479638
7541.000000;0.479604
7540.000000;0.479613
7539.000000;0.479615
7538.000000;0.479592
7537.000000;0.479569
7536.000000;0.479549
7535.000000;0.479500
7534.000000;0.479421
7533.000000;0.479352
7532.000000;0.479307
7531.000000;0.479261
7530.000000;0.479223
7529.000000;0.479242
7528.000000;0.479321
7527.000000;0.479382
7526.000000;0.479358
7525.000000;0.479276
7524.000000;0.479214
7523.000000;0.479208
7522.000000;0.479235
7521.000000;0.479265
7520.000000;0.479286
7519.000000;0.479295
7518.000000;0.479287
7517.000000;0.479255
7516.000000;0.479194
7515.000000;0.479129
7514.000000;0.479116
7513.000000;0.479172
7512.000000;0.479217
7511.000000;0.479150
7510.000000;0.478977
7509.000000;0.478816
7508.000000;0.478748
7507.000000;0.478733
7506.000000;0.478696
7505.000000;0.478642
7504.000000;0.478638
7503.000000;0.478711
7502.000000;0.478811
7501.000000;0.478854
7500.000000;0.478787
7499.000000;0.478633
7498.000000;0.478484
7497.000000;0.478430
7496.000000;0.478481
7495.000000;0.478565
7494.000000;0.478616
7493.000000;0.478631
7492.000000;0.478620
7491.000000;0.478569
7490.000000;0.478476
7489.000000;0.478392
7488.000000;0.478370
7487.000000;0.478403
7486.000000;0.478424
7485.000000;0.478396
7484.000000;0.478353
7483.000000;0.478365
7482.000000;0.478456
7481.000000;0.478567
7480.000000;0.478610
7479.000000;0.478559
7478.000000;0.478496
7477.000000;0.478526
7476.000000;0.478663
7475.000000;0.478800
7474.000000;0.478814
7473.000000;0.478692
7472.000000;0.478542
7471.000000;0.478480
7470.000000;0.478520
7469.000000;0.478574
7468.000000;0.478556
7467.000000;0.478473
7466.000000;0.478408
7465.000000;0.478415
7464.000000;0.478473
7463.000000;0.478530
7462.000000;0.478556
7461.000000;0.478550
7460.000000;0.478512
7459.000000;0.478458
7458.000000;0.478418
7457.000000;0.478410
7456.000000;0.478413
7455.000000;0.478408
7454.000000;0.478397
7453.000000;0.478392
7452.000000;0.478392
7451.000000;0.478390
7450.000000;0.478379
7449.000000;0.478344
7448.000000;0.478282
7447.000000;0.478229
7446.000000;0.478243
7445.000000;0.478325
7444.000000;0.478411
7443.000000;0.478458
7442.000000;0.478497
7441.000000;0.478565
7440.000000;0.478633
7439.000000;0.478660
7438.000000;0.478667
7437.000000;0.478707
7436.000000;0.478783
7435.000000;0.478849
7434.000000;0.478881
7433.000000;0.478877
7432.000000;0.478835
7431.000000;0.478768
7430.000000;0.478727
7429.000000;0.478738
7428.000000;0.478750
7427.000000;0.478706
7426.000000;0.478648
7425.000000;0.478670
7424.000000;0.478788
7423.000000;0.478915
7422.000000;0.478966
7421.000000;0.478940
7420.000000;0.478885
7419.000000;0.478845
7418.000000;0.478841
7417.000000;0.478861
7416.000000;0.478859
7415.000000;0.478813
7414.000000;0.478762
7413.000000;0.478757
7412.000000;0.478783
7411.000000;0.478787
7410.000000;0.478767
7409.000000;0.478777
7408.000000;0.478845
7407.000000;0.478941
7406.000000;0.479032
7405.000000;0.479116
7404.000000;0.479185
7403.000000;0.479218
7402.000000;0.479208
7401.000000;0.479176
7400.000000;0.479135
7399.000000;0.479098
7398.000000;0.479096
7397.000000;0.479148
7396.000000;0.479208
7395.000000;0.479214
7394.000000;0.479175
7393.000000;0.479165
7392.000000;0.479217
7391.000000;0.479282
7390.000000;0.479312
7389.000000;0.479324
7388.000000;0.479355
7387.000000;0.479411
7386.000000;0.479470
7385.000000;0.479519
7384.000000;0.479539
7383.000000;0.479495
7382.000000;0.479391
7381.000000;0.479302
7380.000000;0.479314
7379.000000;0.479432
7378.000000;0.479558
7377.000000;0.479574
7376.000000;0.479462
7375.000000;0.479343
7374.000000;0.479373
7373.000000;0.479583
7372.000000;0.479832
7371.000000;0.479956
7370.000000;0.479935
7369.000000;0.479903
7368.000000;0.479995
7367.000000;0.480217
7366.000000;0.480457
7365.000000;0.480569
7364.000000;0.480484
7363.000000;0.480268
7362.000000;0.480087
7361.000000;0.480090
7360.000000;0.480279
7359.000000;0.480518
7358.000000;0.480652
7357.000000;0.480629
7356.000000;0.480527
7355.000000;0.480487
7354.000000;0.480598
7353.000000;0.480813
7352.000000;0.480989
7351.000000;0.481029
7350.000000;0.480965
7349.000000;0.480904
7348.000000;0.480922
7347.000000;0.481027
7346.000000;0.481170
7345.000000;0.481284
7344.000000;0.481332
7343.000000;0.481340
7342.000000;0.481356
7341.000000;0.481364
7340.000000;0.481323
7339.000000;0.481285
7338.000000;0.481380
7337.000000;0.481625
7336.000000;0.481842
7335.000000;0.481859
7334.000000;0.481718
7333.000000;0.481632
7332.000000;0.481733
7331.000000;0.481956
7330.000000;0.482153
7329.000000;0.482256
7328.000000;0.482310
7327.000000;0.482406
7326.000000;0.482567
7325.000000;0.482703
7324.000000;0.482699
7323.000000;0.482583
7322.000000;0.482531
7321.000000;0.482663
7320.000000;0.482877
7319.000000;0.482982
7318.000000;0.482938
7317.000000;0.482888
7316.000000;0.482963
7315.000000;0.483133
7314.000000;0.483270
7313.000000;0.483303
7312.000000;0.483303
7311.000000;0.483423
7310.000000;0.483740
7309.000000;0.484136
7308.000000;0.484381
7307.000000;0.484389
7306.000000;0.484337
7305.000000;0.484457
7304.000000;0.484748
7303.000000;0.484999
7302.000000;0.485063
7301.000000;0.485003
7300.000000;0.484990
7299.000000;0.485154
7298.000000;0.485502
7297.000000;0.485910
7296.000000;0.486178
7295.000000;0.486209
7294.000000;0.486154
7293.000000;0.486262
7292.000000;0.486573
7291.000000;0.486849
7290.000000;0.486870
7289.000000;0.486693
7288.000000;0.486571
7287.000000;0.486682
7286.000000;0.487004
7285.000000;0.487396
7284.000000;0.487729
7283.000000;0.487950
7282.000000;0.488093
7281.000000;0.488215
7280.000000;0.488341
7279.000000;0.488465
7278.000000;0.488599
7277.000000;0.488780
7276.000000;0.489002
7275.000000;0.489208
7274.000000;0.489370
7273.000000;0.489548
7272.000000;0.489812
7271.000000;0.490163
7270.000000;0.490529
7269.000000;0.490843
7268.000000;0.491069
7267.000000;0.491210
7266.000000;0.491307
7265.000000;0.491426
7264.000000;0.491601
7263.000000;0.491802
7262.000000;0.491985
7261.000000;0.492171
7260.000000;0.492447
7259.000000;0.492865
7258.000000;0.493363
7257.000000;0.493789
7256.000000;0.494027
7255.000000;0.494088
7254.000000;0.494099
7253.000000;0.494196
7252.000000;0.494439
7251.000000;0.494819
7250.000000;0.495277
7249.000000;0.495736
7248.000000;0.496147
7247.000000;0.496527
7246.000000;0.496911
7245.000000;0.497269
7244.000000;0.497528
7243.000000;0.497729
7242.000000;0.498055
7241.000000;0.498600
7240.000000;0.499168
7239.000000;0.499470
7238.000000;0.499473
7237.000000;0.499457
7236.000000;0.499698
7235.000000;0.500187
7234.000000;0.500685
7233.000000;0.500998
7232.000000;0.501172
7231.000000;0.501426
7230.000000;0.501898
7229.000000;0.502494
7228.000000;0.502991
7227.000000;0.503289
7226.000000;0.503525
7225.000000;0.503930
7224.000000;0.504569
7223.000000;0.505273
7222.000000;0.505817
7221.000000;0.506135
7220.000000;0.506351
7219.000000;0.506654
7218.000000;0.507117
7217.000000;0.507625
7216.000000;0.507993
7215.000000;0.508176
7214.000000;0.508333
7213.000000;0.508657
7212.000000;0.509165
7211.000000;0.509723
7210.000000;0.510226
7209.000000;0.510706
7208.000000;0.511242
7207.000000;0.511835
7206.000000;0.512405
7205.000000;0.512883
7204.000000;0.513297
7203.000000;0.513750
7202.000000;0.514312
7201.000000;0.514923
7200.000000;0.515445
7199.000000;0.515818
7198.000000;0.516122
7197.000000;0.516482
7196.000000;0.516952
7195.000000;0.517515
7194.000000;0.518138
7193.000000;0.518768
7192.000000;0.519340
7191.000000;0.519848
7190.000000;0.520367
7189.000000;0.520946
7188.000000;0.521539
7187.000000;0.522086
7186.000000;0.522621
7185.000000;0.523205
7184.000000;0.523802
7183.000000;0.524332
7182.000000;0.524784
7181.000000;0.525209
7180.000000;0.525634
7179.000000;0.526083
7178.000000;0.526624
7177.000000;0.527274
7176.000000;0.527892
7175.000000;0.528324
7174.000000;0.528644
7173.000000;0.529105
7172.000000;0.529833
7171.000000;0.530686
7170.000000;0.531441
7169.000000;0.532006
7168.000000;0.532456
7167.000000;0.532958
7166.000000;0.533677
7165.000000;0.534607
7164.000000;0.535508
7163.000000;0.536124
7162.000000;0.536518
7161.000000;0.537052
7160.000000;0.537977
7159.000000;0.539118
7158.000000;0.540070
7157.000000;0.540618
7156.000000;0.540875
7155.000000;0.541124
7154.000000;0.541589
7153.000000;0.542305
7152.000000;0.543138
7151.000000;0.543945
7150.000000;0.544688
7149.000000;0.545375
7148.000000;0.545942
7147.000000;0.546316
7146.000000;0.546569
7145.000000;0.546913
7144.000000;0.547515
7143.000000;0.548384
7142.000000;0.549400
7141.000000;0.550357
7140.000000;0.551018
7139.000000;0.551280
7138.000000;0.551307
7137.000000;0.551390
7136.000000;0.551687
7135.000000;0.552219
7134.000000;0.552994
7133.000000;0.553951
7132.000000;0.554824
7131.000000;0.555312
7130.000000;0.555443
7129.000000;0.555583
7128.000000;0.556054
7127.000000;0.556841
7126.000000;0.557665
7125.000000;0.558231
7124.000000;0.558405
7123.000000;0.558315
7122.000000;0.558257
7121.000000;0.558369
7120.000000;0.558467
7119.000000;0.558361
7118.000000;0.558242
7117.000000;0.558486
7116.000000;0.559098
7115.000000;0.559679
7114.000000;0.559945
7113.000000;0.559960
7112.000000;0.559854
7111.000000;0.559634
7110.000000;0.559356
7109.000000;0.559160
7108.000000;0.559025
7107.000000;0.558769
7106.000000;0.558439
7105.000000;0.558430
7104.000000;0.559012
7103.000000;0.559916
7102.000000;0.560537
7101.000000;0.560434
7100.000000;0.559583
7099.000000;0.558345
7098.000000;0.557294
7097.000000;0.556867
7096.000000;0.556997
7095.000000;0.557159
7094.000000;0.556907
7093.000000;0.556321
7092.000000;0.555849
7091.000000;0.555750
7090.000000;0.555759
7089.000000;0.555268
7088.000000;0.553952
7087.000000;0.552243
7086.000000;0.551000
7085.000000;0.550549
7084.000000;0.550284
7083.000000;0.549489
7082.000000;0.548304
7081.000000;0.547478
7080.000000;0.547294
7079.000000;0.547210
7078.000000;0.546594
7077.000000;0.545373
7076.000000;0.543825
7075.000000;0.542159
7074.000000;0.540497
7073.000000;0.538991
7072.000000;0.537691
7071.000000;0.536448
7070.000000;0.535090
7069.000000;0.533604
7068.000000;0.532109
7067.000000;0.530721
7066.000000;0.529433
7065.000000;0.528057
7064.000000;0.526421
7063.000000;0.524700
7062.000000;0.523313
7061.000000;0.522305
7060.000000;0.521104
7059.000000;0.519283
7058.000000;0.517366
7057.000000;0.516281
7056.000000;0.516026
7055.000000;0.515404
7054.000000;0.513281
7053.000000;0.509890
7052.000000;0.506710
7051.000000;0.505114
7050.000000;0.505087
7049.000000;0.505103
7048.000000;0.503407
7047.000000;0.499785
7046.000000;0.495872
7045.000000;0.493415
7044.000000;0.492521
7043.000000;0.491839
7042.000000;0.490167
7041.000000;0.487521
7040.000000;0.484788
7039.000000;0.482770
7038.000000;0.481522
7037.000000;0.480213
7036.000000;0.477795
7035.000000;0.474194
7034.000000;0.470583
7033.000000;0.468067
7032.000000;0.466365
7031.000000;0.464287
7030.000000;0.461353
7029.000000;0.458356
7028.000000;0.456309
7027.000000;0.455307
7026.000000;0.454463
7025.000000;0.452649
7024.000000;0.449390
7023.000000;0.445382
7022.000000;0.442018
7021.000000;0.440089
7020.000000;0.439051
7019.000000;0.437786
7018.000000;0.435820
7017.000000;0.433432
7016.000000;0.430944
7015.000000;0.428514
7014.000000;0.426308
7013.000000;0.424294
7012.000000;0.422042
7011.000000;0.419290
7010.000000;0.416457
7009.000000;0.414039
7008.000000;0.411703
7007.000000;0.408643
7006.000000;0.404771
7005.000000;0.400974
7004.000000;0.398176
7003.000000;0.396558
7002.000000;0.395496
7001.000000;0.393836
7000.000000;0.390647
6999.000000;0.386331
6998.000000;0.382614
6997.000000;0.380751
6996.000000;0.379972
6995.000000;0.378324
6994.000000;0.374892
6993.000000;0.370524
6992.000000;0.366542
6991.000000;0.363536
6990.000000;0.361337
6989.000000;0.359435
6988.000000;0.357360
6987.000000;0.355143
6986.000000;0.353252
6985.000000;0.351691
6984.000000;0.349526
6983.000000;0.345944
6982.000000;0.341431
6981.000000;0.337178
6980.000000;0.333678
6979.000000;0.330713
6978.000000;0.328328
6977.000000;0.326777
6976.000000;0.325666
6975.000000;0.324157
6974.000000;0.322004
6973.000000;0.319520
6972.000000;0.316602
6971.000000;0.312840
6970.000000;0.308679
6969.000000;0.305388
6968.000000;0.303545
6967.000000;0.302336
6966.000000;0.300631
6965.000000;0.298122
6964.000000;0.295181
6963.000000;0.292224
6962.000000;0.289497
6961.000000;0.287037
6960.000000;0.284607
6959.000000;0.281973
6958.000000;0.279259
6957.000000;0.276803
6956.000000;0.274781
6955.000000;0.273236
6954.000000;0.272132
6953.000000;0.270936
6952.000000;0.268673
6951.000000;0.265092
6950.000000;0.261384
6949.000000;0.258889
6948.000000;0.257311
6947.000000;0.255123
6946.000000;0.251587
6945.000000;0.247512
6944.000000;0.244003
6943.000000;0.241344
6942.000000;0.239177
6941.000000;0.236999
6940.000000;0.234388
6939.000000;0.231430
6938.000000;0.228911
6937.000000;0.227459
6936.000000;0.226540
6935.000000;0.224975
6934.000000;0.222474
6933.000000;0.219933
6932.000000;0.218138
6931.000000;0.216833
6930.000000;0.215229
6929.000000;0.212899
6928.000000;0.210034
6927.000000;0.207217
6926.000000;0.204954
6925.000000;0.203038
6924.000000;0.200674
6923.000000;0.197714
6922.000000;0.195206
6921.000000;0.193980
6920.000000;0.193151
6919.000000;0.191026
6918.000000;0.187399
6917.000000;0.183950
6916.000000;0.182113
6915.000000;0.181496
6914.000000;0.180727
6913.000000;0.179172
6912.000000;0.177403
6911.000000;0.176333
6910.000000;0.176187
6909.000000;0.176091
6908.000000;0.174744
6907.000000;0.171850
6906.000000;0.168650
6905.000000;0.166622
6904.000000;0.165825
6903.000000;0.164954
6902.000000;0.162962
6901.000000;0.160179
6900.000000;0.157786
6899.000000;0.156640
6898.000000;0.156518
6897.000000;0.156106
6896.000000;0.154042
6895.000000;0.150495
6894.000000;0.147370
6893.000000;0.146362
6892.000000;0.147089
6891.000000;0.147616
6890.000000;0.146565
6889.000000;0.144170
6888.000000;0.141554
6887.000000;0.139725
6886.000000;0.139111
6885.000000;0.139355
6884.000000;0.139542
6883.000000;0.139058
6882.000000;0.138062
6881.000000;0.136852
6880.000000;0.135197
6879.000000;0.132866
6878.000000;0.130442
6877.000000;0.128885
6876.000000;0.128442
6875.000000;0.128569
6874.000000;0.128654
6873.000000;0.128334
6872.000000;0.127433
6871.000000;0.126173
6870.000000;0.125179
6869.000000;0.124666
6868.000000;0.123979
6867.000000;0.122568
6866.000000;0.121041
6865.000000;0.120457
6864.000000;0.120898
6863.000000;0.121571
6862.000000;0.122006
6861.000000;0.122260
6860.000000;0.122143
6859.000000;0.121217
6858.000000;0.119617
6857.000000;0.118102
6856.000000;0.117171
6855.000000;0.116693
6854.000000;0.116345
6853.000000;0.115805
6852.000000;0.114627
6851.000000;0.112648
6850.000000;0.110566
6849.000000;0.109468
6848.000000;0.109638
6847.000000;0.110354
6846.000000;0.110864
6845.000000;0.111024
6844.000000;0.110991
6843.000000;0.110890
6842.000000;0.110861
6841.000000;0.111006
6840.000000;0.111194
6839.000000;0.111236
6838.000000;0.111194
6837.000000;0.111125
6836.000000;0.110713
6835.000000;0.109694
6834.000000;0.108585
6833.000000;0.108404
6832.000000;0.109542
6831.000000;0.111298
6830.000000;0.112567
6829.000000;0.112779
6828.000000;0.112215
6827.000000;0.111597
6826.000000;0.111395
6825.000000;0.111413
6824.000000;0.111178
6823.000000;0.110771
6822.000000;0.110810
6821.000000;0.111487
6820.000000;0.112232
6819.000000;0.112637
6818.000000;0.113088
6817.000000;0.113941
6816.000000;0.114751
6815.000000;0.115007
6814.000000;0.115141
6813.000000;0.115897
6812.000000;0.116997
6811.000000;0.117342
6810.000000;0.116517
6809.000000;0.115386
6808.000000;0.115071
6807.000000;0.115915
6806.000000;0.117439
6805.000000;0.118800
6804.000000;0.119345
6803.000000;0.119176
6802.000000;0.119120
6801.000000;0.119750
6800.000000;0.120692
6799.000000;0.121303
6798.000000;0.121713
6797.000000;0.122510
6796.000000;0.123613
6795.000000;0.124296
6794.000000;0.124352
6793.000000;0.124469
6792.000000;0.125260
6791.000000;0.126523
6790.000000;0.127745
6789.000000;0.128836
6788.000000;0.129949
6787.000000;0.130931
6786.000000;0.131372
6785.000000;0.131147
6784.000000;0.130710
6783.000000;0.130773
6782.000000;0.131661
6781.000000;0.132932
6780.000000;0.133732
6779.000000;0.133642
6778.000000;0.133105
6777.000000;0.132909
6776.000000;0.133410
6775.000000;0.134386
6774.000000;0.135415
6773.000000;0.136180
6772.000000;0.136584
6771.000000;0.136806
6770.000000;0.137136
6769.000000;0.137620
6768.000000;0.138078
6767.000000;0.138602
6766.000000;0.139637
6765.000000;0.141284
6764.000000;0.142901
6763.000000;0.143814
6762.000000;0.144151
6761.000000;0.144517
6760.000000;0.145104
6759.000000;0.145664
6758.000000;0.146179
6757.000000;0.146931
6756.000000;0.147920
6755.000000;0.148778
6754.000000;0.149394
6753.000000;0.150130
6752.000000;0.151232
6751.000000;0.152406
6750.000000;0.153206
6749.000000;0.153567
6748.000000;0.153740
6747.000000;0.153872
6746.000000;0.153883
6745.000000;0.153712
6744.000000;0.153560
6743.000000;0.153861
6742.000000;0.154936
6741.000000;0.156568
6740.000000;0.158036
6739.000000;0.158758
6738.000000;0.158872
6737.000000;0.159070
6736.000000;0.159859
6735.000000;0.161131
6734.000000;0.162369
6733.000000;0.163148
6732.000000;0.163480
6731.000000;0.163808
6730.000000;0.164603
6729.000000;0.165858
6728.000000;0.167032
6727.000000;0.167624
6726.000000;0.167722
6725.000000;0.167844
6724.000000;0.168329
6723.000000;0.169053
6722.000000;0.169710
6721.000000;0.170203
6720.000000;0.170747
6719.000000;0.171612
6718.000000;0.172772
6717.000000;0.173833
6716.000000;0.174442
6715.000000;0.174767
6714.000000;0.175345
6713.000000;0.176396
6712.000000;0.177539
6711.000000;0.178314
6710.000000;0.178768
6709.000000;0.179294
6708.000000;0.180092
6707.000000;0.181010
6706.000000;0.181803
6705.000000;0.182317
6704.000000;0.182524
6703.000000;0.182588
6702.000000;0.182834
6701.000000;0.183484
6700.000000;0.184424
6699.000000;0.185349
6698.000000;0.186080
6697.000000;0.186601
6696.000000;0.186954
6695.000000;0.187251
6694.000000;0.187681
6693.000000;0.188332
6692.000000;0.189082
6691.000000;0.189815
6690.000000;0.190617
6689.000000;0.191582
6688.000000;0.192567
6687.000000;0.193320
6686.000000;0.193792
6685.000000;0.194119
6684.000000;0.194403
6683.000000;0.194683
6682.000000;0.195049
6681.000000;0.195597
6680.000000;0.196315
6679.000000;0.197172
6678.000000;0.198211
6677.000000;0.199385
6676.000000;0.200393
6675.000000;0.200937
6674.000000;0.201109
6673.000000;0.201320
6672.000000;0.201836
6671.000000;0.202544
6670.000000;0.203177
6669.000000;0.203632
6668.000000;0.204028
6667.000000;0.204563
6666.000000;0.205311
6665.000000;0.206109
6664.000000;0.206692
6663.000000;0.207010
6662.000000;0.207333
6661.000000;0.207922
6660.000000;0.208706
6659.000000;0.209412
6658.000000;0.209923
6657.000000;0.210373
6656.000000;0.210931
6655.000000;0.211639
6654.000000;0.212440
6653.000000;0.213235
6652.000000;0.213942
6651.000000;0.214598
6650.000000;0.215329
6649.000000;0.216139
6648.000000;0.216804
6647.000000;0.217150
6646.000000;0.217329
6645.000000;0.217670
6644.000000;0.218274
6643.000000;0.218941
6642.000000;0.219472
6641.000000;0.219893
6640.000000;0.220358
6639.000000;0.220948
6638.000000;0.221635
6637.000000;0.222335
6636.000000;0.222979
6635.000000;0.223565
6634.000000;0.224138
6633.000000;0.224704
6632.000000;0.225205
6631.000000;0.225635
6630.000000;0.226095
6629.000000;0.226661
6628.000000;0.227255
6627.000000;0.227741
6626.000000;0.228108
6625.000000;0.228466
6624.000000;0.228891
6623.000000;0.229366
6622.000000;0.229846
6621.000000;0.230308
6620.000000;0.230777
6619.000000;0.231332
6618.000000;0.232036
6617.000000;0.232812
6616.000000;0.233459
6615.000000;0.233879
6614.000000;0.234217
6613.000000;0.234681
6612.000000;0.235294
6611.000000;0.235908
6610.000000;0.236422
6609.000000;0.236859
6608.000000;0.237288
6607.000000;0.237766
6606.000000;0.238337
6605.000000;0.238996
6604.000000;0.239667
6603.000000;0.240261
6602.000000;0.240753
6601.000000;0.241178
6600.000000;0.241590
6599.000000;0.242052
6598.000000;0.242598
6597.000000;0.243149
6596.000000;0.243566
6595.000000;0.243854
6594.000000;0.244206
6593.000000;0.244764
6592.000000;0.245414
6591.000000;0.245925
6590.000000;0.246245
6589.000000;0.246553
6588.000000;0.247048
6587.000000;0.247759
6586.000000;0.248540
6585.000000;0.249183
6584.000000;0.249591
6583.000000;0.249885
6582.000000;0.250277
6581.000000;0.250819
6580.000000;0.251353
6579.000000;0.251766
6578.000000;0.252167
6577.000000;0.252711
6576.000000;0.253363
6575.000000;0.253941
6574.000000;0.254343
6573.000000;0.254604
6572.000000;0.254809
6571.000000;0.255055
6570.000000;0.255445
6569.000000;0.255982
6568.000000;0.256518
6567.000000;0.256920
6566.000000;0.257253
6565.000000;0.257678
6564.000000;0.258224
6563.000000;0.258754
6562.000000;0.259177
6561.000000;0.259550
6560.000000;0.259989
6559.000000;0.260543
6558.000000;0.261157
6557.000000;0.261699
6556.000000;0.262052
6555.000000;0.262261
6554.000000;0.262548
6553.000000;0.263093
6552.000000;0.263827
6551.000000;0.264510
6550.000000;0.264997
6549.000000;0.265341
6548.000000;0.265661
6547.000000;0.266017
6546.000000;0.266404
6545.000000;0.266795
6544.000000;0.267158
6543.000000;0.267497
6542.000000;0.267858
6541.000000;0.268276
6540.000000;0.268719
6539.000000;0.269145
6538.000000;0.269564
6537.000000;0.270002
6536.000000;0.270444
6535.000000;0.270852
6534.000000;0.271209
6533.000000;0.271507
6532.000000;0.271746
6531.000000;0.271995
6530.000000;0.272389
6529.000000;0.272977
6528.000000;0.273622
6527.000000;0.274137
6526.000000;0.274481
6525.000000;0.274766
6524.000000;0.275093
6523.000000;0.275470
6522.000000;0.275852
6521.000000;0.276202
6520.000000;0.276514
6519.000000;0.276826
6518.000000;0.277195
6517.000000;0.277611
6516.000000;0.277989
6515.000000;0.278295
6514.000000;0.278606
6513.000000;0.279004
6512.000000;0.279449
6511.000000;0.279842
6510.000000;0.280170
6509.000000;0.280502
6508.000000;0.280882
6507.000000;0.281299
6506.000000;0.281732
6505.000000;0.282155
6504.000000;0.282521
6503.000000;0.282822
6502.000000;0.283111
6501.000000;0.283433
6500.000000;0.283762
6499.000000;0.284075
6498.000000;0.284420
6497.000000;0.284849
6496.000000;0.285321
6495.000000;0.285755
6494.000000;0.286136
6493.000000;0.286494
6492.000000;0.286822
6491.000000;0.287093
6490.000000;0.287326
6489.000000;0.287575
6488.000000;0.287866
6487.000000;0.288208
6486.000000;0.288615
6485.000000;0.289055
6484.000000;0.289429
6483.000000;0.289685
6482.000000;0.289905
6481.000000;0.290209
6480.000000;0.290590
6479.000000;0.290949
6478.000000;0.291244
6477.000000;0.291521
6476.000000;0.291809
6475.000000;0.292090
6474.000000;0.292364
6473.000000;0.292658
6472.000000;0.292971
6471.000000;0.293268
6470.000000;0.293539
6469.000000;0.293822
6468.000000;0.294147
6467.000000;0.294511
6466.000000;0.294891
6465.000000;0.295254
6464.000000;0.295574
6463.000000;0.295874
6462.000000;0.296209
6461.000000;0.296579
6460.000000;0.296899
6459.000000;0.297116
6458.000000;0.297295
6457.000000;0.297543
6456.000000;0.297879
6455.000000;0.298247
6454.000000;0.298616
6453.000000;0.298987
6452.000000;0.299340
6451.000000;0.299656
6450.000000;0.299952
6449.000000;0.300241
6448.000000;0.300482
6447.000000;0.300647
6446.000000;0.300793
6445.000000;0.301001
6444.000000;0.301259
6443.000000;0.301504
6442.000000;0.301739
6441.000000;0.302020
6440.000000;0.302351
6439.000000;0.302683
6438.000000;0.302998
6437.000000;0.303315
6436.000000;0.303624
6435.000000;0.303894
6434.000000;0.304133
6433.000000;0.304373
6432.000000;0.304614
6431.000000;0.304839
6430.000000;0.305079
6429.000000;0.305382
6428.000000;0.305727
6427.000000;0.306044
6426.000000;0.306299
6425.000000;0.306511
6424.000000;0.306693
6423.000000;0.306849
6422.000000;0.307013
6421.000000;0.307219
6420.000000;0.307437
6419.000000;0.307623
6418.000000;0.307811
6417.000000;0.308069
6416.000000;0.308375
6415.000000;0.308627
6414.000000;0.308784
6413.000000;0.308923
6412.000000;0.309127
6411.000000;0.309395
6410.000000;0.309679
6409.000000;0.309939
6408.000000;0.310166
6407.000000;0.310368
6406.000000;0.310580
6405.000000;0.310827
6404.000000;0.311076
6403.000000;0.311276
6402.000000;0.311438
6401.000000;0.311635
6400.000000;0.311909
6399.000000;0.312222
6398.000000;0.312503
6397.000000;0.312714
6396.000000;0.312866
6395.000000;0.313011
6394.000000;0.313197
6393.000000;0.313409
6392.000000;0.313576
6391.000000;0.313678
6390.000000;0.313801
6389.000000;0.314038
6388.000000;0.314364
6387.000000;0.314668
6386.000000;0.314904
6385.000000;0.315110
6384.000000;0.315314
6383.000000;0.315487
6382.000000;0.315615
6381.000000;0.315726
6380.000000;0.315857
6379.000000;0.316022
6378.000000;0.316227
6377.000000;0.316454
6376.000000;0.316647
6375.000000;0.316777
6374.000000;0.316900
6373.000000;0.317088
6372.000000;0.317317
6371.000000;0.317507
6370.000000;0.317656
6369.000000;0.317846
6368.000000;0.318096
6367.000000;0.318318
6366.000000;0.318451
6365.000000;0.318549
6364.000000;0.318695
6363.000000;0.318873
6362.000000;0.319011
6361.000000;0.319086
6360.000000;0.319146
6359.000000;0.319254
6358.000000;0.319434
6357.000000;0.319654
6356.000000;0.319843
6355.000000;0.319954
6354.000000;0.320032
6353.000000;0.320189
6352.000000;0.320473
6351.000000;0.320804
6350.000000;0.321054
6349.000000;0.321185
6348.000000;0.321259
6347.000000;0.321357
6346.000000;0.321509
6345.000000;0.321691
6344.000000;0.321865
6343.000000;0.322001
6342.000000;0.322096
6341.000000;0.322165
6340.000000;0.322232
6339.000000;0.322328
6338.000000;0.322471
6337.000000;0.322650
6336.000000;0.322826
6335.000000;0.322962
6334.000000;0.323056
6333.000000;0.323128
6332.000000;0.323192
6331.000000;0.323263
6330.000000;0.323364
6329.000000;0.323501
6328.000000;0.323658
6327.000000;0.323806
6326.000000;0.323933
6325.000000;0.324026
6324.000000;0.324075
6323.000000;0.324107
6322.000000;0.324198
6321.000000;0.324389
6320.000000;0.324622
6319.000000;0.324792
6318.000000;0.324876
6317.000000;0.324942
6316.000000;0.325057
6315.000000;0.325216
6314.000000;0.325374
6313.000000;0.325502
6312.000000;0.325604
6311.000000;0.325696
6310.000000;0.325785
6309.000000;0.325867
6308.000000;0.325934
6307.000000;0.325999
6306.000000;0.326098
6305.000000;0.326247
6304.000000;0.326411
6303.000000;0.326549
6302.000000;0.326658
6301.000000;0.326757
6300.000000;0.326850
6299.000000;0.326926
6298.000000;0.326985
6297.000000;0.327031
6296.000000;0.327052
6295.000000;0.327047
6294.000000;0.327065
6293.000000;0.327158
6292.000000;0.327304
6291.000000;0.327425
6290.000000;0.327486
6289.000000;0.327528
6288.000000;0.327613
6287.000000;0.327756
6286.000000;0.327915
6285.000000;0.328039
6284.000000;0.328102
6283.000000;0.328124
6282.000000;0.328153
6281.000000;0.328212
6280.000000;0.328284
6279.000000;0.328348
6278.000000;0.328420
6277.000000;0.328516
6276.000000;0.328617
6275.000000;0.328686
6274.000000;0.328723
6273.000000;0.328759
6272.000000;0.328811
6271.000000;0.328884
6270.000000;0.328983
6269.000000;0.329098
6268.000000;0.329196
6267.000000;0.329253
6266.000000;0.329280
6265.000000;0.329305
6264.000000;0.329330
6263.000000;0.329360
6262.000000;0.329420
6261.000000;0.329515
6260.000000;0.329594
6259.000000;0.329613
6258.000000;0.329603
6257.000000;0.329637
6256.000000;0.329726
6255.000000;0.329810
6254.000000;0.329853
6253.000000;0.329889
6252.000000;0.329964
6251.000000;0.330081
6250.000000;0.330199
6249.000000;0.330259
6248.000000;0.330220
6247.000000;0.330119
6246.000000;0.330075
6245.000000;0.330178
6244.000000;0.330368
6243.000000;0.330486
6242.000000;0.330457
6241.000000;0.330367
6240.000000;0.330356
6239.000000;0.330466
6238.000000;0.330617
6237.000000;0.330703
6236.000000;0.330692
6235.000000;0.330643
6234.000000;0.330655
6233.000000;0.330766
6232.000000;0.330911
6231.000000;0.330982
6230.000000;0.330957
6229.000000;0.330917
6228.000000;0.330954
6227.000000;0.331077
6226.000000;0.331216
6225.000000;0.331301
6224.000000;0.331319
6223.000000;0.331311
6222.000000;0.331325
6221.000000;0.331370
6220.000000;0.331407
6219.000000;0.331408
6218.000000;0.331389
6217.000000;0.331392
6216.000000;0.331434
6215.000000;0.331496
6214.000000;0.331549
6213.000000;0.331569
6212.000000;0.331557
6211.000000;0.331545
6210.000000;0.331578
6209.000000;0.331658
6208.000000;0.331733
6207.000000;0.331764
6206.000000;0.331765
6205.000000;0.331767
6204.000000;0.331771
6203.000000;0.331764
6202.000000;0.331767
6201.000000;0.331809
6200.000000;0.331880
6199.000000;0.331936
6198.000000;0.331968
6197.000000;0.332001
6196.000000;0.332054
6195.000000;0.332117
6194.000000;0.332179
6193.000000;0.332228
6192.000000;0.332253
6191.000000;0.332248
6190.000000;0.332224
6189.000000;0.332183
6188.000000;0.332108
6187.000000;0.332007
6186.000000;0.331951
6185.000000;0.332000
6184.000000;0.332117
6183.000000;0.332191
6182.000000;0.332166
6181.000000;0.332087
6180.000000;0.332030
6179.000000;0.332028
6178.000000;0.332064
6177.000000;0.332099
6176.000000;0.332095
6175.000000;0.332047
6174.000000;0.332001
6173.000000;0.332014
6172.000000;0.332102
6171.000000;0.332224
6170.000000;0.332322
6169.000000;0.332360
6168.000000;0.332338
6167.000000;0.332295
6166.000000;0.332281
6165.000000;0.332303
6164.000000;0.332320
6163.000000;0.332306
6162.000000;0.332298
6161.000000;0.332334
6160.000000;0.332391
6159.000000;0.332412
6158.000000;0.332392
6157.000000;0.332370
6156.000000;0.332369
6155.000000;0.332376
6154.000000;0.332390
6153.000000;0.332421
6152.000000;0.332449
6151.000000;0.332438
6150.000000;0.332406
6149.000000;0.332410
6148.000000;0.332467
6147.000000;0.332527
6146.000000;0.332551
6145.000000;0.332555
6144.000000;0.332565
6143.000000;0.332570
6142.000000;0.332541
6141.000000;0.332479
6140.000000;0.332414
6139.000000;0.332377
6138.000000;0.332388
6137.000000;0.332438
6136.000000;0.332483
6135.000000;0.332471
6134.000000;0.332400
6133.000000;0.332320
6132.000000;0.332281
6131.000000;0.332289
6130.000000;0.332324
6129.000000;0.332360
6128.000000;0.332380
6127.000000;0.332385
6126.000000;0.332401
6125.000000;0.332447
6124.000000;0.332500
6123.000000;0.332517
6122.000000;0.332500
6121.000000;0.332495
6120.000000;0.332523
6119.000000;0.332547
6118.000000;0.332525
6117.000000;0.332466
6116.000000;0.332411
6115.000000;0.332396
6114.000000;0.332418
6113.000000;0.332443
6112.000000;0.332434
6111.000000;0.332390
6110.000000;0.332353
6109.000000;0.332360
6108.000000;0.332393
6107.000000;0.332400
6106.000000;0.332365
6105.000000;0.332328
6104.000000;0.332329
6103.000000;0.332362
6102.000000;0.332395
6101.000000;0.332405
6100.000000;0.332399
6099.000000;0.332392
6098.000000;0.332403
6097.000000;0.332436
6096.000000;0.332471
6095.000000;0.332492
6094.000000;0.332509
6093.000000;0.332541
6092.000000;0.332577
6091.000000;0.332589
6090.000000;0.332571
6089.000000;0.332550
6088.000000;0.332554
6087.000000;0.332583
6086.000000;0.332623
6085.000000;0.332666
6084.000000;0.332695
6083.000000;0.332691
6082.000000;0.332659
6081.000000;0.332626
6080.000000;0.332616
6079.000000;0.332623
6078.000000;0.332627
6077.000000;0.332609
6076.000000;0.332563
6075.000000;0.332500
6074.000000;0.332449
6073.000000;0.332435
6072.000000;0.332458
6071.000000;0.332504
6070.000000;0.332547
6069.000000;0.332564
6068.000000;0.332532
6067.000000;0.332458
6066.000000;0.332382
6065.000000;0.332344
6064.000000;0.332347
6063.000000;0.332368
6062.000000;0.332402
6061.000000;0.332459
6060.000000;0.332526
6059.000000;0.332565
6058.000000;0.332556
6057.000000;0.332521
6056.000000;0.332494
6055.000000;0.332492
6054.000000;0.332509
6053.000000;0.332527
6052.000000;0.332524
6051.000000;0.332490
6050.000000;0.332451
6049.000000;0.332450
6048.000000;0.332507
6047.000000;0.332587
6046.000000;0.332627
6045.000000;0.332596
6044.000000;0.332533
6043.000000;0.332519
6042.000000;0.332596
6041.000000;0.332714
6040.000000;0.332776
6039.000000;0.332746
6038.000000;0.332679
6037.000000;0.332639
6036.000000;0.332625
6035.000000;0.332598
6034.000000;0.332558
6033.000000;0.332546
6032.000000;0.332581
6031.000000;0.332640
6030.000000;0.332694
6029.000000;0.332741
6028.000000;0.332791
6027.000000;0.332836
6026.000000;0.332853
6025.000000;0.332826
6024.000000;0.332766
6023.000000;0.332711
6022.000000;0.332689
6021.000000;0.332683
6020.000000;0.332650
6019.000000;0.332592
6018.000000;0.332574
6017.000000;0.332642
6016.000000;0.332758
6015.000000;0.332843
6014.000000;0.332878
6013.000000;0.332913
6012.000000;0.332991
6011.000000;0.333094
6010.000000;0.333157
6009.000000;0.333134
6008.000000;0.333039
6007.000000;0.332943
6006.000000;0.332922
6005.000000;0.332980
6004.000000;0.333041
6003.000000;0.333035
6002.000000;0.332976
6001.000000;0.332930
6000.000000;0.332936
5999.000000;0.332978
5998.000000;0.333036
5997.000000;0.333089
5996.000000;0.333110
5995.000000;0.333083
5994.000000;0.333029
5993.000000;0.332990
5992.000000;0.332979
5991.000000;0.332988
5990.000000;0.333019
5989.000000;0.333080
5988.000000;0.333142
5987.000000;0.333162
5986.000000;0.333136
5985.000000;0.333106
5984.000000;0.333110
5983.000000;0.333145
5982.000000;0.333189
5981.000000;0.333226
5980.000000;0.333249
5979.000000;0.333268
5978.000000;0.333308
5977.000000;0.333373
5976.000000;0.333421
5975.000000;0.333416
5974.000000;0.333389
5973.000000;0.333416
5972.000000;0.333526
5971.000000;0.333670
5970.000000;0.333783
5969.000000;0.333843
5968.000000;0.333854
5967.000000;0.333821
5966.000000;0.333757
5965.000000;0.333693
5964.000000;0.333647
5963.000000;0.333623
5962.000000;0.333630
5961.000000;0.333676
5960.000000;0.333732
5959.000000;0.333746
5958.000000;0.333702
5957.000000;0.333651
5956.000000;0.333643
5955.000000;0.333678
5954.000000;0.333719
5953.000000;0.333745
5952.000000;0.333756
5951.000000;0.333752
5950.000000;0.333746
5949.000000;0.333769
5948.000000;0.333843
5947.000000;0.333945
5946.000000;0.334032
5945.000000;0.334093
5944.000000;0.334154
5943.000000;0.334226
5942.000000;0.334284
5941.000000;0.334298
5940.000000;0.334272
5939.000000;0.334249
5938.000000;0.334273
5937.000000;0.334354
5936.000000;0.334452
5935.000000;0.334516
5934.000000;0.334520
5933.000000;0.334496
5932.000000;0.334501
5931.000000;0.334561
5930.000000;0.334646
5929.000000;0.334699
5928.000000;0.334702
5927.000000;0.334700
5926.000000;0.334752
5925.000000;0.334853
5924.000000;0.334938
5923.000000;0.334953
5922.000000;0.334915
5921.000000;0.334885
5920.000000;0.334889
5919.000000;0.334902
5918.000000;0.334891
5917.000000;0.334869
5916.000000;0.334878
5915.000000;0.334932
5914.000000;0.334986
5913.000000;0.334984
5912.000000;0.334917
5911.000000;0.334842
5910.000000;0.334817
5909.000000;0.334852
5908.000000;0.334913
5907.000000;0.334970
5906.000000;0.335010
5905.000000;0.335023
5904.000000;0.334997
5903.000000;0.334950
5902.000000;0.334923
5901.000000;0.334945
5900.000000;0.334999
5899.000000;0.335047
5898.000000;0.335061
5897.000000;0.335049
5896.000000;0.335048
5895.000000;0.335094
5894.000000;0.335176
5893.000000;0.335229
5892.000000;0.335205
5891.000000;0.335140
5890.000000;0.335110
5889.000000;0.335134
5888.000000;0.335153
5887.000000;0.335127
5886.000000;0.335094
5885.000000;0.335107
5884.000000;0.335160
5883.000000;0.335198
5882.000000;0.335187
5881.000000;0.335152
5880.000000;0.335147
5879.000000;0.335211
5878.000000;0.335330
5877.000000;0.335429
5876.000000;0.335440
5875.000000;0.335381
5874.000000;0.335339
5873.000000;0.335372
5872.000000;0.335444
5871.000000;0.335491
5870.000000;0.335497
5869.000000;0.335494
5868.000000;0.335510
5867.000000;0.335563
5866.000000;0.335654
5865.000000;0.335750
5864.000000;0.335800
5863.000000;0.335805
5862.000000;0.335821
5861.000000;0.335875
5860.000000;0.335906
5859.000000;0.335854
5858.000000;0.335755
5857.000000;0.335697
5856.000000;0.335709
5855.000000;0.335750
5854.000000;0.335785
5853.000000;0.335819
5852.000000;0.335851
5851.000000;0.335877
5850.000000;0.335908
5849.000000;0.335969
5848.000000;0.336059
5847.000000;0.336150
5846.000000;0.336221
5845.000000;0.336263
5844.000000;0.336259
5843.000000;0.336215
5842.000000;0.336181
5841.000000;0.336205
5840.000000;0.336269
5839.000000;0.336308
5838.000000;0.336293
5837.000000;0.336255
5836.000000;0.336235
5835.000000;0.336259
5834.000000;0.336339
5833.000000;0.336459
5832.000000;0.336562
5831.000000;0.336589
5830.000000;0.336562
5829.000000;0.336564
5828.000000;0.336636
5827.000000;0.336727
5826.000000;0.336771
5825.000000;0.336764
5824.000000;0.336755
5823.000000;0.336781
5822.000000;0.336845
5821.000000;0.336918
5820.000000;0.336958
5819.000000;0.336938
5818.000000;0.336875
5817.000000;0.336828
5816.000000;0.336840
5815.000000;0.336905
5814.000000;0.336983
5813.000000;0.337040
5812.000000;0.337073
5811.000000;0.337106
5810.000000;0.337165
5809.000000;0.337249
5808.000000;0.337318
5807.000000;0.337333
5806.000000;0.337307
5805.000000;0.337300
5804.000000;0.337350
5803.000000;0.337427
5802.000000;0.337457
5801.000000;0.337401
5800.000000;0.337306
5799.000000;0.337269
5798.000000;0.337342
5797.000000;0.337478
5796.000000;0.337581
5795.000000;0.337610
5794.000000;0.337603
5793.000000;0.337607
5792.000000;0.337616
5791.000000;0.337600
5790.000000;0.337573
5789.000000;0.337582
5788.000000;0.337650
5787.000000;0.337748
5786.000000;0.337833
5785.000000;0.337878
5784.000000;0.337892
5783.000000;0.337912
5782.000000;0.337969
5781.000000;0.338047
5780.000000;0.338087
5779.000000;0.338050
5778.000000;0.337954
5777.000000;0.337851
5776.000000;0.337788
5775.000000;0.337790
5774.000000;0.337857
5773.000000;0.337937
5772.000000;0.337953
5771.000000;0.337880
5770.000000;0.337779
5769.000000;0.337727
5768.000000;0.337745
5767.000000;0.337804
5766.000000;0.337885
5765.000000;0.337977
5764.000000;0.338053
5763.000000;0.338087
5762.000000;0.338087
5761.000000;0.338085
5760.000000;0.338098
5759.000000;0.338114
5758.000000;0.338113
5757.000000;0.338078
5756.000000;0.338002
5755.000000;0.337912
5754.000000;0.337874
5753.000000;0.337926
5752.000000;0.338029
5751.000000;0.338110
5750.000000;0.338132
5749.000000;0.338117
5748.000000;0.338093
5747.000000;0.338066
5746.000000;0.338036
5745.000000;0.338003
5744.000000;0.337962
5743.000000;0.337917
5742.000000;0.337886
5741.000000;0.337876
5740.000000;0.337873
5739.000000;0.337869
5738.000000;0.337879
5737.000000;0.337908
5736.000000;0.337920
5735.000000;0.337880
5734.000000;0.337813
5733.000000;0.337775
5732.000000;0.337790
5731.000000;0.337842
5730.000000;0.337912
5729.000000;0.337987
5728.000000;0.338041
5727.000000;0.338047
5726.000000;0.338009
5725.000000;0.337942
5724.000000;0.337850
5723.000000;0.337748
5722.000000;0.337687
5721.000000;0.337707
5720.000000;0.337768
5719.000000;0.337787
5718.000000;0.337744
5717.000000;0.337693
5716.000000;0.337693
5715.000000;0.337736
5714.000000;0.337782
5713.000000;0.337801
5712.000000;0.337775
5711.000000;0.337700
5710.000000;0.337607
5709.000000;0.337548
5708.000000;0.337559
5707.000000;0.337620
5706.000000;0.337679
5705.000000;0.337685
5704.000000;0.337635
5703.000000;0.337583
5702.000000;0.337602
5701.000000;0.337698
5700.000000;0.337795
5699.000000;0.337813
5698.000000;0.337754
5697.000000;0.337680
5696.000000;0.337627
5695.000000;0.337594
5694.000000;0.337580
5693.000000;0.337589
5692.000000;0.337607
5691.000000;0.337613
5690.000000;0.337612
5689.000000;0.337621
5688.000000;0.337640
5687.000000;0.337661
5686.000000;0.337698
5685.000000;0.337768
5684.000000;0.337854
5683.000000;0.337908
5682.000000;0.337905
5681.000000;0.337855
5680.000000;0.337779
5679.000000;0.337697
5678.000000;0.337634
5677.000000;0.337607
5676.000000;0.337607
5675.000000;0.337629
5674.000000;0.337691
5673.000000;0.337805
5672.000000;0.337916
5671.000000;0.337950
5670.000000;0.337903
5669.000000;0.337853
5668.000000;0.337868
5667.000000;0.337938
5666.000000;0.338004
5665.000000;0.338025
5664.000000;0.338007
5663.000000;0.337993
5662.000000;0.338027
5661.000000;0.338109
5660.000000;0.338198
5659.000000;0.338262
5658.000000;0.338323
5657.000000;0.338411
5656.000000;0.338502
5655.000000;0.338549
5654.000000;0.338547
5653.000000;0.338548
5652.000000;0.338588
5651.000000;0.338651
5650.000000;0.338702
5649.000000;0.338720
5648.000000;0.338709
5647.000000;0.338708
5646.000000;0.338777
5645.000000;0.338936
5644.000000;0.339121
5643.000000;0.339242
5642.000000;0.339287
5641.000000;0.339334
5640.000000;0.339443
5639.000000;0.339596
5638.000000;0.339735
5637.000000;0.339838
5636.000000;0.339922
5635.000000;0.339992
5634.000000;0.340023
5633.000000;0.339995
5632.000000;0.339945
5631.000000;0.339962
5630.000000;0.340121
5629.000000;0.340388
5628.000000;0.340637
5627.000000;0.340771
5626.000000;0.340817
5625.000000;0.340868
5624.000000;0.340975
5623.000000;0.341118
5622.000000;0.341265
5621.000000;0.341397
5620.000000;0.341504
5619.000000;0.341592
5618.000000;0.341691
5617.000000;0.341831
5616.000000;0.342000
5615.000000;0.342152
5614.000000;0.342277
5613.000000;0.342398
5612.000000;0.342529
5611.000000;0.342657
5610.000000;0.342777
5609.000000;0.342907
5608.000000;0.343057
5607.000000;0.343219
5606.000000;0.343377
5605.000000;0.343531
5604.000000;0.343690
5603.000000;0.343858
5602.000000;0.344028
5601.000000;0.344172
5600.000000;0.344265
5599.000000;0.344317
5598.000000;0.344387
5597.000000;0.344527
5596.000000;0.344733
5595.000000;0.344961
5594.000000;0.345169
5593.000000;0.345341
5592.000000;0.345485
5591.000000;0.345632
5590.000000;0.345805
5589.000000;0.345984
5588.000000;0.346116
5587.000000;0.346191
5586.000000;0.346276
5585.000000;0.346443
5584.000000;0.346678
5583.000000;0.346906
5582.000000;0.347074
5581.000000;0.347181
5580.000000;0.347248
5579.000000;0.347302
5578.000000;0.347379
5577.000000;0.347518
5576.000000;0.347717
5575.000000;0.347937
5574.000000;0.348127
5573.000000;0.348254
5572.000000;0.348329
5571.000000;0.348411
5570.000000;0.348567
5569.000000;0.348790
5568.000000;0.348996
5567.000000;0.349123
5566.000000;0.349212
5565.000000;0.349343
5564.000000;0.349518
5563.000000;0.349655
5562.000000;0.349693
5561.000000;0.349674
5560.000000;0.349701
5559.000000;0.349854
5558.000000;0.350113
5557.000000;0.350364
5556.000000;0.350503
5555.000000;0.350545
5554.000000;0.350602
5553.000000;0.350741
5552.000000;0.350902
5551.000000;0.350997
5550.000000;0.351038
5549.000000;0.351116
5548.000000;0.351274
5547.000000;0.351469
5546.000000;0.351637
5545.000000;0.351759
5544.000000;0.351859
5543.000000;0.351982
5542.000000;0.352165
5541.000000;0.352384
5540.000000;0.352546
5539.000000;0.352570
5538.000000;0.352484
5537.000000;0.352408
5536.000000;0.352444
5535.000000;0.352606
5534.000000;0.352842
5533.000000;0.353080
5532.000000;0.353263
5531.000000;0.353360
5530.000000;0.353391
5529.000000;0.353404
5528.000000;0.353442
5527.000000;0.353530
5526.000000;0.353673
5525.000000;0.353847
5524.000000;0.354014
5523.000000;0.354157
5522.000000;0.354284
5521.000000;0.354393
5520.000000;0.354454
5519.000000;0.354471
5518.000000;0.354519
5517.000000;0.354664
5516.000000;0.354877
5515.000000;0.355053
5514.000000;0.355130
5513.000000;0.355139
5512.000000;0.355162
5511.000000;0.355255
5510.000000;0.355414
5509.000000;0.355585
5508.000000;0.355717
5507.000000;0.355817
5506.000000;0.355936
5505.000000;0.356089
5504.000000;0.356226
5503.000000;0.356303
5502.000000;0.356349
5501.000000;0.356422
5500.000000;0.356525
5499.000000;0.356616
5498.000000;0.356687
5497.000000;0.356784
5496.000000;0.356935
5495.000000;0.357115
5494.000000;0.357278
5493.000000;0.357404
5492.000000;0.357496
5491.000000;0.357570
5490.000000;0.357638
5489.000000;0.357715
5488.000000;0.357800
5487.000000;0.357892
5486.000000;0.357987
5485.000000;0.358077
5484.000000;0.358156
5483.000000;0.358240
5482.000000;0.358358
5481.000000;0.358518
5480.000000;0.358691
5479.000000;0.358850
5478.000000;0.358993
5477.000000;0.359130
5476.000000;0.359266
5475.000000;0.359412
5474.000000;0.359566
5473.000000;0.359693
5472.000000;0.359756
5471.000000;0.359771
5470.000000;0.359782
5469.000000;0.359806
5468.000000;0.359853
5467.000000;0.359964
5466.000000;0.360178
5465.000000;0.360447
5464.000000;0.360660
5463.000000;0.360771
5462.000000;0.360854
5461.000000;0.361003
5460.000000;0.361223
5459.000000;0.361454
5458.000000;0.361630
5457.000000;0.361720
5456.000000;0.361737
5455.000000;0.361750
5454.000000;0.361841
5453.000000;0.362021
5452.000000;0.362212
5451.000000;0.362362
5450.000000;0.362514
5449.000000;0.362738
5448.000000;0.363010
5447.000000;0.363244
5446.000000;0.363406
5445.000000;0.363534
5444.000000;0.363649
5443.000000;0.363750
5442.000000;0.363886
5441.000000;0.364124
5440.000000;0.364430
5439.000000;0.364671
5438.000000;0.364773
5437.000000;0.364812
5436.000000;0.364929
5435.000000;0.365184
5434.000000;0.365523
5433.000000;0.365830
5432.000000;0.366019
5431.000000;0.366109
5430.000000;0.366218
5429.000000;0.366457
5428.000000;0.366796
5427.000000;0.367090
5426.000000;0.367246
5425.000000;0.367321
5424.000000;0.367441
5423.000000;0.367673
5422.000000;0.367982
5421.000000;0.368278
5420.000000;0.368495
5419.000000;0.368680
5418.000000;0.368950
5417.000000;0.369330
5416.000000;0.369711
5415.000000;0.370007
5414.000000;0.370278
5413.000000;0.370622
5412.000000;0.370991
5411.000000;0.371259
5410.000000;0.371422
5409.000000;0.371602
5408.000000;0.371884
5407.000000;0.372250
5406.000000;0.372648
5405.000000;0.373032
5404.000000;0.373355
5403.000000;0.373620
5402.000000;0.373930
5401.000000;0.374386
5400.000000;0.374937
5399.000000;0.375435
5398.000000;0.375841
5397.000000;0.376263
5396.000000;0.376773
5395.000000;0.377321
5394.000000;0.377819
5393.000000;0.378224
5392.000000;0.378545
5391.000000;0.378854
5390.000000;0.379285
5389.000000;0.379907
5388.000000;0.380612
5387.000000;0.381216
5386.000000;0.381688
5385.000000;0.382169
5384.000000;0.382757
5383.000000;0.383404
5382.000000;0.384039
5381.000000;0.384665
5380.000000;0.385296
5379.000000;0.385923
5378.000000;0.386582
5377.000000;0.387331
5376.000000;0.388138
5375.000000;0.388893
5374.000000;0.389580
5373.000000;0.390276
5372.000000;0.391006
5371.000000;0.391713
5370.000000;0.392419
5369.000000;0.393249
5368.000000;0.394262
5367.000000;0.395379
5366.000000;0.396497
5365.000000;0.397577
5364.000000;0.398598
5363.000000;0.399553
5362.000000;0.400512
5361.000000;0.401571
5360.000000;0.402694
5359.000000;0.403771
5358.000000;0.404835
5357.000000;0.406031
5356.000000;0.407348
5355.000000;0.408597
5354.000000;0.409740
5353.000000;0.411009
5352.000000;0.412545
5351.000000;0.414123
5350.000000;0.415458
5349.000000;0.416621
5348.000000;0.417908
5347.000000;0.419436
5346.000000;0.421056
5345.000000;0.422607
5344.000000;0.424115
5343.000000;0.425733
5342.000000;0.427553
5341.000000;0.429494
5340.000000;0.431346
5339.000000;0.432952
5338.000000;0.434433
5337.000000;0.436063
5336.000000;0.437873
5335.000000;0.439603
5334.000000;0.441099
5333.000000;0.442541
5332.000000;0.444180
5331.000000;0.446012
5330.000000;0.447810
5329.000000;0.449359
5328.000000;0.450592
5327.000000;0.451645
5326.000000;0.452820
5325.000000;0.454235
5324.000000;0.455516
5323.000000;0.456101
5322.000000;0.455874
5321.000000;0.455230
5320.000000;0.454493
5319.000000;0.453592
5318.000000;0.452372
5317.000000;0.450896
5316.000000;0.449291
5315.000000;0.447473
5314.000000;0.445008
5313.000000;0.441199
5312.000000;0.435662
5311.000000;0.429127
5310.000000;0.422950
5309.000000;0.417093
5308.000000;0.409259
5307.000000;0.397262
5306.000000;0.381875
5305.000000;0.365535
5304.000000;0.349104
5303.000000;0.332197
5302.000000;0.316039
5301.000000;0.303454
5300.000000;0.295762
5299.000000;0.292100
5298.000000;0.293260
5297.000000;0.303114
5296.000000;0.323199
5295.000000;0.350816
5294.000000;0.385554
5293.000000;0.429743
5292.000000;0.480234
5291.000000;0.529429
5290.000000;0.575241
5289.000000;0.619269
5288.000000;0.657464
5287.000000;0.685705
5286.000000;0.710803
5285.000000;0.740559
5284.000000;0.767642
5283.000000;0.780757
5282.000000;0.787731
5281.000000;0.805011
5280.000000;0.832710
5279.000000;0.856561
5278.000000;0.870423
5277.000000;0.882186
5276.000000;0.896043
5275.000000;0.907494
5274.000000;0.915978
5273.000000;0.925984
5272.000000;0.935747
5271.000000;0.939453
5270.000000;0.939504
5269.000000;0.942520
5268.000000;0.946318
5267.000000;0.944420
5266.000000;0.939188
5265.000000;0.937673
5264.000000;0.940003
5263.000000;0.943065
5262.000000;0.949299
5261.000000;0.958890
5260.000000;0.961812
5259.000000;0.953519
5258.000000;0.947574
5257.000000;0.957857
5256.000000;0.977114
5255.000000;0.983140
5254.000000;0.969324
5253.000000;0.952117
5252.000000;0.944606
5251.000000;0.944958
5250.000000;0.947278
5249.000000;0.948963
5248.000000;0.949525
5247.000000;0.952055
5246.000000;0.963226
5245.000000;0.983164
5244.000000;0.995395
5243.000000;0.985100
5242.000000;0.966129
5241.000000;0.961682
5240.000000;0.976201
5239.000000;0.995561
5238.000000;1.002706
5237.000000;0.992614
5236.000000;0.972822
5235.000000;0.956012
5234.000000;0.952827
5233.000000;0.960607
5232.000000;0.961829
5231.000000;0.947308
5230.000000;0.932095
5229.000000;0.934121
5228.000000;0.951266
5227.000000;0.966357
5226.000000;0.970530
5225.000000;0.971080
5224.000000;0.976270
5223.000000;0.988328
5222.000000;1.007912
5221.000000;1.028815
5220.000000;1.032500
5219.000000;1.011007
5218.000000;0.983405
5217.000000;0.971106
5216.000000;0.975548
5215.000000;0.979919
5214.000000;0.970934
5213.000000;0.957520
5212.000000;0.955637
5211.000000;0.967438
5210.000000;0.982036
5209.000000;0.985349
5208.000000;0.972485
5207.000000;0.957780
5206.000000;0.961740
5205.000000;0.986735
5204.000000;1.011727
5203.000000;1.015422
5202.000000;1.003085
5201.000000;0.993103
5200.000000;0.990131
5199.000000;0.986918
5198.000000;0.980728
5197.000000;0.974383
5196.000000;0.968288
5195.000000;0.964980
5194.000000;0.971343
5193.000000;0.986496
5192.000000;0.996105
5191.000000;0.988834
5190.000000;0.974138
5189.000000;0.969060
5188.000000;0.976059
5187.000000;0.983583
5186.000000;0.981720
5185.000000;0.971445
5184.000000;0.960514
5183.000000;0.957215
5182.000000;0.966355
5181.000000;0.982924
5180.000000;0.992483
5179.000000;0.989216
5178.000000;0.986313
5177.000000;0.996266
5176.000000;1.012343
5175.000000;1.018083
5174.000000;1.010465
5173.000000;0.999990
5172.000000;0.993722
5171.000000;0.993655
5170.000000;1.003043
5169.000000;1.021091
5168.000000;1.035036
5167.000000;1.030600
5166.000000;1.010598
5165.000000;0.989005
5164.000000;0.973806
5163.000000;0.966397
5162.000000;0.966652
5161.000000;0.970152
5160.000000;0.968568
5159.000000;0.961763
5158.000000;0.960905
5157.000000;0.971290
5156.000000;0.981825
5155.000000;0.980635
5154.000000;0.974402
5153.000000;0.977003
5152.000000;0.987719
5151.000000;0.995112
5150.000000;0.996996
5149.000000;1.000935
5148.000000;1.008337
5147.000000;1.012512
5146.000000;1.009324
5145.000000;0.999895
5144.000000;0.986158
5143.000000;0.973617
5142.000000;0.971262
5141.000000;0.979469
5140.000000;0.984858
5139.000000;0.977734
5138.000000;0.968248
5137.000000;0.970094
5136.000000;0.980417
5135.000000;0.986414
5134.000000;0.984214
5133.000000;0.979586
5132.000000;0.974900
5131.000000;0.969458
5130.000000;0.966486
5129.000000;0.967840
5128.000000;0.968655
5127.000000;0.967378
5126.000000;0.973246
5125.000000;0.992947
5124.000000;1.016002
5123.000000;1.025695
5122.000000;1.023133
5121.000000;1.020152
5120.000000;1.014379
5119.000000;0.995511
5118.000000;0.971364
5117.000000;0.961939
5116.000000;0.972174
5115.000000;0.986391
5114.000000;0.986748
5113.000000;0.972185
5112.000000;0.955439
5111.000000;0.947678
5110.000000;0.952446
5109.000000;0.965240
5108.000000;0.974861
5107.000000;0.976385
5106.000000;0.978873
5105.000000;0.988804
5104.000000;0.995787
5103.000000;0.985766
5102.000000;0.965505
5101.000000;0.955085
5100.000000;0.961493
5099.000000;0.974534
5098.000000;0.982364
5097.000000;0.982451
5096.000000;0.977491
5095.000000;0.970617
5094.000000;0.965765
5093.000000;0.964155
5092.000000;0.960576
5091.000000;0.950655
5090.000000;0.939314
5089.000000;0.933662
5088.000000;0.933622
5087.000000;0.936897
5086.000000;0.944854
5085.000000;0.955492
5084.000000;0.958511
5083.000000;0.948974
5082.000000;0.938173
5081.000000;0.937670
5080.000000;0.942464
5079.000000;0.941316
5078.000000;0.937984
5077.000000;0.944080
5076.000000;0.957813
5075.000000;0.964837
5074.000000;0.957135
5073.000000;0.940867
5072.000000;0.924507
5071.000000;0.913016
5070.000000;0.912099
5069.000000;0.924405
5068.000000;0.940888
5067.000000;0.947837
5066.000000;0.946350
5065.000000;0.947940
5064.000000;0.953611
5063.000000;0.953229
5062.000000;0.942865
5061.000000;0.931155
5060.000000;0.924485
5059.000000;0.919214
5058.000000;0.911884
5057.000000;0.905794
5056.000000;0.904064
5055.000000;0.905649
5054.000000;0.910215
5053.000000;0.919074
5052.000000;0.930341
5051.000000;0.940176
5050.000000;0.948763
5049.000000;0.956964
5048.000000;0.958905
5047.000000;0.949774
5046.000000;0.938147
5045.000000;0.935298
5044.000000;0.935106
5043.000000;0.919085
5042.000000;0.888697
5041.000000;0.868026
5040.000000;0.870973
5039.000000;0.889221
5038.000000;0.902805
5037.000000;0.901568
5036.000000;0.894319
5035.000000;0.889318
5034.000000;0.885180
5033.000000;0.879518
5032.000000;0.874218
5031.000000;0.873493
5030.000000;0.877995
5029.000000;0.881961
5028.000000;0.877679
5027.000000;0.864304
5026.000000;0.849911
5025.000000;0.842334
5024.000000;0.840810
5023.000000;0.838987
5022.000000;0.834947
5021.000000;0.833495
5020.000000;0.837451
5019.000000;0.841884
5018.000000;0.839201
5017.000000;0.827929
5016.000000;0.813803
5015.000000;0.803730
5014.000000;0.801584
5013.000000;0.806964
5012.000000;0.814693
5011.000000;0.817106
5010.000000;0.809106
5009.000000;0.792091
5008.000000;0.773571
5007.000000;0.762586
5006.000000;0.763175
5005.000000;0.769257
5004.000000;0.767489
5003.000000;0.751176
5002.000000;0.729289
5001.000000;0.716193
5000.000000;0.717598
4999.000000;0.727483
4998.000000;0.734170
4997.000000;0.730791
4996.000000;0.720941
4995.000000;0.712695
4994.000000;0.709601
4993.000000;0.707451
4992.000000;0.699955
4991.000000;0.688078
4990.000000;0.678827
4989.000000;0.675285
4988.000000;0.672173
4987.000000;0.663412
4986.000000;0.652202
4985.000000;0.646735
4984.000000;0.648966
4983.000000;0.652584
4982.000000;0.649383
4981.000000;0.637362
4980.000000;0.622026
4979.000000;0.609710
4978.000000;0.602558
4977.000000;0.597803
4976.000000;0.591070
4975.000000;0.582049
4974.000000;0.574712
4973.000000;0.571374
4972.000000;0.569497
4971.000000;0.565107
4970.000000;0.557205
4969.000000;0.547390
4968.000000;0.537509
4967.000000;0.529419
4966.000000;0.524489
4965.000000;0.521357
4964.000000;0.516185
4963.000000;0.507178
4962.000000;0.496912
4961.000000;0.488285
4960.000000;0.480591
4959.000000;0.471697
4958.000000;0.461838
4957.000000;0.452800
4956.000000;0.445247
4955.000000;0.438923
4954.000000;0.433845
4953.000000;0.429303
4952.000000;0.422866
4951.000000;0.412564
4950.000000;0.399705
4949.000000;0.388011
4948.000000;0.380140
4947.000000;0.375537
4946.000000;0.370781
4945.000000;0.362342
4944.000000;0.350560
4943.000000;0.340364
4942.000000;0.336181
4941.000000;0.336155
4940.000000;0.333538
4939.000000;0.324918
4938.000000;0.313625
4937.000000;0.303678
4936.000000;0.294651
4935.000000;0.283966
4934.000000;0.271509
4933.000000;0.259696
4932.000000;0.250149
4931.000000;0.242617
4930.000000;0.236275
4929.000000;0.230447
4928.000000;0.224988
4927.000000;0.220391
4926.000000;0.216409
4925.000000;0.210809
4924.000000;0.201230
4923.000000;0.188907
4922.000000;0.178268
4921.000000;0.171646
4920.000000;0.166669
4919.000000;0.159780
4918.000000;0.150201
4917.000000;0.139412
4916.000000;0.128918
4915.000000;0.119827
4914.000000;0.112641
4913.000000;0.105971
4912.000000;0.097051
4911.000000;0.085137
4910.000000;0.073007
4909.000000;0.063726
4908.000000;0.057534
4907.000000;0.052765
4906.000000;0.047935
4905.000000;0.041732
4904.000000;0.032950
4903.000000;0.022066
4902.000000;0.011357
4901.000000;0.002132
4900.000000;-0.006933
4899.000000;-0.017370
4898.000000;-0.027903
4897.000000;-0.035640
4896.000000;-0.039521
4895.000000;-0.041282
4894.000000;-0.043742
4893.000000;-0.048941
4892.000000;-0.056852
4891.000000;-0.065155
4890.000000;-0.071319
4889.000000;-0.075477
4888.000000;-0.080168
4887.000000;-0.086701
4886.000000;-0.093340
4885.000000;-0.098071
4884.000000;-0.101483
4883.000000;-0.105730
4882.000000;-0.111553
4881.000000;-0.117635
4880.000000;-0.122373
4879.000000;-0.125217
4878.000000;-0.126834
4877.000000;-0.128812
4876.000000;-0.132654
4875.000000;-0.138227
4874.000000;-0.143644
4873.000000;-0.147200
4872.000000;-0.148955
4871.000000;-0.150155
4870.000000;-0.151634
4869.000000;-0.153160
4868.000000;-0.153995
4867.000000;-0.153707
4866.000000;-0.152643
4865.000000;-0.151773
4864.000000;-0.151843
4863.000000;-0.152598
4862.000000;-0.153225
4861.000000;-0.153451
4860.000000;-0.153463
4859.000000;-0.153022
4858.000000;-0.151651
4857.000000;-0.149660
4856.000000;-0.147839
4855.000000;-0.146005
4854.000000;-0.143156
4853.000000;-0.139501
4852.000000;-0.136821
4851.000000;-0.135947
4850.000000;-0.135243
4849.000000;-0.132818
4848.000000;-0.129224
4847.000000;-0.126584
4846.000000;-0.125710
4845.000000;-0.125506
4844.000000;-0.124755
4843.000000;-0.122970
4842.000000;-0.119791
4841.000000;-0.115092
4840.000000;-0.109763
4839.000000;-0.105178
4838.000000;-0.101705
4837.000000;-0.098777
4836.000000;-0.096294
4835.000000;-0.094659
4834.000000;-0.093405
4833.000000;-0.091222
4832.000000;-0.087728
4831.000000;-0.083987
4830.000000;-0.080836
4829.000000;-0.077863
4828.000000;-0.074549
4827.000000;-0.071270
4826.000000;-0.068444
4825.000000;-0.065656
4824.000000;-0.062496
4823.000000;-0.059527
4822.000000;-0.057468
4821.000000;-0.055828
4820.000000;-0.053276
4819.000000;-0.049216
4818.000000;-0.044357
4817.000000;-0.039911
4816.000000;-0.036685
4815.000000;-0.034664
4814.000000;-0.032939
4813.000000;-0.030254
4812.000000;-0.026136
4811.000000;-0.021416
4810.000000;-0.017369
4809.000000;-0.014448
4808.000000;-0.012152
4807.000000;-0.009798
4806.000000;-0.007015
4805.000000;-0.003727
4804.000000;-0.000159
4803.000000;0.003167
4802.000000;0.005874
4801.000000;0.008177
4800.000000;0.010606
4799.000000;0.013362
4798.000000;0.016153
4797.000000;0.018653
4796.000000;0.020905
4795.000000;0.023223
4794.000000;0.025854
4793.000000;0.028749
4792.000000;0.031616
4791.000000;0.034259
4790.000000;0.036852
4789.000000;0.039655
4788.000000;0.042473
4787.000000;0.044711
4786.000000;0.046176
4785.000000;0.047528
4784.000000;0.049634
4783.000000;0.052582
4782.000000;0.055626
4781.000000;0.058067
4780.000000;0.059921
4779.000000;0.061716
4778.000000;0.063880
4777.000000;0.066468
4776.000000;0.069281
4775.000000;0.072052
4774.000000;0.074543
4773.000000;0.076609
4772.000000;0.078348
4771.000000;0.080213
4770.000000;0.082699
4769.000000;0.085751
4768.000000;0.088595
4767.000000;0.090368
4766.000000;0.090973
4765.000000;0.091187
4764.000000;0.091921
4763.000000;0.093519
4762.000000;0.095746
4761.000000;0.098226
4760.000000;0.100725
4759.000000;0.103156
4758.000000;0.105483
4757.000000;0.107661
4756.000000;0.109630
4755.000000;0.111392
4754.000000;0.113088
4753.000000;0.114920
4752.000000;0.116940
4751.000000;0.118944
4750.000000;0.120625
4749.000000;0.121839
4748.000000;0.122781
4747.000000;0.123868
4746.000000;0.125395
4745.000000;0.127240
4744.000000;0.129010
4743.000000;0.130512
4742.000000;0.131990
4741.000000;0.133797
4740.000000;0.135927
4739.000000;0.138048
4738.000000;0.139929
4737.000000;0.141656
4736.000000;0.143374
4735.000000;0.144992
4734.000000;0.146314
4733.000000;0.147379
4732.000000;0.148483
4731.000000;0.149817
4730.000000;0.151209
4729.000000;0.152376
4728.000000;0.153382
4727.000000;0.154672
4726.000000;0.156526
4725.000000;0.158626
4724.000000;0.160317
4723.000000;0.161273
4722.000000;0.161802
4721.000000;0.162536
4720.000000;0.163902
4719.000000;0.165795
4718.000000;0.167588
4717.000000;0.168591
4716.000000;0.168798
4715.000000;0.169109
4714.000000;0.170490
4713.000000;0.172882
4712.000000;0.175200
4711.000000;0.176504
4710.000000;0.176915
4709.000000;0.177294
4708.000000;0.178299
4707.000000;0.179937
4706.000000;0.181745
4705.000000;0.183195
4704.000000;0.184071
4703.000000;0.184645
4702.000000;0.185426
4701.000000;0.186643
4700.000000;0.188100
4699.000000;0.189529
4698.000000;0.190850
4697.000000;0.191991
4696.000000;0.192796
4695.000000;0.193295
4694.000000;0.193811
4693.000000;0.194597
4692.000000;0.195562
4691.000000;0.196556
4690.000000;0.197652
4689.000000;0.198906
4688.000000;0.200086
4687.000000;0.200961
4686.000000;0.201713
4685.000000;0.202722
4684.000000;0.204038
4683.000000;0.205325
4682.000000;0.206266
4681.000000;0.206797
4680.000000;0.207044
4679.000000;0.207284
4678.000000;0.207900
4677.000000;0.209060
4676.000000;0.210462
4675.000000;0.211605
4674.000000;0.212313
4673.000000;0.212837
4672.000000;0.213509
4671.000000;0.214503
4670.000000;0.215856
4669.000000;0.217444
4668.000000;0.218922
4667.000000;0.219895
4666.000000;0.220244
4665.000000;0.220210
4664.000000;0.220214
4663.000000;0.220650
4662.000000;0.221685
4661.000000;0.223026
4660.000000;0.224026
4659.000000;0.224303
4658.000000;0.224255
4657.000000;0.224671
4656.000000;0.225821
4655.000000;0.227156
4654.000000;0.227968
4653.000000;0.228163
4652.000000;0.228294
4651.000000;0.228976
4650.000000;0.230325
4649.000000;0.231880
4648.000000;0.232987
4647.000000;0.233349
4646.000000;0.233251
4645.000000;0.233239
4644.000000;0.233613
4643.000000;0.234275
4642.000000;0.234993
4641.000000;0.235681
4640.000000;0.236421
4639.000000;0.237274
4638.000000;0.238123
4637.000000;0.238740
4636.000000;0.239066
4635.000000;0.239395
4634.000000;0.240092
4633.000000;0.241118
4632.000000;0.242020
4631.000000;0.242477
4630.000000;0.242690
4629.000000;0.243098
4628.000000;0.243856
4627.000000;0.244748
4626.000000;0.245500
4625.000000;0.246003
4624.000000;0.246330
4623.000000;0.246659
4622.000000;0.247127
4621.000000;0.247666
4620.000000;0.248093
4619.000000;0.248429
4618.000000;0.248943
4617.000000;0.249722
4616.000000;0.250419
4615.000000;0.250698
4614.000000;0.250772
4613.000000;0.251174
4612.000000;0.252008
4611.000000;0.252762
4610.000000;0.252938
4609.000000;0.252663
4608.000000;0.252513
4607.000000;0.252856
4606.000000;0.253527
4605.000000;0.254124
4604.000000;0.254550
4603.000000;0.255113
4602.000000;0.256060
4601.000000;0.257125
4600.000000;0.257739
4599.000000;0.257715
4598.000000;0.257516
4597.000000;0.257744
4596.000000;0.258518
4595.000000;0.259462
4594.000000;0.260133
4593.000000;0.260356
4592.000000;0.260289
4591.000000;0.260261
4590.000000;0.260493
4589.000000;0.260906
4588.000000;0.261281
4587.000000;0.261582
4586.000000;0.261939
4585.000000;0.262311
4584.000000;0.262472
4583.000000;0.262434
4582.000000;0.262579
4581.000000;0.263177
4580.000000;0.264020
4579.000000;0.264732
4578.000000;0.265192
4577.000000;0.265463
4576.000000;0.265537
4575.000000;0.265448
4574.000000;0.265442
4573.000000;0.265723
4572.000000;0.266161
4571.000000;0.266488
4570.000000;0.266650
4569.000000;0.266751
4568.000000;0.266812
4567.000000;0.266866
4566.000000;0.267115
4565.000000;0.267677
4564.000000;0.268285
4563.000000;0.268539
4562.000000;0.268416
4561.000000;0.268282
4560.000000;0.268446
4559.000000;0.268935
4558.000000;0.269605
4557.000000;0.270224
4556.000000;0.270509
4555.000000;0.270369
4554.000000;0.270103
4553.000000;0.270138
4552.000000;0.270586
4551.000000;0.271211
4550.000000;0.271747
4549.000000;0.272031
4548.000000;0.271954
4547.000000;0.271549
4546.000000;0.271127
4545.000000;0.271062
4544.000000;0.271433
4543.000000;0.271998
4542.000000;0.272477
4541.000000;0.272733
4540.000000;0.272754
4539.000000;0.272643
4538.000000;0.272585
4537.000000;0.272686
4536.000000;0.272908
4535.000000;0.273232
4534.000000;0.273716
4533.000000;0.274275
4532.000000;0.274624
4531.000000;0.274655
4530.000000;0.274647
4529.000000;0.274885
4528.000000;0.275232
4527.000000;0.275335
4526.000000;0.275095
4525.000000;0.274708
4524.000000;0.274395
4523.000000;0.274323
4522.000000;0.274549
4521.000000;0.274831
4520.000000;0.274759
4519.000000;0.274362
4518.000000;0.274285
4517.000000;0.274982
4516.000000;0.275976
4515.000000;0.276381
4514.000000;0.275995
4513.000000;0.275426
4512.000000;0.275231
4511.000000;0.275454
4510.000000;0.275894
4509.000000;0.276335
4508.000000;0.276523
4507.000000;0.276352
4506.000000;0.276119
4505.000000;0.276218
4504.000000;0.276585
4503.000000;0.276812
4502.000000;0.276791
4501.000000;0.276796
4500.000000;0.276946
4499.000000;0.277033
4498.000000;0.276990
4497.000000;0.277079
4496.000000;0.277492
4495.000000;0.278067
4494.000000;0.278499
4493.000000;0.278586
4492.000000;0.278261
4491.000000;0.277686
4490.000000;0.277307
4489.000000;0.277456
4488.000000;0.277870
4487.000000;0.277950
4486.000000;0.277561
4485.000000;0.277192
4484.000000;0.277263
4483.000000;0.277634
4482.000000;0.277893
4481.000000;0.277829
4480.000000;0.277533
4479.000000;0.277299
4478.000000;0.277453
4477.000000;0.278021
4476.000000;0.278538
4475.000000;0.278528
4474.000000;0.278156
4473.000000;0.278044
4472.000000;0.278439
4471.000000;0.278978
4470.000000;0.279312
4469.000000;0.279506
4468.000000;0.279673
4467.000000;0.279686
4466.000000;0.279469
4465.000000;0.279235
4464.000000;0.279181
4463.000000;0.279227
4462.000000;0.279232
4461.000000;0.279239
4460.000000;0.279334
4459.000000;0.279479
4458.000000;0.279607
4457.000000;0.279650
4456.000000;0.279433
4455.000000;0.278850
4454.000000;0.278203
4453.000000;0.277987
4452.000000;0.278238
4451.000000;0.278463
4450.000000;0.278371
4449.000000;0.278302
4448.000000;0.278660
4447.000000;0.279268
4446.000000;0.279605
4445.000000;0.279449
4444.000000;0.279030
4443.000000;0.278704
4442.000000;0.278669
4441.000000;0.278887
4440.000000;0.279129
4439.000000;0.279218
4438.000000;0.279260
4437.000000;0.279460
4436.000000;0.279680
4435.000000;0.279541
4434.000000;0.279042
4433.000000;0.278716
4432.000000;0.278956
4431.000000;0.279516
4430.000000;0.279915
4429.000000;0.280043
4428.000000;0.280053
4427.000000;0.279915
4426.000000;0.279492
4425.000000;0.278961
4424.000000;0.278749
4423.000000;0.278961
4422.000000;0.279127
4421.000000;0.278672
4420.000000;0.277599
4419.000000;0.276605
4418.000000;0.276454
4417.000000;0.277191
4416.000000;0.278033
4415.000000;0.278147
4414.000000;0.277538
4413.000000;0.277029
4412.000000;0.277316
4411.000000;0.278156
4410.000000;0.278544
4409.000000;0.277681
4408.000000;0.275850
4407.000000;0.274325
4406.000000;0.274219
4405.000000;0.275318
4404.000000;0.276169
4403.000000;0.275582
4402.000000;0.273934
4401.000000;0.272664
4400.000000;0.272609
4399.000000;0.273192
4398.000000;0.273219
4397.000000;0.272214
4396.000000;0.270816
4395.000000;0.270054
4394.000000;0.270356
4393.000000;0.271141
4392.000000;0.271332
4391.000000;0.270372
4390.000000;0.268716
4389.000000;0.267310
4388.000000;0.266770
4387.000000;0.267059
4386.000000;0.267637
4385.000000;0.267763
4384.000000;0.266981
4383.000000;0.265624
4382.000000;0.264619
4381.000000;0.264518
4380.000000;0.264907
4379.000000;0.264932
4378.000000;0.264117
4377.000000;0.262500
4376.000000;0.260403
4375.000000;0.258389
4374.000000;0.257018
4373.000000;0.256271
4372.000000;0.255551
4371.000000;0.254587
4370.000000;0.253835
4369.000000;0.253542
4368.000000;0.253109
4367.000000;0.252133
4366.000000;0.251421
4365.000000;0.251884
4364.000000;0.252826
4363.000000;0.252496
4362.000000;0.250308
4361.000000;0.247516
4360.000000;0.245597
4359.000000;0.244798
4358.000000;0.244375
4357.000000;0.243436
4356.000000;0.241433
4355.000000;0.238678
4354.000000;0.236474
4353.000000;0.235886
4352.000000;0.236404
4351.000000;0.236488
4350.000000;0.235539
4349.000000;0.234473
4348.000000;0.234175
4347.000000;0.234290
4346.000000;0.233835
4345.000000;0.232249
4344.000000;0.229604
4343.000000;0.226554
4342.000000;0.224306
4341.000000;0.223784
4340.000000;0.224456
4339.000000;0.224628
4338.000000;0.223255
4337.000000;0.220945
4336.000000;0.219010
4335.000000;0.218113
4334.000000;0.217971
4333.000000;0.217636
4332.000000;0.215949
4331.000000;0.212567
4330.000000;0.208745
4329.000000;0.206302
4328.000000;0.205619
4327.000000;0.205398
4326.000000;0.204521
4325.000000;0.203232
4324.000000;0.202225
4323.000000;0.201644
4322.000000;0.201371
4321.000000;0.201618
4320.000000;0.202440
4319.000000;0.202953
4318.000000;0.201777
4317.000000;0.198300
4316.000000;0.193555
4315.000000;0.189882
4314.000000;0.189161
4313.000000;0.190671
4312.000000;0.191057
4311.000000;0.187725
4310.000000;0.182086
4309.000000;0.178044
4308.000000;0.177747
4307.000000;0.179963
4306.000000;0.182174
4305.000000;0.183020
4304.000000;0.182455
4303.000000;0.181064
4302.000000;0.179883
4301.000000;0.179541
4300.000000;0.179049
4299.000000;0.176792
4298.000000;0.173279
4297.000000;0.171200
4296.000000;0.171966
4295.000000;0.173714
4294.000000;0.173615
4293.000000;0.171473
4292.000000;0.169989
4291.000000;0.171520
4290.000000;0.175412
4289.000000;0.178259
4288.000000;0.176917
4287.000000;0.172380
4286.000000;0.169758
4285.000000;0.172887
4284.000000;0.179666
4283.000000;0.184152
4282.000000;0.183843
4281.000000;0.182638
4280.000000;0.185053
4279.000000;0.190561
4278.000000;0.194944
4277.000000;0.195327
4276.000000;0.192990
4275.000000;0.191857
4274.000000;0.194911
4273.000000;0.201858
4272.000000;0.209545
4271.000000;0.215133
4270.000000;0.219287
4269.000000;0.224923
4268.000000;0.233083
4267.000000;0.241969
4266.000000;0.249835
4265.000000;0.256793
4264.000000;0.263365
4263.000000;0.269279
4262.000000;0.274578
4261.000000;0.280030
4260.000000;0.285194
4259.000000;0.288150
4258.000000;0.289371
4257.000000;0.293626
4256.000000;0.304938
4255.000000;0.321279
4254.000000;0.335786
4253.000000;0.343034
4252.000000;0.344693
4251.000000;0.348348
4250.000000;0.360391
4249.000000;0.379821
4248.000000;0.397667
4247.000000;0.404969
4246.000000;0.403120
4245.000000;0.402471
4244.000000;0.410344
4243.000000;0.424750
4242.000000;0.437692
4241.000000;0.443953
4240.000000;0.447297
4239.000000;0.455393
4238.000000;0.470942
4237.000000;0.489422
4236.000000;0.502911
4235.000000;0.508849
4234.000000;0.513339
4233.000000;0.522806
4232.000000;0.537354
4231.000000;0.552436
4230.000000;0.564391
4229.000000;0.573263
4228.000000;0.581123
4227.000000;0.590269
4226.000000;0.601293
4225.000000;0.609922
4224.000000;0.610661
4223.000000;0.607891
4222.000000;0.614977
4221.000000;0.640307
4220.000000;0.677851
4219.000000;0.709942
4218.000000;0.723574
4217.000000;0.722919
4216.000000;0.719844
4215.000000;0.721219
4214.000000;0.727373
4213.000000;0.735340
4212.000000;0.742414
4211.000000;0.748457
4210.000000;0.755342
4209.000000;0.764157
4208.000000;0.774013
4207.000000;0.784415
4206.000000;0.796492
4205.000000;0.810542
4204.000000;0.825457
4203.000000;0.844907
4202.000000;0.876143
4201.000000;0.914881
4200.000000;0.939537
4199.000000;0.938030
4198.000000;0.929021
4197.000000;0.934236
4196.000000;0.953792
4195.000000;0.970370
4194.000000;0.970208
4193.000000;0.957541
4192.000000;0.946292
4191.000000;0.948239
4190.000000;0.968675
4189.000000;1.000942
4188.000000;1.024010
4187.000000;1.027351
4186.000000;1.028696
4185.000000;1.044969
4184.000000;1.069318
4183.000000;1.081650
4182.000000;1.082557
4181.000000;1.089548
4180.000000;1.108292
4179.000000;1.128115
4178.000000;1.139915
4177.000000;1.144936
4176.000000;1.143248
4175.000000;1.141042
4174.000000;1.149916
4173.000000;1.166581
4172.000000;1.169344
4171.000000;1.153394
4170.000000;1.149092
4169.000000;1.183114
4168.000000;1.244179
4167.000000;1.281382
4166.000000;1.269537
4165.000000;1.248467
4164.000000;1.248535
4163.000000;1.258287
4162.000000;1.254086
4161.000000;1.240135
4160.000000;1.235063
4159.000000;1.248795
4158.000000;1.283166
4157.000000;1.324432
4156.000000;1.346454
4155.000000;1.351747
4154.000000;1.374926
4153.000000;1.435265
4152.000000;1.518269
4151.000000;1.534346
4150.000000;1.453705
4149.000000;1.395747
4148.000000;1.407365
4147.000000;1.459272
4146.000000;1.491546
4145.000000;1.466112
4144.000000;1.411333
4143.000000;1.377134
4142.000000;1.386980
4141.000000;1.425732
4140.000000;1.449281
4139.000000;1.437341
4138.000000;1.428555
4137.000000;1.465703
4136.000000;1.536699
4135.000000;1.571919
4134.000000;1.541797
4133.000000;1.509697
4132.000000;1.514937
4131.000000;1.549516
4130.000000;1.606215
4129.000000;1.653885
4128.000000;1.637953
4127.000000;1.557151
4126.000000;1.468309
4125.000000;1.440586
4124.000000;1.506299
4123.000000;1.658384
4122.000000;1.817176
4121.000000;1.847182
4120.000000;1.742698
4119.000000;1.619455
4118.000000;1.578924
4117.000000;1.654083
4116.000000;1.820476
4115.000000;1.952337
4114.000000;1.935518
4113.000000;1.879524
4112.000000;1.841954
4111.000000;1.730201
4110.000000;1.606361
4109.000000;1.576647
4108.000000;1.658051
4107.000000;1.795207
4106.000000;1.904015
4105.000000;1.944223
4104.000000;1.831111
4103.000000;1.718748
4102.000000;1.710892
4101.000000;1.786267
4100.000000;2.034564
4099.000000;2.413388
4098.000000;2.000697
4097.000000;1.780634
4096.000000;1.723540
4095.000000;1.748104
4094.000000;1.902130
4093.000000;2.182753
4092.000000;2.199131
4091.000000;1.921192
4090.000000;1.741763
4089.000000;1.714603
4088.000000;1.840881
4087.000000;2.113677
4086.000000;2.543322
4085.000000;2.674463
4084.000000;2.077941
4083.000000;1.916562
4082.000000;1.943669
4081.000000;2.060023
4080.000000;1.984977
4079.000000;1.838684
4078.000000;1.726911
4077.000000;1.690414
4076.000000;1.765793
4075.000000;1.978733
4074.000000;2.230637
4073.000000;2.053869
4072.000000;1.874696
4071.000000;1.835934
4070.000000;1.885707
4069.000000;2.120107
4068.000000;2.402757
4067.000000;1.949269
4066.000000;1.779443
4065.000000;1.822339
4064.000000;1.997260
4063.000000;2.002361
4062.000000;1.853076
4061.000000;1.792622
4060.000000;1.805072
4059.000000;1.873510
4058.000000;1.956231
4057.000000;1.967238
4056.000000;1.901023
4055.000000;1.807671
4054.000000;1.778489
4053.000000;1.842176
4052.000000;1.893707
4051.000000;1.862349
4050.000000;1.830295
4049.000000;1.840184
4048.000000;1.924759
4047.000000;2.060312
4046.000000;2.178645
4045.000000;2.352438
4044.000000;2.698886
4043.000000;3.215446
4042.000000;2.648689
4041.000000;2.317521
4040.000000;2.163011
4039.000000;2.014511
4038.000000;1.868003
4037.000000;1.833464
4036.000000;1.970036
4035.000000;2.338879
4034.000000;2.445486
4033.000000;2.278405
4032.000000;2.287695
4031.000000;2.285358
4030.000000;2.247893
4029.000000;2.223350
4028.000000;2.290145
4027.000000;2.261215
4026.000000;2.003900
4025.000000;1.915854
4024.000000;2.069166
4023.000000;2.122067
4022.000000;1.878743
4021.000000;1.827004
4020.000000;1.958563
4019.000000;2.146521
4018.000000;2.294151
4017.000000;2.758962
4016.000000;2.210654
4015.000000;1.976231
4014.000000;2.061026
4013.000000;2.118149
4012.000000;2.057212
4011.000000;2.347770
4010.000000;2.381898
4009.000000;2.265319
4008.000000;2.992333
4007.000000;2.131562
4006.000000;2.130979
4005.000000;2.111656
4004.000000;1.872085
4003.000000;1.861829
4002.000000;2.031113
4001.000000;2.311671
4000.000000;2.447412
3999.000000;2.176880
3998.000000;1.962801
3997.000000;1.944476
3996.000000;2.042198
3995.000000;1.960736
3994.000000;1.857577
3993.000000;1.922580
3992.000000;2.310452
3991.000000;2.208304
3990.000000;1.978276
3989.000000;2.094513
3988.000000;2.450701
3987.000000;2.366870
3986.000000;2.213660
3985.000000;1.870993
3984.000000;1.710294
3983.000000;1.771813
3982.000000;2.085040
3981.000000;2.170178
3980.000000;1.989507
3979.000000;2.187693
3978.000000;3.348860
3977.000000;2.153843
3976.000000;2.177317
3975.000000;2.352642
3974.000000;2.293272
3973.000000;2.067847
3972.000000;1.925978
3971.000000;1.890046
3970.000000;2.091164
3969.000000;2.382363
3968.000000;2.372169
3967.000000;2.367697
3966.000000;1.968623
3965.000000;1.818313
3964.000000;1.939832
3963.000000;2.665295
3962.000000;2.657937
3961.000000;2.512713
3960.000000;2.817042
3959.000000;2.588434
3958.000000;2.776783
3957.000000;2.436569
3956.000000;2.128583
3955.000000;2.052812
3954.000000;2.136264
3953.000000;2.325984
3952.000000;2.448278
3951.000000;2.488121
3950.000000;2.535976
3949.000000;2.647017
3948.000000;2.861505
3947.000000;2.578626
3946.000000;2.355385
3945.000000;2.281323
3944.000000;2.242185
3943.000000;2.264667
3942.000000;2.290190
3941.000000;2.232638
3940.000000;2.142605
3939.000000;2.138491
3938.000000;2.152280
3937.000000;2.116934
3936.000000;2.126450
3935.000000;2.541538
3934.000000;2.229227
3933.000000;1.969072
3932.000000;1.958694
3931.000000;2.030208
3930.000000;2.150288
3929.000000;2.315998
3928.000000;2.450567
3927.000000;2.333582
3926.000000;2.157091
3925.000000;2.085537
3924.000000;2.105706
3923.000000;2.193564
3922.000000;2.487445
3921.000000;2.560769
3920.000000;2.121796
3919.000000;2.118536
3918.000000;2.176409
3917.000000;2.115861
3916.000000;2.035092
3915.000000;2.020142
3914.000000;2.086724
3913.000000;2.260648
3912.000000;2.291868
3911.000000;2.182590
3910.000000;2.553548
3909.000000;2.373226
3908.000000;2.029428
3907.000000;2.024592
3906.000000;2.136996
3905.000000;2.320864
3904.000000;2.343868
3903.000000;2.088423
3902.000000;1.895359
3901.000000;1.753255
3900.000000;1.667135
3899.000000;1.734554
3898.000000;2.081289
3897.000000;2.567597
3896.000000;2.121959
3895.000000;2.111288
3894.000000;2.208881
3893.000000;2.391463
3892.000000;2.509826
3891.000000;2.706600
3890.000000;2.754197
3889.000000;2.307932
3888.000000;1.923275
3887.000000;1.731585
3886.000000;1.746919
3885.000000;1.911517
3884.000000;2.188499
3883.000000;2.100943
3882.000000;1.958967
3881.000000;2.097076
3880.000000;2.198120
3879.000000;2.395638
3878.000000;2.160394
3877.000000;1.761188
3876.000000;1.774220
3875.000000;2.105215
3874.000000;2.165776
3873.000000;2.104015
3872.000000;2.256370
3871.000000;2.554600
3870.000000;2.417778
3869.000000;2.322883
3868.000000;2.393932
3867.000000;2.579291
3866.000000;2.201638
3865.000000;2.116215
3864.000000;2.379634
3863.000000;2.535752
3862.000000;2.221729
3861.000000;2.224968
3860.000000;2.519269
3859.000000;2.895954
3858.000000;2.517234
3857.000000;2.411511
3856.000000;2.577184
3855.000000;2.376400
3854.000000;2.372322
3853.000000;2.752612
3852.000000;2.428505
3851.000000;2.569681
3850.000000;2.043458
3849.000000;1.977557
3848.000000;2.518390
3847.000000;2.233820
3846.000000;2.022363
3845.000000;2.062898
3844.000000;2.238062
3843.000000;2.347892
3842.000000;2.479790
3841.000000;2.830875
3840.000000;2.207259
3839.000000;2.101579
3838.000000;2.179686
3837.000000;2.206452
3836.000000;2.072901
3835.000000;1.956530
3834.000000;1.984777
3833.000000;1.949050
3832.000000;1.756793
3831.000000;1.682679
3830.000000;1.903324
3829.000000;2.308521
3828.000000;2.120721
3827.000000;2.177342
3826.000000;2.351042
3825.000000;2.155661
3824.000000;1.921491
3823.000000;1.857207
3822.000000;2.067111
3821.000000;1.941454
3820.000000;1.686519
3819.000000;1.548274
3818.000000;1.597314
3817.000000;1.869602
3816.000000;2.181886
3815.000000;2.525459
3814.000000;2.574080
3813.000000;2.122016
3812.000000;2.052808
3811.000000;2.027101
3810.000000;2.125859
3809.000000;2.456632
3808.000000;1.945774
3807.000000;1.644655
3806.000000;1.636721
3805.000000;1.890569
3804.000000;2.498706
3803.000000;2.689947
3802.000000;2.444189
3801.000000;2.299623
3800.000000;2.427703
3799.000000;2.532700
3798.000000;2.070991
3797.000000;2.026038
3796.000000;2.665983
3795.000000;2.330469
3794.000000;2.546055
3793.000000;2.032431
3792.000000;1.833388
3791.000000;1.967876
3790.000000;2.325447
3789.000000;2.456691
3788.000000;2.633129
3787.000000;2.509594
3786.000000;2.090905
3785.000000;2.030521
3784.000000;2.133179
3783.000000;2.279560
3782.000000;2.171641
3781.000000;2.141074
3780.000000;2.245079
3779.000000;2.255650
3778.000000;2.102397
3777.000000;1.834869
3776.000000;1.704539
3775.000000;1.738490
3774.000000;1.893666
3773.000000;2.269277
3772.000000;2.664132
3771.000000;2.273900
3770.000000;2.030953
3769.000000;1.952790
3768.000000;2.128011
3767.000000;1.750920
3766.000000;1.625340
3765.000000;1.879761
3764.000000;2.588941
3763.000000;1.801921
3762.000000;1.702337
3761.000000;2.004422
3760.000000;2.428433
3759.000000;1.730419
3758.000000;1.708823
3757.000000;1.861749
3756.000000;2.060708
3755.000000;2.014391
3754.000000;2.101715
3753.000000;2.662794
3752.000000;2.431694
3751.000000;2.098886
3750.000000;2.039475
3749.000000;2.131888
3748.000000;2.402892
3747.000000;1.999182
3746.000000;1.771012
3745.000000;1.773096
3744.000000;1.855288
3743.000000;2.034360
3742.000000;2.219891
3741.000000;2.128251
3740.000000;2.267724
3739.000000;2.401291
3738.000000;2.334773
3737.000000;2.442498
3736.000000;2.722576
3735.000000;2.471795
3734.000000;2.272259
3733.000000;2.135133
3732.000000;2.278731
3731.000000;2.320854
3730.000000;1.907894
3729.000000;1.934977
3728.000000;2.043788
3727.000000;2.199394
3726.000000;2.421258
3725.000000;2.718250
3724.000000;3.057035
3723.000000;2.782468
3722.000000;2.466021
3721.000000;2.276591
3720.000000;2.203021
3719.000000;2.208503
3718.000000;2.128660
3717.000000;2.504093
3716.000000;2.251318
3715.000000;1.877251
3714.000000;1.904810
3713.000000;2.211308
3712.000000;2.065446
3711.000000;1.967325
3710.000000;1.980136
3709.000000;1.924381
3708.000000;1.746307
3707.000000;1.652407
3706.000000;1.726045
3705.000000;1.905884
3704.000000;2.076654
3703.000000;2.037035
3702.000000;1.887215
3701.000000;1.774745
3700.000000;1.695372
3699.000000;1.662916
3698.000000;1.741314
3697.000000;1.983230
3696.000000;2.220569
3695.000000;2.092861
3694.000000;1.822533
3693.000000;1.651902
3692.000000;1.696421
3691.000000;1.980423
3690.000000;1.805806
3689.000000;1.786007
3688.000000;1.894336
3687.000000;1.858411
3686.000000;1.791239
3685.000000;1.879192
3684.000000;1.838939
3683.000000;1.760822
3682.000000;1.876427
3681.000000;2.181116
3680.000000;2.181528
3679.000000;2.088477
3678.000000;1.968117
3677.000000;1.844949
3676.000000;1.886314
3675.000000;2.168309
3674.000000;2.422800
3673.000000;2.089529
3672.000000;1.917978
3671.000000;1.881499
3670.000000;2.033626
3669.000000;2.270201
3668.000000;1.897939
3667.000000;1.560161
3666.000000;1.597010
3665.000000;1.773130
3664.000000;1.860049
3663.000000;2.087719
3662.000000;2.268542
3661.000000;2.126607
3660.000000;1.968262
3659.000000;1.847186
3658.000000;1.810283
3657.000000;1.780937
3656.000000;1.724832
3655.000000;1.721347
3654.000000;1.807565
3653.000000;1.842554
3652.000000;1.861560
3651.000000;2.056848
3650.000000;2.012828
3649.000000;1.995633
3648.000000;2.017727
3647.000000;1.879552
3646.000000;1.713532
3645.000000;1.732015
3644.000000;1.936997
3643.000000;1.970386
3642.000000;1.982110
3641.000000;2.131829
3640.000000;2.063998
3639.000000;1.936847
3638.000000;1.995749
3637.000000;2.197362
3636.000000;2.400598
3635.000000;2.143428
3634.000000;1.887534
3633.000000;1.799474
3632.000000;1.785679
3631.000000;1.867755
3630.000000;2.244613
3629.000000;1.942891
3628.000000;1.579736
3627.000000;1.518793
3626.000000;1.840973
3625.000000;2.155341
3624.000000;1.808514
3623.000000;1.931345
3622.000000;2.307460
3621.000000;2.769901
3620.000000;2.172725
3619.000000;2.548596
3618.000000;2.595880
3617.000000;2.082706
3616.000000;2.082435
3615.000000;2.034519
3614.000000;1.947476
3613.000000;1.925174
3612.000000;1.935739
3611.000000;2.013339
3610.000000;2.222787
3609.000000;2.364648
3608.000000;2.140521
3607.000000;1.911201
3606.000000;1.830162
3605.000000;1.963202
3604.000000;2.513623
3603.000000;2.350322
3602.000000;2.199981
3601.000000;2.202799
3600.000000;2.173174
3599.000000;2.104650
3598.000000;2.087745
3597.000000;2.358439
3596.000000;2.801181
3595.000000;2.334372
3594.000000;2.390679
3593.000000;2.568381
3592.000000;2.318272
3591.000000;2.148295
3590.000000;2.505169
3589.000000;2.245089
3588.000000;1.903978
3587.000000;1.939723
3586.000000;2.111761
3585.000000;2.285733
3584.000000;2.114518
3583.000000;2.243053
3582.000000;2.607086
3581.000000;2.198287
3580.000000;2.257784
3579.000000;3.147511
3578.000000;2.229714
3577.000000;1.995260
3576.000000;1.967658
3575.000000;2.003649
3574.000000;2.032201
3573.000000;1.997162
3572.000000;1.973392
3571.000000;2.164460
3570.000000;2.188091
3569.000000;1.960891
3568.000000;2.081701
3567.000000;2.647813
3566.000000;2.863534
3565.000000;2.468657
3564.000000;2.460258
3563.000000;2.593420
3562.000000;2.595009
3561.000000;2.650613
3560.000000;2.877448
3559.000000;2.512264
3558.000000;2.145635
3557.000000;2.032370
3556.000000;2.188082
3555.000000;2.151443
3554.000000;2.030584
3553.000000;2.127256
3552.000000;2.207715
3551.000000;2.173189
3550.000000;2.085624
3549.000000;2.081553
3548.000000;2.402244
3547.000000;2.415480
3546.000000;2.216462
3545.000000;2.277781
3544.000000;2.376967
3543.000000;2.352643
3542.000000;2.197360
3541.000000;2.068168
3540.000000;2.035771
3539.000000;2.478350
3538.000000;2.297156
3537.000000;1.893333
3536.000000;1.904968
3535.000000;1.910541
3534.000000;1.906789
3533.000000;2.010518
3532.000000;2.148740
3531.000000;2.119475
3530.000000;2.198179
3529.000000;2.471186
3528.000000;2.489985
3527.000000;2.317049
3526.000000;2.242885
3525.000000;2.394325
3524.000000;2.925661
3523.000000;2.483094
3522.000000;2.475970
3521.000000;2.585303
3520.000000;2.194047
3519.000000;1.992988
3518.000000;1.892481
3517.000000;1.808093
3516.000000;1.734474
3515.000000;1.705772
3514.000000;1.751942
3513.000000;1.898371
3512.000000;2.086601
3511.000000;2.065267
3510.000000;1.923621
3509.000000;1.844605
3508.000000;1.859334
3507.000000;1.978815
3506.000000;2.116111
3505.000000;2.183604
3504.000000;2.246086
3503.000000;2.233940
3502.000000;2.226614
3501.000000;2.375169
3500.000000;2.695187
3499.000000;2.840217
3498.000000;2.332509
3497.000000;1.960766
3496.000000;1.860000
3495.000000;1.882545
3494.000000;2.153854
3493.000000;2.318356
3492.000000;1.751104
3491.000000;1.673931
3490.000000;1.890486
3489.000000;2.458084
3488.000000;2.377147
3487.000000;2.240273
3486.000000;2.091630
3485.000000;1.920623
3484.000000;1.850109
3483.000000;1.835385
3482.000000;1.893826
3481.000000;2.015096
3480.000000;2.234766
3479.000000;2.457023
3478.000000;2.761267
3477.000000;2.457938
3476.000000;1.971537
3475.000000;1.803050
3474.000000;1.838242
3473.000000;2.051635
3472.000000;2.238840
3471.000000;2.360479
3470.000000;2.266276
3469.000000;1.941771
3468.000000;1.808913
3467.000000;1.798025
3466.000000;1.998674
3465.000000;2.272742
3464.000000;2.001815
3463.000000;1.924439
3462.000000;1.896646
3461.000000;1.875100
3460.000000;2.010995
3459.000000;2.345734
3458.000000;2.201420
3457.000000;2.161845
3456.000000;2.301602
3455.000000;1.996906
3454.000000;1.861931
3453.000000;1.871014
3452.000000;1.890976
3451.000000;1.944778
3450.000000;2.068476
3449.000000;2.588548
3448.000000;2.354556
3447.000000;1.964821
3446.000000;1.866574
3445.000000;1.979253
3444.000000;2.009436
3443.000000;1.720536
3442.000000;1.654709
3441.000000;1.791944
3440.000000;1.931673
3439.000000;1.930896
3438.000000;1.885066
3437.000000;1.713884
3436.000000;1.631514
3435.000000;1.727938
3434.000000;1.995886
3433.000000;1.975261
3432.000000;1.787889
3431.000000;1.745214
3430.000000;1.667819
3429.000000;1.588780
3428.000000;1.593815
3427.000000;1.675305
3426.000000;1.788500
3425.000000;1.972148
3424.000000;2.494822
3423.000000;2.240195
3422.000000;2.019309
3421.000000;2.108236
3420.000000;2.404346
3419.000000;2.900047
3418.000000;2.262077
3417.000000;2.092699
3416.000000;2.166957
3415.000000;2.102047
3414.000000;2.018193
3413.000000;2.147588
3412.000000;2.221114
3411.000000;2.104992
3410.000000;2.220827
3409.000000;2.359863
3408.000000;2.108702
3407.000000;2.028563
3406.000000;2.385379
3405.000000;2.078697
3404.000000;1.693706
3403.000000;1.658404
3402.000000;1.755456
3401.000000;1.925438
3400.000000;1.957135
3399.000000;1.936016
3398.000000;2.129839
3397.000000;2.336677
3396.000000;2.249224
3395.000000;2.109707
3394.000000;1.985480
3393.000000;2.066141
3392.000000;1.923873
3391.000000;1.700505
3390.000000;1.646362
3389.000000;1.662719
3388.000000;1.668450
3387.000000;1.731403
3386.000000;1.980674
3385.000000;2.180069
3384.000000;1.949313
3383.000000;1.870253
3382.000000;1.873860
3381.000000;2.148766
3380.000000;2.470884
3379.000000;2.622513
3378.000000;2.546109
3377.000000;1.889562
3376.000000;1.756346
3375.000000;1.812018
3374.000000;1.877086
3373.000000;1.759084
3372.000000;1.666344
3371.000000;1.697909
3370.000000;1.802189
3369.000000;1.835833
3368.000000;1.927035
3367.000000;2.400759
3366.000000;2.304876
3365.000000;2.057520
3364.000000;1.857677
3363.000000;1.765086
3362.000000;1.845469
3361.000000;2.004393
3360.000000;2.129977
3359.000000;2.036502
3358.000000;1.761983
3357.000000;1.654064
3356.000000;1.715047
3355.000000;1.923985
3354.000000;2.142615
3353.000000;2.183689
3352.000000;1.986195
3351.000000;1.740262
3350.000000;1.750062
3349.000000;2.072470
3348.000000;1.988718
3347.000000;1.778694
3346.000000;1.683682
3345.000000;1.559148
3344.000000;1.571383
3343.000000;1.714920
3342.000000;1.842286
3341.000000;2.058975
3340.000000;2.060478
3339.000000;1.763238
3338.000000;1.689361
3337.000000;1.894258
3336.000000;2.832734
3335.000000;1.971333
3334.000000;1.867672
3333.000000;2.190848
3332.000000;2.219927
3331.000000;1.970350
3330.000000;2.033484
3329.000000;1.940438
3328.000000;1.793328
3327.000000;1.809182
3326.000000;2.006450
3325.000000;2.545276
3324.000000;2.631462
3323.000000;2.443354
3322.000000;2.538116
3321.000000;2.303726
3320.000000;2.130970
3319.000000;2.039663
3318.000000;2.026827
3317.000000;2.131486
3316.000000;2.111656
3315.000000;2.048851
3314.000000;2.211377
3313.000000;2.113421
3312.000000;1.817626
3311.000000;1.647291
3310.000000;1.582790
3309.000000;1.615977
3308.000000;1.685171
3307.000000;1.706348
3306.000000;1.740953
3305.000000;1.875203
3304.000000;2.098052
3303.000000;2.129079
3302.000000;1.883102
3301.000000;1.692646
3300.000000;1.609347
3299.000000;1.569397
3298.000000;1.590144
3297.000000;1.792469
3296.000000;1.842365
3295.000000;1.658250
3294.000000;1.702054
3293.000000;1.954930
3292.000000;2.268004
3291.000000;2.061055
3290.000000;1.706763
3289.000000;1.552437
3288.000000;1.605147
3287.000000;1.977998
3286.000000;2.286474
3285.000000;1.921628
3284.000000;1.777452
3283.000000;1.668215
3282.000000;1.595014
3281.000000;1.632481
3280.000000;1.838428
3279.000000;2.357435
3278.000000;2.454179
3277.000000;1.953579
3276.000000;1.735143
3275.000000;1.651312
3274.000000;1.719593
3273.000000;1.970123
3272.000000;2.245049
3271.000000;2.037405
3270.000000;1.741117
3269.000000;1.588383
3268.000000;1.577877
3267.000000;1.673268
3266.000000;1.771732
3265.000000;1.806116
3264.000000;1.866732
3263.000000;1.927944
3262.000000;2.032922
3261.000000;2.181603
3260.000000;1.920367
3259.000000;1.899759
3258.000000;2.558450
3257.000000;2.067096
3256.000000;1.792956
3255.000000;1.817256
3254.000000;1.972167
3253.000000;1.963977
3252.000000;1.836506
3251.000000;1.905388
3250.000000;2.271082
3249.000000;2.161728
3248.000000;1.692470
3247.000000;1.537926
3246.000000;1.552036
3245.000000;1.720900
3244.000000;2.055511
3243.000000;2.694128
3242.000000;2.550270
3241.000000;2.142637
3240.000000;2.012993
3239.000000;1.878131
3238.000000;1.748628
3237.000000;1.650939
3236.000000;1.637865
3235.000000;1.752089
3234.000000;2.022300
3233.000000;2.268820
3232.000000;2.076479
3231.000000;1.894039
3230.000000;1.955644
3229.000000;2.318120
3228.000000;2.011356
3227.000000;1.789526
3226.000000;1.788307
3225.000000;1.848275
3224.000000;1.862220
3223.000000;1.880722
3222.000000;2.135988
3221.000000;2.215768
3220.000000;1.837933
3219.000000;1.769826
3218.000000;1.807626
3217.000000;1.834155
3216.000000;1.750465
3215.000000;1.624141
3214.000000;1.567405
3213.000000;1.626123
3212.000000;1.990370
3211.000000;1.834320
3210.000000;1.524449
3209.000000;1.536224
3208.000000;1.786145
3207.000000;2.358534
3206.000000;2.355075
3205.000000;1.920603
3204.000000;1.710927
3203.000000;1.689857
3202.000000;1.815014
3201.000000;1.958328
3200.000000;1.974991
3199.000000;1.965259
3198.000000;1.954720
3197.000000;1.810571
3196.000000;1.638578
3195.000000;1.578632
3194.000000;1.654697
3193.000000;1.887404
3192.000000;2.420199
3191.000000;2.521061
3190.000000;1.883357
3189.000000;1.612084
3188.000000;1.527683
3187.000000;1.630740
3186.000000;2.195587
3185.000000;2.305554
3184.000000;1.911803
3183.000000;1.967297
3182.000000;2.033103
3181.000000;1.978065
3180.000000;1.922226
3179.000000;2.107778
3178.000000;2.459565
3177.000000;2.034399
3176.000000;2.079773
3175.000000;2.583760
3174.000000;1.991921
3173.000000;1.815604
3172.000000;1.926317
3171.000000;2.340836
3170.000000;2.147796
3169.000000;1.885221
3168.000000;2.152874
3167.000000;2.501817
3166.000000;1.943488
3165.000000;1.899449
3164.000000;2.003905
3163.000000;2.075333
3162.000000;2.045417
3161.000000;1.835905
3160.000000;1.749991
3159.000000;2.148570
3158.000000;2.157519
3157.000000;1.750198
3156.000000;1.699392
3155.000000;1.725592
3154.000000;1.785170
3153.000000;1.794573
3152.000000;1.726343
3151.000000;1.699231
3150.000000;1.803988
3149.000000;2.101986
3148.000000;2.386809
3147.000000;2.045947
3146.000000;1.788608
3145.000000;1.737666
3144.000000;1.716560
3143.000000;1.663708
3142.000000;1.669428
3141.000000;1.852831
3140.000000;2.283348
3139.000000;1.960967
3138.000000;1.672146
3137.000000;1.636357
3136.000000;1.702743
3135.000000;1.823083
3134.000000;2.285890
3133.000000;2.298850
3132.000000;1.796912
3131.000000;1.743283
3130.000000;1.832400
3129.000000;1.878252
3128.000000;1.873437
3127.000000;1.953585
3126.000000;2.076663
3125.000000;1.928480
3124.000000;1.831163
3123.000000;1.919487
3122.000000;2.105965
3121.000000;2.058301
3120.000000;1.865794
3119.000000;1.728858
3118.000000;1.894020
3117.000000;2.578694
3116.000000;1.945096
3115.000000;1.949030
3114.000000;2.243115
3113.000000;2.090475
3112.000000;2.385344
3111.000000;2.297324
3110.000000;1.857620
3109.000000;1.884089
3108.000000;2.024365
3107.000000;2.183427
3106.000000;2.224624
3105.000000;2.031415
3104.000000;2.084583
3103.000000;2.193999
3102.000000;1.869116
3101.000000;1.721674
3100.000000;1.810135
3099.000000;2.000112
3098.000000;2.083594
3097.000000;1.876894
3096.000000;1.619700
3095.000000;1.590338
3094.000000;1.890943
3093.000000;1.938698
3092.000000;1.767314
3091.000000;2.083217
3090.000000;1.883025
3089.000000;1.548446
3088.000000;1.549266
3087.000000;1.778996
3086.000000;2.154929
3085.000000;2.179833
3084.000000;2.003707
3083.000000;1.984042
3082.000000;2.463690
3081.000000;2.611832
3080.000000;2.136921
3079.000000;1.885001
3078.000000;1.689352
3077.000000;1.654502
3076.000000;1.684755
3075.000000;1.693940
3074.000000;1.796164
3073.000000;2.037787
3072.000000;2.250213
3071.000000;2.715396
3070.000000;2.050709
3069.000000;1.821375
3068.000000;1.908839
3067.000000;2.180067
3066.000000;2.722041
3065.000000;2.168026
3064.000000;1.709160
3063.000000;1.502063
3062.000000;1.476065
3061.000000;1.693594
3060.000000;2.063612
3059.000000;2.087775
3058.000000;2.425911
3057.000000;2.265683
3056.000000;1.835448
3055.000000;1.649760
3054.000000;1.513483
3053.000000;1.481477
3052.000000;1.558933
3051.000000;1.780601
3050.000000;2.498773
3049.000000;2.021877
3048.000000;1.612301
3047.000000;1.561303
3046.000000;1.751159
3045.000000;2.193223
3044.000000;2.065209
3043.000000;1.666928
3042.000000;1.442356
3041.000000;1.396173
3040.000000;1.595738
3039.000000;2.156098
3038.000000;2.235640
3037.000000;2.423982
3036.000000;1.973531
3035.000000;1.744809
3034.000000;1.916733
3033.000000;1.978031
3032.000000;1.806187
3031.000000;1.759228
3030.000000;1.887262
3029.000000;2.215820
3028.000000;1.843003
3027.000000;1.580491
3026.000000;1.683639
3025.000000;2.186690
3024.000000;1.997400
3023.000000;1.734535
3022.000000;2.010630
3021.000000;2.417700
3020.000000;2.327382
3019.000000;2.334277
3018.000000;1.975852
3017.000000;1.931489
3016.000000;1.825312
3015.000000;1.596698
3014.000000;1.580473
3013.000000;1.768881
3012.000000;1.928072
3011.000000;1.928658
3010.000000;2.177701
3009.000000;1.960972
3008.000000;1.682098
3007.000000;1.760147
3006.000000;1.971162
3005.000000;1.965569
3004.000000;1.850795
3003.000000;1.648662
3002.000000;1.521741
3001.000000;1.555306
3000.000000;1.666118
2999.000000;1.652559
2998.000000;1.638670
2997.000000;1.764274
2996.000000;1.855952
2995.000000;2.020730
2994.000000;2.228577
2993.000000;1.984419
2992.000000;1.838530
2991.000000;1.828123
2990.000000;1.967283
2989.000000;2.083700
2988.000000;2.145732
2987.000000;2.034071
2986.000000;1.772304
2985.000000;1.749554
2984.000000;1.779822
2983.000000;1.764418
2982.000000;1.872059
2981.000000;2.188277
2980.000000;2.285869
2979.000000;1.960036
2978.000000;1.967507
2977.000000;1.956208
2976.000000;1.760012
2975.000000;1.679557
2974.000000;1.640756
2973.000000;1.570324
2972.000000;1.634944
2971.000000;1.900525
2970.000000;1.710654
2969.000000;1.562066
2968.000000;1.749238
2967.000000;1.895431
2966.000000;1.908109
2965.000000;2.015545
2964.000000;1.826155
2963.000000;1.800929
2962.000000;1.973040
2961.000000;1.755134
2960.000000;1.622640
2959.000000;1.771368
2958.000000;2.244004
2957.000000;2.079716
2956.000000;1.794687
2955.000000;1.720262
2954.000000;1.713396
2953.000000;1.825521
2952.000000;1.924260
2951.000000;1.864473
2950.000000;2.063998
2949.000000;2.021367
2948.000000;1.792018
2947.000000;2.091186
2946.000000;2.563636
2945.000000;2.542213
2944.000000;2.000192
2943.000000;1.695161
2942.000000;1.735016
2941.000000;1.703440
2940.000000;1.596591
2939.000000;1.699210
2938.000000;1.901625
2937.000000;1.685576
2936.000000;1.671016
2935.000000;1.706920
2934.000000;1.439076
2933.000000;1.324045
2932.000000;1.478542
2931.000000;1.944689
2930.000000;1.718465
2929.000000;1.594529
2928.000000;1.687964
2927.000000;1.698001
2926.000000;1.704190
2925.000000;1.788782
2924.000000;1.853942
2923.000000;1.735948
2922.000000;1.931311
2921.000000;2.118699
2920.000000;1.722281
2919.000000;1.667418
2918.000000;1.590063
2917.000000;1.452255
2916.000000;1.550093
2915.000000;1.815791
2914.000000;1.778139
2913.000000;1.919582
2912.000000;1.920002
2911.000000;1.640100
2910.000000;1.620648
2909.000000;1.739907
2908.000000;1.991835
2907.000000;1.891710
2906.000000;1.615432
2905.000000;1.625409
2904.000000;2.000858
2903.000000;2.012187
2902.000000;1.788049
2901.000000;2.038008
2900.000000;1.928892
2899.000000;1.840290
2898.000000;2.190543
2897.000000;1.814562
2896.000000;1.548886
2895.000000;1.561281
2894.000000;1.673361
2893.000000;1.718861
2892.000000;1.719973
2891.000000;1.676402
2890.000000;1.685624
2889.000000;2.225832
2888.000000;1.992719
2887.000000;1.613820
2886.000000;1.661736
2885.000000;1.777478
2884.000000;1.678191
2883.000000;1.778099
2882.000000;2.235190
2881.000000;1.657389
2880.000000;1.474674
2879.000000;1.607807
2878.000000;1.874880
2877.000000;1.975985
2876.000000;2.187199
2875.000000;2.015672
2874.000000;1.721890
2873.000000;2.012848
2872.000000;2.051209
2871.000000;1.599292
2870.000000;1.687659
2869.000000;1.829606
2868.000000;1.642725
2867.000000;1.740455
2866.000000;1.912042
2865.000000;1.640340
2864.000000;1.536663
2863.000000;1.658348
2862.000000;1.766228
2861.000000;1.753452
2860.000000;1.912653
2859.000000;2.148403
2858.000000;1.835612
2857.000000;1.665126
2856.000000;1.655289
2855.000000;1.793926
2854.000000;2.024806
2853.000000;2.101330
2852.000000;2.435154
2851.000000;2.060249
2850.000000;1.685815
2849.000000;1.695080
2848.000000;2.061913
2847.000000;1.816352
2846.000000;1.460347
2845.000000;1.464185
2844.000000;1.761686
2843.000000;1.770667
2842.000000;1.559008
2841.000000;1.741535
2840.000000;1.759056
2839.000000;1.566781
2838.000000;1.618543
2837.000000;1.847734
2836.000000;2.461101
2835.000000;2.590168
2834.000000;2.131621
2833.000000;1.984659
2832.000000;1.862595
2831.000000;1.767737
2830.000000;1.728122
2829.000000;1.989126
2828.000000;2.355854
2827.000000;2.000867
2826.000000;2.228576
2825.000000;2.082331
2824.000000;1.674635
2823.000000;1.563064
2822.000000;1.578975
2821.000000;1.784982
2820.000000;2.212398
2819.000000;2.249335
2818.000000;1.971820
2817.000000;2.003790
2816.000000;1.946188
2815.000000;1.561978
2814.000000;1.479721
2813.000000;1.619529
2812.000000;1.673649
2811.000000;1.713437
2810.000000;1.772179
2809.000000;1.635175
2808.000000;1.615737
2807.000000;1.889230
2806.000000;2.250078
2805.000000;1.858612
2804.000000;1.865576
2803.000000;2.366781
2802.000000;2.113100
2801.000000;1.882067
2800.000000;2.032044
2799.000000;2.880978
2798.000000;2.018876
2797.000000;1.765924
2796.000000;1.727448
2795.000000;1.681219
2794.000000;1.972523
2793.000000;2.072876
2792.000000;1.580538
2791.000000;1.566077
2790.000000;1.980136
2789.000000;2.387729
2788.000000;1.970937
2787.000000;1.732386
2786.000000;1.494326
2785.000000;1.395479
2784.000000;1.378718
2783.000000;1.437182
2782.000000;1.727024
2781.000000;1.805281
2780.000000;1.595003
2779.000000;1.649443
2778.000000;1.843591
2777.000000;1.989071
2776.000000;1.995998
2775.000000;1.844955
2774.000000;1.857970
2773.000000;2.210823
2772.000000;2.613895
2771.000000;2.428887
2770.000000;2.221814
2769.000000;1.904928
2768.000000;1.791149
2767.000000;1.836201
2766.000000;1.901571
2765.000000;2.074622
2764.000000;2.181175
2763.000000;1.897807
2762.000000;1.812508
2761.000000;1.771541
2760.000000;1.608113
2759.000000;1.569548
2758.000000;1.837161
2757.000000;2.347329
2756.000000;2.036357
2755.000000;1.698708
2754.000000;1.507472
2753.000000;1.464189
2752.000000;1.541162
2751.000000;1.696150
2750.000000;1.812629
2749.000000;1.743913
2748.000000;1.671354
2747.000000;1.712771
2746.000000;2.038265
2745.000000;2.177859
2744.000000;1.784833
2743.000000;1.684957
2742.000000;1.619599
2741.000000;1.594026
2740.000000;1.808920
2739.000000;1.838614
2738.000000;1.554571
2737.000000;1.762954
2736.000000;2.264497
2735.000000;1.678799
2734.000000;1.471094
2733.000000;1.389460
2732.000000;1.422007
2731.000000;1.637538
2730.000000;2.036495
2729.000000;1.885177
2728.000000;1.711820
2727.000000;2.051957
2726.000000;1.793041
2725.000000;1.410418
2724.000000;1.312733
2723.000000;1.410819
2722.000000;1.723334
2721.000000;1.983252
2720.000000;1.817831
2719.000000;1.835017
2718.000000;2.276961
2717.000000;1.869533
2716.000000;1.587224
2715.000000;1.677799
2714.000000;2.036961
2713.000000;1.970275
2712.000000;1.636563
2711.000000;1.487850
2710.000000;1.443899
2709.000000;1.513048
2708.000000;1.738572
2707.000000;1.849322
2706.000000;1.804795
2705.000000;2.324153
2704.000000;2.599171
2703.000000;2.256959
2702.000000;2.439998
2701.000000;1.870328
2700.000000;1.725562
2699.000000;1.825633
2698.000000;2.021211
2697.000000;2.186578
2696.000000;1.664821
2695.000000;1.410129
2694.000000;1.432502
2693.000000;1.755380
2692.000000;1.955987
2691.000000;1.541703
2690.000000;1.405923
2689.000000;1.444766
2688.000000;1.766904
2687.000000;1.926615
2686.000000;1.451277
2685.000000;1.290590
2684.000000;1.226044
2683.000000;1.236158
2682.000000;1.365144
2681.000000;1.746363
2680.000000;2.350718
2679.000000;1.911994
2678.000000;1.772754
2677.000000;1.785334
2676.000000;1.651328
2675.000000;1.409714
2674.000000;1.298035
2673.000000;1.328736
2672.000000;1.461948
2671.000000;1.640125
2670.000000;1.652216
2669.000000;1.495649
2668.000000;1.386167
2667.000000;1.436825
2666.000000;1.709003
2665.000000;1.885926
2664.000000;1.817416
2663.000000;1.811978
2662.000000;1.624014
2661.000000;1.459935
2660.000000;1.432059
2659.000000;1.599514
2658.000000;1.698841
2657.000000;1.502018
2656.000000;1.500791
2655.000000;1.671211
2654.000000;1.716583
2653.000000;1.637079
2652.000000;1.640397
2651.000000;1.576524
2650.000000;1.452269
2649.000000;1.430523
2648.000000;1.550776
2647.000000;1.571494
2646.000000;1.443793
2645.000000;1.476179
2644.000000;1.522030
2643.000000;1.482604
2642.000000;1.552233
2641.000000;1.768325
2640.000000;1.950421
2639.000000;1.761136
2638.000000;1.567730
2637.000000;1.481231
2636.000000;1.385682
2635.000000;1.304090
2634.000000;1.321405
2633.000000;1.493334
2632.000000;1.955908
2631.000000;1.814577
2630.000000;1.412367
2629.000000;1.361587
2628.000000;1.499388
2627.000000;1.580160
2626.000000;1.598919
2625.000000;1.947184
2624.000000;1.821083
2623.000000;1.495894
2622.000000;1.529096
2621.000000;1.509948
2620.000000;1.488567
2619.000000;1.592527
2618.000000;1.506084
2617.000000;1.348964
2616.000000;1.448257
2615.000000;1.748603
2614.000000;1.389950
2613.000000;1.119883
2612.000000;1.030194
2611.000000;1.027515
2610.000000;1.112655
2609.000000;1.184461
2608.000000;1.197774
2607.000000;1.262299
2606.000000;1.611142
2605.000000;1.882012
2604.000000;1.356863
2603.000000;1.174975
2602.000000;1.121186
2601.000000;1.218272
2600.000000;1.383205
2599.000000;1.308844
2598.000000;1.256241
2597.000000;1.366957
2596.000000;1.717033
2595.000000;1.953135
2594.000000;1.876593
2593.000000;1.714390
2592.000000;1.414660
2591.000000;1.287606
2590.000000;1.294457
2589.000000;1.383064
2588.000000;1.541894
2587.000000;1.734586
2586.000000;1.819394
2585.000000;1.718372
2584.000000;1.661222
2583.000000;1.669534
2582.000000;1.726275
2581.000000;1.873971
2580.000000;1.854846
2579.000000;1.717125
2578.000000;1.641771
2577.000000;1.538287
2576.000000;1.481694
2575.000000;1.545239
2574.000000;1.901523
2573.000000;2.108113
2572.000000;1.696532
2571.000000;1.642702
2570.000000;1.839981
2569.000000;2.093166
2568.000000;1.866555
2567.000000;1.973709
2566.000000;2.258902
2565.000000;1.784962
2564.000000;1.515594
2563.000000;1.493819
2562.000000;1.695383
2561.000000;1.586725
2560.000000;1.347344
2559.000000;1.408826
2558.000000;1.763910
2557.000000;2.098819
2556.000000;2.044674
2555.000000;1.480603
2554.000000;1.204143
2553.000000;1.152000
2552.000000;1.196177
2551.000000;1.419465
2550.000000;1.922512
2549.000000;1.768215
2548.000000;1.698340
2547.000000;1.774722
2546.000000;1.476993
2545.000000;1.331595
2544.000000;1.366410
2543.000000;1.604565
2542.000000;2.265844
2541.000000;3.315385
2540.000000;2.040689
2539.000000;1.723063
2538.000000;1.763046
2537.000000;1.842950
2536.000000;1.631588
2535.000000;1.421076
2534.000000;1.313351
2533.000000;1.279964
2532.000000;1.410885
2531.000000;1.672768
2530.000000;1.483987
2529.000000;1.359216
2528.000000;1.495456
2527.000000;1.581806
2526.000000;1.464557
2525.000000;1.511934
2524.000000;1.757198
2523.000000;1.780411
2522.000000;1.517487
2521.000000;1.387318
2520.000000;1.472485
2519.000000;1.824941
2518.000000;2.643255
2517.000000;2.376882
2516.000000;1.796689
2515.000000;1.714987
2514.000000;2.073334
2513.000000;1.763067
2512.000000;1.456147
2511.000000;1.440586
2510.000000;1.542259
2509.000000;1.875022
2508.000000;2.088969
2507.000000;1.662742
2506.000000;1.472840
2505.000000;1.571110
2504.000000;1.517417
2503.000000;1.256386
2502.000000;1.202401
2501.000000;1.358248
2500.000000;1.563656
2499.000000;1.851754
2498.000000;1.988925
2497.000000;1.402097
2496.000000;1.184421
2495.000000;1.134470
2494.000000;1.180818
2493.000000;1.303703
2492.000000;1.552534
2491.000000;1.986747
2490.000000;1.645339
2489.000000;1.416100
2488.000000;1.520365
2487.000000;2.002876
2486.000000;2.024385
2485.000000;1.645776
2484.000000;1.502526
2483.000000;1.421566
2482.000000;1.607708
2481.000000;1.931214
2480.000000;1.478297
2479.000000;1.433974
2478.000000;1.925028
2477.000000;1.860187
2476.000000;1.702895
2475.000000;1.894488
2474.000000;1.921233
2473.000000;1.765003
2472.000000;1.663462
2471.000000;1.676882
2470.000000;1.695912
2469.000000;1.821067
2468.000000;2.055395
2467.000000;1.700097
2466.000000;1.409869
2465.000000;1.333135
2464.000000;1.527805
2463.000000;1.831929
2462.000000;1.551207
2461.000000;1.441588
2460.000000;1.514929
2459.000000;1.627251
2458.000000;1.743755
2457.000000;1.820974
2456.000000;1.931942
2455.000000;1.687278
2454.000000;1.428557
2453.000000;1.345501
2452.000000;1.459662
2451.000000;1.776758
2450.000000;1.711096
2449.000000;1.571461
2448.000000;1.560759
2447.000000;1.700647
2446.000000;1.962037
2445.000000;1.682517
2444.000000;1.528092
2443.000000;1.608495
2442.000000;1.741719
2441.000000;1.642674
2440.000000;1.626777
2439.000000;1.618054
2438.000000;1.381203
2437.000000;1.241768
2436.000000;1.263674
2435.000000;1.463029
2434.000000;1.696715
2433.000000;1.896744
2432.000000;1.900438
2431.000000;1.648089
2430.000000;1.766675
2429.000000;1.780268
2428.000000;1.495193
2427.000000;1.431200
2426.000000;1.569853
2425.000000;1.835652
2424.000000;1.863132
2423.000000;1.877978
2422.000000;2.147482
2421.000000;2.150002
2420.000000;1.779190
2419.000000;1.528811
2418.000000;1.419019
2417.000000;1.420955
2416.000000;1.544514
2415.000000;1.779109
2414.000000;1.763289
2413.000000;1.939064
2412.000000;2.038177
2411.000000;1.621542
2410.000000;1.749874
2409.000000;1.621382
2408.000000;1.320596
2407.000000;1.336085
2406.000000;1.471749
2405.000000;1.542184
2404.000000;1.688636
2403.000000;1.901846
2402.000000;1.595268
2401.000000;1.340173
2400.000000;1.232861
2399.000000;1.230012
2398.000000;1.316649
2397.000000;1.445657
2396.000000;1.601465
2395.000000;1.536901
2394.000000;1.730948
2393.000000;1.897896
2392.000000;1.340247
2391.000000;1.208230
2390.000000;1.271007
2389.000000;1.483077
2388.000000;1.588287
2387.000000;1.614498
2386.000000;2.001100
2385.000000;1.603745
2384.000000;1.310948
2383.000000;1.318775
2382.000000;1.673786
2381.000000;2.097379
2380.000000;1.628282
2379.000000;1.674099
2378.000000;1.928107
2377.000000;1.871378
2376.000000;1.668358
2375.000000;1.576463
2374.000000;2.023852
2373.000000;1.945700
2372.000000;1.658219
2371.000000;2.048077
2370.000000;1.809784
2369.000000;1.523664
2368.000000;1.624664
2367.000000;1.980950
2366.000000;2.239887
2365.000000;1.916477
2364.000000;1.723223
2363.000000;1.670606
2362.000000;1.889881
2361.000000;2.365893
2360.000000;1.852087
2359.000000;1.641902
2358.000000;1.620451
2357.000000;1.602112
2356.000000;1.671479
2355.000000;1.715500
2354.000000;1.625622
2353.000000;1.785334
2352.000000;1.954884
2351.000000;1.498367
2350.000000;1.341240
2349.000000;1.424659
2348.000000;1.540621
2347.000000;1.602770
2346.000000;1.629951
2345.000000;1.502775
2344.000000;1.477110
2343.000000;1.645837
2342.000000;1.639569
2341.000000;1.506025
2340.000000;1.583550
2339.000000;1.719028
2338.000000;1.547672
2337.000000;1.498522
2336.000000;1.612037
2335.000000;1.695101
2334.000000;1.725582
2333.000000;1.675387
2332.000000;1.527834
2331.000000;1.396422
2330.000000;1.328311
2329.000000;1.380068
2328.000000;1.600567
2327.000000;1.730041
2326.000000;1.590117
2325.000000;1.552800
2324.000000;1.529366
2323.000000;1.451874
2322.000000;1.411552
2321.000000;1.411488
2320.000000;1.366661
2319.000000;1.451581
2318.000000;2.018565
2317.000000;1.808695
2316.000000;1.466390
2315.000000;1.417610
2314.000000;1.576817
2313.000000;1.951345
2312.000000;1.633798
2311.000000;1.508172
2310.000000;1.516090
2309.000000;1.536943
2308.000000;1.820271
2307.000000;2.107168
2306.000000;1.840367
2305.000000;1.603557
2304.000000;1.370088
2303.000000;1.219421
2302.000000;1.181340
2301.000000;1.252998
2300.000000;1.427018
2299.000000;1.640146
2298.000000;1.831499
2297.000000;1.683372
2296.000000;1.407132
2295.000000;1.283203
2294.000000;1.291861
2293.000000;1.288696
2292.000000;1.226735
2291.000000;1.317785
2290.000000;1.697743
2289.000000;1.951666
2288.000000;1.522433
2287.000000;1.548396
2286.000000;2.059476
2285.000000;1.642300
2284.000000;1.403895
2283.000000;1.329200
2282.000000;1.355959
2281.000000;1.457914
2280.000000;1.367404
2279.000000;1.312329
2278.000000;1.543028
2277.000000;2.062271
2276.000000;1.981406
2275.000000;2.077252
2274.000000;1.849091
2273.000000;1.516432
2272.000000;1.486509
2271.000000;1.703175
2270.000000;1.549518
2269.000000;1.361209
2268.000000;1.672943
2267.000000;1.797433
2266.000000;1.376390
2265.000000;1.365934
2264.000000;1.521474
2263.000000;1.624900
2262.000000;1.732424
2261.000000;1.508296
2260.000000;1.326216
2259.000000;1.331717
2258.000000;1.439376
2257.000000;1.688853
2256.000000;1.733235
2255.000000;1.911629
2254.000000;2.029591
2253.000000;1.379686
2252.000000;1.187641
2251.000000;1.219261
2250.000000;1.460004
2249.000000;1.628497
2248.000000;1.370781
2247.000000;1.348756
2246.000000;1.643526
2245.000000;1.812566
2244.000000;1.493061
2243.000000;1.405603
2242.000000;1.677959
2241.000000;1.879076
2240.000000;1.433061
2239.000000;1.287812
2238.000000;1.416622
2237.000000;1.406567
2236.000000;1.260821
2235.000000;1.176160
2234.000000;1.373471
2233.000000;2.057546
2232.000000;1.370581
2231.000000;1.177199
2230.000000;1.243583
2229.000000;1.352011
2228.000000;1.462916
2227.000000;1.459275
2226.000000;1.360584
2225.000000;1.240166
2224.000000;1.444026
2223.000000;1.850419
2222.000000;1.501733
2221.000000;1.359080
2220.000000;1.593876
2219.000000;2.075397
2218.000000;1.853273
2217.000000;1.735747
2216.000000;1.690059
2215.000000;1.670470
2214.000000;1.638893
2213.000000;1.372970
2212.000000;1.293485
2211.000000;1.464928
2210.000000;1.470409
2209.000000;1.439998
2208.000000;1.616509
2207.000000;1.735023
2206.000000;1.925329
2205.000000;1.558605
2204.000000;1.386473
2203.000000;1.457012
2202.000000;1.338762
2201.000000;1.196494
2200.000000;1.394521
2199.000000;1.830527
2198.000000;1.359996
2197.000000;1.224243
2196.000000;1.302674
2195.000000;1.389817
2194.000000;1.470760
2193.000000;1.601205
2192.000000;1.762590
2191.000000;1.848857
2190.000000;2.252100
2189.000000;1.992516
2188.000000;1.593669
2187.000000;1.459009
2186.000000;1.388349
2185.000000;1.475252
2184.000000;1.852266
2183.000000;1.849687
2182.000000;1.677672
2181.000000;1.762845
2180.000000;1.792388
2179.000000;1.747035
2178.000000;1.669533
2177.000000;1.713330
2176.000000;2.087883
2175.000000;1.928799
2174.000000;1.483094
2173.000000;1.351779
2172.000000;1.461958
2171.000000;1.921857
2170.000000;1.919359
2169.000000;1.485206
2168.000000;1.288195
2167.000000;1.145871
2166.000000;1.108841
2165.000000;1.217788
2164.000000;1.503043
2163.000000;1.833332
2162.000000;1.729362
2161.000000;1.509982
2160.000000;1.401895
2159.000000;1.372269
2158.000000;1.447570
2157.000000;1.607901
2156.000000;1.510677
2155.000000;1.435689
2154.000000;1.748028
2153.000000;1.965358
2152.000000;1.536319
2151.000000;1.490091
2150.000000;1.598917
2149.000000;1.542495
2148.000000;1.409733
2147.000000;1.408074
2146.000000;1.752115
2145.000000;1.795248
2144.000000;1.514014
2143.000000;1.703102
2142.000000;1.795685
2141.000000;1.560541
2140.000000;1.409840
2139.000000;1.265418
2138.000000;1.407158
2137.000000;1.788388
2136.000000;1.480885
2135.000000;1.235011
2134.000000;1.255130
2133.000000;1.665780
2132.000000;1.661521
2131.000000;1.223677
2130.000000;1.172402
2129.000000;1.316675
2128.000000;1.694201
2127.000000;1.999394
2126.000000;1.477723
2125.000000;1.227959
2124.000000;1.181475
2123.000000;1.297249
2122.000000;1.543644
2121.000000;1.609232
2120.000000;1.419298
2119.000000;1.324394
2118.000000;1.309953
2117.000000;1.286614
2116.000000;1.367040
2115.000000;1.582986
2114.000000;1.612962
2113.000000;1.461437
2112.000000;1.551508
2111.000000;1.505668
2110.000000;1.162350
2109.000000;1.008837
2108.000000;1.066417
2107.000000;1.320190
2106.000000;1.385641
2105.000000;1.275017
2104.000000;1.200682
2103.000000;1.211354
2102.000000;1.427707
2101.000000;1.382584
2100.000000;1.235727
2099.000000;1.388191
2098.000000;1.758439
2097.000000;2.079175
2096.000000;2.304397
2095.000000;1.668100
2094.000000;1.390877
2093.000000;1.433602
2092.000000;1.585849
2091.000000;1.501618
2090.000000;1.478402
2089.000000;1.732270
2088.000000;1.746023
2087.000000;1.542674
2086.000000;1.400585
2085.000000;1.319503
2084.000000;1.503315
2083.000000;1.745430
2082.000000;1.431746
2081.000000;1.424703
2080.000000;1.805890
2079.000000;1.906372
2078.000000;1.692631
2077.000000;1.504735
2076.000000;1.408366
2075.000000;1.479230
2074.000000;1.633442
2073.000000;1.741396
2072.000000;1.697237
2071.000000;1.566493
2070.000000;1.473406
2069.000000;1.582078
2068.000000;1.757343
2067.000000;1.532641
2066.000000;1.617584
2065.000000;1.909290
2064.000000;1.578027
2063.000000;1.525231
2062.000000;1.493216
2061.000000;1.231918
2060.000000;1.077206
2059.000000;1.055288
2058.000000;1.202229
2057.000000;1.449077
2056.000000;1.479385
2055.000000;1.746971
2054.000000;1.937511
2053.000000;1.476119
2052.000000;1.333651
2051.000000;1.261858
2050.000000;1.244650
2049.000000;1.272892
2048.000000;1.352928
2047.000000;1.497086
2046.000000;1.412336
2045.000000;1.316034
2044.000000;1.322355
2043.000000;1.416319
2042.000000;1.657626
2041.000000;1.584196
2040.000000;1.357641
2039.000000;1.277731
2038.000000;1.274393
2037.000000;1.383509
2036.000000;1.743857
2035.000000;2.200351
2034.000000;2.048439
2033.000000;1.693487
2032.000000;1.405509
2031.000000;1.327656
2030.000000;1.356445
2029.000000;1.475276
2028.000000;1.807936
2027.000000;1.590371
2026.000000;1.478123
2025.000000;1.731073
2024.000000;1.427185
2023.000000;1.170067
2022.000000;1.234646
2021.000000;1.603203
2020.000000;1.479019
2019.000000;1.286111
2018.000000;1.420275
2017.000000;1.429565
2016.000000;1.319240
2015.000000;1.349650
2014.000000;1.468794
2013.000000;1.573267
2012.000000;1.624735
2011.000000;1.736557
2010.000000;1.565341
2009.000000;1.277363
2008.000000;1.165747
2007.000000;1.267945
2006.000000;1.569344
2005.000000;1.331024
2004.000000;1.076162
2003.000000;1.098017
2002.000000;1.274688
2001.000000;1.341290
2000.000000;1.257743
1999.000000;1.192612
1998.000000;1.130021
1997.000000;1.361280
1996.000000;1.690791
1995.000000;1.261224
1994.000000;1.179241
1993.000000;1.232895
1992.000000;1.230705
1991.000000;1.470714
1990.000000;1.841074
1989.000000;1.738769
1988.000000;1.781689
1987.000000;1.575513
1986.000000;1.407298
1985.000000;1.549383
1984.000000;1.711842
1983.000000;1.508197
1982.000000;1.662594
1981.000000;1.852551
1980.000000;1.458622
1979.000000;1.377257
1978.000000;1.471926
1977.000000;1.558320
1976.000000;1.667376
1975.000000;1.912977
1974.000000;1.561684
1973.000000;1.287950
1972.000000;1.392517
1971.000000;1.768354
1970.000000;1.568090
1969.000000;1.416484
1968.000000;1.444016
1967.000000;1.676276
1966.000000;1.826315
1965.000000;1.285492
1964.000000;1.111983
1963.000000;1.119406
1962.000000;1.184468
1961.000000;1.306318
1960.000000;1.393629
1959.000000;1.455929
1958.000000;1.575869
1957.000000;1.590408
1956.000000;1.606457
1955.000000;1.831650
1954.000000;1.700371
1953.000000;1.247829
1952.000000;1.002841
1951.000000;0.956608
1950.000000;1.200891
1949.000000;1.686157
1948.000000;1.483109
1947.000000;1.480956
1946.000000;1.330474
1945.000000;1.121374
1944.000000;1.186638
1943.000000;1.192577
1942.000000;1.106674
1941.000000;1.107365
1940.000000;1.275344
1939.000000;1.632224
1938.000000;1.428177
1937.000000;1.214887
1936.000000;1.444306
1935.000000;1.702261
1934.000000;1.239275
1933.000000;1.298265
1932.000000;1.561656
1931.000000;1.444325
1930.000000;1.602096
1929.000000;2.207465
1928.000000;2.599804
1927.000000;1.746209
1926.000000;1.984599
1925.000000;1.994152
1924.000000;1.299966
1923.000000;1.132184
1922.000000;1.091896
1921.000000;1.198513
1920.000000;1.319505
1919.000000;1.198912
1918.000000;1.149578
1917.000000;1.382227
1916.000000;2.119635
1915.000000;2.020133
1914.000000;1.924201
1913.000000;1.463584
1912.000000;1.248932
1911.000000;1.233097
1910.000000;1.403836
1909.000000;1.781244
1908.000000;1.340615
1907.000000;1.178423
1906.000000;1.269928
1905.000000;1.452153
1904.000000;1.487403
1903.000000;1.315099
1902.000000;1.211570
1901.000000;1.137416
1900.000000;1.223578
1899.000000;1.635423
1898.000000;1.447235
1897.000000;1.127803
1896.000000;1.080962
1895.000000;1.103609
1894.000000;1.196767
1893.000000;1.362664
1892.000000;1.763132
1891.000000;2.143225
1890.000000;1.643213
1889.000000;1.293233
1888.000000;1.145912
1887.000000;1.165247
1886.000000;1.082256
1885.000000;0.974922
1884.000000;1.011976
1883.000000;1.211888
1882.000000;1.399692
1881.000000;1.271259
1880.000000;1.183262
1879.000000;1.192660
1878.000000;1.173688
1877.000000;1.121289
1876.000000;1.130746
1875.000000;1.237561
1874.000000;1.397899
1873.000000;1.407694
1872.000000;1.228406
1871.000000;1.107226
1870.000000;1.015528
1869.000000;0.806588
1868.000000;0.648367
1867.000000;0.654729
1866.000000;0.870331
1865.000000;1.329878
1864.000000;1.395073
1863.000000;1.161452
1862.000000;1.029701
1861.000000;0.968839
1860.000000;1.036894
1859.000000;1.186645
1858.000000;1.209370
1857.000000;1.100939
1856.000000;1.075926
1855.000000;1.179058
1854.000000;1.374693
1853.000000;1.503188
1852.000000;1.558216
1851.000000;1.609742
1850.000000;1.619913
1849.000000;1.594859
1848.000000;1.409418
1847.000000;1.461175
1846.000000;1.325580
1845.000000;1.094401
1844.000000;1.277595
1843.000000;1.598492
1842.000000;1.152574
1841.000000;1.098659
1840.000000;1.728675
1839.000000;1.447425
1838.000000;1.068308
1837.000000;1.168925
1836.000000;1.368064
1835.000000;1.252873
1834.000000;1.135154
1833.000000;1.204325
1832.000000;1.244121
1831.000000;1.327231
1830.000000;1.437467
1829.000000;1.559373
1828.000000;2.311331
1827.000000;1.388497
1826.000000;1.301223
1825.000000;1.723745
1824.000000;1.161105
1823.000000;0.917034
1822.000000;0.956864
1821.000000;1.182809
1820.000000;1.643340
1819.000000;2.405895
1818.000000;2.485357
1817.000000;2.063856
1816.000000;1.886286
1815.000000;1.728972
1814.000000;1.469172
1813.000000;1.277695
1812.000000;1.362160
1811.000000;1.408157
1810.000000;1.176476
1809.000000;1.150827
1808.000000;1.461691
1807.000000;2.062296
1806.000000;1.523293
1805.000000;1.335412
1804.000000;1.333369
1803.000000;1.281473
1802.000000;1.075758
1801.000000;1.242675
1800.000000;2.063360
1799.000000;1.336472
1798.000000;1.465253
1797.000000;1.279728
1796.000000;0.969046
1795.000000;1.049000
1794.000000;1.344203
1793.000000;1.722656
1792.000000;1.304684
1791.000000;0.925434
1790.000000;0.779156
1789.000000;0.827487
1788.000000;0.951769
1787.000000;0.997120
1786.000000;1.070879
1785.000000;1.146577
1784.000000;1.117201
1783.000000;1.174985
1782.000000;1.199603
1781.000000;1.041019
1780.000000;0.948439
1779.000000;1.065439
1778.000000;1.550716
1777.000000;1.586269
1776.000000;1.475257
1775.000000;1.854709
1774.000000;1.480866
1773.000000;1.543897
1772.000000;1.881835
1771.000000;1.714376
1770.000000;1.591326
1769.000000;1.185770
1768.000000;0.986508
1767.000000;0.939308
1766.000000;0.979508
1765.000000;1.127465
1764.000000;1.292065
1763.000000;1.193152
1762.000000;1.001246
1761.000000;0.929789
1760.000000;0.987637
1759.000000;1.080549
1758.000000;1.079246
1757.000000;1.078845
1756.000000;1.030904
1755.000000;0.958671
1754.000000;0.981870
1753.000000;1.065134
1752.000000;1.162484
1751.000000;1.183031
1750.000000;1.051714
1749.000000;0.932504
1748.000000;0.928863
1747.000000;1.016593
1746.000000;1.033477
1745.000000;0.949287
1744.000000;0.948542
1743.000000;1.152347
1742.000000;1.097917
1741.000000;0.856517
1740.000000;0.887136
1739.000000;1.070322
1738.000000;1.055719
1737.000000;0.941425
1736.000000;1.040629
1735.000000;1.159649
1734.000000;1.127641
1733.000000;1.388681
1732.000000;1.598086
1731.000000;1.529507
1730.000000;1.223939
1729.000000;0.883442
1728.000000;0.809756
1727.000000;1.037543
1726.000000;1.507963
1725.000000;1.082850
1724.000000;0.975097
1723.000000;1.361872
1722.000000;1.457908
1721.000000;1.125808
1720.000000;1.087899
1719.000000;1.113230
1718.000000;1.092335
1717.000000;1.295827
1716.000000;1.382821
1715.000000;0.999502
1714.000000;0.924822
1713.000000;1.091388
1712.000000;1.323977
1711.000000;1.314087
1710.000000;1.102285
1709.000000;0.996127
1708.000000;0.998946
1707.000000;1.011245
1706.000000;1.099157
1705.000000;1.298541
1704.000000;1.021494
1703.000000;0.867452
1702.000000;0.997312
1701.000000;1.330046
1700.000000;2.025405
1699.000000;2.087855
1698.000000;1.512266
1697.000000;1.317915
1696.000000;1.312124
1695.000000;1.223541
1694.000000;1.009472
1693.000000;1.091364
1692.000000;1.489529
1691.000000;0.996876
1690.000000;0.822895
1689.000000;0.881941
1688.000000;1.053243
1687.000000;1.203320
1686.000000;1.167643
1685.000000;1.492358
1684.000000;1.227325
1683.000000;0.777682
1682.000000;0.694279
1681.000000;0.912713
1680.000000;1.454090
1679.000000;1.273089
1678.000000;1.089724
1677.000000;1.056598
1676.000000;0.999650
1675.000000;1.071532
1674.000000;1.211684
1673.000000;1.295317
1672.000000;1.306151
1671.000000;1.433083
1670.000000;1.248025
1669.000000;0.971468
1668.000000;0.972757
1667.000000;1.162764
1666.000000;1.342287
1665.000000;1.445768
1664.000000;1.254649
1663.000000;1.077786
1662.000000;1.050974
1661.000000;1.086215
1660.000000;1.214470
1659.000000;1.492469
1658.000000;1.426271
1657.000000;1.217625
1656.000000;1.425489
1655.000000;1.644046
1654.000000;1.287175
1653.000000;1.098568
1652.000000;1.068067
1651.000000;1.096503
1650.000000;1.308827
1649.000000;1.474987
1648.000000;1.341634
1647.000000;1.074984
1646.000000;0.949067
1645.000000;1.098567
1644.000000;1.304585
1643.000000;1.401622
1642.000000;1.288405
1641.000000;1.076835
1640.000000;1.026325
1639.000000;1.137242
1638.000000;1.349848
1637.000000;1.212536
1636.000000;0.989722
1635.000000;0.980333
1634.000000;1.056382
1633.000000;1.113798
1632.000000;1.022145
1631.000000;0.868232
1630.000000;0.965035
1629.000000;1.060947
1628.000000;0.791725
1627.000000;0.691462
1626.000000;0.789547
1625.000000;1.024059
1624.000000;1.139061
1623.000000;0.884811
1622.000000;0.710128
1621.000000;0.666043
1620.000000;0.757164
1619.000000;1.042062
1618.000000;1.238850
1617.000000;1.099805
1616.000000;1.119106
1615.000000;1.322686
1614.000000;1.241492
1613.000000;1.044117
1612.000000;1.032706
1611.000000;1.118905
1610.000000;1.155215
1609.000000;1.053757
1608.000000;0.995237
1607.000000;1.034413
1606.000000;1.136354
1605.000000;1.444427
1604.000000;1.240247
1603.000000;0.898337
1602.000000;0.842111
1601.000000;0.980955
1600.000000;1.467606
1599.000000;1.872744
1598.000000;1.768071
1597.000000;1.595183
1596.000000;1.212194
1595.000000;1.199447
1594.000000;1.488609
1593.000000;1.621541
1592.000000;1.436549
1591.000000;1.270963
1590.000000;1.268469
1589.000000;1.458791
1588.000000;1.377847
1587.000000;1.188593
1586.000000;1.065310
1585.000000;1.000638
1584.000000;1.129242
1583.000000;1.477681
1582.000000;1.447727
1581.000000;1.283214
1580.000000;1.307022
1579.000000;1.258405
1578.000000;1.098305
1577.000000;1.011606
1576.000000;1.041803
1575.000000;1.125424
1574.000000;1.137755
1573.000000;1.210088
1572.000000;1.385914
1571.000000;1.157124
1570.000000;0.914061
1569.000000;0.849288
1568.000000;0.909275
1567.000000;1.059239
1566.000000;1.195463
1565.000000;1.341360
1564.000000;1.459814
1563.000000;1.139788
1562.000000;0.925621
1561.000000;0.926706
1560.000000;1.026120
1559.000000;1.119563
1558.000000;1.069570
1557.000000;1.067106
1556.000000;1.080037
1555.000000;0.885191
1554.000000;0.744675
1553.000000;0.743385
1552.000000;0.866822
1551.000000;1.198330
1550.000000;1.696511
1549.000000;1.908474
1548.000000;1.508541
1547.000000;1.261813
1546.000000;1.648890
1545.000000;1.441096
1544.000000;0.953759
1543.000000;0.925406
1542.000000;1.132453
1541.000000;1.711135
1540.000000;1.606401
1539.000000;1.372619
1538.000000;1.295355
1537.000000;0.950970
1536.000000;0.750512
1535.000000;0.705022
1534.000000;0.755077
1533.000000;0.826630
1532.000000;0.867174
1531.000000;0.974871
1530.000000;1.067927
1529.000000;0.885197
1528.000000;0.744587
1527.000000;0.719910
1526.000000;0.965947
1525.000000;1.376824
1524.000000;0.882536
1523.000000;0.724778
1522.000000;0.935877
1521.000000;1.325744
1520.000000;0.992602
1519.000000;0.779084
1518.000000;0.738616
1517.000000;0.781599
1516.000000;1.008433
1515.000000;1.025524
1514.000000;0.873987
1513.000000;0.876364
1512.000000;0.990335
1511.000000;1.091872
1510.000000;1.114552
1509.000000;0.818273
1508.000000;0.772009
1507.000000;1.040823
1506.000000;0.841102
1505.000000;0.856771
1504.000000;1.142094
1503.000000;1.220731
1502.000000;1.492593
1501.000000;1.219424
1500.000000;0.845442
1499.000000;0.799947
1498.000000;0.897729
1497.000000;0.959909
1496.000000;0.937725
1495.000000;0.889240
1494.000000;0.865222
1493.000000;0.878283
1492.000000;0.914933
1491.000000;1.189777
1490.000000;1.257566
1489.000000;0.725135
1488.000000;0.608839
1487.000000;0.791042
1486.000000;1.058382
1485.000000;1.203345
1484.000000;1.269937
1483.000000;1.362513
1482.000000;1.389122
1481.000000;1.015963
1480.000000;0.770750
1479.000000;0.697090
1478.000000;0.715530
1477.000000;0.873417
1476.000000;0.969835
1475.000000;0.692265
1474.000000;0.544546
1473.000000;0.556333
1472.000000;0.664064
1471.000000;0.819757
1470.000000;0.926109
1469.000000;0.894541
1468.000000;0.777670
1467.000000;0.790118
1466.000000;1.200787
1465.000000;1.414514
1464.000000;1.028104
1463.000000;1.104283
1462.000000;1.139791
1461.000000;1.096903
1460.000000;1.257179
1459.000000;1.243406
1458.000000;1.033858
1457.000000;0.940445
1456.000000;0.853095
1455.000000;0.712142
1454.000000;0.615593
1453.000000;0.647930
1452.000000;0.874754
1451.000000;1.138853
1450.000000;1.171574
1449.000000;1.328640
1448.000000;1.148109
1447.000000;0.891623
1446.000000;0.837545
1445.000000;0.896521
1444.000000;0.916258
1443.000000;0.854944
1442.000000;0.880575
1441.000000;0.929678
1440.000000;0.985931
1439.000000;1.082452
1438.000000;0.988035
1437.000000;0.875842
1436.000000;0.876084
1435.000000;0.914511
1434.000000;0.972497
1433.000000;1.099663
1432.000000;1.336888
1431.000000;1.429580
1430.000000;1.055782
1429.000000;0.772711
1428.000000;0.675138
1427.000000;0.754120
1426.000000;0.912630
1425.000000;0.818859
1424.000000;0.692112
1423.000000;0.694641
1422.000000;0.790645
1421.000000;0.952643
1420.000000;1.070144
1419.000000;1.088895
1418.000000;1.293281
1417.000000;1.207680
1416.000000;0.881134
1415.000000;0.838797
1414.000000;1.074866
1413.000000;1.246518
1412.000000;1.047696
1411.000000;1.181944
1410.000000;1.014745
1409.000000;0.737574
1408.000000;0.700147
1407.000000;0.718633
1406.000000;0.747189
1405.000000;0.867624
1404.000000;1.049405
1403.000000;1.067211
1402.000000;0.990483
1401.000000;0.878259
1400.000000;0.855480
1399.000000;0.953280
1398.000000;0.940259
1397.000000;0.864611
1396.000000;0.881908
1395.000000;0.852167
1394.000000;0.696402
1393.000000;0.640884
1392.000000;0.745048
1391.000000;1.130344
1390.000000;1.746395
1389.000000;1.280426
1388.000000;1.232081
1387.000000;1.394599
1386.000000;1.626095
1385.000000;1.208790
1384.000000;0.835210
1383.000000;0.754930
1382.000000;0.888217
1381.000000;1.012129
1380.000000;0.888498
1379.000000;0.913854
1378.000000;1.105609
1377.000000;1.042021
1376.000000;1.001834
1375.000000;1.191277
1374.000000;1.412786
1373.000000;1.120545
1372.000000;0.825368
1371.000000;0.725790
1370.000000;0.793247
1369.000000;0.967216
1368.000000;0.992161
1367.000000;0.937448
1366.000000;0.994168
1365.000000;1.030871
1364.000000;0.912661
1363.000000;0.805930
1362.000000;0.866927
1361.000000;1.258650
1360.000000;1.447945
1359.000000;1.123462
1358.000000;1.073498
1357.000000;1.114612
1356.000000;1.240604
1355.000000;1.422586
1354.000000;1.613883
1353.000000;1.331418
1352.000000;1.158866
1351.000000;1.107272
1350.000000;0.958616
1349.000000;0.925172
1348.000000;1.095691
1347.000000;1.375932
1346.000000;1.272021
1345.000000;1.078444
1344.000000;1.021019
1343.000000;1.038775
1342.000000;1.060897
1341.000000;1.074618
1340.000000;1.154748
1339.000000;1.240217
1338.000000;1.414117
1337.000000;1.695653
1336.000000;1.271349
1335.000000;0.971960
1334.000000;0.890914
1333.000000;0.998085
1332.000000;1.131801
1331.000000;1.067535
1330.000000;1.282175
1329.000000;1.494941
1328.000000;1.119215
1327.000000;1.048048
1326.000000;1.215919
1325.000000;1.502357
1324.000000;1.639370
1323.000000;1.696656
1322.000000;1.623603
1321.000000;1.274356
1320.000000;0.991942
1319.000000;0.831276
1318.000000;0.807983
1317.000000;0.893583
1316.000000;0.977070
1315.000000;1.204450
1314.000000;1.243484
1313.000000;0.866135
1312.000000;0.809126
1311.000000;1.066941
1310.000000;1.440983
1309.000000;1.139809
1308.000000;1.114394
1307.000000;1.603456
1306.000000;1.494380
1305.000000;1.150695
1304.000000;1.282690
1303.000000;1.437604
1302.000000;1.082720
1301.000000;0.782758
1300.000000;0.693903
1299.000000;0.840631
1298.000000;1.036696
1297.000000;0.856228
1296.000000;0.745042
1295.000000;0.812166
1294.000000;0.941807
1293.000000;0.940381
1292.000000;0.880661
1291.000000;0.873919
1290.000000;0.888157
1289.000000;0.934426
1288.000000;1.038381
1287.000000;1.021786
1286.000000;0.829364
1285.000000;0.708804
1284.000000;0.751182
1283.000000;1.079838
1282.000000;1.094352
1281.000000;0.760122
1280.000000;0.828828
1279.000000;1.008761
1278.000000;0.919406
1277.000000;1.165052
1276.000000;1.281899
1275.000000;0.810923
1274.000000;0.822576
1273.000000;0.949751
1272.000000;0.750413
1271.000000;0.665845
1270.000000;0.820525
1269.000000;1.290455
1268.000000;1.257194
1267.000000;0.887330
1266.000000;0.732209
1265.000000;0.712412
1264.000000;0.890267
1263.000000;1.387430
1262.000000;1.372014
1261.000000;1.122819
1260.000000;1.110206
1259.000000;1.066334
1258.000000;1.023392
1257.000000;1.022423
1256.000000;1.056649
1255.000000;1.169926
1254.000000;1.080901
1253.000000;0.898568
1252.000000;0.902881
1251.000000;0.921687
1250.000000;0.882443
1249.000000;0.966986
1248.000000;1.111550
1247.000000;1.101716
1246.000000;1.145049
1245.000000;1.139573
1244.000000;0.866677
1243.000000;0.639340
1242.000000;0.562120
1241.000000;0.619379
1240.000000;0.864548
1239.000000;1.434721
1238.000000;1.197162
1237.000000;1.066168
1236.000000;1.098142
1235.000000;1.266814
1234.000000;1.325224
1233.000000;0.760413
1232.000000;0.536958
1231.000000;0.508369
1230.000000;0.645802
1229.000000;0.972603
1228.000000;1.316896
1227.000000;1.154843
1226.000000;0.862044
1225.000000;0.727173
1224.000000;0.758703
1223.000000;1.076743
1222.000000;1.455598
1221.000000;1.298038
1220.000000;1.455125
1219.000000;1.088566
1218.000000;0.811337
1217.000000;0.756409
1216.000000;0.834871
1215.000000;1.006672
1214.000000;1.017627
1213.000000;1.012975
1212.000000;0.936159
1211.000000;0.777851
1210.000000;0.758940
1209.000000;0.913852
1208.000000;0.991172
1207.000000;0.893308
1206.000000;0.993740
1205.000000;1.300966
1204.000000;1.438991
1203.000000;1.239463
1202.000000;0.965689
1201.000000;0.833218
1200.000000;0.842530
