Criado como novo conjunto de dados;"2706_e01_daniel.spp","86046.5 Secs"
cm-1;Abs
10000.000000;0.817807
9999.000000;0.817377
9998.000000;0.816657
9997.000000;0.815757
9996.000000;0.814986
9995.000000;0.814669
9994.000000;0.814758
9993.000000;0.814880
9992.000000;0.814853
9991.000000;0.814876
9990.000000;0.815076
9989.000000;0.815167
9988.000000;0.814837
9987.000000;0.814275
9986.000000;0.813949
9985.000000;0.813980
9984.000000;0.814067
9983.000000;0.814038
9982.000000;0.814081
9981.000000;0.814289
9980.000000;0.814345
9979.000000;0.813968
9978.000000;0.813413
9977.000000;0.813189
9976.000000;0.813400
9975.000000;0.813689
9974.000000;0.813819
9973.000000;0.813951
9972.000000;0.814288
9971.000000;0.814690
9970.000000;0.814793
9969.000000;0.814340
9968.000000;0.813355
9967.000000;0.812176
9966.000000;0.811366
9965.000000;0.811356
9964.000000;0.812025
9963.000000;0.812782
9962.000000;0.813197
9961.000000;0.813394
9960.000000;0.813694
9959.000000;0.814075
9958.000000;0.814190
9957.000000;0.813825
9956.000000;0.813138
9955.000000;0.812511
9954.000000;0.812262
9953.000000;0.812402
9952.000000;0.812583
9951.000000;0.812380
9950.000000;0.811705
9949.000000;0.810828
9948.000000;0.809936
9947.000000;0.808964
9946.000000;0.808013
9945.000000;0.807619
9944.000000;0.808186
9943.000000;0.809269
9942.000000;0.809833
9941.000000;0.809342
9940.000000;0.808335
9939.000000;0.807839
9938.000000;0.808374
9937.000000;0.809557
9936.000000;0.810451
9935.000000;0.810299
9934.000000;0.809127
9933.000000;0.807757
9932.000000;0.807095
9931.000000;0.807360
9930.000000;0.808021
9929.000000;0.808464
9928.000000;0.808549
9927.000000;0.808517
9926.000000;0.808566
9925.000000;0.808673
9924.000000;0.808734
9923.000000;0.808746
9922.000000;0.808806
9921.000000;0.808970
9920.000000;0.809132
9919.000000;0.809128
9918.000000;0.808957
9917.000000;0.808787
9916.000000;0.808669
9915.000000;0.808387
9914.000000;0.807763
9913.000000;0.806991
9912.000000;0.806468
9911.000000;0.806350
9910.000000;0.806479
9909.000000;0.806657
9908.000000;0.806765
9907.000000;0.806649
9906.000000;0.806218
9905.000000;0.805675
9904.000000;0.805377
9903.000000;0.805372
9902.000000;0.805308
9901.000000;0.804942
9900.000000;0.804496
9899.000000;0.804355
9898.000000;0.804576
9897.000000;0.804896
9896.000000;0.805106
9895.000000;0.805245
9894.000000;0.805473
9893.000000;0.805849
9892.000000;0.806207
9891.000000;0.806189
9890.000000;0.805554
9889.000000;0.804547
9888.000000;0.803813
9887.000000;0.803788
9886.000000;0.804281
9885.000000;0.804786
9884.000000;0.805046
9883.000000;0.805109
9882.000000;0.804947
9881.000000;0.804397
9880.000000;0.803549
9879.000000;0.802873
9878.000000;0.802737
9877.000000;0.802976
9876.000000;0.803151
9875.000000;0.803136
9874.000000;0.803209
9873.000000;0.803548
9872.000000;0.803869
9871.000000;0.803698
9870.000000;0.802891
9869.000000;0.801806
9868.000000;0.800984
9867.000000;0.800746
9866.000000;0.801006
9865.000000;0.801408
9864.000000;0.801640
9863.000000;0.801681
9862.000000;0.801745
9861.000000;0.801979
9860.000000;0.802313
9859.000000;0.802617
9858.000000;0.802864
9857.000000;0.803015
9856.000000;0.802898
9855.000000;0.802389
9854.000000;0.801657
9853.000000;0.801011
9852.000000;0.800524
9851.000000;0.800038
9850.000000;0.799527
9849.000000;0.799207
9848.000000;0.799194
9847.000000;0.799309
9846.000000;0.799384
9845.000000;0.799500
9844.000000;0.799732
9843.000000;0.799829
9842.000000;0.799457
9841.000000;0.798700
9840.000000;0.798057
9839.000000;0.797943
9838.000000;0.798344
9837.000000;0.798970
9836.000000;0.799540
9835.000000;0.799892
9834.000000;0.799949
9833.000000;0.799685
9832.000000;0.799121
9831.000000;0.798366
9830.000000;0.797678
9829.000000;0.797342
9828.000000;0.797379
9827.000000;0.797446
9826.000000;0.797208
9825.000000;0.796739
9824.000000;0.796382
9823.000000;0.796272
9822.000000;0.796228
9821.000000;0.796127
9820.000000;0.796087
9819.000000;0.796198
9818.000000;0.796258
9817.000000;0.795994
9816.000000;0.795426
9815.000000;0.794840
9814.000000;0.794457
9813.000000;0.794278
9812.000000;0.794264
9811.000000;0.794462
9810.000000;0.794885
9809.000000;0.795346
9808.000000;0.795556
9807.000000;0.795431
9806.000000;0.795233
9805.000000;0.795347
9804.000000;0.795889
9803.000000;0.796548
9802.000000;0.796837
9801.000000;0.796512
9800.000000;0.795725
9799.000000;0.794845
9798.000000;0.794171
9797.000000;0.793826
9796.000000;0.793796
9795.000000;0.793984
9794.000000;0.794204
9793.000000;0.794218
9792.000000;0.793876
9791.000000;0.793294
9790.000000;0.792871
9789.000000;0.793015
9788.000000;0.793803
9787.000000;0.794877
9786.000000;0.795700
9785.000000;0.795922
9784.000000;0.795564
9783.000000;0.794914
9782.000000;0.794276
9781.000000;0.793784
9780.000000;0.793384
9779.000000;0.792996
9778.000000;0.792665
9777.000000;0.792546
9776.000000;0.792758
9775.000000;0.793270
9774.000000;0.793898
9773.000000;0.794325
9772.000000;0.794215
9771.000000;0.793466
9770.000000;0.792421
9769.000000;0.791695
9768.000000;0.791632
9767.000000;0.791996
9766.000000;0.792265
9765.000000;0.792202
9764.000000;0.792023
9763.000000;0.792034
9762.000000;0.792244
9761.000000;0.792415
9760.000000;0.792379
9759.000000;0.792159
9758.000000;0.791785
9757.000000;0.791154
9756.000000;0.790195
9755.000000;0.789122
9754.000000;0.788391
9753.000000;0.788328
9752.000000;0.788857
9751.000000;0.789604
9750.000000;0.790190
9749.000000;0.790391
9748.000000;0.790172
9747.000000;0.789701
9746.000000;0.789299
9745.000000;0.789224
9744.000000;0.789466
9743.000000;0.789813
9742.000000;0.790091
9741.000000;0.790248
9740.000000;0.790268
9739.000000;0.790151
9738.000000;0.789984
9737.000000;0.789861
9736.000000;0.789713
9735.000000;0.789378
9734.000000;0.788877
9733.000000;0.788467
9732.000000;0.788325
9731.000000;0.788341
9730.000000;0.788285
9729.000000;0.788087
9728.000000;0.787821
9727.000000;0.787551
9726.000000;0.787322
9725.000000;0.787220
9724.000000;0.787291
9723.000000;0.787434
9722.000000;0.787494
9721.000000;0.787454
9720.000000;0.787412
9719.000000;0.787401
9718.000000;0.787316
9717.000000;0.787065
9716.000000;0.786696
9715.000000;0.786356
9714.000000;0.786133
9713.000000;0.785999
9712.000000;0.785903
9711.000000;0.785892
9710.000000;0.786094
9709.000000;0.786544
9708.000000;0.787038
9707.000000;0.787238
9706.000000;0.786979
9705.000000;0.786432
9704.000000;0.785942
9703.000000;0.785713
9702.000000;0.785661
9701.000000;0.785541
9700.000000;0.785244
9699.000000;0.784961
9698.000000;0.784996
9697.000000;0.785382
9696.000000;0.785755
9695.000000;0.785722
9694.000000;0.785303
9693.000000;0.784867
9692.000000;0.784675
9691.000000;0.784637
9690.000000;0.784528
9689.000000;0.784265
9688.000000;0.783927
9687.000000;0.783624
9686.000000;0.783435
9685.000000;0.783365
9684.000000;0.783315
9683.000000;0.783175
9682.000000;0.783007
9681.000000;0.783011
9680.000000;0.783271
9679.000000;0.783626
9678.000000;0.783841
9677.000000;0.783795
9676.000000;0.783450
9675.000000;0.782799
9674.000000;0.781938
9673.000000;0.781134
9672.000000;0.780680
9671.000000;0.780690
9670.000000;0.781059
9669.000000;0.781527
9668.000000;0.781799
9667.000000;0.781707
9666.000000;0.781347
9665.000000;0.781009
9664.000000;0.780916
9663.000000;0.781081
9662.000000;0.781411
9661.000000;0.781812
9660.000000;0.782147
9659.000000;0.782261
9658.000000;0.782128
9657.000000;0.781893
9656.000000;0.781656
9655.000000;0.781354
9654.000000;0.780948
9653.000000;0.780627
9652.000000;0.780662
9651.000000;0.781105
9650.000000;0.781713
9649.000000;0.782157
9648.000000;0.782257
9647.000000;0.782089
9646.000000;0.781940
9645.000000;0.782043
9644.000000;0.782287
9643.000000;0.782284
9642.000000;0.781833
9641.000000;0.781224
9640.000000;0.780918
9639.000000;0.781000
9638.000000;0.781112
9637.000000;0.780920
9636.000000;0.780448
9635.000000;0.779923
9634.000000;0.779447
9633.000000;0.778962
9632.000000;0.778477
9631.000000;0.778182
9630.000000;0.778255
9629.000000;0.778615
9628.000000;0.778973
9627.000000;0.779154
9626.000000;0.779260
9625.000000;0.779428
9624.000000;0.779522
9623.000000;0.779246
9622.000000;0.778545
9621.000000;0.777722
9620.000000;0.777123
9619.000000;0.776824
9618.000000;0.776673
9617.000000;0.776522
9616.000000;0.776335
9615.000000;0.776189
9614.000000;0.776247
9613.000000;0.776609
9612.000000;0.777117
9611.000000;0.777406
9610.000000;0.777284
9609.000000;0.776960
9608.000000;0.776818
9607.000000;0.777013
9606.000000;0.777358
9605.000000;0.777522
9604.000000;0.777280
9603.000000;0.776661
9602.000000;0.775969
9601.000000;0.775589
9600.000000;0.775673
9599.000000;0.776025
9598.000000;0.776347
9597.000000;0.776499
9596.000000;0.776447
9595.000000;0.776127
9594.000000;0.775549
9593.000000;0.774985
9592.000000;0.774825
9591.000000;0.775190
9590.000000;0.775784
9589.000000;0.776164
9588.000000;0.776102
9587.000000;0.775687
9586.000000;0.775162
9585.000000;0.774712
9584.000000;0.774365
9583.000000;0.774061
9582.000000;0.773816
9581.000000;0.773772
9580.000000;0.774061
9579.000000;0.774612
9578.000000;0.775161
9577.000000;0.775455
9576.000000;0.775446
9575.000000;0.775287
9574.000000;0.775140
9573.000000;0.775005
9572.000000;0.774742
9571.000000;0.774290
9570.000000;0.773820
9569.000000;0.773587
9568.000000;0.773664
9567.000000;0.773882
9566.000000;0.774047
9565.000000;0.774086
9564.000000;0.773969
9563.000000;0.773616
9562.000000;0.772994
9561.000000;0.772239
9560.000000;0.771619
9559.000000;0.771371
9558.000000;0.771571
9557.000000;0.772061
9556.000000;0.772479
9555.000000;0.772512
9554.000000;0.772179
9553.000000;0.771813
9552.000000;0.771675
9551.000000;0.771705
9550.000000;0.771722
9549.000000;0.771744
9548.000000;0.771945
9547.000000;0.772324
9546.000000;0.772600
9545.000000;0.772510
9544.000000;0.772098
9543.000000;0.771648
9542.000000;0.771382
9541.000000;0.771284
9540.000000;0.771206
9539.000000;0.771073
9538.000000;0.770934
9537.000000;0.770862
9536.000000;0.770869
9535.000000;0.770930
9534.000000;0.771007
9533.000000;0.771011
9532.000000;0.770801
9531.000000;0.770352
9530.000000;0.769876
9529.000000;0.769671
9528.000000;0.769806
9527.000000;0.770060
9526.000000;0.770171
9525.000000;0.770056
9524.000000;0.769777
9523.000000;0.769424
9522.000000;0.769101
9521.000000;0.768901
9520.000000;0.768808
9519.000000;0.768661
9518.000000;0.768326
9517.000000;0.767884
9516.000000;0.767566
9515.000000;0.767527
9514.000000;0.767693
9513.000000;0.767858
9512.000000;0.767887
9511.000000;0.767825
9510.000000;0.767796
9509.000000;0.767819
9508.000000;0.767793
9507.000000;0.767651
9506.000000;0.767465
9505.000000;0.767316
9504.000000;0.767172
9503.000000;0.767007
9502.000000;0.766945
9501.000000;0.767116
9500.000000;0.767407
9499.000000;0.767534
9498.000000;0.767399
9497.000000;0.767186
9496.000000;0.767070
9495.000000;0.766995
9494.000000;0.766812
9493.000000;0.766495
9492.000000;0.766122
9491.000000;0.765777
9490.000000;0.765562
9489.000000;0.765608
9488.000000;0.765936
9487.000000;0.766352
9486.000000;0.766569
9485.000000;0.766432
9484.000000;0.765996
9483.000000;0.765454
9482.000000;0.765012
9481.000000;0.764762
9480.000000;0.764643
9479.000000;0.764542
9478.000000;0.764444
9477.000000;0.764401
9476.000000;0.764393
9475.000000;0.764357
9474.000000;0.764359
9473.000000;0.764551
9472.000000;0.764904
9471.000000;0.765163
9470.000000;0.765164
9469.000000;0.765067
9468.000000;0.765119
9467.000000;0.765317
9466.000000;0.765431
9465.000000;0.765315
9464.000000;0.765022
9463.000000;0.764704
9462.000000;0.764503
9461.000000;0.764506
9460.000000;0.764658
9459.000000;0.764742
9458.000000;0.764558
9457.000000;0.764126
9456.000000;0.763643
9455.000000;0.763272
9454.000000;0.763051
9453.000000;0.762951
9452.000000;0.762899
9451.000000;0.762749
9450.000000;0.762370
9449.000000;0.761803
9448.000000;0.761288
9447.000000;0.761087
9446.000000;0.761296
9445.000000;0.761797
9444.000000;0.762333
9443.000000;0.762660
9442.000000;0.762693
9441.000000;0.762534
9440.000000;0.762316
9439.000000;0.762050
9438.000000;0.761689
9437.000000;0.761323
9436.000000;0.761193
9435.000000;0.761441
9434.000000;0.761890
9433.000000;0.762182
9432.000000;0.762124
9431.000000;0.761847
9430.000000;0.761576
9429.000000;0.761365
9428.000000;0.761138
9427.000000;0.760920
9426.000000;0.760856
9425.000000;0.760960
9424.000000;0.760986
9423.000000;0.760688
9422.000000;0.760136
9421.000000;0.759648
9420.000000;0.759469
9419.000000;0.759598
9418.000000;0.759889
9417.000000;0.760182
9416.000000;0.760326
9415.000000;0.760217
9414.000000;0.759886
9413.000000;0.759502
9412.000000;0.759219
9411.000000;0.759042
9410.000000;0.758858
9409.000000;0.758588
9408.000000;0.758324
9407.000000;0.758292
9406.000000;0.758607
9405.000000;0.759062
9404.000000;0.759255
9403.000000;0.758988
9402.000000;0.758423
9401.000000;0.757794
9400.000000;0.757158
9399.000000;0.756574
9398.000000;0.756316
9397.000000;0.756627
9396.000000;0.757303
9395.000000;0.757812
9394.000000;0.757865
9393.000000;0.757661
9392.000000;0.757529
9391.000000;0.757543
9390.000000;0.757575
9389.000000;0.757532
9388.000000;0.757422
9387.000000;0.757307
9386.000000;0.757240
9385.000000;0.757175
9384.000000;0.756935
9383.000000;0.756426
9382.000000;0.755876
9381.000000;0.755684
9380.000000;0.755961
9379.000000;0.756383
9378.000000;0.756574
9377.000000;0.756460
9376.000000;0.756164
9375.000000;0.755766
9374.000000;0.755332
9373.000000;0.755032
9372.000000;0.755025
9371.000000;0.755257
9370.000000;0.755532
9369.000000;0.755740
9368.000000;0.755904
9367.000000;0.756022
9366.000000;0.755999
9365.000000;0.755749
9364.000000;0.755307
9363.000000;0.754808
9362.000000;0.754375
9361.000000;0.754039
9360.000000;0.753774
9359.000000;0.753586
9358.000000;0.753541
9357.000000;0.753660
9356.000000;0.753852
9355.000000;0.754009
9354.000000;0.754111
9353.000000;0.754170
9352.000000;0.754150
9351.000000;0.754043
9350.000000;0.753929
9349.000000;0.753821
9348.000000;0.753550
9347.000000;0.753015
9346.000000;0.752486
9345.000000;0.752386
9344.000000;0.752744
9343.000000;0.753127
9342.000000;0.753184
9341.000000;0.753003
9340.000000;0.752836
9339.000000;0.752727
9338.000000;0.752593
9337.000000;0.752465
9336.000000;0.752436
9335.000000;0.752468
9334.000000;0.752451
9333.000000;0.752378
9332.000000;0.752312
9331.000000;0.752247
9330.000000;0.752129
9329.000000;0.751976
9328.000000;0.751846
9327.000000;0.751769
9326.000000;0.751771
9325.000000;0.751918
9324.000000;0.752202
9323.000000;0.752449
9322.000000;0.752475
9321.000000;0.752304
9320.000000;0.752123
9319.000000;0.752041
9318.000000;0.751988
9317.000000;0.751839
9316.000000;0.751554
9315.000000;0.751174
9314.000000;0.750772
9313.000000;0.750419
9312.000000;0.750194
9311.000000;0.750184
9310.000000;0.750422
9309.000000;0.750769
9308.000000;0.750927
9307.000000;0.750688
9306.000000;0.750146
9305.000000;0.749580
9304.000000;0.749146
9303.000000;0.748801
9302.000000;0.748493
9301.000000;0.748263
9300.000000;0.748115
9299.000000;0.747967
9298.000000;0.747777
9297.000000;0.747599
9296.000000;0.747461
9295.000000;0.747333
9294.000000;0.747261
9293.000000;0.747355
9292.000000;0.747588
9291.000000;0.747756
9290.000000;0.747756
9289.000000;0.747740
9288.000000;0.747867
9287.000000;0.748053
9286.000000;0.748098
9285.000000;0.747953
9284.000000;0.747728
9283.000000;0.747539
9282.000000;0.747470
9281.000000;0.747590
9280.000000;0.747853
9279.000000;0.748047
9278.000000;0.747987
9277.000000;0.747712
9276.000000;0.747394
9275.000000;0.747122
9274.000000;0.746898
9273.000000;0.746740
9272.000000;0.746654
9271.000000;0.746564
9270.000000;0.746407
9269.000000;0.746267
9268.000000;0.746263
9267.000000;0.746350
9266.000000;0.746341
9265.000000;0.746111
9264.000000;0.745690
9263.000000;0.745182
9262.000000;0.744719
9261.000000;0.744465
9260.000000;0.744518
9259.000000;0.744786
9258.000000;0.745061
9257.000000;0.745230
9256.000000;0.745343
9255.000000;0.745460
9254.000000;0.745521
9253.000000;0.745391
9252.000000;0.745024
9251.000000;0.744559
9250.000000;0.744244
9249.000000;0.744205
9248.000000;0.744288
9247.000000;0.744211
9246.000000;0.743912
9245.000000;0.743639
9244.000000;0.743649
9243.000000;0.743895
9242.000000;0.744134
9241.000000;0.744242
9240.000000;0.744288
9239.000000;0.744345
9238.000000;0.744365
9237.000000;0.744279
9236.000000;0.744087
9235.000000;0.743840
9234.000000;0.743577
9233.000000;0.743346
9232.000000;0.743216
9231.000000;0.743248
9230.000000;0.743427
9229.000000;0.743628
9228.000000;0.743668
9227.000000;0.743443
9226.000000;0.743037
9225.000000;0.742659
9224.000000;0.742451
9223.000000;0.742372
9222.000000;0.742302
9221.000000;0.742173
9220.000000;0.742022
9219.000000;0.741955
9218.000000;0.742091
9217.000000;0.742426
9216.000000;0.742735
9215.000000;0.742703
9214.000000;0.742268
9213.000000;0.741723
9212.000000;0.741407
9211.000000;0.741338
9210.000000;0.741253
9209.000000;0.740962
9208.000000;0.740550
9207.000000;0.740255
9206.000000;0.740241
9205.000000;0.740485
9204.000000;0.740812
9203.000000;0.741005
9202.000000;0.740940
9201.000000;0.740665
9200.000000;0.740353
9199.000000;0.740176
9198.000000;0.740206
9197.000000;0.740373
9196.000000;0.740522
9195.000000;0.740522
9194.000000;0.740358
9193.000000;0.740088
9192.000000;0.739767
9191.000000;0.739451
9190.000000;0.739264
9189.000000;0.739330
9188.000000;0.739619
9187.000000;0.739932
9186.000000;0.740111
9185.000000;0.740168
9184.000000;0.740173
9183.000000;0.740092
9182.000000;0.739839
9181.000000;0.739446
9180.000000;0.739082
9179.000000;0.738880
9178.000000;0.738801
9177.000000;0.738706
9176.000000;0.738553
9175.000000;0.738477
9174.000000;0.738646
9173.000000;0.739010
9172.000000;0.739273
9171.000000;0.739151
9170.000000;0.738629
9169.000000;0.737921
9168.000000;0.737266
9167.000000;0.736855
9166.000000;0.736822
9165.000000;0.737120
9164.000000;0.737444
9163.000000;0.737490
9162.000000;0.737307
9161.000000;0.737228
9160.000000;0.737400
9159.000000;0.737594
9158.000000;0.737535
9157.000000;0.737231
9156.000000;0.736863
9155.000000;0.736536
9154.000000;0.736309
9153.000000;0.736302
9152.000000;0.736567
9151.000000;0.736920
9150.000000;0.737090
9149.000000;0.737011
9148.000000;0.736804
9147.000000;0.736524
9146.000000;0.736121
9145.000000;0.735667
9144.000000;0.735407
9143.000000;0.735507
9142.000000;0.735835
9141.000000;0.736088
9140.000000;0.736077
9139.000000;0.735848
9138.000000;0.735566
9137.000000;0.735363
9136.000000;0.735259
9135.000000;0.735202
9134.000000;0.735147
9133.000000;0.735112
9132.000000;0.735155
9131.000000;0.735308
9130.000000;0.735513
9129.000000;0.735626
9128.000000;0.735509
9127.000000;0.735165
9126.000000;0.734767
9125.000000;0.734499
9124.000000;0.734377
9123.000000;0.734271
9122.000000;0.734090
9121.000000;0.733878
9120.000000;0.733717
9119.000000;0.733622
9118.000000;0.733552
9117.000000;0.733495
9116.000000;0.733476
9115.000000;0.733519
9114.000000;0.733621
9113.000000;0.733744
9112.000000;0.733827
9111.000000;0.733815
9110.000000;0.733691
9109.000000;0.733481
9108.000000;0.733257
9107.000000;0.733149
9106.000000;0.733240
9105.000000;0.733412
9104.000000;0.733376
9103.000000;0.732986
9102.000000;0.732454
9101.000000;0.732128
9100.000000;0.732101
9099.000000;0.732189
9098.000000;0.732226
9097.000000;0.732203
9096.000000;0.732117
9095.000000;0.731911
9094.000000;0.731630
9093.000000;0.731441
9092.000000;0.731397
9091.000000;0.731344
9090.000000;0.731169
9089.000000;0.731001
9088.000000;0.731026
9087.000000;0.731222
9086.000000;0.731412
9085.000000;0.731487
9084.000000;0.731437
9083.000000;0.731230
9082.000000;0.730842
9081.000000;0.730389
9080.000000;0.730086
9079.000000;0.730047
9078.000000;0.730183
9077.000000;0.730309
9076.000000;0.730305
9075.000000;0.730195
9074.000000;0.730112
9073.000000;0.730149
9072.000000;0.730233
9071.000000;0.730171
9070.000000;0.729881
9069.000000;0.729525
9068.000000;0.729351
9067.000000;0.729448
9066.000000;0.729688
9065.000000;0.729881
9064.000000;0.729920
9063.000000;0.729811
9062.000000;0.729643
9061.000000;0.729508
9060.000000;0.729427
9059.000000;0.729357
9058.000000;0.729270
9057.000000;0.729193
9056.000000;0.729126
9055.000000;0.729007
9054.000000;0.728795
9053.000000;0.728573
9052.000000;0.728491
9051.000000;0.728608
9050.000000;0.728811
9049.000000;0.728875
9048.000000;0.728639
9047.000000;0.728168
9046.000000;0.727727
9045.000000;0.727548
9044.000000;0.727631
9043.000000;0.727822
9042.000000;0.728038
9041.000000;0.728263
9040.000000;0.728384
9039.000000;0.728199
9038.000000;0.727699
9037.000000;0.727171
9036.000000;0.726916
9035.000000;0.726942
9034.000000;0.727038
9033.000000;0.727051
9032.000000;0.726989
9031.000000;0.726922
9030.000000;0.726888
9029.000000;0.726888
9028.000000;0.726893
9027.000000;0.726863
9026.000000;0.726805
9025.000000;0.726763
9024.000000;0.726711
9023.000000;0.726541
9022.000000;0.726209
9021.000000;0.725841
9020.000000;0.725599
9019.000000;0.725513
9018.000000;0.725499
9017.000000;0.725479
9016.000000;0.725398
9015.000000;0.725202
9014.000000;0.724924
9013.000000;0.724717
9012.000000;0.724712
9011.000000;0.724843
9010.000000;0.724928
9009.000000;0.724882
9008.000000;0.724761
9007.000000;0.724625
9006.000000;0.724470
9005.000000;0.724304
9004.000000;0.724161
9003.000000;0.724027
9002.000000;0.723866
9001.000000;0.723740
9000.000000;0.723818
8999.000000;0.724176
8998.000000;0.724644
8997.000000;0.724895
8996.000000;0.724722
8995.000000;0.724209
8994.000000;0.723679
8993.000000;0.723453
8992.000000;0.723594
8991.000000;0.723859
8990.000000;0.723930
8989.000000;0.723722
8988.000000;0.723427
8987.000000;0.723287
8986.000000;0.723369
8985.000000;0.723566
8984.000000;0.723735
8983.000000;0.723760
8982.000000;0.723566
8981.000000;0.723151
8980.000000;0.722649
8979.000000;0.722279
8978.000000;0.722195
8977.000000;0.722364
8976.000000;0.722613
8975.000000;0.722754
8974.000000;0.722677
8973.000000;0.722386
8972.000000;0.721992
8971.000000;0.721675
8970.000000;0.721565
8969.000000;0.721637
8968.000000;0.721729
8967.000000;0.721683
8966.000000;0.721466
8965.000000;0.721161
8964.000000;0.720900
8963.000000;0.720824
8962.000000;0.721018
8961.000000;0.721420
8960.000000;0.721808
8959.000000;0.721935
8958.000000;0.721726
8957.000000;0.721342
8956.000000;0.721048
8955.000000;0.720997
8954.000000;0.721108
8953.000000;0.721150
8952.000000;0.720979
8951.000000;0.720687
8950.000000;0.720481
8949.000000;0.720412
8948.000000;0.720328
8947.000000;0.720099
8946.000000;0.719787
8945.000000;0.719539
8944.000000;0.719405
8943.000000;0.719335
8942.000000;0.719286
8941.000000;0.719229
8940.000000;0.719132
8939.000000;0.719016
8938.000000;0.718981
8937.000000;0.719059
8936.000000;0.719115
8935.000000;0.719016
8934.000000;0.718859
8933.000000;0.718861
8932.000000;0.719041
8931.000000;0.719183
8930.000000;0.719132
8929.000000;0.718968
8928.000000;0.718835
8927.000000;0.718729
8926.000000;0.718559
8925.000000;0.718314
8924.000000;0.718076
8923.000000;0.717938
8922.000000;0.717967
8921.000000;0.718199
8920.000000;0.718587
8919.000000;0.718978
8918.000000;0.719205
8917.000000;0.719193
8916.000000;0.718970
8915.000000;0.718611
8914.000000;0.718217
8913.000000;0.717885
8912.000000;0.717644
8911.000000;0.717432
8910.000000;0.717171
8909.000000;0.716855
8908.000000;0.716545
8907.000000;0.716311
8906.000000;0.716205
8905.000000;0.716259
8904.000000;0.716456
8903.000000;0.716704
8902.000000;0.716865
8901.000000;0.716854
8900.000000;0.716707
8899.000000;0.716537
8898.000000;0.716408
8897.000000;0.716273
8896.000000;0.716077
8895.000000;0.715880
8894.000000;0.715811
8893.000000;0.715879
8892.000000;0.715928
8891.000000;0.715824
8890.000000;0.715623
8889.000000;0.715494
8888.000000;0.715535
8887.000000;0.715716
8886.000000;0.715949
8885.000000;0.716143
8884.000000;0.716214
8883.000000;0.716121
8882.000000;0.715866
8881.000000;0.715463
8880.000000;0.714953
8879.000000;0.714485
8878.000000;0.714260
8877.000000;0.714317
8876.000000;0.714463
8875.000000;0.714498
8874.000000;0.714439
8873.000000;0.714405
8872.000000;0.714385
8871.000000;0.714272
8870.000000;0.714078
8869.000000;0.713942
8868.000000;0.713938
8867.000000;0.714017
8866.000000;0.714111
8865.000000;0.714184
8864.000000;0.714171
8863.000000;0.714014
8862.000000;0.713783
8861.000000;0.713619
8860.000000;0.713558
8859.000000;0.713519
8858.000000;0.713458
8857.000000;0.713413
8856.000000;0.713359
8855.000000;0.713182
8854.000000;0.712830
8853.000000;0.712429
8852.000000;0.712172
8851.000000;0.712178
8850.000000;0.712456
8849.000000;0.712900
8848.000000;0.713300
8847.000000;0.713435
8846.000000;0.713236
8845.000000;0.712824
8844.000000;0.712397
8843.000000;0.712126
8842.000000;0.712110
8841.000000;0.712296
8840.000000;0.712469
8839.000000;0.712450
8838.000000;0.712306
8837.000000;0.712253
8836.000000;0.712356
8835.000000;0.712452
8834.000000;0.712403
8833.000000;0.712268
8832.000000;0.712165
8831.000000;0.712092
8830.000000;0.711987
8829.000000;0.711853
8828.000000;0.711727
8827.000000;0.711601
8826.000000;0.711468
8825.000000;0.711378
8824.000000;0.711378
8823.000000;0.711433
8822.000000;0.711464
8821.000000;0.711440
8820.000000;0.711384
8819.000000;0.711317
8818.000000;0.711245
8817.000000;0.711167
8816.000000;0.711062
8815.000000;0.710899
8814.000000;0.710688
8813.000000;0.710510
8812.000000;0.710447
8811.000000;0.710498
8810.000000;0.710549
8809.000000;0.710441
8808.000000;0.710106
8807.000000;0.709677
8806.000000;0.709417
8805.000000;0.709470
8804.000000;0.709696
8803.000000;0.709822
8802.000000;0.709718
8801.000000;0.709487
8800.000000;0.709304
8799.000000;0.709269
8798.000000;0.709399
8797.000000;0.709632
8796.000000;0.709845
8795.000000;0.709940
8794.000000;0.709933
8793.000000;0.709883
8792.000000;0.709774
8791.000000;0.709570
8790.000000;0.709373
8789.000000;0.709369
8788.000000;0.709583
8787.000000;0.709796
8786.000000;0.709773
8785.000000;0.709521
8784.000000;0.709261
8783.000000;0.709218
8782.000000;0.709434
8781.000000;0.709714
8780.000000;0.709739
8779.000000;0.709329
8778.000000;0.708651
8777.000000;0.708102
8776.000000;0.707962
8775.000000;0.708185
8774.000000;0.708517
8773.000000;0.708746
8772.000000;0.708814
8771.000000;0.708766
8770.000000;0.708656
8769.000000;0.708488
8768.000000;0.708235
8767.000000;0.707904
8766.000000;0.707552
8765.000000;0.707240
8764.000000;0.707006
8763.000000;0.706934
8762.000000;0.707125
8761.000000;0.707517
8760.000000;0.707830
8759.000000;0.707824
8758.000000;0.707578
8757.000000;0.707372
8756.000000;0.707340
8755.000000;0.707390
8754.000000;0.707427
8753.000000;0.707479
8752.000000;0.707557
8751.000000;0.707575
8750.000000;0.707463
8749.000000;0.707258
8748.000000;0.707045
8747.000000;0.706907
8746.000000;0.706937
8745.000000;0.707171
8744.000000;0.707481
8743.000000;0.707636
8742.000000;0.707520
8741.000000;0.707216
8740.000000;0.706851
8739.000000;0.706493
8738.000000;0.706196
8737.000000;0.706025
8736.000000;0.705991
8735.000000;0.706042
8734.000000;0.706149
8733.000000;0.706312
8732.000000;0.706467
8731.000000;0.706511
8730.000000;0.706433
8729.000000;0.706320
8728.000000;0.706207
8727.000000;0.706056
8726.000000;0.705903
8725.000000;0.705873
8724.000000;0.705989
8723.000000;0.706107
8722.000000;0.706100
8721.000000;0.706010
8720.000000;0.705948
8719.000000;0.705933
8718.000000;0.705918
8717.000000;0.705862
8716.000000;0.705732
8715.000000;0.705512
8714.000000;0.705277
8713.000000;0.705167
8712.000000;0.705217
8711.000000;0.705288
8710.000000;0.705240
8709.000000;0.705092
8708.000000;0.704962
8707.000000;0.704923
8706.000000;0.704960
8705.000000;0.705007
8704.000000;0.704974
8703.000000;0.704811
8702.000000;0.704578
8701.000000;0.704416
8700.000000;0.704407
8699.000000;0.704521
8698.000000;0.704704
8697.000000;0.704905
8696.000000;0.705026
8695.000000;0.704962
8694.000000;0.704750
8693.000000;0.704569
8692.000000;0.704526
8691.000000;0.704538
8690.000000;0.704480
8689.000000;0.704359
8688.000000;0.704259
8687.000000;0.704200
8686.000000;0.704140
8685.000000;0.704070
8684.000000;0.704035
8683.000000;0.704064
8682.000000;0.704125
8681.000000;0.704136
8680.000000;0.704021
8679.000000;0.703803
8678.000000;0.703620
8677.000000;0.703584
8676.000000;0.703612
8675.000000;0.703525
8674.000000;0.703291
8673.000000;0.703068
8672.000000;0.702972
8671.000000;0.702943
8670.000000;0.702905
8669.000000;0.702910
8668.000000;0.703001
8667.000000;0.703054
8666.000000;0.702893
8665.000000;0.702534
8664.000000;0.702197
8663.000000;0.702055
8662.000000;0.702071
8661.000000;0.702078
8660.000000;0.701976
8659.000000;0.701825
8658.000000;0.701736
8657.000000;0.701710
8656.000000;0.701621
8655.000000;0.701392
8654.000000;0.701135
8653.000000;0.701019
8652.000000;0.701053
8651.000000;0.701084
8650.000000;0.701003
8649.000000;0.700853
8648.000000;0.700727
8647.000000;0.700670
8646.000000;0.700698
8645.000000;0.700800
8644.000000;0.700888
8643.000000;0.700834
8642.000000;0.700627
8641.000000;0.700401
8640.000000;0.700285
8639.000000;0.700264
8638.000000;0.700243
8637.000000;0.700151
8636.000000;0.699970
8635.000000;0.699725
8634.000000;0.699492
8633.000000;0.699361
8632.000000;0.699353
8631.000000;0.699408
8630.000000;0.699458
8629.000000;0.699461
8628.000000;0.699370
8627.000000;0.699149
8626.000000;0.698842
8625.000000;0.698555
8624.000000;0.698349
8623.000000;0.698217
8622.000000;0.698154
8621.000000;0.698159
8620.000000;0.698163
8619.000000;0.698062
8618.000000;0.697832
8617.000000;0.697549
8616.000000;0.697275
8615.000000;0.697009
8614.000000;0.696761
8613.000000;0.696585
8612.000000;0.696512
8611.000000;0.696531
8610.000000;0.696617
8609.000000;0.696711
8608.000000;0.696691
8607.000000;0.696482
8606.000000;0.696184
8605.000000;0.695957
8604.000000;0.695809
8603.000000;0.695619
8602.000000;0.695385
8601.000000;0.695259
8600.000000;0.695302
8599.000000;0.695354
8598.000000;0.695230
8597.000000;0.694941
8596.000000;0.694619
8595.000000;0.694358
8594.000000;0.694184
8593.000000;0.694096
8592.000000;0.694060
8591.000000;0.694026
8590.000000;0.694007
8589.000000;0.694045
8588.000000;0.694081
8587.000000;0.693983
8586.000000;0.693744
8585.000000;0.693550
8584.000000;0.693547
8583.000000;0.693663
8582.000000;0.693718
8581.000000;0.693615
8580.000000;0.693350
8579.000000;0.692956
8578.000000;0.692540
8577.000000;0.692294
8576.000000;0.692323
8575.000000;0.692513
8574.000000;0.692644
8573.000000;0.692597
8572.000000;0.692392
8571.000000;0.692075
8570.000000;0.691690
8569.000000;0.691318
8568.000000;0.691054
8567.000000;0.690940
8566.000000;0.690946
8565.000000;0.691008
8564.000000;0.691050
8563.000000;0.691004
8562.000000;0.690855
8561.000000;0.690642
8560.000000;0.690413
8559.000000;0.690214
8558.000000;0.690124
8557.000000;0.690192
8556.000000;0.690335
8555.000000;0.690368
8554.000000;0.690206
8553.000000;0.689949
8552.000000;0.689746
8551.000000;0.689645
8550.000000;0.689608
8549.000000;0.689579
8548.000000;0.689479
8547.000000;0.689229
8546.000000;0.688852
8545.000000;0.688493
8544.000000;0.688278
8543.000000;0.688193
8542.000000;0.688161
8541.000000;0.688155
8540.000000;0.688168
8539.000000;0.688140
8538.000000;0.688004
8537.000000;0.687784
8536.000000;0.687572
8535.000000;0.687418
8534.000000;0.687292
8533.000000;0.687129
8532.000000;0.686905
8531.000000;0.686669
8530.000000;0.686525
8529.000000;0.686534
8528.000000;0.686626
8527.000000;0.686654
8526.000000;0.686544
8525.000000;0.686337
8524.000000;0.686081
8523.000000;0.685784
8522.000000;0.685491
8521.000000;0.685313
8520.000000;0.685303
8519.000000;0.685366
8518.000000;0.685356
8517.000000;0.685228
8516.000000;0.685058
8515.000000;0.684942
8514.000000;0.684911
8513.000000;0.684913
8512.000000;0.684854
8511.000000;0.684691
8510.000000;0.684504
8509.000000;0.684417
8508.000000;0.684444
8507.000000;0.684471
8506.000000;0.684397
8505.000000;0.684235
8504.000000;0.684053
8503.000000;0.683904
8502.000000;0.683820
8501.000000;0.683797
8500.000000;0.683748
8499.000000;0.683567
8498.000000;0.683278
8497.000000;0.683044
8496.000000;0.682971
8495.000000;0.682971
8494.000000;0.682889
8493.000000;0.682701
8492.000000;0.682507
8491.000000;0.682385
8490.000000;0.682320
8489.000000;0.682276
8488.000000;0.682249
8487.000000;0.682253
8486.000000;0.682267
8485.000000;0.682227
8484.000000;0.682082
8483.000000;0.681856
8482.000000;0.681644
8481.000000;0.681497
8480.000000;0.681366
8479.000000;0.681190
8478.000000;0.680999
8477.000000;0.680856
8476.000000;0.680725
8475.000000;0.680514
8474.000000;0.680240
8473.000000;0.680021
8472.000000;0.679919
8471.000000;0.679878
8470.000000;0.679837
8469.000000;0.679797
8468.000000;0.679738
8467.000000;0.679604
8466.000000;0.679419
8465.000000;0.679296
8464.000000;0.679266
8463.000000;0.679190
8462.000000;0.678928
8461.000000;0.678523
8460.000000;0.678134
8459.000000;0.677875
8458.000000;0.677776
8457.000000;0.677829
8456.000000;0.677974
8455.000000;0.678088
8454.000000;0.678072
8453.000000;0.677955
8452.000000;0.677837
8451.000000;0.677764
8450.000000;0.677700
8449.000000;0.677593
8448.000000;0.677428
8447.000000;0.677218
8446.000000;0.677010
8445.000000;0.676860
8444.000000;0.676782
8443.000000;0.676722
8442.000000;0.676597
8441.000000;0.676373
8440.000000;0.676101
8439.000000;0.675891
8438.000000;0.675847
8437.000000;0.675960
8436.000000;0.676093
8435.000000;0.676105
8434.000000;0.675987
8433.000000;0.675832
8432.000000;0.675691
8431.000000;0.675539
8430.000000;0.675370
8429.000000;0.675225
8428.000000;0.675118
8427.000000;0.675017
8426.000000;0.674914
8425.000000;0.674847
8424.000000;0.674812
8423.000000;0.674750
8422.000000;0.674628
8421.000000;0.674481
8420.000000;0.674346
8419.000000;0.674226
8418.000000;0.674128
8417.000000;0.674065
8416.000000;0.673988
8415.000000;0.673812
8414.000000;0.673539
8413.000000;0.673284
8412.000000;0.673137
8411.000000;0.673069
8410.000000;0.672989
8409.000000;0.672835
8408.000000;0.672594
8407.000000;0.672322
8406.000000;0.672167
8405.000000;0.672268
8404.000000;0.672567
8403.000000;0.672808
8402.000000;0.672787
8401.000000;0.672544
8400.000000;0.672258
8399.000000;0.672013
8398.000000;0.671760
8397.000000;0.671448
8396.000000;0.671138
8395.000000;0.670973
8394.000000;0.671049
8393.000000;0.671293
8392.000000;0.671494
8391.000000;0.671492
8390.000000;0.671336
8389.000000;0.671171
8388.000000;0.671010
8387.000000;0.670745
8386.000000;0.670374
8385.000000;0.670069
8384.000000;0.669949
8383.000000;0.669913
8382.000000;0.669801
8381.000000;0.669613
8380.000000;0.669473
8379.000000;0.669436
8378.000000;0.669439
8377.000000;0.669395
8376.000000;0.669269
8375.000000;0.669071
8374.000000;0.668859
8373.000000;0.668717
8372.000000;0.668700
8371.000000;0.668803
8370.000000;0.668985
8369.000000;0.669174
8368.000000;0.669245
8367.000000;0.669077
8366.000000;0.668708
8365.000000;0.668348
8364.000000;0.668193
8363.000000;0.668243
8362.000000;0.668347
8361.000000;0.668366
8360.000000;0.668263
8359.000000;0.668086
8358.000000;0.667929
8357.000000;0.667850
8356.000000;0.667793
8355.000000;0.667617
8354.000000;0.667265
8353.000000;0.666861
8352.000000;0.666599
8351.000000;0.666577
8350.000000;0.666753
8349.000000;0.667003
8348.000000;0.667173
8347.000000;0.667141
8346.000000;0.666902
8345.000000;0.666577
8344.000000;0.666308
8343.000000;0.666153
8342.000000;0.666097
8341.000000;0.666097
8340.000000;0.666095
8339.000000;0.666050
8338.000000;0.665978
8337.000000;0.665932
8336.000000;0.665907
8335.000000;0.665822
8334.000000;0.665625
8333.000000;0.665376
8332.000000;0.665179
8331.000000;0.665082
8330.000000;0.665046
8329.000000;0.665001
8328.000000;0.664891
8327.000000;0.664720
8326.000000;0.664545
8325.000000;0.664411
8324.000000;0.664275
8323.000000;0.664082
8322.000000;0.663886
8321.000000;0.663802
8320.000000;0.663824
8319.000000;0.663801
8318.000000;0.663645
8317.000000;0.663454
8316.000000;0.663368
8315.000000;0.663379
8314.000000;0.663372
8313.000000;0.663287
8312.000000;0.663155
8311.000000;0.663031
8310.000000;0.662949
8309.000000;0.662914
8308.000000;0.662886
8307.000000;0.662801
8306.000000;0.662658
8305.000000;0.662522
8304.000000;0.662409
8303.000000;0.662240
8302.000000;0.661968
8301.000000;0.661686
8300.000000;0.661526
8299.000000;0.661508
8298.000000;0.661559
8297.000000;0.661621
8296.000000;0.661672
8295.000000;0.661672
8294.000000;0.661600
8293.000000;0.661503
8292.000000;0.661441
8291.000000;0.661377
8290.000000;0.661217
8289.000000;0.660939
8288.000000;0.660633
8287.000000;0.660398
8286.000000;0.660252
8285.000000;0.660150
8284.000000;0.660043
8283.000000;0.659920
8282.000000;0.659818
8281.000000;0.659799
8280.000000;0.659873
8279.000000;0.659959
8278.000000;0.659934
8277.000000;0.659735
8276.000000;0.659403
8275.000000;0.659054
8274.000000;0.658823
8273.000000;0.658789
8272.000000;0.658923
8271.000000;0.659095
8270.000000;0.659176
8269.000000;0.659113
8268.000000;0.658929
8267.000000;0.658686
8266.000000;0.658474
8265.000000;0.658363
8264.000000;0.658338
8263.000000;0.658297
8262.000000;0.658160
8261.000000;0.657946
8260.000000;0.657717
8259.000000;0.657493
8258.000000;0.657262
8257.000000;0.657046
8256.000000;0.656886
8255.000000;0.656797
8254.000000;0.656768
8253.000000;0.656806
8252.000000;0.656928
8251.000000;0.657101
8250.000000;0.657223
8249.000000;0.657202
8248.000000;0.657041
8247.000000;0.656841
8246.000000;0.656704
8245.000000;0.656633
8244.000000;0.656546
8243.000000;0.656386
8242.000000;0.656200
8241.000000;0.656078
8240.000000;0.656034
8239.000000;0.656008
8238.000000;0.655952
8237.000000;0.655860
8236.000000;0.655715
8235.000000;0.655504
8234.000000;0.655292
8233.000000;0.655196
8232.000000;0.655230
8231.000000;0.655249
8230.000000;0.655114
8229.000000;0.654867
8228.000000;0.654672
8227.000000;0.654617
8226.000000;0.654638
8225.000000;0.654620
8224.000000;0.654502
8223.000000;0.654295
8222.000000;0.654060
8221.000000;0.653886
8220.000000;0.653846
8219.000000;0.653925
8218.000000;0.654028
8217.000000;0.654072
8216.000000;0.654066
8215.000000;0.654085
8214.000000;0.654159
8213.000000;0.654209
8212.000000;0.654121
8211.000000;0.653879
8210.000000;0.653584
8209.000000;0.653336
8208.000000;0.653118
8207.000000;0.652858
8206.000000;0.652579
8205.000000;0.652413
8204.000000;0.652454
8203.000000;0.652624
8202.000000;0.652743
8201.000000;0.652694
8200.000000;0.652508
8199.000000;0.652300
8198.000000;0.652157
8197.000000;0.652085
8196.000000;0.652035
8195.000000;0.651976
8194.000000;0.651921
8193.000000;0.651886
8192.000000;0.651837
8191.000000;0.651714
8190.000000;0.651502
8189.000000;0.651258
8188.000000;0.651059
8187.000000;0.650939
8186.000000;0.650873
8185.000000;0.650803
8184.000000;0.650684
8183.000000;0.650526
8182.000000;0.650388
8181.000000;0.650333
8180.000000;0.650374
8179.000000;0.650464
8178.000000;0.650525
8177.000000;0.650486
8176.000000;0.650315
8175.000000;0.650060
8174.000000;0.649829
8173.000000;0.649713
8172.000000;0.649722
8171.000000;0.649805
8170.000000;0.649906
8169.000000;0.649977
8168.000000;0.649971
8167.000000;0.649865
8166.000000;0.649674
8165.000000;0.649425
8164.000000;0.649135
8163.000000;0.648836
8162.000000;0.648595
8161.000000;0.648452
8160.000000;0.648386
8159.000000;0.648360
8158.000000;0.648365
8157.000000;0.648380
8156.000000;0.648326
8155.000000;0.648148
8154.000000;0.647904
8153.000000;0.647711
8152.000000;0.647617
8151.000000;0.647597
8150.000000;0.647638
8149.000000;0.647744
8148.000000;0.647863
8147.000000;0.647890
8146.000000;0.647785
8145.000000;0.647616
8144.000000;0.647482
8143.000000;0.647426
8142.000000;0.647435
8141.000000;0.647465
8140.000000;0.647457
8139.000000;0.647367
8138.000000;0.647194
8137.000000;0.646961
8136.000000;0.646689
8135.000000;0.646427
8134.000000;0.646259
8133.000000;0.646233
8132.000000;0.646284
8131.000000;0.646316
8130.000000;0.646331
8129.000000;0.646392
8128.000000;0.646480
8127.000000;0.646485
8126.000000;0.646351
8125.000000;0.646148
8124.000000;0.645958
8123.000000;0.645779
8122.000000;0.645584
8121.000000;0.645381
8120.000000;0.645199
8119.000000;0.645042
8118.000000;0.644923
8117.000000;0.644872
8116.000000;0.644883
8115.000000;0.644892
8114.000000;0.644844
8113.000000;0.644757
8112.000000;0.644675
8111.000000;0.644600
8110.000000;0.644496
8109.000000;0.644360
8108.000000;0.644233
8107.000000;0.644156
8106.000000;0.644117
8105.000000;0.644054
8104.000000;0.643919
8103.000000;0.643745
8102.000000;0.643627
8101.000000;0.643607
8100.000000;0.643620
8099.000000;0.643594
8098.000000;0.643541
8097.000000;0.643518
8096.000000;0.643519
8095.000000;0.643493
8094.000000;0.643435
8093.000000;0.643366
8092.000000;0.643247
8091.000000;0.643024
8090.000000;0.642763
8089.000000;0.642625
8088.000000;0.642673
8087.000000;0.642774
8086.000000;0.642758
8085.000000;0.642582
8084.000000;0.642323
8083.000000;0.642073
8082.000000;0.641900
8081.000000;0.641860
8080.000000;0.641951
8079.000000;0.642086
8078.000000;0.642152
8077.000000;0.642092
8076.000000;0.641921
8075.000000;0.641691
8074.000000;0.641478
8073.000000;0.641345
8072.000000;0.641300
8071.000000;0.641287
8070.000000;0.641248
8069.000000;0.641167
8068.000000;0.641056
8067.000000;0.640938
8066.000000;0.640853
8065.000000;0.640844
8064.000000;0.640904
8063.000000;0.640968
8062.000000;0.640974
8061.000000;0.640901
8060.000000;0.640747
8059.000000;0.640516
8058.000000;0.640237
8057.000000;0.639970
8056.000000;0.639759
8055.000000;0.639603
8054.000000;0.639494
8053.000000;0.639442
8052.000000;0.639450
8051.000000;0.639482
8050.000000;0.639483
8049.000000;0.639426
8048.000000;0.639334
8047.000000;0.639271
8046.000000;0.639289
8045.000000;0.639353
8044.000000;0.639343
8043.000000;0.639178
8042.000000;0.638925
8041.000000;0.638730
8040.000000;0.638654
8039.000000;0.638638
8038.000000;0.638628
8037.000000;0.638638
8036.000000;0.638682
8035.000000;0.638696
8034.000000;0.638610
8033.000000;0.638455
8032.000000;0.638341
8031.000000;0.638341
8030.000000;0.638417
8029.000000;0.638453
8028.000000;0.638355
8027.000000;0.638126
8026.000000;0.637861
8025.000000;0.637650
8024.000000;0.637505
8023.000000;0.637397
8022.000000;0.637327
8021.000000;0.637309
8020.000000;0.637301
8019.000000;0.637232
8018.000000;0.637098
8017.000000;0.636981
8016.000000;0.636944
8015.000000;0.636960
8014.000000;0.636969
8013.000000;0.636947
8012.000000;0.636893
8011.000000;0.636793
8010.000000;0.636654
8009.000000;0.636543
8008.000000;0.636527
8007.000000;0.636590
8006.000000;0.636627
8005.000000;0.636562
8004.000000;0.636419
8003.000000;0.636288
8002.000000;0.636210
8001.000000;0.636134
8000.000000;0.635997
7999.000000;0.635815
7998.000000;0.635667
7997.000000;0.635589
7996.000000;0.635520
7995.000000;0.635387
7994.000000;0.635193
7993.000000;0.635003
7992.000000;0.634862
7991.000000;0.634764
7990.000000;0.634684
7989.000000;0.634611
7988.000000;0.634553
7987.000000;0.634535
7986.000000;0.634573
7985.000000;0.634633
7984.000000;0.634653
7983.000000;0.634610
7982.000000;0.634552
7981.000000;0.634507
7980.000000;0.634434
7979.000000;0.634286
7978.000000;0.634099
7977.000000;0.633960
7976.000000;0.633900
7975.000000;0.633885
7974.000000;0.633874
7973.000000;0.633849
7972.000000;0.633789
7971.000000;0.633683
7970.000000;0.633546
7969.000000;0.633398
7968.000000;0.633238
7967.000000;0.633076
7966.000000;0.632956
7965.000000;0.632897
7964.000000;0.632846
7963.000000;0.632776
7962.000000;0.632755
7961.000000;0.632867
7960.000000;0.633055
7959.000000;0.633163
7958.000000;0.633114
7957.000000;0.632955
7956.000000;0.632737
7955.000000;0.632463
7954.000000;0.632163
7953.000000;0.631932
7952.000000;0.631842
7951.000000;0.631864
7950.000000;0.631926
7949.000000;0.631981
7948.000000;0.632000
7947.000000;0.631946
7946.000000;0.631803
7945.000000;0.631611
7944.000000;0.631431
7943.000000;0.631294
7942.000000;0.631200
7941.000000;0.631140
7940.000000;0.631103
7939.000000;0.631090
7938.000000;0.631112
7937.000000;0.631161
7936.000000;0.631176
7935.000000;0.631080
7934.000000;0.630860
7933.000000;0.630595
7932.000000;0.630383
7931.000000;0.630260
7930.000000;0.630187
7929.000000;0.630108
7928.000000;0.630014
7927.000000;0.629952
7926.000000;0.629957
7925.000000;0.629981
7924.000000;0.629942
7923.000000;0.629847
7922.000000;0.629805
7921.000000;0.629874
7920.000000;0.629951
7919.000000;0.629878
7918.000000;0.629608
7917.000000;0.629240
7916.000000;0.628926
7915.000000;0.628769
7914.000000;0.628779
7913.000000;0.628850
7912.000000;0.628846
7911.000000;0.628758
7910.000000;0.628723
7909.000000;0.628823
7908.000000;0.628947
7907.000000;0.628938
7906.000000;0.628817
7905.000000;0.628722
7904.000000;0.628686
7903.000000;0.628604
7902.000000;0.628426
7901.000000;0.628232
7900.000000;0.628118
7899.000000;0.628086
7898.000000;0.628087
7897.000000;0.628062
7896.000000;0.627948
7895.000000;0.627735
7894.000000;0.627531
7893.000000;0.627457
7892.000000;0.627483
7891.000000;0.627466
7890.000000;0.627349
7889.000000;0.627222
7888.000000;0.627165
7887.000000;0.627152
7886.000000;0.627130
7885.000000;0.627090
7884.000000;0.627022
7883.000000;0.626890
7882.000000;0.626713
7881.000000;0.626569
7880.000000;0.626475
7879.000000;0.626370
7878.000000;0.626239
7877.000000;0.626165
7876.000000;0.626179
7875.000000;0.626178
7874.000000;0.626061
7873.000000;0.625886
7872.000000;0.625792
7871.000000;0.625818
7870.000000;0.625890
7869.000000;0.625932
7868.000000;0.625926
7867.000000;0.625885
7866.000000;0.625827
7865.000000;0.625753
7864.000000;0.625638
7863.000000;0.625461
7862.000000;0.625280
7861.000000;0.625203
7860.000000;0.625247
7859.000000;0.625286
7858.000000;0.625205
7857.000000;0.625045
7856.000000;0.624932
7855.000000;0.624895
7854.000000;0.624847
7853.000000;0.624715
7852.000000;0.624534
7851.000000;0.624399
7850.000000;0.624368
7849.000000;0.624420
7848.000000;0.624474
7847.000000;0.624452
7846.000000;0.624344
7845.000000;0.624194
7844.000000;0.624040
7843.000000;0.623887
7842.000000;0.623752
7841.000000;0.623673
7840.000000;0.623656
7839.000000;0.623656
7838.000000;0.623643
7837.000000;0.623650
7836.000000;0.623702
7835.000000;0.623739
7834.000000;0.623672
7833.000000;0.623479
7832.000000;0.623231
7831.000000;0.623032
7830.000000;0.622940
7829.000000;0.622947
7828.000000;0.622969
7827.000000;0.622913
7826.000000;0.622767
7825.000000;0.622619
7824.000000;0.622549
7823.000000;0.622542
7822.000000;0.622528
7821.000000;0.622490
7820.000000;0.622480
7819.000000;0.622519
7818.000000;0.622554
7817.000000;0.622512
7816.000000;0.622387
7815.000000;0.622235
7814.000000;0.622112
7813.000000;0.622007
7812.000000;0.621866
7811.000000;0.621663
7810.000000;0.621435
7809.000000;0.621242
7808.000000;0.621106
7807.000000;0.621025
7806.000000;0.621006
7805.000000;0.621053
7804.000000;0.621118
7803.000000;0.621119
7802.000000;0.621031
7801.000000;0.620917
7800.000000;0.620852
7799.000000;0.620842
7798.000000;0.620840
7797.000000;0.620801
7796.000000;0.620722
7795.000000;0.620625
7794.000000;0.620539
7793.000000;0.620478
7792.000000;0.620437
7791.000000;0.620408
7790.000000;0.620386
7789.000000;0.620361
7788.000000;0.620307
7787.000000;0.620207
7786.000000;0.620095
7785.000000;0.620019
7784.000000;0.619980
7783.000000;0.619909
7782.000000;0.619738
7781.000000;0.619480
7780.000000;0.619229
7779.000000;0.619084
7778.000000;0.619071
7777.000000;0.619117
7776.000000;0.619119
7775.000000;0.619047
7774.000000;0.618957
7773.000000;0.618905
7772.000000;0.618868
7771.000000;0.618791
7770.000000;0.618678
7769.000000;0.618590
7768.000000;0.618560
7767.000000;0.618534
7766.000000;0.618427
7765.000000;0.618212
7764.000000;0.617965
7763.000000;0.617820
7762.000000;0.617858
7761.000000;0.618024
7760.000000;0.618162
7759.000000;0.618168
7758.000000;0.618066
7757.000000;0.617945
7756.000000;0.617841
7755.000000;0.617743
7754.000000;0.617646
7753.000000;0.617557
7752.000000;0.617465
7751.000000;0.617362
7750.000000;0.617263
7749.000000;0.617173
7748.000000;0.617051
7747.000000;0.616870
7746.000000;0.616675
7745.000000;0.616540
7744.000000;0.616475
7743.000000;0.616439
7742.000000;0.616420
7741.000000;0.616436
7740.000000;0.616473
7739.000000;0.616486
7738.000000;0.616459
7737.000000;0.616402
7736.000000;0.616311
7735.000000;0.616170
7734.000000;0.616007
7733.000000;0.615875
7732.000000;0.615779
7731.000000;0.615688
7730.000000;0.615600
7729.000000;0.615548
7728.000000;0.615536
7727.000000;0.615535
7726.000000;0.615536
7725.000000;0.615540
7724.000000;0.615513
7723.000000;0.615405
7722.000000;0.615241
7721.000000;0.615111
7720.000000;0.615061
7719.000000;0.615049
7718.000000;0.615015
7717.000000;0.614934
7716.000000;0.614802
7715.000000;0.614632
7714.000000;0.614489
7713.000000;0.614451
7712.000000;0.614510
7711.000000;0.614562
7710.000000;0.614525
7709.000000;0.614410
7708.000000;0.614260
7707.000000;0.614101
7706.000000;0.613952
7705.000000;0.613840
7704.000000;0.613743
7703.000000;0.613603
7702.000000;0.613418
7701.000000;0.613265
7700.000000;0.613212
7699.000000;0.613241
7698.000000;0.613292
7697.000000;0.613327
7696.000000;0.613320
7695.000000;0.613240
7694.000000;0.613102
7693.000000;0.612983
7692.000000;0.612933
7691.000000;0.612911
7690.000000;0.612842
7689.000000;0.612716
7688.000000;0.612570
7687.000000;0.612419
7686.000000;0.612243
7685.000000;0.612054
7684.000000;0.611911
7683.000000;0.611862
7682.000000;0.611903
7681.000000;0.611985
7680.000000;0.612050
7679.000000;0.612058
7678.000000;0.612004
7677.000000;0.611905
7676.000000;0.611788
7675.000000;0.611671
7674.000000;0.611561
7673.000000;0.611446
7672.000000;0.611309
7671.000000;0.611154
7670.000000;0.611017
7669.000000;0.610937
7668.000000;0.610922
7667.000000;0.610948
7666.000000;0.610977
7665.000000;0.610960
7664.000000;0.610850
7663.000000;0.610659
7662.000000;0.610482
7661.000000;0.610411
7660.000000;0.610435
7659.000000;0.610464
7658.000000;0.610446
7657.000000;0.610402
7656.000000;0.610367
7655.000000;0.610338
7654.000000;0.610308
7653.000000;0.610279
7652.000000;0.610238
7651.000000;0.610160
7650.000000;0.610039
7649.000000;0.609895
7648.000000;0.609742
7647.000000;0.609590
7646.000000;0.609473
7645.000000;0.609434
7644.000000;0.609452
7643.000000;0.609446
7642.000000;0.609365
7641.000000;0.609246
7640.000000;0.609162
7639.000000;0.609151
7638.000000;0.609196
7637.000000;0.609247
7636.000000;0.609246
7635.000000;0.609163
7634.000000;0.609038
7633.000000;0.608946
7632.000000;0.608913
7631.000000;0.608892
7630.000000;0.608822
7629.000000;0.608696
7628.000000;0.608535
7627.000000;0.608354
7626.000000;0.608181
7625.000000;0.608071
7624.000000;0.608071
7623.000000;0.608155
7622.000000;0.608226
7621.000000;0.608183
7620.000000;0.608017
7619.000000;0.607825
7618.000000;0.607721
7617.000000;0.607712
7616.000000;0.607691
7615.000000;0.607559
7614.000000;0.607345
7613.000000;0.607163
7612.000000;0.607091
7611.000000;0.607120
7610.000000;0.607187
7609.000000;0.607223
7608.000000;0.607179
7607.000000;0.607069
7606.000000;0.606969
7605.000000;0.606927
7604.000000;0.606892
7603.000000;0.606793
7602.000000;0.606661
7601.000000;0.606591
7600.000000;0.606599
7599.000000;0.606584
7598.000000;0.606480
7597.000000;0.606338
7596.000000;0.606250
7595.000000;0.606244
7594.000000;0.606281
7593.000000;0.606317
7592.000000;0.606315
7591.000000;0.606246
7590.000000;0.606115
7589.000000;0.605979
7588.000000;0.605899
7587.000000;0.605892
7586.000000;0.605938
7585.000000;0.605992
7584.000000;0.605996
7583.000000;0.605910
7582.000000;0.605766
7581.000000;0.605647
7580.000000;0.605608
7579.000000;0.605621
7578.000000;0.605599
7577.000000;0.605472
7576.000000;0.605237
7575.000000;0.604982
7574.000000;0.604834
7573.000000;0.604857
7572.000000;0.604979
7571.000000;0.605057
7570.000000;0.605012
7569.000000;0.604865
7568.000000;0.604684
7567.000000;0.604533
7566.000000;0.604468
7565.000000;0.604503
7564.000000;0.604580
7563.000000;0.604611
7562.000000;0.604573
7561.000000;0.604515
7560.000000;0.604473
7559.000000;0.604437
7558.000000;0.604382
7557.000000;0.604299
7556.000000;0.604174
7555.000000;0.604005
7554.000000;0.603855
7553.000000;0.603807
7552.000000;0.603860
7551.000000;0.603914
7550.000000;0.603873
7549.000000;0.603730
7548.000000;0.603529
7547.000000;0.603329
7546.000000;0.603209
7545.000000;0.603239
7544.000000;0.603387
7543.000000;0.603510
7542.000000;0.603491
7541.000000;0.603349
7540.000000;0.603187
7539.000000;0.603070
7538.000000;0.603004
7537.000000;0.602979
7536.000000;0.602974
7535.000000;0.602961
7534.000000;0.602932
7533.000000;0.602914
7532.000000;0.602915
7531.000000;0.602889
7530.000000;0.602802
7529.000000;0.602704
7528.000000;0.602674
7527.000000;0.602708
7526.000000;0.602729
7525.000000;0.602703
7524.000000;0.602687
7523.000000;0.602740
7522.000000;0.602827
7521.000000;0.602861
7520.000000;0.602799
7519.000000;0.602672
7518.000000;0.602526
7517.000000;0.602376
7516.000000;0.602233
7515.000000;0.602140
7514.000000;0.602140
7513.000000;0.602218
7512.000000;0.602304
7511.000000;0.602345
7510.000000;0.602346
7509.000000;0.602331
7508.000000;0.602291
7507.000000;0.602197
7506.000000;0.602046
7505.000000;0.601878
7504.000000;0.601739
7503.000000;0.601661
7502.000000;0.601640
7501.000000;0.601631
7500.000000;0.601593
7499.000000;0.601536
7498.000000;0.601521
7497.000000;0.601574
7496.000000;0.601649
7495.000000;0.601684
7494.000000;0.601671
7493.000000;0.601633
7492.000000;0.601563
7491.000000;0.601447
7490.000000;0.601320
7489.000000;0.601245
7488.000000;0.601237
7487.000000;0.601254
7486.000000;0.601253
7485.000000;0.601226
7484.000000;0.601172
7483.000000;0.601093
7482.000000;0.601008
7481.000000;0.600952
7480.000000;0.600946
7479.000000;0.600993
7478.000000;0.601085
7477.000000;0.601178
7476.000000;0.601201
7475.000000;0.601131
7474.000000;0.601044
7473.000000;0.601030
7472.000000;0.601074
7471.000000;0.601078
7470.000000;0.600994
7469.000000;0.600870
7468.000000;0.600769
7467.000000;0.600698
7466.000000;0.600634
7465.000000;0.600579
7464.000000;0.600559
7463.000000;0.600583
7462.000000;0.600622
7461.000000;0.600619
7460.000000;0.600538
7459.000000;0.600420
7458.000000;0.600361
7457.000000;0.600418
7456.000000;0.600529
7455.000000;0.600586
7454.000000;0.600544
7453.000000;0.600439
7452.000000;0.600321
7451.000000;0.600222
7450.000000;0.600169
7449.000000;0.600168
7448.000000;0.600188
7447.000000;0.600193
7446.000000;0.600199
7445.000000;0.600230
7444.000000;0.600259
7443.000000;0.600245
7442.000000;0.600210
7441.000000;0.600211
7440.000000;0.600244
7439.000000;0.600261
7438.000000;0.600259
7437.000000;0.600278
7436.000000;0.600311
7435.000000;0.600292
7434.000000;0.600203
7433.000000;0.600108
7432.000000;0.600054
7431.000000;0.600007
7430.000000;0.599922
7429.000000;0.599813
7428.000000;0.599727
7427.000000;0.599693
7426.000000;0.599719
7425.000000;0.599802
7424.000000;0.599890
7423.000000;0.599912
7422.000000;0.599863
7421.000000;0.599837
7420.000000;0.599907
7419.000000;0.600029
7418.000000;0.600092
7417.000000;0.600042
7416.000000;0.599920
7415.000000;0.599809
7414.000000;0.599768
7413.000000;0.599802
7412.000000;0.599863
7411.000000;0.599889
7410.000000;0.599859
7409.000000;0.599806
7408.000000;0.599772
7407.000000;0.599762
7406.000000;0.599755
7405.000000;0.599727
7404.000000;0.599667
7403.000000;0.599581
7402.000000;0.599497
7401.000000;0.599440
7400.000000;0.599409
7399.000000;0.599408
7398.000000;0.599455
7397.000000;0.599539
7396.000000;0.599588
7395.000000;0.599549
7394.000000;0.599467
7393.000000;0.599442
7392.000000;0.599493
7391.000000;0.599549
7390.000000;0.599560
7389.000000;0.599545
7388.000000;0.599526
7387.000000;0.599487
7386.000000;0.599437
7385.000000;0.599432
7384.000000;0.599497
7383.000000;0.599572
7382.000000;0.599597
7381.000000;0.599594
7380.000000;0.599625
7379.000000;0.599677
7378.000000;0.599666
7377.000000;0.599556
7376.000000;0.599420
7375.000000;0.599371
7374.000000;0.599444
7373.000000;0.599576
7372.000000;0.599688
7371.000000;0.599764
7370.000000;0.599830
7369.000000;0.599889
7368.000000;0.599915
7367.000000;0.599893
7366.000000;0.599849
7365.000000;0.599800
7364.000000;0.599726
7363.000000;0.599628
7362.000000;0.599574
7361.000000;0.599649
7360.000000;0.599851
7359.000000;0.600074
7358.000000;0.600201
7357.000000;0.600205
7356.000000;0.600149
7355.000000;0.600109
7354.000000;0.600111
7353.000000;0.600108
7352.000000;0.600042
7351.000000;0.599928
7350.000000;0.599875
7349.000000;0.599971
7348.000000;0.600162
7347.000000;0.600267
7346.000000;0.600188
7345.000000;0.600024
7344.000000;0.599950
7343.000000;0.600004
7342.000000;0.600069
7341.000000;0.600064
7340.000000;0.600056
7339.000000;0.600148
7338.000000;0.600314
7337.000000;0.600438
7336.000000;0.600481
7335.000000;0.600505
7334.000000;0.600553
7333.000000;0.600587
7332.000000;0.600572
7331.000000;0.600532
7330.000000;0.600492
7329.000000;0.600445
7328.000000;0.600404
7327.000000;0.600429
7326.000000;0.600533
7325.000000;0.600641
7324.000000;0.600703
7323.000000;0.600790
7322.000000;0.600999
7321.000000;0.601296
7320.000000;0.601517
7319.000000;0.601548
7318.000000;0.601420
7317.000000;0.601255
7316.000000;0.601165
7315.000000;0.601205
7314.000000;0.601323
7313.000000;0.601384
7312.000000;0.601308
7311.000000;0.601204
7310.000000;0.601261
7309.000000;0.601518
7308.000000;0.601832
7307.000000;0.602075
7306.000000;0.602251
7305.000000;0.602381
7304.000000;0.602430
7303.000000;0.602407
7302.000000;0.602421
7301.000000;0.602545
7300.000000;0.602718
7299.000000;0.602868
7298.000000;0.603042
7297.000000;0.603293
7296.000000;0.603533
7295.000000;0.603645
7294.000000;0.603664
7293.000000;0.603728
7292.000000;0.603856
7291.000000;0.603929
7290.000000;0.603882
7289.000000;0.603792
7288.000000;0.603774
7287.000000;0.603875
7286.000000;0.604091
7285.000000;0.604399
7284.000000;0.604738
7283.000000;0.605025
7282.000000;0.605222
7281.000000;0.605353
7280.000000;0.605454
7279.000000;0.605537
7278.000000;0.605613
7277.000000;0.605702
7276.000000;0.605821
7275.000000;0.605982
7274.000000;0.606190
7273.000000;0.606420
7272.000000;0.606614
7271.000000;0.606739
7270.000000;0.606823
7269.000000;0.606915
7268.000000;0.607046
7267.000000;0.607246
7266.000000;0.607540
7265.000000;0.607870
7264.000000;0.608100
7263.000000;0.608171
7262.000000;0.608216
7261.000000;0.608408
7260.000000;0.608753
7259.000000;0.609101
7258.000000;0.609359
7257.000000;0.609552
7256.000000;0.609714
7255.000000;0.609834
7254.000000;0.609926
7253.000000;0.610064
7252.000000;0.610300
7251.000000;0.610604
7250.000000;0.610902
7249.000000;0.611141
7248.000000;0.611314
7247.000000;0.611482
7246.000000;0.611728
7245.000000;0.612037
7244.000000;0.612290
7243.000000;0.612435
7242.000000;0.612604
7241.000000;0.612954
7240.000000;0.613421
7239.000000;0.613793
7238.000000;0.613977
7237.000000;0.614088
7236.000000;0.614256
7235.000000;0.614488
7234.000000;0.614730
7233.000000;0.614980
7232.000000;0.615282
7231.000000;0.615667
7230.000000;0.616134
7229.000000;0.616631
7228.000000;0.617065
7227.000000;0.617387
7226.000000;0.617665
7225.000000;0.618019
7224.000000;0.618464
7223.000000;0.618895
7222.000000;0.619229
7221.000000;0.619486
7220.000000;0.619726
7219.000000;0.619987
7218.000000;0.620290
7217.000000;0.620633
7216.000000;0.620975
7215.000000;0.621285
7214.000000;0.621622
7213.000000;0.622075
7212.000000;0.622616
7211.000000;0.623099
7210.000000;0.623422
7209.000000;0.623621
7208.000000;0.623788
7207.000000;0.623975
7206.000000;0.624197
7205.000000;0.624463
7204.000000;0.624782
7203.000000;0.625167
7202.000000;0.625646
7201.000000;0.626198
7200.000000;0.626733
7199.000000;0.627193
7198.000000;0.627650
7197.000000;0.628210
7196.000000;0.628841
7195.000000;0.629404
7194.000000;0.629839
7193.000000;0.630205
7192.000000;0.630550
7191.000000;0.630880
7190.000000;0.631229
7189.000000;0.631633
7188.000000;0.632026
7187.000000;0.632315
7186.000000;0.632553
7185.000000;0.632878
7184.000000;0.633292
7183.000000;0.633681
7182.000000;0.634073
7181.000000;0.634645
7180.000000;0.635407
7179.000000;0.636093
7178.000000;0.636496
7177.000000;0.636727
7176.000000;0.637024
7175.000000;0.637482
7174.000000;0.638070
7173.000000;0.638748
7172.000000;0.639425
7171.000000;0.639918
7170.000000;0.640130
7169.000000;0.640181
7168.000000;0.640289
7167.000000;0.640580
7166.000000;0.641091
7165.000000;0.641825
7164.000000;0.642673
7163.000000;0.643421
7162.000000;0.643966
7161.000000;0.644451
7160.000000;0.645091
7159.000000;0.645903
7158.000000;0.646704
7157.000000;0.647335
7156.000000;0.647783
7155.000000;0.648171
7154.000000;0.648669
7153.000000;0.649354
7152.000000;0.650128
7151.000000;0.650833
7150.000000;0.651440
7149.000000;0.652010
7148.000000;0.652513
7147.000000;0.652856
7146.000000;0.653080
7145.000000;0.653355
7144.000000;0.653738
7143.000000;0.654119
7142.000000;0.654399
7141.000000;0.654578
7140.000000;0.654659
7139.000000;0.654696
7138.000000;0.654918
7137.000000;0.655554
7136.000000;0.656526
7135.000000;0.657528
7134.000000;0.658360
7133.000000;0.658960
7132.000000;0.659162
7131.000000;0.658857
7130.000000;0.658405
7129.000000;0.658429
7128.000000;0.659043
7127.000000;0.659692
7126.000000;0.659931
7125.000000;0.659983
7124.000000;0.660245
7123.000000;0.660648
7122.000000;0.660848
7121.000000;0.660794
7120.000000;0.660744
7119.000000;0.660873
7118.000000;0.661154
7117.000000;0.661508
7116.000000;0.661824
7115.000000;0.661956
7114.000000;0.661905
7113.000000;0.661856
7112.000000;0.661916
7111.000000;0.661945
7110.000000;0.661778
7109.000000;0.661418
7108.000000;0.660928
7107.000000;0.660372
7106.000000;0.659956
7105.000000;0.659912
7104.000000;0.660117
7103.000000;0.660149
7102.000000;0.659853
7101.000000;0.659485
7100.000000;0.659174
7099.000000;0.658648
7098.000000;0.657746
7097.000000;0.656796
7096.000000;0.656185
7095.000000;0.655890
7094.000000;0.655727
7093.000000;0.655706
7092.000000;0.655772
7091.000000;0.655569
7090.000000;0.654876
7089.000000;0.654033
7088.000000;0.653536
7087.000000;0.653416
7086.000000;0.653377
7085.000000;0.653261
7084.000000;0.652983
7083.000000;0.652198
7082.000000;0.650572
7081.000000;0.648355
7080.000000;0.646271
7079.000000;0.644803
7078.000000;0.643848
7077.000000;0.643070
7076.000000;0.642317
7075.000000;0.641623
7074.000000;0.640952
7073.000000;0.640008
7072.000000;0.638358
7071.000000;0.635889
7070.000000;0.633158
7069.000000;0.630999
7068.000000;0.629699
7067.000000;0.628808
7066.000000;0.627830
7065.000000;0.626754
7064.000000;0.625774
7063.000000;0.624869
7062.000000;0.623896
7061.000000;0.622808
7060.000000;0.621530
7059.000000;0.619865
7058.000000;0.617768
7057.000000;0.615512
7056.000000;0.613404
7055.000000;0.611524
7054.000000;0.609822
7053.000000;0.608181
7052.000000;0.606301
7051.000000;0.603921
7050.000000;0.601328
7049.000000;0.599234
7048.000000;0.597893
7047.000000;0.596685
7046.000000;0.594883
7045.000000;0.592539
7044.000000;0.590320
7043.000000;0.588713
7042.000000;0.587685
7041.000000;0.586847
7040.000000;0.585690
7039.000000;0.583860
7038.000000;0.581454
7037.000000;0.578911
7036.000000;0.576526
7035.000000;0.574326
7034.000000;0.572390
7033.000000;0.570804
7032.000000;0.569139
7031.000000;0.566591
7030.000000;0.563060
7029.000000;0.559639
7028.000000;0.557492
7027.000000;0.556490
7026.000000;0.555444
7025.000000;0.553509
7024.000000;0.550883
7023.000000;0.548194
7022.000000;0.545748
7021.000000;0.543518
7020.000000;0.541482
7019.000000;0.539669
7018.000000;0.537919
7017.000000;0.535755
7016.000000;0.532680
7015.000000;0.528727
7014.000000;0.524698
7013.000000;0.521667
7012.000000;0.520072
7011.000000;0.519343
7010.000000;0.518414
7009.000000;0.516615
7008.000000;0.514074
7007.000000;0.511332
7006.000000;0.508655
7005.000000;0.505822
7004.000000;0.502592
7003.000000;0.499179
7002.000000;0.495966
7001.000000;0.492858
7000.000000;0.489405
6999.000000;0.485667
6998.000000;0.482420
6997.000000;0.480166
6996.000000;0.478368
6995.000000;0.476104
6994.000000;0.473152
6993.000000;0.469966
6992.000000;0.466936
6991.000000;0.464223
6990.000000;0.462033
6989.000000;0.460446
6988.000000;0.459071
6987.000000;0.457370
6986.000000;0.455190
6985.000000;0.452577
6984.000000;0.449347
6983.000000;0.445393
6982.000000;0.441237
6981.000000;0.437675
6980.000000;0.434937
6979.000000;0.432661
6978.000000;0.430565
6977.000000;0.428622
6976.000000;0.426735
6975.000000;0.424819
6974.000000;0.423069
6973.000000;0.421567
6972.000000;0.419711
6971.000000;0.416674
6970.000000;0.412475
6969.000000;0.408062
6968.000000;0.404275
6967.000000;0.401219
6966.000000;0.398641
6965.000000;0.396387
6964.000000;0.394399
6963.000000;0.392619
6962.000000;0.390973
6961.000000;0.389263
6960.000000;0.387155
6959.000000;0.384480
6958.000000;0.381367
6957.000000;0.377985
6956.000000;0.374509
6955.000000;0.371468
6954.000000;0.369502
6953.000000;0.368393
6952.000000;0.366959
6951.000000;0.364515
6950.000000;0.361865
6949.000000;0.360141
6948.000000;0.359141
6947.000000;0.357661
6946.000000;0.355085
6945.000000;0.351790
6944.000000;0.348216
6943.000000;0.344457
6942.000000;0.340788
6941.000000;0.337775
6940.000000;0.335772
6939.000000;0.334741
6938.000000;0.334405
6937.000000;0.334099
6936.000000;0.332791
6935.000000;0.329962
6934.000000;0.326342
6933.000000;0.323172
6932.000000;0.320935
6931.000000;0.319269
6930.000000;0.317800
6929.000000;0.316367
6928.000000;0.314685
6927.000000;0.312505
6926.000000;0.309961
6925.000000;0.307326
6924.000000;0.304677
6923.000000;0.302271
6922.000000;0.300782
6921.000000;0.300459
6920.000000;0.300399
6919.000000;0.299389
6918.000000;0.297216
6917.000000;0.294528
6916.000000;0.291766
6915.000000;0.289073
6914.000000;0.286872
6913.000000;0.285524
6912.000000;0.284576
6911.000000;0.283193
6910.000000;0.281285
6909.000000;0.279446
6908.000000;0.277871
6907.000000;0.276127
6906.000000;0.273988
6905.000000;0.271779
6904.000000;0.269904
6903.000000;0.268602
6902.000000;0.268036
6901.000000;0.268023
6900.000000;0.267792
6899.000000;0.266604
6898.000000;0.264495
6897.000000;0.261921
6896.000000;0.258997
6895.000000;0.255797
6894.000000;0.253103
6893.000000;0.251931
6892.000000;0.252270
6891.000000;0.252957
6890.000000;0.252839
6889.000000;0.251604
6888.000000;0.249697
6887.000000;0.247953
6886.000000;0.247159
6885.000000;0.247290
6884.000000;0.247267
6883.000000;0.246022
6882.000000;0.243668
6881.000000;0.241209
6880.000000;0.239389
6879.000000;0.238295
6878.000000;0.237748
6877.000000;0.237472
6876.000000;0.237103
6875.000000;0.236551
6874.000000;0.236140
6873.000000;0.236007
6872.000000;0.235675
6871.000000;0.234670
6870.000000;0.233161
6869.000000;0.231531
6868.000000;0.229829
6867.000000;0.228218
6866.000000;0.227360
6865.000000;0.227601
6864.000000;0.228251
6863.000000;0.228432
6862.000000;0.228176
6861.000000;0.227964
6860.000000;0.227705
6859.000000;0.227010
6858.000000;0.226040
6857.000000;0.225200
6856.000000;0.224348
6855.000000;0.223171
6854.000000;0.222014
6853.000000;0.221392
6852.000000;0.220982
6851.000000;0.220015
6850.000000;0.218522
6849.000000;0.217399
6848.000000;0.217372
6847.000000;0.218547
6846.000000;0.220632
6845.000000;0.222796
6844.000000;0.223688
6843.000000;0.222596
6842.000000;0.220512
6841.000000;0.219201
6840.000000;0.219281
6839.000000;0.219925
6838.000000;0.220206
6837.000000;0.219874
6836.000000;0.219023
6835.000000;0.217950
6834.000000;0.217305
6833.000000;0.217607
6832.000000;0.218591
6831.000000;0.219627
6830.000000;0.220580
6829.000000;0.221575
6828.000000;0.222236
6827.000000;0.222035
6826.000000;0.221251
6825.000000;0.220728
6824.000000;0.220755
6823.000000;0.220883
6822.000000;0.220792
6821.000000;0.220611
6820.000000;0.220494
6819.000000;0.220567
6818.000000;0.221141
6817.000000;0.222316
6816.000000;0.223511
6815.000000;0.224125
6814.000000;0.224469
6813.000000;0.225255
6812.000000;0.226350
6811.000000;0.226917
6810.000000;0.226762
6809.000000;0.226666
6808.000000;0.227262
6807.000000;0.228323
6806.000000;0.229274
6805.000000;0.229768
6804.000000;0.229672
6803.000000;0.229093
6802.000000;0.228463
6801.000000;0.228120
6800.000000;0.227909
6799.000000;0.227716
6798.000000;0.228101
6797.000000;0.229613
6796.000000;0.231638
6795.000000;0.232877
6794.000000;0.232999
6793.000000;0.232950
6792.000000;0.233566
6791.000000;0.234735
6790.000000;0.236121
6789.000000;0.237749
6788.000000;0.239442
6787.000000;0.240500
6786.000000;0.240583
6785.000000;0.240396
6784.000000;0.240869
6783.000000;0.241959
6782.000000;0.242780
6781.000000;0.242767
6780.000000;0.242278
6779.000000;0.242084
6778.000000;0.242573
6777.000000;0.243499
6776.000000;0.244372
6775.000000;0.245016
6774.000000;0.245658
6773.000000;0.246420
6772.000000;0.246975
6771.000000;0.246961
6770.000000;0.246592
6769.000000;0.246557
6768.000000;0.247327
6767.000000;0.248818
6766.000000;0.250632
6765.000000;0.252336
6764.000000;0.253607
6763.000000;0.254410
6762.000000;0.255020
6761.000000;0.255654
6760.000000;0.256221
6759.000000;0.256642
6758.000000;0.257202
6757.000000;0.258194
6756.000000;0.259386
6755.000000;0.260259
6754.000000;0.260753
6753.000000;0.261341
6752.000000;0.262371
6751.000000;0.263675
6750.000000;0.264842
6749.000000;0.265570
6748.000000;0.265778
6747.000000;0.265679
6746.000000;0.265715
6745.000000;0.266147
6744.000000;0.266776
6743.000000;0.267330
6742.000000;0.267945
6741.000000;0.268898
6740.000000;0.269991
6739.000000;0.270721
6738.000000;0.271029
6737.000000;0.271424
6736.000000;0.272263
6735.000000;0.273333
6734.000000;0.274229
6733.000000;0.274806
6732.000000;0.275159
6731.000000;0.275489
6730.000000;0.276100
6729.000000;0.277192
6728.000000;0.278522
6727.000000;0.279548
6726.000000;0.280034
6725.000000;0.280303
6724.000000;0.280776
6723.000000;0.281497
6722.000000;0.282242
6721.000000;0.282864
6720.000000;0.283396
6719.000000;0.283917
6718.000000;0.284465
6717.000000;0.285036
6716.000000;0.285641
6715.000000;0.286382
6714.000000;0.287394
6713.000000;0.288608
6712.000000;0.289695
6711.000000;0.290417
6710.000000;0.290928
6709.000000;0.291521
6708.000000;0.292200
6707.000000;0.292753
6706.000000;0.293168
6705.000000;0.293664
6704.000000;0.294307
6703.000000;0.294910
6702.000000;0.295351
6701.000000;0.295735
6700.000000;0.296212
6699.000000;0.296816
6698.000000;0.297524
6697.000000;0.298280
6696.000000;0.298944
6695.000000;0.299439
6694.000000;0.299953
6693.000000;0.300806
6692.000000;0.302043
6691.000000;0.303357
6690.000000;0.304418
6689.000000;0.305145
6688.000000;0.305630
6687.000000;0.305982
6686.000000;0.306283
6685.000000;0.306570
6684.000000;0.306806
6683.000000;0.306989
6682.000000;0.307253
6681.000000;0.307735
6680.000000;0.308401
6679.000000;0.309146
6678.000000;0.309988
6677.000000;0.310974
6676.000000;0.311950
6675.000000;0.312696
6674.000000;0.313241
6673.000000;0.313819
6672.000000;0.314488
6671.000000;0.315070
6670.000000;0.315496
6669.000000;0.315959
6668.000000;0.316612
6667.000000;0.317353
6666.000000;0.318013
6665.000000;0.318594
6664.000000;0.319174
6663.000000;0.319741
6662.000000;0.320233
6661.000000;0.320660
6660.000000;0.321078
6659.000000;0.321530
6658.000000;0.322060
6657.000000;0.322697
6656.000000;0.323374
6655.000000;0.323976
6654.000000;0.324533
6653.000000;0.325241
6652.000000;0.326192
6651.000000;0.327192
6650.000000;0.327945
6649.000000;0.328382
6648.000000;0.328703
6647.000000;0.329131
6646.000000;0.329690
6645.000000;0.330244
6644.000000;0.330702
6643.000000;0.331135
6642.000000;0.331690
6641.000000;0.332409
6640.000000;0.333182
6639.000000;0.333877
6638.000000;0.334450
6637.000000;0.334912
6636.000000;0.335275
6635.000000;0.335611
6634.000000;0.336065
6633.000000;0.336698
6632.000000;0.337373
6631.000000;0.337903
6630.000000;0.338280
6629.000000;0.338687
6628.000000;0.339281
6627.000000;0.340028
6626.000000;0.340751
6625.000000;0.341272
6624.000000;0.341534
6623.000000;0.341660
6622.000000;0.341883
6621.000000;0.342368
6620.000000;0.343099
6619.000000;0.343947
6618.000000;0.344773
6617.000000;0.345454
6616.000000;0.345921
6615.000000;0.346238
6614.000000;0.346582
6613.000000;0.347069
6612.000000;0.347671
6611.000000;0.348335
6610.000000;0.349073
6609.000000;0.349850
6608.000000;0.350513
6607.000000;0.350956
6606.000000;0.351285
6605.000000;0.351665
6604.000000;0.352088
6603.000000;0.352432
6602.000000;0.352690
6601.000000;0.353010
6600.000000;0.353514
6599.000000;0.354191
6598.000000;0.354947
6597.000000;0.355648
6596.000000;0.356150
6595.000000;0.356404
6594.000000;0.356546
6593.000000;0.356784
6592.000000;0.357197
6591.000000;0.357704
6590.000000;0.358198
6589.000000;0.358629
6588.000000;0.359003
6587.000000;0.359385
6586.000000;0.359882
6585.000000;0.360531
6584.000000;0.361226
6583.000000;0.361831
6582.000000;0.362318
6581.000000;0.362738
6580.000000;0.363125
6579.000000;0.363512
6578.000000;0.363959
6577.000000;0.364486
6576.000000;0.365000
6575.000000;0.365409
6574.000000;0.365754
6573.000000;0.366144
6572.000000;0.366611
6571.000000;0.367112
6570.000000;0.367621
6569.000000;0.368110
6568.000000;0.368517
6567.000000;0.368837
6566.000000;0.369183
6565.000000;0.369640
6564.000000;0.370115
6563.000000;0.370459
6562.000000;0.370695
6561.000000;0.370996
6560.000000;0.371468
6559.000000;0.372066
6558.000000;0.372694
6557.000000;0.373248
6556.000000;0.373625
6555.000000;0.373811
6554.000000;0.373962
6553.000000;0.374270
6552.000000;0.374747
6551.000000;0.375263
6550.000000;0.375738
6549.000000;0.376190
6548.000000;0.376608
6547.000000;0.376936
6546.000000;0.377205
6545.000000;0.377529
6544.000000;0.377960
6543.000000;0.378436
6542.000000;0.378901
6541.000000;0.379369
6540.000000;0.379840
6539.000000;0.380265
6538.000000;0.380617
6537.000000;0.380924
6536.000000;0.381230
6535.000000;0.381574
6534.000000;0.381999
6533.000000;0.382493
6532.000000;0.382943
6531.000000;0.383241
6530.000000;0.383445
6529.000000;0.383737
6528.000000;0.384209
6527.000000;0.384777
6526.000000;0.385311
6525.000000;0.385756
6524.000000;0.386125
6523.000000;0.386443
6522.000000;0.386744
6521.000000;0.387067
6520.000000;0.387420
6519.000000;0.387785
6518.000000;0.388141
6517.000000;0.388460
6516.000000;0.388720
6515.000000;0.388973
6514.000000;0.389340
6513.000000;0.389863
6512.000000;0.390403
6511.000000;0.390795
6510.000000;0.391047
6509.000000;0.391310
6508.000000;0.391667
6507.000000;0.392075
6506.000000;0.392478
6505.000000;0.392887
6504.000000;0.393310
6503.000000;0.393716
6502.000000;0.394078
6501.000000;0.394385
6500.000000;0.394624
6499.000000;0.394811
6498.000000;0.395042
6497.000000;0.395401
6496.000000;0.395845
6495.000000;0.396252
6494.000000;0.396578
6493.000000;0.396880
6492.000000;0.397187
6491.000000;0.397463
6490.000000;0.397692
6489.000000;0.397919
6488.000000;0.398183
6487.000000;0.398488
6486.000000;0.398838
6485.000000;0.399237
6484.000000;0.399637
6483.000000;0.399957
6482.000000;0.400181
6481.000000;0.400365
6480.000000;0.400563
6479.000000;0.400801
6478.000000;0.401108
6477.000000;0.401503
6476.000000;0.401921
6475.000000;0.402255
6474.000000;0.402480
6473.000000;0.402676
6472.000000;0.402929
6471.000000;0.403254
6470.000000;0.403622
6469.000000;0.403992
6468.000000;0.404322
6467.000000;0.404597
6466.000000;0.404865
6465.000000;0.405183
6464.000000;0.405527
6463.000000;0.405832
6462.000000;0.406094
6461.000000;0.406376
6460.000000;0.406711
6459.000000;0.407056
6458.000000;0.407345
6457.000000;0.407553
6456.000000;0.407698
6455.000000;0.407833
6454.000000;0.408036
6453.000000;0.408328
6452.000000;0.408634
6451.000000;0.408879
6450.000000;0.409094
6449.000000;0.409363
6448.000000;0.409701
6447.000000;0.410048
6446.000000;0.410369
6445.000000;0.410673
6444.000000;0.410947
6443.000000;0.411158
6442.000000;0.411338
6441.000000;0.411573
6440.000000;0.411900
6439.000000;0.412278
6438.000000;0.412641
6437.000000;0.412942
6436.000000;0.413148
6435.000000;0.413273
6434.000000;0.413400
6433.000000;0.413591
6432.000000;0.413792
6431.000000;0.413928
6430.000000;0.414043
6429.000000;0.414262
6428.000000;0.414607
6427.000000;0.414955
6426.000000;0.415212
6425.000000;0.415408
6424.000000;0.415615
6423.000000;0.415853
6422.000000;0.416102
6421.000000;0.416341
6420.000000;0.416546
6419.000000;0.416712
6418.000000;0.416895
6417.000000;0.417150
6416.000000;0.417432
6415.000000;0.417649
6414.000000;0.417805
6413.000000;0.417995
6412.000000;0.418234
6411.000000;0.418423
6410.000000;0.418508
6409.000000;0.418589
6408.000000;0.418778
6407.000000;0.419053
6406.000000;0.419310
6405.000000;0.419507
6404.000000;0.419681
6403.000000;0.419866
6402.000000;0.420072
6401.000000;0.420306
6400.000000;0.420572
6399.000000;0.420844
6398.000000;0.421083
6397.000000;0.421271
6396.000000;0.421416
6395.000000;0.421548
6394.000000;0.421710
6393.000000;0.421920
6392.000000;0.422133
6391.000000;0.422282
6390.000000;0.422367
6389.000000;0.422459
6388.000000;0.422609
6387.000000;0.422800
6386.000000;0.423002
6385.000000;0.423207
6384.000000;0.423409
6383.000000;0.423585
6382.000000;0.423734
6381.000000;0.423882
6380.000000;0.424040
6379.000000;0.424204
6378.000000;0.424399
6377.000000;0.424659
6376.000000;0.424952
6375.000000;0.425193
6374.000000;0.425347
6373.000000;0.425453
6372.000000;0.425547
6371.000000;0.425611
6370.000000;0.425643
6369.000000;0.425705
6368.000000;0.425854
6367.000000;0.426069
6366.000000;0.426294
6365.000000;0.426503
6364.000000;0.426695
6363.000000;0.426850
6362.000000;0.426960
6361.000000;0.427045
6360.000000;0.427132
6359.000000;0.427214
6358.000000;0.427276
6357.000000;0.427344
6356.000000;0.427456
6355.000000;0.427624
6354.000000;0.427827
6353.000000;0.428044
6352.000000;0.428254
6351.000000;0.428446
6350.000000;0.428622
6349.000000;0.428798
6348.000000;0.428969
6347.000000;0.429106
6346.000000;0.429199
6345.000000;0.429263
6344.000000;0.429312
6343.000000;0.429336
6342.000000;0.429333
6341.000000;0.429329
6340.000000;0.429371
6339.000000;0.429494
6338.000000;0.429698
6337.000000;0.429929
6336.000000;0.430104
6335.000000;0.430176
6334.000000;0.430191
6333.000000;0.430242
6332.000000;0.430364
6331.000000;0.430516
6330.000000;0.430656
6329.000000;0.430783
6328.000000;0.430902
6327.000000;0.431002
6326.000000;0.431076
6325.000000;0.431138
6324.000000;0.431188
6323.000000;0.431217
6322.000000;0.431244
6321.000000;0.431318
6320.000000;0.431454
6319.000000;0.431621
6318.000000;0.431785
6317.000000;0.431947
6316.000000;0.432102
6315.000000;0.432223
6314.000000;0.432292
6313.000000;0.432330
6312.000000;0.432357
6311.000000;0.432367
6310.000000;0.432358
6309.000000;0.432360
6308.000000;0.432416
6307.000000;0.432541
6306.000000;0.432724
6305.000000;0.432935
6304.000000;0.433116
6303.000000;0.433208
6302.000000;0.433215
6301.000000;0.433205
6300.000000;0.433240
6299.000000;0.433309
6298.000000;0.433355
6297.000000;0.433353
6296.000000;0.433338
6295.000000;0.433363
6294.000000;0.433457
6293.000000;0.433596
6292.000000;0.433724
6291.000000;0.433801
6290.000000;0.433851
6289.000000;0.433928
6288.000000;0.434046
6287.000000;0.434152
6286.000000;0.434197
6285.000000;0.434194
6284.000000;0.434201
6283.000000;0.434257
6282.000000;0.434359
6281.000000;0.434485
6280.000000;0.434614
6279.000000;0.434727
6278.000000;0.434807
6277.000000;0.434854
6276.000000;0.434878
6275.000000;0.434887
6274.000000;0.434885
6273.000000;0.434874
6272.000000;0.434868
6271.000000;0.434889
6270.000000;0.434943
6269.000000;0.435001
6268.000000;0.435030
6267.000000;0.435027
6266.000000;0.435032
6265.000000;0.435076
6264.000000;0.435146
6263.000000;0.435213
6262.000000;0.435268
6261.000000;0.435312
6260.000000;0.435344
6259.000000;0.435366
6258.000000;0.435397
6257.000000;0.435440
6256.000000;0.435462
6255.000000;0.435442
6254.000000;0.435409
6253.000000;0.435409
6252.000000;0.435454
6251.000000;0.435528
6250.000000;0.435636
6249.000000;0.435776
6248.000000;0.435905
6247.000000;0.435959
6246.000000;0.435934
6245.000000;0.435876
6244.000000;0.435816
6243.000000;0.435744
6242.000000;0.435671
6241.000000;0.435641
6240.000000;0.435683
6239.000000;0.435770
6238.000000;0.435857
6237.000000;0.435926
6236.000000;0.435977
6235.000000;0.436003
6234.000000;0.435999
6233.000000;0.435975
6232.000000;0.435952
6231.000000;0.435948
6230.000000;0.435969
6229.000000;0.436005
6228.000000;0.436043
6227.000000;0.436081
6226.000000;0.436135
6225.000000;0.436200
6224.000000;0.436239
6223.000000;0.436227
6222.000000;0.436201
6221.000000;0.436222
6220.000000;0.436292
6219.000000;0.436341
6218.000000;0.436320
6217.000000;0.436249
6216.000000;0.436187
6215.000000;0.436168
6214.000000;0.436190
6213.000000;0.436234
6212.000000;0.436275
6211.000000;0.436298
6210.000000;0.436321
6209.000000;0.436369
6208.000000;0.436445
6207.000000;0.436521
6206.000000;0.436568
6205.000000;0.436574
6204.000000;0.436543
6203.000000;0.436484
6202.000000;0.436414
6201.000000;0.436343
6200.000000;0.436274
6199.000000;0.436222
6198.000000;0.436214
6197.000000;0.436263
6196.000000;0.436342
6195.000000;0.436412
6194.000000;0.436458
6193.000000;0.436482
6192.000000;0.436472
6191.000000;0.436417
6190.000000;0.436336
6189.000000;0.436271
6188.000000;0.436244
6187.000000;0.436254
6186.000000;0.436304
6185.000000;0.436393
6184.000000;0.436486
6183.000000;0.436525
6182.000000;0.436481
6181.000000;0.436377
6180.000000;0.436264
6179.000000;0.436187
6178.000000;0.436160
6177.000000;0.436166
6176.000000;0.436177
6175.000000;0.436188
6174.000000;0.436224
6173.000000;0.436298
6172.000000;0.436376
6171.000000;0.436409
6170.000000;0.436389
6169.000000;0.436329
6168.000000;0.436226
6167.000000;0.436084
6166.000000;0.435947
6165.000000;0.435877
6164.000000;0.435891
6163.000000;0.435952
6162.000000;0.436018
6161.000000;0.436063
6160.000000;0.436073
6159.000000;0.436054
6158.000000;0.436045
6157.000000;0.436074
6156.000000;0.436112
6155.000000;0.436101
6154.000000;0.436034
6153.000000;0.435963
6152.000000;0.435932
6151.000000;0.435934
6150.000000;0.435950
6149.000000;0.435970
6148.000000;0.435973
6147.000000;0.435940
6146.000000;0.435893
6145.000000;0.435888
6144.000000;0.435943
6143.000000;0.436005
6142.000000;0.436010
6141.000000;0.435952
6140.000000;0.435864
6139.000000;0.435784
6138.000000;0.435731
6137.000000;0.435710
6136.000000;0.435707
6135.000000;0.435701
6134.000000;0.435684
6133.000000;0.435668
6132.000000;0.435659
6131.000000;0.435656
6130.000000;0.435655
6129.000000;0.435653
6128.000000;0.435637
6127.000000;0.435596
6126.000000;0.435547
6125.000000;0.435518
6124.000000;0.435516
6123.000000;0.435515
6122.000000;0.435497
6121.000000;0.435467
6120.000000;0.435441
6119.000000;0.435436
6118.000000;0.435452
6117.000000;0.435462
6116.000000;0.435416
6115.000000;0.435299
6114.000000;0.435172
6113.000000;0.435114
6112.000000;0.435133
6111.000000;0.435172
6110.000000;0.435178
6109.000000;0.435151
6108.000000;0.435110
6107.000000;0.435077
6106.000000;0.435076
6105.000000;0.435110
6104.000000;0.435135
6103.000000;0.435094
6102.000000;0.434985
6101.000000;0.434878
6100.000000;0.434827
6099.000000;0.434824
6098.000000;0.434839
6097.000000;0.434860
6096.000000;0.434887
6095.000000;0.434913
6094.000000;0.434935
6093.000000;0.434965
6092.000000;0.434998
6091.000000;0.435007
6090.000000;0.434978
6089.000000;0.434933
6088.000000;0.434908
6087.000000;0.434909
6086.000000;0.434922
6085.000000;0.434928
6084.000000;0.434919
6083.000000;0.434898
6082.000000;0.434879
6081.000000;0.434880
6080.000000;0.434897
6079.000000;0.434911
6078.000000;0.434907
6077.000000;0.434879
6076.000000;0.434818
6075.000000;0.434718
6074.000000;0.434604
6073.000000;0.434525
6072.000000;0.434515
6071.000000;0.434561
6070.000000;0.434616
6069.000000;0.434631
6068.000000;0.434586
6067.000000;0.434495
6066.000000;0.434398
6065.000000;0.434323
6064.000000;0.434271
6063.000000;0.434227
6062.000000;0.434196
6061.000000;0.434195
6060.000000;0.434217
6059.000000;0.434235
6058.000000;0.434225
6057.000000;0.434178
6056.000000;0.434103
6055.000000;0.434028
6054.000000;0.433998
6053.000000;0.434037
6052.000000;0.434110
6051.000000;0.434161
6050.000000;0.434171
6049.000000;0.434168
6048.000000;0.434177
6047.000000;0.434196
6046.000000;0.434214
6045.000000;0.434231
6044.000000;0.434254
6043.000000;0.434285
6042.000000;0.434325
6041.000000;0.434360
6040.000000;0.434360
6039.000000;0.434305
6038.000000;0.434213
6037.000000;0.434130
6036.000000;0.434085
6035.000000;0.434069
6034.000000;0.434060
6033.000000;0.434047
6032.000000;0.434039
6031.000000;0.434048
6030.000000;0.434078
6029.000000;0.434112
6028.000000;0.434113
6027.000000;0.434068
6026.000000;0.434008
6025.000000;0.433969
6024.000000;0.433955
6023.000000;0.433941
6022.000000;0.433919
6021.000000;0.433902
6020.000000;0.433895
6019.000000;0.433888
6018.000000;0.433875
6017.000000;0.433861
6016.000000;0.433851
6015.000000;0.433847
6014.000000;0.433861
6013.000000;0.433907
6012.000000;0.433979
6011.000000;0.434052
6010.000000;0.434107
6009.000000;0.434135
6008.000000;0.434137
6007.000000;0.434122
6006.000000;0.434103
6005.000000;0.434069
6004.000000;0.433988
6003.000000;0.433858
6002.000000;0.433735
6001.000000;0.433686
6000.000000;0.433721
5999.000000;0.433796
5998.000000;0.433866
5997.000000;0.433914
5996.000000;0.433930
5995.000000;0.433907
5994.000000;0.433865
5993.000000;0.433836
5992.000000;0.433844
5991.000000;0.433882
5990.000000;0.433928
5989.000000;0.433940
5988.000000;0.433882
5987.000000;0.433766
5986.000000;0.433662
5985.000000;0.433632
5984.000000;0.433669
5983.000000;0.433722
5982.000000;0.433770
5981.000000;0.433816
5980.000000;0.433850
5979.000000;0.433843
5978.000000;0.433801
5977.000000;0.433767
5976.000000;0.433767
5975.000000;0.433794
5974.000000;0.433833
5973.000000;0.433884
5972.000000;0.433942
5971.000000;0.433995
5970.000000;0.434036
5969.000000;0.434054
5968.000000;0.434036
5967.000000;0.433984
5966.000000;0.433937
5965.000000;0.433929
5964.000000;0.433942
5963.000000;0.433945
5962.000000;0.433948
5961.000000;0.433987
5960.000000;0.434049
5959.000000;0.434074
5958.000000;0.434035
5957.000000;0.433962
5956.000000;0.433891
5955.000000;0.433824
5954.000000;0.433771
5953.000000;0.433767
5952.000000;0.433818
5951.000000;0.433882
5950.000000;0.433916
5949.000000;0.433928
5948.000000;0.433948
5947.000000;0.433978
5946.000000;0.434003
5945.000000;0.434020
5944.000000;0.434046
5943.000000;0.434094
5942.000000;0.434161
5941.000000;0.434230
5940.000000;0.434280
5939.000000;0.434291
5938.000000;0.434273
5937.000000;0.434255
5936.000000;0.434257
5935.000000;0.434274
5934.000000;0.434292
5933.000000;0.434309
5932.000000;0.434332
5931.000000;0.434362
5930.000000;0.434395
5929.000000;0.434428
5928.000000;0.434464
5927.000000;0.434508
5926.000000;0.434561
5925.000000;0.434610
5924.000000;0.434628
5923.000000;0.434612
5922.000000;0.434588
5921.000000;0.434582
5920.000000;0.434590
5919.000000;0.434587
5918.000000;0.434573
5917.000000;0.434556
5916.000000;0.434536
5915.000000;0.434509
5914.000000;0.434491
5913.000000;0.434504
5912.000000;0.434531
5911.000000;0.434528
5910.000000;0.434475
5909.000000;0.434400
5908.000000;0.434339
5907.000000;0.434305
5906.000000;0.434290
5905.000000;0.434283
5904.000000;0.434285
5903.000000;0.434310
5902.000000;0.434369
5901.000000;0.434445
5900.000000;0.434489
5899.000000;0.434462
5898.000000;0.434386
5897.000000;0.434323
5896.000000;0.434315
5895.000000;0.434354
5894.000000;0.434402
5893.000000;0.434425
5892.000000;0.434410
5891.000000;0.434368
5890.000000;0.434325
5889.000000;0.434291
5888.000000;0.434250
5887.000000;0.434194
5886.000000;0.434151
5885.000000;0.434148
5884.000000;0.434169
5883.000000;0.434176
5882.000000;0.434174
5881.000000;0.434198
5880.000000;0.434253
5879.000000;0.434304
5878.000000;0.434313
5877.000000;0.434286
5876.000000;0.434251
5875.000000;0.434237
5874.000000;0.434260
5873.000000;0.434312
5872.000000;0.434355
5871.000000;0.434353
5870.000000;0.434315
5869.000000;0.434278
5868.000000;0.434259
5867.000000;0.434246
5866.000000;0.434223
5865.000000;0.434200
5864.000000;0.434187
5863.000000;0.434194
5862.000000;0.434229
5861.000000;0.434290
5860.000000;0.434352
5859.000000;0.434379
5858.000000;0.434362
5857.000000;0.434323
5856.000000;0.434292
5855.000000;0.434292
5854.000000;0.434341
5853.000000;0.434431
5852.000000;0.434517
5851.000000;0.434555
5850.000000;0.434548
5849.000000;0.434537
5848.000000;0.434541
5847.000000;0.434544
5846.000000;0.434529
5845.000000;0.434506
5844.000000;0.434493
5843.000000;0.434504
5842.000000;0.434540
5841.000000;0.434584
5840.000000;0.434606
5839.000000;0.434588
5838.000000;0.434551
5837.000000;0.434531
5836.000000;0.434534
5835.000000;0.434541
5834.000000;0.434537
5833.000000;0.434520
5832.000000;0.434494
5831.000000;0.434467
5830.000000;0.434463
5829.000000;0.434495
5828.000000;0.434543
5827.000000;0.434571
5826.000000;0.434575
5825.000000;0.434579
5824.000000;0.434595
5823.000000;0.434623
5822.000000;0.434673
5821.000000;0.434748
5820.000000;0.434824
5819.000000;0.434860
5818.000000;0.434849
5817.000000;0.434825
5816.000000;0.434813
5815.000000;0.434821
5814.000000;0.434844
5813.000000;0.434878
5812.000000;0.434903
5811.000000;0.434904
5810.000000;0.434891
5809.000000;0.434892
5808.000000;0.434908
5807.000000;0.434923
5806.000000;0.434932
5805.000000;0.434948
5804.000000;0.434973
5803.000000;0.434987
5802.000000;0.434979
5801.000000;0.434958
5800.000000;0.434934
5799.000000;0.434912
5798.000000;0.434910
5797.000000;0.434943
5796.000000;0.435002
5795.000000;0.435062
5794.000000;0.435107
5793.000000;0.435136
5792.000000;0.435144
5791.000000;0.435127
5790.000000;0.435105
5789.000000;0.435108
5788.000000;0.435140
5787.000000;0.435181
5786.000000;0.435220
5785.000000;0.435261
5784.000000;0.435297
5783.000000;0.435308
5782.000000;0.435286
5781.000000;0.435248
5780.000000;0.435215
5779.000000;0.435190
5778.000000;0.435164
5777.000000;0.435119
5776.000000;0.435048
5775.000000;0.434968
5774.000000;0.434923
5773.000000;0.434935
5772.000000;0.434967
5771.000000;0.434964
5770.000000;0.434912
5769.000000;0.434850
5768.000000;0.434822
5767.000000;0.434848
5766.000000;0.434932
5765.000000;0.435041
5764.000000;0.435114
5763.000000;0.435106
5762.000000;0.435034
5761.000000;0.434953
5760.000000;0.434893
5759.000000;0.434846
5758.000000;0.434809
5757.000000;0.434790
5756.000000;0.434785
5755.000000;0.434783
5754.000000;0.434792
5753.000000;0.434826
5752.000000;0.434862
5751.000000;0.434870
5750.000000;0.434850
5749.000000;0.434827
5748.000000;0.434797
5747.000000;0.434739
5746.000000;0.434658
5745.000000;0.434596
5744.000000;0.434567
5743.000000;0.434548
5742.000000;0.434521
5741.000000;0.434499
5740.000000;0.434484
5739.000000;0.434455
5738.000000;0.434397
5737.000000;0.434332
5736.000000;0.434291
5735.000000;0.434288
5734.000000;0.434319
5733.000000;0.434363
5732.000000;0.434394
5731.000000;0.434396
5730.000000;0.434380
5729.000000;0.434361
5728.000000;0.434337
5727.000000;0.434297
5726.000000;0.434249
5725.000000;0.434212
5724.000000;0.434173
5723.000000;0.434113
5722.000000;0.434037
5721.000000;0.433972
5720.000000;0.433917
5719.000000;0.433854
5718.000000;0.433789
5717.000000;0.433754
5716.000000;0.433753
5715.000000;0.433754
5714.000000;0.433737
5713.000000;0.433712
5712.000000;0.433690
5711.000000;0.433664
5710.000000;0.433635
5709.000000;0.433617
5708.000000;0.433609
5707.000000;0.433580
5706.000000;0.433510
5705.000000;0.433410
5704.000000;0.433313
5703.000000;0.433256
5702.000000;0.433268
5701.000000;0.433343
5700.000000;0.433428
5699.000000;0.433467
5698.000000;0.433456
5697.000000;0.433432
5696.000000;0.433407
5695.000000;0.433364
5694.000000;0.433305
5693.000000;0.433255
5692.000000;0.433224
5691.000000;0.433186
5690.000000;0.433131
5689.000000;0.433087
5688.000000;0.433086
5687.000000;0.433119
5686.000000;0.433148
5685.000000;0.433144
5684.000000;0.433108
5683.000000;0.433065
5682.000000;0.433042
5681.000000;0.433041
5680.000000;0.433045
5679.000000;0.433036
5678.000000;0.433020
5677.000000;0.432998
5676.000000;0.432961
5675.000000;0.432922
5674.000000;0.432927
5673.000000;0.432994
5672.000000;0.433067
5671.000000;0.433069
5670.000000;0.432990
5669.000000;0.432898
5668.000000;0.432860
5667.000000;0.432902
5666.000000;0.433003
5665.000000;0.433099
5664.000000;0.433103
5663.000000;0.432993
5662.000000;0.432863
5661.000000;0.432839
5660.000000;0.432939
5659.000000;0.433079
5658.000000;0.433188
5657.000000;0.433265
5656.000000;0.433311
5655.000000;0.433301
5654.000000;0.433236
5653.000000;0.433163
5652.000000;0.433123
5651.000000;0.433121
5650.000000;0.433167
5649.000000;0.433289
5648.000000;0.433479
5647.000000;0.433655
5646.000000;0.433739
5645.000000;0.433732
5644.000000;0.433699
5643.000000;0.433692
5642.000000;0.433719
5641.000000;0.433760
5640.000000;0.433797
5639.000000;0.433832
5638.000000;0.433896
5637.000000;0.434011
5636.000000;0.434150
5635.000000;0.434256
5634.000000;0.434298
5633.000000;0.434308
5632.000000;0.434338
5631.000000;0.434406
5630.000000;0.434490
5629.000000;0.434560
5628.000000;0.434602
5627.000000;0.434636
5626.000000;0.434697
5625.000000;0.434784
5624.000000;0.434854
5623.000000;0.434887
5622.000000;0.434927
5621.000000;0.435037
5620.000000;0.435216
5619.000000;0.435407
5618.000000;0.435566
5617.000000;0.435683
5616.000000;0.435755
5615.000000;0.435784
5614.000000;0.435813
5613.000000;0.435900
5612.000000;0.436050
5611.000000;0.436219
5610.000000;0.436382
5609.000000;0.436559
5608.000000;0.436757
5607.000000;0.436933
5606.000000;0.437046
5605.000000;0.437109
5604.000000;0.437171
5603.000000;0.437256
5602.000000;0.437353
5601.000000;0.437427
5600.000000;0.437462
5599.000000;0.437481
5598.000000;0.437544
5597.000000;0.437686
5596.000000;0.437880
5595.000000;0.438070
5594.000000;0.438230
5593.000000;0.438362
5592.000000;0.438468
5591.000000;0.438552
5590.000000;0.438640
5589.000000;0.438757
5588.000000;0.438879
5587.000000;0.438970
5586.000000;0.439047
5585.000000;0.439169
5584.000000;0.439353
5583.000000;0.439553
5582.000000;0.439724
5581.000000;0.439858
5580.000000;0.439966
5579.000000;0.440052
5578.000000;0.440135
5577.000000;0.440241
5576.000000;0.440367
5575.000000;0.440479
5574.000000;0.440556
5573.000000;0.440611
5572.000000;0.440670
5571.000000;0.440750
5570.000000;0.440863
5569.000000;0.441011
5568.000000;0.441171
5567.000000;0.441327
5566.000000;0.441492
5565.000000;0.441673
5564.000000;0.441828
5563.000000;0.441910
5562.000000;0.441937
5561.000000;0.441968
5560.000000;0.442029
5559.000000;0.442098
5558.000000;0.442171
5557.000000;0.442271
5556.000000;0.442393
5555.000000;0.442502
5554.000000;0.442595
5553.000000;0.442705
5552.000000;0.442839
5551.000000;0.442954
5550.000000;0.443021
5549.000000;0.443068
5548.000000;0.443134
5547.000000;0.443224
5546.000000;0.443332
5545.000000;0.443462
5544.000000;0.443607
5543.000000;0.443740
5542.000000;0.443845
5541.000000;0.443936
5540.000000;0.444011
5539.000000;0.444042
5538.000000;0.444026
5537.000000;0.444018
5536.000000;0.444072
5535.000000;0.444180
5534.000000;0.444285
5533.000000;0.444348
5532.000000;0.444387
5531.000000;0.444441
5530.000000;0.444534
5529.000000;0.444657
5528.000000;0.444786
5527.000000;0.444907
5526.000000;0.445023
5525.000000;0.445129
5524.000000;0.445200
5523.000000;0.445230
5522.000000;0.445256
5521.000000;0.445321
5520.000000;0.445417
5519.000000;0.445504
5518.000000;0.445568
5517.000000;0.445635
5516.000000;0.445722
5515.000000;0.445811
5514.000000;0.445880
5513.000000;0.445936
5512.000000;0.445996
5511.000000;0.446070
5510.000000;0.446154
5509.000000;0.446231
5508.000000;0.446280
5507.000000;0.446305
5506.000000;0.446340
5505.000000;0.446414
5504.000000;0.446510
5503.000000;0.446600
5502.000000;0.446685
5501.000000;0.446787
5500.000000;0.446899
5499.000000;0.446982
5498.000000;0.447017
5497.000000;0.447021
5496.000000;0.447019
5495.000000;0.447028
5494.000000;0.447076
5493.000000;0.447180
5492.000000;0.447326
5491.000000;0.447473
5490.000000;0.447601
5489.000000;0.447705
5488.000000;0.447780
5487.000000;0.447828
5486.000000;0.447888
5485.000000;0.447991
5484.000000;0.448117
5483.000000;0.448215
5482.000000;0.448273
5481.000000;0.448322
5480.000000;0.448397
5479.000000;0.448510
5478.000000;0.448676
5477.000000;0.448900
5476.000000;0.449134
5475.000000;0.449286
5474.000000;0.449301
5473.000000;0.449207
5472.000000;0.449091
5471.000000;0.449029
5470.000000;0.449044
5469.000000;0.449116
5468.000000;0.449214
5467.000000;0.449309
5466.000000;0.449396
5465.000000;0.449491
5464.000000;0.449623
5463.000000;0.449818
5462.000000;0.450062
5461.000000;0.450287
5460.000000;0.450406
5459.000000;0.450401
5458.000000;0.450353
5457.000000;0.450379
5456.000000;0.450521
5455.000000;0.450724
5454.000000;0.450901
5453.000000;0.450996
5452.000000;0.451015
5451.000000;0.451025
5450.000000;0.451117
5449.000000;0.451319
5448.000000;0.451547
5447.000000;0.451693
5446.000000;0.451751
5445.000000;0.451811
5444.000000;0.451922
5443.000000;0.452055
5442.000000;0.452175
5441.000000;0.452290
5440.000000;0.452424
5439.000000;0.452571
5438.000000;0.452703
5437.000000;0.452815
5436.000000;0.452918
5435.000000;0.453029
5434.000000;0.453167
5433.000000;0.453329
5432.000000;0.453480
5431.000000;0.453611
5430.000000;0.453767
5429.000000;0.453980
5428.000000;0.454204
5427.000000;0.454351
5426.000000;0.454419
5425.000000;0.454518
5424.000000;0.454747
5423.000000;0.455093
5422.000000;0.455462
5421.000000;0.455763
5420.000000;0.455947
5419.000000;0.456036
5418.000000;0.456093
5417.000000;0.456181
5416.000000;0.456330
5415.000000;0.456545
5414.000000;0.456813
5413.000000;0.457091
5412.000000;0.457318
5411.000000;0.457489
5410.000000;0.457688
5409.000000;0.457996
5408.000000;0.458398
5407.000000;0.458813
5406.000000;0.459203
5405.000000;0.459578
5404.000000;0.459942
5403.000000;0.460281
5402.000000;0.460599
5401.000000;0.460909
5400.000000;0.461182
5399.000000;0.461406
5398.000000;0.461644
5397.000000;0.461976
5396.000000;0.462382
5395.000000;0.462771
5394.000000;0.463108
5393.000000;0.463454
5392.000000;0.463855
5391.000000;0.464301
5390.000000;0.464780
5389.000000;0.465288
5388.000000;0.465785
5387.000000;0.466221
5386.000000;0.466601
5385.000000;0.466988
5384.000000;0.467406
5383.000000;0.467824
5382.000000;0.468266
5381.000000;0.468804
5380.000000;0.469434
5379.000000;0.470072
5378.000000;0.470674
5377.000000;0.471288
5376.000000;0.471948
5375.000000;0.472603
5374.000000;0.473202
5373.000000;0.473798
5372.000000;0.474462
5371.000000;0.475187
5370.000000;0.475910
5369.000000;0.476596
5368.000000;0.477276
5367.000000;0.478020
5366.000000;0.478893
5365.000000;0.479905
5364.000000;0.480970
5363.000000;0.481980
5362.000000;0.482915
5361.000000;0.483826
5360.000000;0.484717
5359.000000;0.485563
5358.000000;0.486411
5357.000000;0.487367
5356.000000;0.488438
5355.000000;0.489525
5354.000000;0.490574
5353.000000;0.491654
5352.000000;0.492809
5351.000000;0.493983
5350.000000;0.495157
5349.000000;0.496394
5348.000000;0.497677
5347.000000;0.498887
5346.000000;0.499989
5345.000000;0.501147
5344.000000;0.502532
5343.000000;0.504091
5342.000000;0.505604
5341.000000;0.506918
5340.000000;0.508004
5339.000000;0.508927
5338.000000;0.509914
5337.000000;0.511277
5336.000000;0.513107
5335.000000;0.515162
5334.000000;0.517108
5333.000000;0.518747
5332.000000;0.520023
5331.000000;0.520962
5330.000000;0.521703
5329.000000;0.522434
5328.000000;0.523233
5327.000000;0.524077
5326.000000;0.524960
5325.000000;0.525845
5324.000000;0.526585
5323.000000;0.527077
5322.000000;0.527441
5321.000000;0.527762
5320.000000;0.527714
5319.000000;0.526782
5318.000000;0.524873
5317.000000;0.522281
5316.000000;0.519100
5315.000000;0.515237
5314.000000;0.511027
5313.000000;0.507112
5312.000000;0.503404
5311.000000;0.498721
5310.000000;0.491886
5309.000000;0.482840
5308.000000;0.472322
5307.000000;0.460816
5306.000000;0.448081
5305.000000;0.433562
5304.000000;0.417103
5303.000000;0.399323
5302.000000;0.381428
5301.000000;0.364922
5300.000000;0.351909
5299.000000;0.345441
5298.000000;0.348944
5297.000000;0.364232
5296.000000;0.388840
5295.000000;0.418160
5294.000000;0.452213
5293.000000;0.494022
5292.000000;0.541289
5291.000000;0.588364
5290.000000;0.634392
5289.000000;0.679300
5288.000000;0.716042
5287.000000;0.739395
5286.000000;0.757519
5285.000000;0.780839
5284.000000;0.806872
5283.000000;0.827604
5282.000000;0.844792
5281.000000;0.864370
5280.000000;0.881901
5279.000000;0.889643
5278.000000;0.892599
5277.000000;0.900812
5276.000000;0.912485
5275.000000;0.919616
5274.000000;0.924672
5273.000000;0.935613
5272.000000;0.949528
5271.000000;0.956778
5270.000000;0.957739
5269.000000;0.961199
5268.000000;0.969431
5267.000000;0.978404
5266.000000;0.987539
5265.000000;0.996519
5264.000000;0.998363
5263.000000;0.989078
5262.000000;0.977254
5261.000000;0.971791
5260.000000;0.970231
5259.000000;0.969231
5258.000000;0.976167
5257.000000;0.997269
5256.000000;1.019960
5255.000000;1.022408
5254.000000;1.003633
5253.000000;0.982843
5252.000000;0.972514
5251.000000;0.972724
5250.000000;0.981643
5249.000000;0.995904
5248.000000;1.005485
5247.000000;1.003190
5246.000000;0.996540
5245.000000;0.997638
5244.000000;1.006091
5243.000000;1.011670
5242.000000;1.009843
5241.000000;1.002831
5240.000000;0.989514
5239.000000;0.969317
5238.000000;0.951748
5237.000000;0.948128
5236.000000;0.958005
5235.000000;0.972374
5234.000000;0.986785
5233.000000;1.001784
5232.000000;1.011929
5231.000000;1.008561
5230.000000;0.994328
5229.000000;0.981176
5228.000000;0.975361
5227.000000;0.975058
5226.000000;0.978294
5225.000000;0.983973
5224.000000;0.988451
5223.000000;0.989898
5222.000000;0.992279
5221.000000;0.996863
5220.000000;0.996595
5219.000000;0.988765
5218.000000;0.983637
5217.000000;0.989361
5216.000000;0.998030
5215.000000;0.996730
5214.000000;0.988481
5213.000000;0.986356
5212.000000;0.992059
5211.000000;0.996219
5210.000000;0.996167
5209.000000;0.999510
5208.000000;1.009381
5207.000000;1.019232
5206.000000;1.023242
5205.000000;1.020935
5204.000000;1.011284
5203.000000;0.994819
5202.000000;0.980414
5201.000000;0.978074
5200.000000;0.986588
5199.000000;0.995612
5198.000000;0.999513
5197.000000;1.001457
5196.000000;1.002744
5195.000000;0.999802
5194.000000;0.993582
5193.000000;0.990728
5192.000000;0.994436
5191.000000;1.001144
5190.000000;1.006471
5189.000000;1.008709
5188.000000;1.005872
5187.000000;0.996976
5186.000000;0.986107
5185.000000;0.978405
5184.000000;0.974292
5183.000000;0.970990
5182.000000;0.967049
5181.000000;0.962762
5180.000000;0.957704
5179.000000;0.952661
5178.000000;0.952335
5177.000000;0.961088
5176.000000;0.977257
5175.000000;0.994495
5174.000000;1.006653
5173.000000;1.009250
5172.000000;1.001071
5171.000000;0.988133
5170.000000;0.980670
5169.000000;0.982828
5168.000000;0.989338
5167.000000;0.994010
5166.000000;0.997666
5165.000000;1.002144
5164.000000;1.002578
5163.000000;0.995853
5162.000000;0.988192
5161.000000;0.985555
5160.000000;0.985446
5159.000000;0.983710
5158.000000;0.982872
5157.000000;0.986446
5156.000000;0.989936
5155.000000;0.987601
5154.000000;0.983522
5153.000000;0.984547
5152.000000;0.987710
5151.000000;0.985408
5150.000000;0.978871
5149.000000;0.975778
5148.000000;0.978367
5147.000000;0.982656
5146.000000;0.986409
5145.000000;0.989556
5144.000000;0.988455
5143.000000;0.981774
5142.000000;0.976415
5141.000000;0.979835
5140.000000;0.991678
5139.000000;1.005023
5138.000000;1.013047
5137.000000;1.010841
5136.000000;0.996472
5135.000000;0.976575
5134.000000;0.962299
5133.000000;0.958226
5132.000000;0.960157
5131.000000;0.963111
5130.000000;0.968122
5129.000000;0.976231
5128.000000;0.981807
5127.000000;0.981560
5126.000000;0.981674
5125.000000;0.986791
5124.000000;0.991460
5123.000000;0.988795
5122.000000;0.982420
5121.000000;0.980835
5120.000000;0.984064
5119.000000;0.986173
5118.000000;0.986611
5117.000000;0.988345
5116.000000;0.988823
5115.000000;0.984161
5114.000000;0.978871
5113.000000;0.979780
5112.000000;0.984188
5111.000000;0.983976
5110.000000;0.978617
5109.000000;0.974452
5108.000000;0.973621
5107.000000;0.973376
5106.000000;0.974483
5105.000000;0.980685
5104.000000;0.989473
5103.000000;0.992751
5102.000000;0.988037
5101.000000;0.980968
5100.000000;0.976836
5099.000000;0.977403
5098.000000;0.983023
5097.000000;0.990143
5096.000000;0.989920
5095.000000;0.978142
5094.000000;0.963273
5093.000000;0.956205
5092.000000;0.957839
5091.000000;0.961936
5090.000000;0.964711
5089.000000;0.965520
5088.000000;0.960812
5087.000000;0.949399
5086.000000;0.941025
5085.000000;0.946005
5084.000000;0.961284
5083.000000;0.974176
5082.000000;0.978410
5081.000000;0.978555
5080.000000;0.977846
5079.000000;0.973992
5078.000000;0.967645
5077.000000;0.963234
5076.000000;0.960411
5075.000000;0.955057
5074.000000;0.948755
5073.000000;0.947973
5072.000000;0.953919
5071.000000;0.961017
5070.000000;0.965819
5069.000000;0.970522
5068.000000;0.976103
5067.000000;0.978552
5066.000000;0.974060
5065.000000;0.963198
5064.000000;0.948646
5063.000000;0.934065
5062.000000;0.925264
5061.000000;0.926835
5060.000000;0.937712
5059.000000;0.953174
5058.000000;0.969676
5057.000000;0.984139
5056.000000;0.989965
5055.000000;0.980954
5054.000000;0.962023
5053.000000;0.945228
5052.000000;0.936573
5051.000000;0.935290
5050.000000;0.939678
5049.000000;0.947439
5048.000000;0.953010
5047.000000;0.951074
5046.000000;0.942753
5045.000000;0.932632
5044.000000;0.922691
5043.000000;0.914349
5042.000000;0.910997
5041.000000;0.912927
5040.000000;0.913292
5039.000000;0.905874
5038.000000;0.894992
5037.000000;0.890460
5036.000000;0.895948
5035.000000;0.907153
5034.000000;0.918192
5033.000000;0.925414
5032.000000;0.926094
5031.000000;0.919572
5030.000000;0.910280
5029.000000;0.904299
5028.000000;0.902907
5027.000000;0.902155
5026.000000;0.898569
5025.000000;0.892769
5024.000000;0.886058
5023.000000;0.878638
5022.000000;0.872455
5021.000000;0.869402
5020.000000;0.867337
5019.000000;0.862974
5018.000000;0.857052
5017.000000;0.852546
5016.000000;0.850141
5015.000000;0.848833
5014.000000;0.848039
5013.000000;0.845971
5012.000000;0.839495
5011.000000;0.829209
5010.000000;0.820689
5009.000000;0.817505
5008.000000;0.817263
5007.000000;0.816912
5006.000000;0.817328
5005.000000;0.818581
5004.000000;0.815772
5003.000000;0.806015
5002.000000;0.795252
5001.000000;0.790814
5000.000000;0.791450
4999.000000;0.790523
4998.000000;0.785861
4997.000000;0.779998
4996.000000;0.773537
4995.000000;0.765614
4994.000000;0.758121
4993.000000;0.753974
4992.000000;0.752102
4991.000000;0.748018
4990.000000;0.739717
4989.000000;0.729654
4988.000000;0.721125
4987.000000;0.715688
4986.000000;0.712835
4985.000000;0.709585
4984.000000;0.702248
4983.000000;0.690755
4982.000000;0.678957
4981.000000;0.669183
4980.000000;0.660084
4979.000000;0.651470
4978.000000;0.646458
4977.000000;0.645605
4976.000000;0.643677
4975.000000;0.636505
4974.000000;0.627165
4973.000000;0.620289
4972.000000;0.614974
4971.000000;0.608472
4970.000000;0.602387
4969.000000;0.599330
4968.000000;0.596635
4967.000000;0.589511
4966.000000;0.578699
4965.000000;0.569158
4964.000000;0.562406
4963.000000;0.555855
4962.000000;0.548214
4961.000000;0.540615
4960.000000;0.533021
4959.000000;0.524400
4958.000000;0.515974
4957.000000;0.509908
4956.000000;0.505450
4955.000000;0.500026
4954.000000;0.493401
4953.000000;0.487052
4952.000000;0.480451
4951.000000;0.471764
4950.000000;0.461415
4949.000000;0.451806
4948.000000;0.443926
4947.000000;0.437189
4946.000000;0.431522
4945.000000;0.426585
4944.000000;0.419840
4943.000000;0.409170
4942.000000;0.396918
4941.000000;0.387837
4940.000000;0.383365
4939.000000;0.380710
4938.000000;0.376849
4937.000000;0.370854
4936.000000;0.362581
4935.000000;0.351940
4934.000000;0.339845
4933.000000;0.328035
4932.000000;0.317638
4931.000000;0.309007
4930.000000;0.302396
4929.000000;0.297436
4928.000000;0.292599
4927.000000;0.286653
4926.000000;0.279875
4925.000000;0.272600
4924.000000;0.264042
4923.000000;0.254034
4922.000000;0.244554
4921.000000;0.237415
4920.000000;0.231501
4919.000000;0.224459
4918.000000;0.216178
4917.000000;0.208451
4916.000000;0.201956
4915.000000;0.195593
4914.000000;0.188253
4913.000000;0.179516
4912.000000;0.169132
4911.000000;0.157627
4910.000000;0.147130
4909.000000;0.139669
4908.000000;0.134658
4907.000000;0.129366
4906.000000;0.121869
4905.000000;0.112532
4904.000000;0.103005
4903.000000;0.094873
4902.000000;0.088652
4901.000000;0.082930
4900.000000;0.075084
4899.000000;0.064151
4898.000000;0.052476
4897.000000;0.043474
4896.000000;0.038451
4895.000000;0.036200
4894.000000;0.034537
4893.000000;0.031189
4892.000000;0.024531
4891.000000;0.015178
4890.000000;0.006164
4889.000000;0.000070
4888.000000;-0.003448
4887.000000;-0.006390
4886.000000;-0.009662
4885.000000;-0.012942
4884.000000;-0.016366
4883.000000;-0.020562
4882.000000;-0.025296
4881.000000;-0.029696
4880.000000;-0.033794
4879.000000;-0.038530
4878.000000;-0.044136
4877.000000;-0.049667
4876.000000;-0.054251
4875.000000;-0.057818
4874.000000;-0.060505
4873.000000;-0.062276
4872.000000;-0.063459
4871.000000;-0.064820
4870.000000;-0.066530
4869.000000;-0.067659
4868.000000;-0.067271
4867.000000;-0.065789
4866.000000;-0.064833
4865.000000;-0.065655
4864.000000;-0.067968
4863.000000;-0.070206
4862.000000;-0.070949
4861.000000;-0.070117
4860.000000;-0.068713
4859.000000;-0.067591
4858.000000;-0.066815
4857.000000;-0.066156
4856.000000;-0.065492
4855.000000;-0.064375
4854.000000;-0.061955
4853.000000;-0.058123
4852.000000;-0.054161
4851.000000;-0.051426
4850.000000;-0.049663
4849.000000;-0.047566
4848.000000;-0.044773
4847.000000;-0.042119
4846.000000;-0.039989
4845.000000;-0.037686
4844.000000;-0.034784
4843.000000;-0.031965
4842.000000;-0.029851
4841.000000;-0.027909
4840.000000;-0.025192
4839.000000;-0.021552
4838.000000;-0.017556
4837.000000;-0.013765
4836.000000;-0.010570
4835.000000;-0.008110
4834.000000;-0.005850
4833.000000;-0.002801
4832.000000;0.001290
4831.000000;0.005427
4830.000000;0.008588
4829.000000;0.010982
4828.000000;0.013535
4827.000000;0.016636
4826.000000;0.019997
4825.000000;0.023397
4824.000000;0.026800
4823.000000;0.029931
4822.000000;0.032490
4821.000000;0.034767
4820.000000;0.037513
4819.000000;0.041104
4818.000000;0.045178
4817.000000;0.049063
4816.000000;0.052280
4815.000000;0.054752
4814.000000;0.056875
4813.000000;0.059314
4812.000000;0.062445
4811.000000;0.066036
4810.000000;0.069476
4809.000000;0.072446
4808.000000;0.075002
4807.000000;0.077385
4806.000000;0.079847
4805.000000;0.082626
4804.000000;0.085875
4803.000000;0.089476
4802.000000;0.093094
4801.000000;0.096375
4800.000000;0.099100
4799.000000;0.101302
4798.000000;0.103307
4797.000000;0.105485
4796.000000;0.107889
4795.000000;0.110298
4794.000000;0.112646
4793.000000;0.115148
4792.000000;0.117931
4791.000000;0.120820
4790.000000;0.123639
4789.000000;0.126433
4788.000000;0.129179
4787.000000;0.131546
4786.000000;0.133270
4785.000000;0.134633
4784.000000;0.136264
4783.000000;0.138504
4782.000000;0.141174
4781.000000;0.143923
4780.000000;0.146566
4779.000000;0.149067
4778.000000;0.151388
4777.000000;0.153528
4776.000000;0.155644
4775.000000;0.157979
4774.000000;0.160611
4773.000000;0.163332
4772.000000;0.165886
4771.000000;0.168270
4770.000000;0.170650
4769.000000;0.172995
4768.000000;0.175032
4767.000000;0.176642
4766.000000;0.178032
4765.000000;0.179380
4764.000000;0.180607
4763.000000;0.181725
4762.000000;0.183130
4761.000000;0.185208
4760.000000;0.187801
4759.000000;0.190399
4758.000000;0.192688
4757.000000;0.194617
4756.000000;0.196149
4755.000000;0.197402
4754.000000;0.198890
4753.000000;0.201102
4752.000000;0.203801
4751.000000;0.206181
4750.000000;0.207789
4749.000000;0.208894
4748.000000;0.209954
4747.000000;0.211157
4746.000000;0.212574
4745.000000;0.214288
4744.000000;0.216159
4743.000000;0.217856
4742.000000;0.219327
4741.000000;0.220902
4740.000000;0.222742
4739.000000;0.224528
4738.000000;0.225938
4737.000000;0.227126
4736.000000;0.228468
4735.000000;0.230059
4734.000000;0.231746
4733.000000;0.233461
4732.000000;0.235242
4731.000000;0.237041
4730.000000;0.238745
4729.000000;0.240294
4728.000000;0.241646
4727.000000;0.242735
4726.000000;0.243635
4725.000000;0.244598
4724.000000;0.245765
4723.000000;0.246961
4722.000000;0.247984
4721.000000;0.248982
4720.000000;0.250291
4719.000000;0.251953
4718.000000;0.253601
4717.000000;0.254868
4716.000000;0.255757
4715.000000;0.256588
4714.000000;0.257677
4713.000000;0.259091
4712.000000;0.260637
4711.000000;0.262050
4710.000000;0.263210
4709.000000;0.264188
4708.000000;0.265108
4707.000000;0.266020
4706.000000;0.266927
4705.000000;0.267880
4704.000000;0.268975
4703.000000;0.270241
4702.000000;0.271560
4701.000000;0.272745
4700.000000;0.273739
4699.000000;0.274693
4698.000000;0.275767
4697.000000;0.276879
4696.000000;0.277771
4695.000000;0.278394
4694.000000;0.279043
4693.000000;0.280018
4692.000000;0.281276
4691.000000;0.282559
4690.000000;0.283731
4689.000000;0.284788
4688.000000;0.285677
4687.000000;0.286351
4686.000000;0.286958
4685.000000;0.287732
4684.000000;0.288684
4683.000000;0.289592
4682.000000;0.290307
4681.000000;0.290885
4680.000000;0.291434
4679.000000;0.292035
4678.000000;0.292835
4677.000000;0.293954
4676.000000;0.295249
4675.000000;0.296378
4674.000000;0.297205
4673.000000;0.297964
4672.000000;0.298901
4671.000000;0.299941
4670.000000;0.300837
4669.000000;0.301525
4668.000000;0.302177
4667.000000;0.302954
4666.000000;0.303827
4665.000000;0.304629
4664.000000;0.305235
4663.000000;0.305683
4662.000000;0.306155
4661.000000;0.306826
4660.000000;0.307725
4659.000000;0.308767
4658.000000;0.309827
4657.000000;0.310742
4656.000000;0.311322
4655.000000;0.311499
4654.000000;0.311469
4653.000000;0.311591
4652.000000;0.312122
4651.000000;0.313065
4650.000000;0.314203
4649.000000;0.315207
4648.000000;0.315823
4647.000000;0.316113
4646.000000;0.316458
4645.000000;0.317175
4644.000000;0.318169
4643.000000;0.319065
4642.000000;0.319636
4641.000000;0.319956
4640.000000;0.320219
4639.000000;0.320605
4638.000000;0.321269
4637.000000;0.322234
4636.000000;0.323266
4635.000000;0.324070
4634.000000;0.324620
4633.000000;0.325136
4632.000000;0.325719
4631.000000;0.326231
4630.000000;0.326577
4629.000000;0.326912
4628.000000;0.327446
4627.000000;0.328169
4626.000000;0.328869
4625.000000;0.329339
4624.000000;0.329525
4623.000000;0.329584
4622.000000;0.329813
4621.000000;0.330401
4620.000000;0.331212
4619.000000;0.331907
4618.000000;0.332293
4617.000000;0.332446
4616.000000;0.332517
4615.000000;0.332600
4614.000000;0.332821
4613.000000;0.333346
4612.000000;0.334162
4611.000000;0.334993
4610.000000;0.335550
4609.000000;0.335813
4608.000000;0.335968
4607.000000;0.336161
4606.000000;0.336397
4605.000000;0.336636
4604.000000;0.336908
4603.000000;0.337308
4602.000000;0.337897
4601.000000;0.338610
4600.000000;0.339285
4599.000000;0.339829
4598.000000;0.340311
4597.000000;0.340822
4596.000000;0.341317
4595.000000;0.341693
4594.000000;0.341997
4593.000000;0.342373
4592.000000;0.342822
4591.000000;0.343178
4590.000000;0.343352
4589.000000;0.343448
4588.000000;0.343586
4587.000000;0.343752
4586.000000;0.343905
4585.000000;0.344098
4584.000000;0.344404
4583.000000;0.344789
4582.000000;0.345164
4581.000000;0.345489
4580.000000;0.345769
4579.000000;0.345977
4578.000000;0.346076
4577.000000;0.346090
4576.000000;0.346105
4575.000000;0.346209
4574.000000;0.346461
4573.000000;0.346879
4572.000000;0.347407
4571.000000;0.347909
4570.000000;0.348233
4569.000000;0.348345
4568.000000;0.348396
4567.000000;0.348609
4566.000000;0.349042
4565.000000;0.349469
4564.000000;0.349618
4563.000000;0.349518
4562.000000;0.349521
4561.000000;0.349888
4560.000000;0.350485
4559.000000;0.350955
4558.000000;0.351105
4557.000000;0.351031
4556.000000;0.350949
4555.000000;0.351005
4554.000000;0.351216
4553.000000;0.351479
4552.000000;0.351685
4551.000000;0.351864
4550.000000;0.352138
4549.000000;0.352465
4548.000000;0.352608
4547.000000;0.352479
4546.000000;0.352343
4545.000000;0.352481
4544.000000;0.352801
4543.000000;0.353008
4542.000000;0.353051
4541.000000;0.353108
4540.000000;0.353187
4539.000000;0.353067
4538.000000;0.352708
4537.000000;0.352439
4536.000000;0.352577
4535.000000;0.353036
4534.000000;0.353438
4533.000000;0.353518
4532.000000;0.353331
4531.000000;0.353143
4530.000000;0.353199
4529.000000;0.353528
4528.000000;0.353935
4527.000000;0.354202
4526.000000;0.354280
4525.000000;0.354256
4524.000000;0.354184
4523.000000;0.354089
4522.000000;0.354069
4521.000000;0.354243
4520.000000;0.354593
4519.000000;0.354968
4518.000000;0.355243
4517.000000;0.355368
4516.000000;0.355322
4515.000000;0.355169
4514.000000;0.355125
4513.000000;0.355358
4512.000000;0.355728
4511.000000;0.355893
4510.000000;0.355734
4509.000000;0.355495
4508.000000;0.355469
4507.000000;0.355682
4506.000000;0.355955
4505.000000;0.356111
4504.000000;0.356071
4503.000000;0.355872
4502.000000;0.355660
4501.000000;0.355594
4500.000000;0.355690
4499.000000;0.355845
4498.000000;0.356016
4497.000000;0.356248
4496.000000;0.356521
4495.000000;0.356677
4494.000000;0.356584
4493.000000;0.356308
4492.000000;0.356052
4491.000000;0.355974
4490.000000;0.356086
4489.000000;0.356267
4488.000000;0.356381
4487.000000;0.356412
4486.000000;0.356479
4485.000000;0.356678
4484.000000;0.356941
4483.000000;0.357122
4482.000000;0.357162
4481.000000;0.357082
4480.000000;0.356892
4479.000000;0.356629
4478.000000;0.356437
4477.000000;0.356452
4476.000000;0.356611
4475.000000;0.356724
4474.000000;0.356729
4473.000000;0.356735
4472.000000;0.356802
4471.000000;0.356824
4470.000000;0.356688
4469.000000;0.356438
4468.000000;0.356248
4467.000000;0.356283
4466.000000;0.356583
4465.000000;0.356985
4464.000000;0.357183
4463.000000;0.356978
4462.000000;0.356505
4461.000000;0.356142
4460.000000;0.356170
4459.000000;0.356538
4458.000000;0.356941
4457.000000;0.357039
4456.000000;0.356674
4455.000000;0.355999
4454.000000;0.355430
4453.000000;0.355369
4452.000000;0.355927
4451.000000;0.356853
4450.000000;0.357676
4449.000000;0.357968
4448.000000;0.357634
4447.000000;0.357011
4446.000000;0.356582
4445.000000;0.356525
4444.000000;0.356657
4443.000000;0.356820
4442.000000;0.357079
4441.000000;0.357422
4440.000000;0.357541
4439.000000;0.357188
4438.000000;0.356567
4437.000000;0.356124
4436.000000;0.356039
4435.000000;0.356162
4434.000000;0.356344
4433.000000;0.356562
4432.000000;0.356767
4431.000000;0.356888
4430.000000;0.356985
4429.000000;0.357182
4428.000000;0.357424
4427.000000;0.357485
4426.000000;0.357248
4425.000000;0.356809
4424.000000;0.356332
4423.000000;0.355967
4422.000000;0.355849
4421.000000;0.355987
4420.000000;0.356167
4419.000000;0.356158
4418.000000;0.356038
4417.000000;0.356128
4416.000000;0.356547
4415.000000;0.356946
4414.000000;0.356767
4413.000000;0.355793
4412.000000;0.354473
4411.000000;0.353637
4410.000000;0.353740
4409.000000;0.354396
4408.000000;0.354819
4407.000000;0.354734
4406.000000;0.354539
4405.000000;0.354518
4404.000000;0.354373
4403.000000;0.353769
4402.000000;0.352962
4401.000000;0.352458
4400.000000;0.352327
4399.000000;0.352239
4398.000000;0.351992
4397.000000;0.351661
4396.000000;0.351351
4395.000000;0.351118
4394.000000;0.350960
4393.000000;0.350642
4392.000000;0.349780
4391.000000;0.348422
4390.000000;0.347231
4389.000000;0.346688
4388.000000;0.346424
4387.000000;0.345808
4386.000000;0.344875
4385.000000;0.344100
4384.000000;0.343516
4383.000000;0.342731
4382.000000;0.341702
4381.000000;0.340766
4380.000000;0.339931
4379.000000;0.338846
4378.000000;0.337566
4377.000000;0.336672
4376.000000;0.336427
4375.000000;0.336369
4374.000000;0.335984
4373.000000;0.335287
4372.000000;0.334487
4371.000000;0.333520
4370.000000;0.332231
4369.000000;0.330718
4368.000000;0.329284
4367.000000;0.328221
4366.000000;0.327720
4365.000000;0.327665
4364.000000;0.327473
4363.000000;0.326507
4362.000000;0.324816
4361.000000;0.323163
4360.000000;0.322215
4359.000000;0.321929
4358.000000;0.321767
4357.000000;0.321199
4356.000000;0.319937
4355.000000;0.318045
4354.000000;0.315998
4353.000000;0.314379
4352.000000;0.313355
4351.000000;0.312565
4350.000000;0.311549
4349.000000;0.310132
4348.000000;0.308432
4347.000000;0.306728
4346.000000;0.305279
4345.000000;0.304096
4344.000000;0.302955
4343.000000;0.301791
4342.000000;0.300862
4341.000000;0.300322
4340.000000;0.299871
4339.000000;0.299116
4338.000000;0.298007
4337.000000;0.296607
4336.000000;0.294785
4335.000000;0.292615
4334.000000;0.290703
4333.000000;0.289495
4332.000000;0.288484
4331.000000;0.286785
4330.000000;0.284427
4329.000000;0.282396
4328.000000;0.281439
4327.000000;0.281426
4326.000000;0.281832
4325.000000;0.282129
4324.000000;0.281699
4323.000000;0.280089
4322.000000;0.277605
4321.000000;0.275200
4320.000000;0.273557
4319.000000;0.272544
4318.000000;0.271583
4317.000000;0.270292
4316.000000;0.268791
4315.000000;0.267529
4314.000000;0.266688
4313.000000;0.265629
4312.000000;0.263367
4311.000000;0.259877
4310.000000;0.256332
4309.000000;0.253743
4308.000000;0.252229
4307.000000;0.251980
4306.000000;0.253674
4305.000000;0.257006
4304.000000;0.259726
4303.000000;0.259612
4302.000000;0.257028
4301.000000;0.254141
4300.000000;0.252145
4299.000000;0.250656
4298.000000;0.249252
4297.000000;0.248052
4296.000000;0.246997
4295.000000;0.246017
4294.000000;0.245969
4293.000000;0.247952
4292.000000;0.251468
4291.000000;0.254597
4290.000000;0.256176
4289.000000;0.256421
4288.000000;0.255555
4287.000000;0.253670
4286.000000;0.252072
4285.000000;0.252720
4284.000000;0.255616
4283.000000;0.258285
4282.000000;0.258766
4281.000000;0.258121
4280.000000;0.259031
4279.000000;0.262660
4278.000000;0.267554
4277.000000;0.271224
4276.000000;0.272522
4275.000000;0.272962
4274.000000;0.275660
4273.000000;0.282408
4272.000000;0.291929
4271.000000;0.301230
4270.000000;0.308326
4269.000000;0.313120
4268.000000;0.316270
4267.000000;0.318357
4266.000000;0.320050
4265.000000;0.322042
4264.000000;0.324975
4263.000000;0.330118
4262.000000;0.338605
4261.000000;0.349104
4260.000000;0.358346
4259.000000;0.365454
4258.000000;0.373214
4257.000000;0.383017
4256.000000;0.391476
4255.000000;0.395563
4254.000000;0.398603
4253.000000;0.406306
4252.000000;0.418901
4251.000000;0.431398
4250.000000;0.440730
4249.000000;0.448170
4248.000000;0.454846
4247.000000;0.460042
4246.000000;0.465186
4245.000000;0.473814
4244.000000;0.486324
4243.000000;0.498994
4242.000000;0.509289
4241.000000;0.518225
4240.000000;0.526256
4239.000000;0.531852
4238.000000;0.536313
4237.000000;0.545371
4236.000000;0.562329
4235.000000;0.582412
4234.000000;0.597053
4233.000000;0.602911
4232.000000;0.603885
4231.000000;0.605568
4230.000000;0.611147
4229.000000;0.621646
4228.000000;0.636142
4227.000000;0.651348
4226.000000;0.663980
4225.000000;0.673664
4224.000000;0.682815
4223.000000;0.693865
4222.000000;0.706329
4221.000000;0.716891
4220.000000;0.723519
4219.000000;0.729298
4218.000000;0.740045
4217.000000;0.758364
4216.000000;0.781624
4215.000000;0.804848
4214.000000;0.823670
4213.000000;0.834780
4212.000000;0.838022
4211.000000;0.839690
4210.000000;0.848219
4209.000000;0.864594
4208.000000;0.880603
4207.000000;0.888906
4206.000000;0.891481
4205.000000;0.894173
4204.000000;0.898590
4203.000000;0.904507
4202.000000;0.913715
4201.000000;0.925723
4200.000000;0.935503
4199.000000;0.941695
4198.000000;0.950393
4197.000000;0.963375
4196.000000;0.972641
4195.000000;0.975819
4194.000000;0.985842
4193.000000;1.013084
4192.000000;1.045173
4191.000000;1.057332
4190.000000;1.048520
4189.000000;1.041272
4188.000000;1.047481
4187.000000;1.061267
4186.000000;1.077237
4185.000000;1.099641
4184.000000;1.129152
4183.000000;1.151639
4182.000000;1.154901
4181.000000;1.149811
4180.000000;1.150809
4179.000000;1.158535
4178.000000;1.166507
4177.000000;1.168891
4176.000000;1.169198
4175.000000;1.177096
4174.000000;1.200616
4173.000000;1.242723
4172.000000;1.293569
4171.000000;1.327990
4170.000000;1.328135
4169.000000;1.307048
4168.000000;1.289187
4167.000000;1.291154
4166.000000;1.317226
4165.000000;1.349517
4164.000000;1.355068
4163.000000;1.335029
4162.000000;1.328016
4161.000000;1.355692
4160.000000;1.405473
4159.000000;1.452597
4158.000000;1.485364
4157.000000;1.491143
4156.000000;1.460614
4155.000000;1.411149
4154.000000;1.376347
4153.000000;1.381332
4152.000000;1.423956
4151.000000;1.474584
4150.000000;1.495340
4149.000000;1.472283
4148.000000;1.436685
4147.000000;1.425292
4146.000000;1.452533
4145.000000;1.518398
4144.000000;1.596392
4143.000000;1.620044
4142.000000;1.566818
4141.000000;1.504937
4140.000000;1.484560
4139.000000;1.509685
4138.000000;1.562455
4137.000000;1.619138
4136.000000;1.668081
4135.000000;1.716812
4134.000000;1.767468
4133.000000;1.808833
4132.000000;1.834728
4131.000000;1.851345
4130.000000;1.838949
4129.000000;1.760012
4128.000000;1.649141
4127.000000;1.566816
4126.000000;1.548028
4125.000000;1.598448
4124.000000;1.680526
4123.000000;1.729344
4122.000000;1.735436
4121.000000;1.735505
4120.000000;1.724482
4119.000000;1.694092
4118.000000;1.668434
4117.000000;1.680701
4116.000000;1.726922
4115.000000;1.745626
4114.000000;1.747855
4113.000000;1.767068
4112.000000;1.769706
4111.000000;1.750675
4110.000000;1.745946
4109.000000;1.786404
4108.000000;1.872365
4107.000000;1.944444
4106.000000;1.941002
4105.000000;1.920934
4104.000000;1.919399
4103.000000;1.937891
4102.000000;2.031258
4101.000000;2.282226
4100.000000;2.829946
4099.000000;2.897649
4098.000000;2.395283
4097.000000;2.067795
4096.000000;1.880132
4095.000000;1.811358
4094.000000;1.853700
4093.000000;2.011294
4092.000000;2.212570
4091.000000;2.244967
4090.000000;2.170141
4089.000000;2.104594
4088.000000;2.055321
4087.000000;1.998326
4086.000000;1.933217
4085.000000;1.876322
4084.000000;1.828523
4083.000000;1.789542
4082.000000;1.767488
4081.000000;1.762371
4080.000000;1.780501
4079.000000;1.847890
4078.000000;1.986510
4077.000000;2.091698
4076.000000;2.071122
4075.000000;2.094114
4074.000000;2.072424
4073.000000;1.960486
4072.000000;1.877931
4071.000000;1.827197
4070.000000;1.823253
4069.000000;1.873641
4068.000000;1.897753
4067.000000;1.906984
4066.000000;2.007266
4065.000000;2.199739
4064.000000;2.053205
4063.000000;1.921568
4062.000000;1.962133
4061.000000;2.146517
4060.000000;2.300479
4059.000000;2.177923
4058.000000;1.984306
4057.000000;1.892145
4056.000000;1.944513
4055.000000;2.141888
4054.000000;2.338484
4053.000000;2.583309
4052.000000;2.777215
4051.000000;2.164196
4050.000000;1.917405
4049.000000;1.852006
4048.000000;1.892273
4047.000000;1.982898
4046.000000;2.057423
4045.000000;2.062861
4044.000000;2.034798
4043.000000;2.031746
4042.000000;2.070413
4041.000000;2.153574
4040.000000;2.240781
4039.000000;2.208308
4038.000000;2.073710
4037.000000;1.982007
4036.000000;2.000488
4035.000000;2.140688
4034.000000;2.312099
4033.000000;2.238615
4032.000000;2.044642
4031.000000;1.920338
4030.000000;1.929098
4029.000000;2.064527
4028.000000;2.175644
4027.000000;2.148346
4026.000000;2.139823
4025.000000;2.197874
4024.000000;2.316334
4023.000000;2.364581
4022.000000;2.366018
4021.000000;2.539806
4020.000000;2.678948
4019.000000;2.535427
4018.000000;2.358913
4017.000000;2.225685
4016.000000;2.208832
4015.000000;2.286176
4014.000000;2.410085
4013.000000;2.411804
4012.000000;2.256245
4011.000000;2.216971
4010.000000;2.419934
4009.000000;2.475965
4008.000000;2.087113
4007.000000;1.910493
4006.000000;1.857865
4005.000000;1.902400
4004.000000;2.031026
4003.000000;2.404960
4002.000000;2.536348
4001.000000;2.044932
4000.000000;2.015476
3999.000000;2.356437
3998.000000;2.439810
3997.000000;1.974754
3996.000000;2.054871
3995.000000;2.323937
3994.000000;2.002893
3993.000000;1.750411
3992.000000;1.756124
3991.000000;1.891513
3990.000000;2.291128
3989.000000;2.537895
3988.000000;2.161832
3987.000000;2.064618
3986.000000;2.178661
3985.000000;2.222215
3984.000000;2.008434
3983.000000;1.876717
3982.000000;1.848544
3981.000000;1.907900
3980.000000;2.027184
3979.000000;2.105034
3978.000000;2.076626
3977.000000;2.059460
3976.000000;2.171877
3975.000000;2.518669
3974.000000;2.380093
3973.000000;2.076908
3972.000000;2.146843
3971.000000;2.536115
3970.000000;2.232782
3969.000000;1.955294
3968.000000;1.990655
3967.000000;2.089128
3966.000000;2.111186
3965.000000;2.074025
3964.000000;2.095633
3963.000000;2.072557
3962.000000;1.984516
3961.000000;1.978741
3960.000000;2.149254
3959.000000;2.400789
3958.000000;2.213108
3957.000000;2.171819
3956.000000;2.331028
3955.000000;2.229088
3954.000000;2.036589
3953.000000;2.027684
3952.000000;2.192831
3951.000000;2.479398
3950.000000;2.603189
3949.000000;2.634465
3948.000000;2.645383
3947.000000;2.538320
3946.000000;2.481236
3945.000000;2.301626
3944.000000;2.096343
3943.000000;2.053207
3942.000000;2.142387
3941.000000;2.548859
3940.000000;2.904806
3939.000000;2.400753
3938.000000;2.237454
3937.000000;2.236648
3936.000000;2.385557
3935.000000;2.587403
3934.000000;2.671649
3933.000000;2.508133
3932.000000;2.224480
3931.000000;1.981408
3930.000000;1.880738
3929.000000;1.945427
3928.000000;2.198334
3927.000000;2.297651
3926.000000;2.066650
3925.000000;1.966095
3924.000000;1.995943
3923.000000;2.094797
3922.000000;2.109740
3921.000000;2.243142
3920.000000;2.777056
3919.000000;2.571466
3918.000000;2.096134
3917.000000;1.941135
3916.000000;2.025848
3915.000000;2.293313
3914.000000;2.381418
3913.000000;2.377321
3912.000000;2.541209
3911.000000;2.847987
3910.000000;3.231594
3909.000000;2.897414
3908.000000;2.616147
3907.000000;2.529031
3906.000000;2.953380
3905.000000;2.411407
3904.000000;2.088916
3903.000000;2.006659
3902.000000;2.095252
3901.000000;2.450752
3900.000000;2.183158
3899.000000;2.009298
3898.000000;2.089363
3897.000000;2.409967
3896.000000;2.351507
3895.000000;2.180898
3894.000000;2.398258
3893.000000;2.709460
3892.000000;2.215063
3891.000000;2.097225
3890.000000;2.138445
3889.000000;2.267462
3888.000000;2.200381
3887.000000;2.325195
3886.000000;2.562713
3885.000000;2.395081
3884.000000;2.295145
3883.000000;2.152306
3882.000000;2.134679
3881.000000;2.249074
3880.000000;2.200344
3879.000000;2.163015
3878.000000;2.587278
3877.000000;2.506357
3876.000000;2.144721
3875.000000;2.106450
3874.000000;2.246237
3873.000000;2.755948
3872.000000;2.439613
3871.000000;2.296931
3870.000000;2.676396
3869.000000;2.329806
3868.000000;1.949965
3867.000000;1.877790
3866.000000;2.010142
3865.000000;2.266361
3864.000000;2.276930
3863.000000;2.320375
3862.000000;2.421393
3861.000000;2.267167
3860.000000;2.379598
3859.000000;2.420257
3858.000000;2.066121
3857.000000;1.896975
3856.000000;1.891713
3855.000000;2.132129
3854.000000;2.309063
3853.000000;2.335945
3852.000000;2.528226
3851.000000;2.700440
3850.000000;2.604279
3849.000000;2.573753
3848.000000;2.612217
3847.000000;2.674359
3846.000000;2.654430
3845.000000;2.425641
3844.000000;2.198832
3843.000000;2.090350
3842.000000;2.097272
3841.000000;2.220039
3840.000000;2.439534
3839.000000;2.548531
3838.000000;2.520634
3837.000000;2.584098
3836.000000;2.630548
3835.000000;2.486593
3834.000000;2.401460
3833.000000;2.480191
3832.000000;2.567880
3831.000000;3.095440
3830.000000;2.740835
3829.000000;2.453218
3828.000000;2.413264
3827.000000;2.333184
3826.000000;2.336411
3825.000000;2.404241
3824.000000;2.207774
3823.000000;2.043396
3822.000000;2.134549
3821.000000;2.524940
3820.000000;2.872525
3819.000000;2.512325
3818.000000;2.711233
3817.000000;2.787176
3816.000000;2.255048
3815.000000;2.136621
3814.000000;2.151894
3813.000000;2.236673
3812.000000;2.150479
3811.000000;2.037182
3810.000000;2.026565
3809.000000;2.089225
3808.000000;2.120627
3807.000000;2.087505
3806.000000;2.098172
3805.000000;2.212300
3804.000000;2.617326
3803.000000;3.077589
3802.000000;3.169658
3801.000000;2.916090
3800.000000;2.544810
3799.000000;2.455205
3798.000000;2.668020
3797.000000;2.702100
3796.000000;2.455053
3795.000000;2.258827
3794.000000;2.095024
3793.000000;2.038931
3792.000000;2.168983
3791.000000;2.459458
3790.000000;2.216632
3789.000000;2.025539
3788.000000;1.966652
3787.000000;2.043951
3786.000000;2.307040
3785.000000;2.877871
3784.000000;2.844152
3783.000000;2.548189
3782.000000;2.580569
3781.000000;2.423917
3780.000000;2.170476
3779.000000;2.067003
3778.000000;2.149510
3777.000000;2.432213
3776.000000;2.116771
3775.000000;1.872169
3774.000000;1.792395
3773.000000;1.707904
3772.000000;1.709835
3771.000000;1.881947
3770.000000;2.263708
3769.000000;2.012362
3768.000000;1.860888
3767.000000;1.944071
3766.000000;2.314527
3765.000000;3.327453
3764.000000;2.729842
3763.000000;2.875629
3762.000000;2.152040
3761.000000;2.017385
3760.000000;2.027969
3759.000000;2.135032
3758.000000;2.273570
3757.000000;2.399657
3756.000000;2.352561
3755.000000;2.130811
3754.000000;1.945480
3753.000000;1.893681
3752.000000;1.947836
3751.000000;1.995020
3750.000000;1.989575
3749.000000;1.961878
3748.000000;1.947677
3747.000000;1.988578
3746.000000;2.286710
3745.000000;2.398793
3744.000000;2.132628
3743.000000;2.065643
3742.000000;2.019458
3741.000000;2.011971
3740.000000;2.052754
3739.000000;2.122266
3738.000000;2.107549
3737.000000;2.000451
3736.000000;1.965517
3735.000000;2.038502
3734.000000;2.254147
3733.000000;2.480285
3732.000000;2.090341
3731.000000;1.870234
3730.000000;1.838825
3729.000000;1.996969
3728.000000;2.535215
3727.000000;2.510926
3726.000000;2.312934
3725.000000;2.304515
3724.000000;1.988043
3723.000000;1.874477
3722.000000;1.928959
3721.000000;2.125380
3720.000000;2.363497
3719.000000;2.451076
3718.000000;2.492812
3717.000000;2.606123
3716.000000;2.654207
3715.000000;2.818370
3714.000000;2.336315
3713.000000;2.109882
3712.000000;2.190066
3711.000000;2.483045
3710.000000;2.770922
3709.000000;2.554089
3708.000000;2.517245
3707.000000;2.739395
3706.000000;2.632178
3705.000000;2.271932
3704.000000;2.145290
3703.000000;2.083555
3702.000000;2.082786
3701.000000;2.087585
3700.000000;2.059018
3699.000000;2.024926
3698.000000;2.042889
3697.000000;2.098798
3696.000000;2.133613
3695.000000;2.133109
3694.000000;2.106011
3693.000000;2.109556
3692.000000;2.224026
3691.000000;2.640594
3690.000000;2.914112
3689.000000;2.526918
3688.000000;2.347647
3687.000000;2.270470
3686.000000;2.303361
3685.000000;2.328906
3684.000000;2.194841
3683.000000;2.168760
3682.000000;2.336735
3681.000000;2.666834
3680.000000;2.647162
3679.000000;2.338815
3678.000000;2.221308
3677.000000;2.334288
3676.000000;2.468255
3675.000000;2.662702
3674.000000;2.908577
3673.000000;2.413809
3672.000000;2.280775
3671.000000;2.833885
3670.000000;2.588203
3669.000000;2.229494
3668.000000;2.197849
3667.000000;2.244610
3666.000000;2.391927
3665.000000;2.176873
3664.000000;1.961387
3663.000000;1.950537
3662.000000;2.175124
3661.000000;2.406682
3660.000000;2.116143
3659.000000;2.072269
3658.000000;2.265763
3657.000000;2.305687
3656.000000;2.412170
3655.000000;2.398388
3654.000000;2.055714
3653.000000;1.934682
3652.000000;1.967993
3651.000000;2.316843
3650.000000;2.957557
3649.000000;2.520649
3648.000000;2.295899
3647.000000;2.303027
3646.000000;2.348507
3645.000000;2.138310
3644.000000;2.030407
3643.000000;2.158110
3642.000000;2.317882
3641.000000;2.117886
3640.000000;2.056940
3639.000000;2.166948
3638.000000;2.221462
3637.000000;2.279456
3636.000000;2.445529
3635.000000;2.593721
3634.000000;2.521631
3633.000000;2.413958
3632.000000;2.409525
3631.000000;2.108083
3630.000000;1.985553
3629.000000;2.278618
3628.000000;2.744074
3627.000000;2.035926
3626.000000;1.867188
3625.000000;1.857801
3624.000000;2.214708
3623.000000;2.769963
3622.000000;1.937636
3621.000000;1.899401
3620.000000;2.060222
3619.000000;2.230605
3618.000000;2.135038
3617.000000;2.111316
3616.000000;2.154340
3615.000000;2.266637
3614.000000;2.809540
3613.000000;2.342978
3612.000000;2.101156
3611.000000;2.209563
3610.000000;2.008519
3609.000000;1.992508
3608.000000;2.163443
3607.000000;2.242020
3606.000000;2.477805
3605.000000;2.658802
3604.000000;2.218487
3603.000000;2.093422
3602.000000;2.125601
3601.000000;2.338741
3600.000000;2.540742
3599.000000;2.376939
3598.000000;2.452874
3597.000000;2.839623
3596.000000;3.080795
3595.000000;2.632777
3594.000000;2.494391
3593.000000;2.861234
3592.000000;2.455313
3591.000000;2.021799
3590.000000;1.978811
3589.000000;2.177091
3588.000000;2.065304
3587.000000;1.885497
3586.000000;1.882521
3585.000000;1.969761
3584.000000;2.164886
3583.000000;2.496367
3582.000000;2.384302
3581.000000;2.140599
3580.000000;2.029160
3579.000000;2.045670
3578.000000;2.105689
3577.000000;2.175085
3576.000000;2.368424
3575.000000;2.442625
3574.000000;2.492524
3573.000000;2.817105
3572.000000;2.698579
3571.000000;2.142047
3570.000000;1.811854
3569.000000;1.691723
3568.000000;1.741902
3567.000000;1.894757
3566.000000;2.082082
3565.000000;2.341397
3564.000000;2.684720
3563.000000;2.633684
3562.000000;2.407789
3561.000000;2.276363
3560.000000;2.245903
3559.000000;2.371107
3558.000000;2.474347
3557.000000;2.235107
3556.000000;2.158660
3555.000000;2.151565
3554.000000;1.975838
3553.000000;1.930088
3552.000000;2.062765
3551.000000;2.259436
3550.000000;2.208518
3549.000000;2.131459
3548.000000;2.159570
3547.000000;2.391419
3546.000000;2.728444
3545.000000;2.407028
3544.000000;2.359458
3543.000000;2.281118
3542.000000;2.180292
3541.000000;2.294127
3540.000000;2.481426
3539.000000;2.131270
3538.000000;1.947587
3537.000000;1.985846
3536.000000;2.289414
3535.000000;2.557337
3534.000000;2.318496
3533.000000;2.184379
3532.000000;2.192065
3531.000000;2.305572
3530.000000;2.253677
3529.000000;2.139972
3528.000000;2.100771
3527.000000;2.297754
3526.000000;2.293823
3525.000000;1.946538
3524.000000;1.889771
3523.000000;2.043190
3522.000000;2.252253
3521.000000;2.086499
3520.000000;2.023265
3519.000000;2.186919
3518.000000;2.244360
3517.000000;2.051991
3516.000000;2.061036
3515.000000;2.062474
3514.000000;2.039749
3513.000000;2.106828
3512.000000;2.218086
3511.000000;2.312649
3510.000000;2.359095
3509.000000;2.219830
3508.000000;2.098622
3507.000000;2.120765
3506.000000;2.217158
3505.000000;2.227873
3504.000000;2.157158
3503.000000;2.125376
3502.000000;2.200951
3501.000000;2.417819
3500.000000;2.830626
3499.000000;2.679613
3498.000000;2.435836
3497.000000;2.143193
3496.000000;1.957150
3495.000000;1.937023
3494.000000;2.144101
3493.000000;2.452121
3492.000000;2.162976
3491.000000;2.161252
3490.000000;2.242911
3489.000000;2.282085
3488.000000;2.221558
3487.000000;2.034376
3486.000000;1.877297
3485.000000;1.844060
3484.000000;1.932102
3483.000000;1.988375
3482.000000;1.947864
3481.000000;1.973073
3480.000000;2.087333
3479.000000;2.174643
3478.000000;2.126421
3477.000000;2.004301
3476.000000;1.926559
3475.000000;1.946294
3474.000000;1.979826
3473.000000;1.978251
3472.000000;2.076963
3471.000000;2.174803
3470.000000;1.918488
3469.000000;1.790642
3468.000000;1.834321
3467.000000;1.992810
3466.000000;2.156249
3465.000000;2.413446
3464.000000;2.264028
3463.000000;2.025107
3462.000000;2.081281
3461.000000;2.283939
3460.000000;2.414719
3459.000000;2.844134
3458.000000;2.688821
3457.000000;2.670700
3456.000000;2.509587
3455.000000;2.044015
3454.000000;1.895167
3453.000000;1.876905
3452.000000;2.013772
3451.000000;2.246195
3450.000000;2.310182
3449.000000;2.272775
3448.000000;2.558587
3447.000000;2.530768
3446.000000;2.293794
3445.000000;2.489155
3444.000000;3.128899
3443.000000;2.419191
3442.000000;2.175911
3441.000000;2.149390
3440.000000;2.410270
3439.000000;2.814176
3438.000000;2.832074
3437.000000;2.860162
3436.000000;2.206232
3435.000000;1.932328
3434.000000;1.847136
3433.000000;1.881272
3432.000000;1.904540
3431.000000;1.874647
3430.000000;1.855221
3429.000000;1.892281
3428.000000;1.979881
3427.000000;2.337780
3426.000000;2.281142
3425.000000;1.970498
3424.000000;1.941980
3423.000000;1.943823
3422.000000;1.869792
3421.000000;1.833519
3420.000000;1.887433
3419.000000;2.048614
3418.000000;2.355030
3417.000000;2.430059
3416.000000;2.327417
3415.000000;2.299043
3414.000000;2.208655
3413.000000;2.220662
3412.000000;2.413472
3411.000000;2.485178
3410.000000;2.429872
3409.000000;2.395317
3408.000000;2.200981
3407.000000;2.043856
3406.000000;2.059256
3405.000000;2.195731
3404.000000;1.931672
3403.000000;1.730032
3402.000000;1.733696
3401.000000;1.851863
3400.000000;2.047256
3399.000000;2.387092
3398.000000;2.754005
3397.000000;2.248133
3396.000000;2.069366
3395.000000;2.112583
3394.000000;2.781349
3393.000000;2.366962
3392.000000;2.110918
3391.000000;2.138655
3390.000000;2.153626
3389.000000;2.050259
3388.000000;2.011955
3387.000000;2.049606
3386.000000;2.001738
3385.000000;1.884029
3384.000000;1.835230
3383.000000;1.855240
3382.000000;1.921291
3381.000000;2.027449
3380.000000;2.205464
3379.000000;2.437686
3378.000000;2.396015
3377.000000;2.265987
3376.000000;2.570399
3375.000000;2.176355
3374.000000;1.841174
3373.000000;1.824079
3372.000000;1.912582
3371.000000;1.924370
3370.000000;1.887815
3369.000000;1.957729
3368.000000;2.113559
3367.000000;2.335114
3366.000000;2.169450
3365.000000;1.957956
3364.000000;1.907518
3363.000000;1.850059
3362.000000;1.765440
3361.000000;1.781994
3360.000000;1.969663
3359.000000;2.453921
3358.000000;2.386549
3357.000000;2.296939
3356.000000;2.548110
3355.000000;2.485422
3354.000000;2.486702
3353.000000;2.669681
3352.000000;2.281814
3351.000000;2.095713
3350.000000;2.597271
3349.000000;2.310227
3348.000000;1.846504
3347.000000;1.823634
3346.000000;2.049403
3345.000000;2.379398
3344.000000;2.126098
3343.000000;2.128797
3342.000000;2.452414
3341.000000;2.374687
3340.000000;2.155479
3339.000000;2.134371
3338.000000;2.309673
3337.000000;2.126620
3336.000000;1.976128
3335.000000;2.033540
3334.000000;2.225201
3333.000000;2.197666
3332.000000;2.037056
3331.000000;2.022517
3330.000000;2.110064
3329.000000;2.019884
3328.000000;1.907951
3327.000000;2.018834
3326.000000;2.413921
3325.000000;2.257083
3324.000000;2.016627
3323.000000;2.059154
3322.000000;2.036588
3321.000000;1.986907
3320.000000;2.055177
3319.000000;2.284190
3318.000000;2.298702
3317.000000;2.185339
3316.000000;2.335372
3315.000000;2.726898
3314.000000;2.125909
3313.000000;1.899954
3312.000000;1.880781
3311.000000;1.977382
3310.000000;2.108089
3309.000000;2.149977
3308.000000;2.062939
3307.000000;1.929056
3306.000000;1.980666
3305.000000;2.339045
3304.000000;2.030530
3303.000000;1.753983
3302.000000;1.719323
3301.000000;1.902411
3300.000000;2.331659
3299.000000;2.135980
3298.000000;2.012974
3297.000000;1.954472
3296.000000;1.731422
3295.000000;1.627544
3294.000000;1.658352
3293.000000;1.798075
3292.000000;1.872007
3291.000000;1.780467
3290.000000;1.772806
3289.000000;1.944587
3288.000000;2.605607
3287.000000;2.348457
3286.000000;2.215970
3285.000000;3.268433
3284.000000;2.097205
3283.000000;1.781468
3282.000000;1.727408
3281.000000;1.899834
3280.000000;2.391609
3279.000000;2.763023
3278.000000;2.142135
3277.000000;1.885321
3276.000000;1.885113
3275.000000;1.969145
3274.000000;1.834218
3273.000000;1.720512
3272.000000;1.767180
3271.000000;1.917140
3270.000000;2.053736
3269.000000;2.006133
3268.000000;1.953404
3267.000000;2.195745
3266.000000;2.384468
3265.000000;2.197136
3264.000000;2.025656
3263.000000;2.008735
3262.000000;2.236964
3261.000000;2.256164
3260.000000;2.103881
3259.000000;1.908269
3258.000000;1.887175
3257.000000;2.154573
3256.000000;2.617835
3255.000000;2.249656
3254.000000;2.136641
3253.000000;2.095782
3252.000000;2.141284
3251.000000;2.230580
3250.000000;2.272551
3249.000000;2.302583
3248.000000;2.609250
3247.000000;3.150481
3246.000000;2.592337
3245.000000;2.185194
3244.000000;1.933861
3243.000000;1.832401
3242.000000;1.901425
3241.000000;2.347768
3240.000000;2.020571
3239.000000;1.774057
3238.000000;1.959738
3237.000000;2.069598
3236.000000;1.990656
3235.000000;2.129120
3234.000000;2.104237
3233.000000;1.972736
3232.000000;2.015793
3231.000000;2.218078
3230.000000;2.334856
3229.000000;2.029509
3228.000000;1.862646
3227.000000;1.872105
3226.000000;2.151972
3225.000000;2.643683
3224.000000;1.971581
3223.000000;1.902628
3222.000000;1.992206
3221.000000;2.464003
3220.000000;3.115735
3219.000000;2.229816
3218.000000;2.096205
3217.000000;2.038311
3216.000000;2.138848
3215.000000;2.311530
3214.000000;2.363852
3213.000000;2.321312
3212.000000;2.380056
3211.000000;2.956226
3210.000000;2.530135
3209.000000;2.210757
3208.000000;2.198295
3207.000000;2.406984
3206.000000;2.190995
3205.000000;1.929707
3204.000000;1.902213
3203.000000;2.069060
3202.000000;2.291178
3201.000000;2.447101
3200.000000;2.515359
3199.000000;2.387667
3198.000000;2.466940
3197.000000;2.424858
3196.000000;2.443471
3195.000000;2.817118
3194.000000;2.476714
3193.000000;2.145424
3192.000000;2.110314
3191.000000;2.434673
3190.000000;2.448800
3189.000000;2.045438
3188.000000;2.114333
3187.000000;2.538228
3186.000000;2.270318
3185.000000;2.055741
3184.000000;2.408212
3183.000000;2.249238
3182.000000;2.019845
3181.000000;1.940949
3180.000000;1.891051
3179.000000;2.049008
3178.000000;2.416323
3177.000000;2.040413
3176.000000;1.917443
3175.000000;1.958457
3174.000000;2.151871
3173.000000;2.486349
3172.000000;2.270734
3171.000000;2.471984
3170.000000;2.351007
3169.000000;1.873286
3168.000000;1.780954
3167.000000;1.846145
3166.000000;2.050012
3165.000000;2.070994
3164.000000;1.914086
3163.000000;1.886422
3162.000000;1.958048
3161.000000;2.076483
3160.000000;2.163739
3159.000000;2.274259
3158.000000;2.358085
3157.000000;2.285175
3156.000000;2.100280
3155.000000;1.901698
3154.000000;1.806888
3153.000000;1.858955
3152.000000;2.056785
3151.000000;2.215047
3150.000000;2.272549
3149.000000;2.402937
3148.000000;2.408670
3147.000000;2.213374
3146.000000;2.019428
3145.000000;1.905360
3144.000000;1.913021
3143.000000;2.073585
3142.000000;2.235921
3141.000000;2.176299
3140.000000;1.959056
3139.000000;1.742679
3138.000000;1.722021
3137.000000;1.829889
3136.000000;1.830185
3135.000000;1.785446
3134.000000;1.955979
3133.000000;2.120696
3132.000000;1.999486
3131.000000;2.020208
3130.000000;2.189356
3129.000000;1.982539
3128.000000;1.757454
3127.000000;1.690903
3126.000000;1.764335
3125.000000;2.015174
3124.000000;2.268765
3123.000000;2.154537
3122.000000;2.168545
3121.000000;2.311216
3120.000000;2.561228
3119.000000;2.486934
3118.000000;1.949642
3117.000000;1.807397
3116.000000;1.951404
3115.000000;2.060697
3114.000000;1.740735
3113.000000;1.683078
3112.000000;1.988926
3111.000000;2.466043
3110.000000;1.785979
3109.000000;1.707898
3108.000000;1.844345
3107.000000;2.166637
3106.000000;2.068105
3105.000000;1.968968
3104.000000;2.132521
3103.000000;2.288557
3102.000000;2.106981
3101.000000;2.044179
3100.000000;1.970149
3099.000000;1.830532
3098.000000;1.839985
3097.000000;1.953951
3096.000000;1.875324
3095.000000;1.847045
3094.000000;1.952860
3093.000000;1.934256
3092.000000;1.838464
3091.000000;1.815857
3090.000000;1.848525
3089.000000;2.088280
3088.000000;2.302239
3087.000000;1.838545
3086.000000;1.741878
3085.000000;1.790316
3084.000000;1.982825
3083.000000;2.241867
3082.000000;2.567118
3081.000000;2.894120
3080.000000;2.312763
3079.000000;1.948146
3078.000000;1.766851
3077.000000;1.718134
3076.000000;1.802737
3075.000000;2.290876
3074.000000;2.363145
3073.000000;2.018000
3072.000000;1.994119
3071.000000;2.096594
3070.000000;2.192238
3069.000000;2.078168
3068.000000;1.997188
3067.000000;1.892327
3066.000000;1.811590
3065.000000;1.895923
3064.000000;2.168380
3063.000000;2.309584
3062.000000;2.224588
3061.000000;2.042061
3060.000000;1.976308
3059.000000;2.069204
3058.000000;2.519500
3057.000000;2.667332
3056.000000;2.069329
3055.000000;2.042169
3054.000000;2.053929
3053.000000;1.822422
3052.000000;1.671223
3051.000000;1.858311
3050.000000;2.183390
3049.000000;1.823856
3048.000000;1.687493
3047.000000;1.748521
3046.000000;1.879837
3045.000000;2.088140
3044.000000;2.362511
3043.000000;2.897578
3042.000000;2.758623
3041.000000;2.491975
3040.000000;2.336015
3039.000000;2.148412
3038.000000;2.134193
3037.000000;2.325368
3036.000000;2.079287
3035.000000;1.874682
3034.000000;1.883596
3033.000000;2.021351
3032.000000;2.117141
3031.000000;1.987143
3030.000000;1.794922
3029.000000;1.738528
3028.000000;1.832008
3027.000000;2.270671
3026.000000;2.609513
3025.000000;2.215976
3024.000000;2.173560
3023.000000;1.847666
3022.000000;1.598789
3021.000000;1.523679
3020.000000;1.606796
3019.000000;1.863261
3018.000000;1.918257
3017.000000;1.891944
3016.000000;2.316279
3015.000000;2.007443
3014.000000;1.718171
3013.000000;1.676770
3012.000000;1.788364
3011.000000;1.922103
3010.000000;1.903882
3009.000000;1.902025
3008.000000;2.016451
3007.000000;2.159830
3006.000000;2.198578
3005.000000;2.250166
3004.000000;2.150491
3003.000000;2.018600
3002.000000;2.016870
3001.000000;2.105715
3000.000000;2.198848
2999.000000;2.223761
2998.000000;2.202844
2997.000000;2.103249
2996.000000;1.987779
2995.000000;1.994240
2994.000000;2.085831
2993.000000;1.971716
2992.000000;1.905168
2991.000000;1.999177
2990.000000;2.166708
2989.000000;2.470494
2988.000000;2.524705
2987.000000;2.499144
2986.000000;2.701040
2985.000000;2.668705
2984.000000;2.120330
2983.000000;1.998314
2982.000000;2.052993
2981.000000;2.231204
2980.000000;2.678715
2979.000000;2.842726
2978.000000;2.437215
2977.000000;2.401445
2976.000000;2.244470
2975.000000;2.099917
2974.000000;2.060105
2973.000000;2.177385
2972.000000;2.156150
2971.000000;1.950858
2970.000000;1.876968
2969.000000;2.059995
2968.000000;2.215424
2967.000000;1.972524
2966.000000;1.949314
2965.000000;2.021526
2964.000000;1.776841
2963.000000;1.613042
2962.000000;1.616416
2961.000000;1.780970
2960.000000;2.274888
2959.000000;2.365366
2958.000000;1.949546
2957.000000;1.784182
2956.000000;1.708213
2955.000000;1.737095
2954.000000;1.880186
2953.000000;2.022404
2952.000000;1.940320
2951.000000;2.230198
2950.000000;2.681056
2949.000000;1.978922
2948.000000;1.952479
2947.000000;1.977479
2946.000000;2.023718
2945.000000;2.021507
2944.000000;2.281646
2943.000000;2.203146
2942.000000;1.779295
2941.000000;1.592386
2940.000000;1.570158
2939.000000;1.789378
2938.000000;2.213028
2937.000000;1.851278
2936.000000;1.818197
2935.000000;2.562661
2934.000000;1.792554
2933.000000;1.585976
2932.000000;1.650611
2931.000000;2.038578
2930.000000;2.095502
2929.000000;1.766904
2928.000000;1.800378
2927.000000;1.961056
2926.000000;1.845337
2925.000000;1.765095
2924.000000;1.937914
2923.000000;1.839498
2922.000000;1.575824
2921.000000;1.551798
2920.000000;1.686919
2919.000000;2.030018
2918.000000;2.221259
2917.000000;2.059293
2916.000000;2.281686
2915.000000;2.315294
2914.000000;1.932539
2913.000000;1.772030
2912.000000;1.723170
2911.000000;1.728442
2910.000000;1.938162
2909.000000;2.056495
2908.000000;1.682974
2907.000000;1.600548
2906.000000;1.705889
2905.000000;1.978664
2904.000000;2.619498
2903.000000;1.945379
2902.000000;1.851657
2901.000000;1.882382
2900.000000;2.021268
2899.000000;2.304550
2898.000000;2.267784
2897.000000;2.393176
2896.000000;2.785694
2895.000000;2.121251
2894.000000;2.077477
2893.000000;2.100643
2892.000000;2.149100
2891.000000;2.182570
2890.000000;1.919768
2889.000000;1.839357
2888.000000;1.975300
2887.000000;2.171122
2886.000000;2.237935
2885.000000;2.506671
2884.000000;2.638406
2883.000000;2.504179
2882.000000;2.489460
2881.000000;1.974166
2880.000000;1.874668
2879.000000;2.060567
2878.000000;2.179438
2877.000000;1.866914
2876.000000;1.790172
2875.000000;1.986668
2874.000000;2.095901
2873.000000;1.778976
2872.000000;1.720762
2871.000000;1.754896
2870.000000;1.825893
2869.000000;1.937525
2868.000000;2.015517
2867.000000;2.132624
2866.000000;2.440247
2865.000000;1.909553
2864.000000;1.700541
2863.000000;1.744136
2862.000000;2.190427
2861.000000;2.076680
2860.000000;1.740230
2859.000000;1.728552
2858.000000;1.904103
2857.000000;1.918276
2856.000000;1.694571
2855.000000;1.648307
2854.000000;1.802453
2853.000000;2.100792
2852.000000;1.956765
2851.000000;1.933787
2850.000000;1.885239
2849.000000;1.693537
2848.000000;1.606167
2847.000000;1.613623
2846.000000;1.683051
2845.000000;1.775067
2844.000000;1.896055
2843.000000;2.060984
2842.000000;2.064956
2841.000000;1.927304
2840.000000;1.839291
2839.000000;1.842395
2838.000000;1.878869
2837.000000;1.888513
2836.000000;1.911502
2835.000000;1.816667
2834.000000;1.686529
2833.000000;1.638763
2832.000000;1.658711
2831.000000;1.757637
2830.000000;1.844604
2829.000000;1.803584
2828.000000;1.700109
2827.000000;1.620798
2826.000000;1.535936
2825.000000;1.413068
2824.000000;1.375064
2823.000000;1.477985
2822.000000;1.694581
2821.000000;1.754382
2820.000000;1.748504
2819.000000;1.882189
2818.000000;1.802001
2817.000000;1.661581
2816.000000;1.659336
2815.000000;1.623268
2814.000000;1.555813
2813.000000;1.545027
2812.000000;1.570022
2811.000000;1.600962
2810.000000;1.653090
2809.000000;1.762326
2808.000000;1.925224
2807.000000;2.091412
2806.000000;2.188422
2805.000000;2.046357
2804.000000;1.987585
2803.000000;2.169084
2802.000000;2.702788
2801.000000;2.260492
2800.000000;2.361366
2799.000000;2.338032
2798.000000;1.889178
2797.000000;1.719609
2796.000000;1.590178
2795.000000;1.513723
2794.000000;1.535607
2793.000000;1.606516
2792.000000;1.572168
2791.000000;1.528781
2790.000000;1.604691
2789.000000;2.005391
2788.000000;2.292873
2787.000000;1.792483
2786.000000;1.778020
2785.000000;1.813418
2784.000000;1.876596
2783.000000;1.837510
2782.000000;1.752040
2781.000000;1.712139
2780.000000;1.738453
2779.000000;1.764478
2778.000000;1.758381
2777.000000;1.773607
2776.000000;1.902738
2775.000000;2.043834
2774.000000;1.889479
2773.000000;1.808306
2772.000000;1.850814
2771.000000;1.999864
2770.000000;2.361411
2769.000000;2.391321
2768.000000;2.305005
2767.000000;2.532183
2766.000000;1.992224
2765.000000;1.837540
2764.000000;1.931739
2763.000000;2.342223
2762.000000;2.043361
2761.000000;1.718676
2760.000000;1.810739
2759.000000;2.053790
2758.000000;1.742385
2757.000000;1.588177
2756.000000;1.692726
2755.000000;1.779072
2754.000000;1.772990
2753.000000;1.971175
2752.000000;2.534418
2751.000000;2.137442
2750.000000;2.029049
2749.000000;2.010024
2748.000000;1.916229
2747.000000;1.763576
2746.000000;1.579621
2745.000000;1.517003
2744.000000;1.625137
2743.000000;1.739364
2742.000000;1.514323
2741.000000;1.369451
2740.000000;1.336025
2739.000000;1.437753
2738.000000;1.606203
2737.000000;1.496020
2736.000000;1.378678
2735.000000;1.496307
2734.000000;1.798905
2733.000000;1.739018
2732.000000;1.686597
2731.000000;2.193460
2730.000000;2.448931
2729.000000;1.820652
2728.000000;1.613998
2727.000000;1.522597
2726.000000;1.556991
2725.000000;1.703085
2724.000000;2.045831
2723.000000;1.906115
2722.000000;1.712607
2721.000000;1.706280
2720.000000;1.729803
2719.000000;1.704597
2718.000000;1.691426
2717.000000;1.694634
2716.000000;1.806831
2715.000000;2.073048
2714.000000;2.007095
2713.000000;2.051674
2712.000000;1.985160
2711.000000;1.771957
2710.000000;1.804276
2709.000000;1.938191
2708.000000;1.813232
2707.000000;1.698805
2706.000000;1.724946
2705.000000;1.904482
2704.000000;1.902156
2703.000000;1.680637
2702.000000;1.685305
2701.000000;1.917599
2700.000000;1.803087
2699.000000;1.594207
2698.000000;1.531394
2697.000000;1.557270
2696.000000;1.706594
2695.000000;2.032492
2694.000000;2.054630
2693.000000;1.963040
2692.000000;2.115863
2691.000000;1.712657
2690.000000;1.503192
2689.000000;1.521186
2688.000000;1.800710
2687.000000;2.595942
2686.000000;1.928206
2685.000000;1.785888
2684.000000;1.719522
2683.000000;1.728384
2682.000000;1.725466
2681.000000;1.752302
2680.000000;1.865884
2679.000000;2.318855
2678.000000;2.316775
2677.000000;1.802874
2676.000000;1.677218
2675.000000;1.660021
2674.000000;1.604412
2673.000000;1.505599
2672.000000;1.505229
2671.000000;1.650919
2670.000000;2.094162
2669.000000;2.733794
2668.000000;2.589951
2667.000000;1.981013
2666.000000;1.850026
2665.000000;1.934625
2664.000000;2.137317
2663.000000;1.832292
2662.000000;1.482354
2661.000000;1.358278
2660.000000;1.377311
2659.000000;1.514541
2658.000000;1.788698
2657.000000;1.900109
2656.000000;1.718772
2655.000000;1.991715
2654.000000;1.942232
2653.000000;1.508051
2652.000000;1.520233
2651.000000;1.728103
2650.000000;1.619439
2649.000000;1.386511
2648.000000;1.369871
2647.000000;1.477890
2646.000000;1.684001
2645.000000;1.846389
2644.000000;1.979495
2643.000000;2.240319
2642.000000;2.002345
2641.000000;1.977800
2640.000000;1.986189
2639.000000;1.626102
2638.000000;1.506936
2637.000000;1.577758
2636.000000;1.768865
2635.000000;1.974934
2634.000000;1.899910
2633.000000;1.763979
2632.000000;1.854612
2631.000000;2.179750
2630.000000;2.271561
2629.000000;2.234196
2628.000000;2.246675
2627.000000;2.059648
2626.000000;2.003042
2625.000000;1.945556
2624.000000;1.830429
2623.000000;1.812727
2622.000000;1.898081
2621.000000;2.086697
2620.000000;1.788494
2619.000000;1.503578
2618.000000;1.445546
2617.000000;1.569100
2616.000000;1.827216
2615.000000;1.841440
2614.000000;1.827454
2613.000000;1.849405
2612.000000;1.769063
2611.000000;1.691406
2610.000000;1.692593
2609.000000;1.836900
2608.000000;1.980341
2607.000000;1.608948
2606.000000;1.475449
2605.000000;1.583898
2604.000000;2.047655
2603.000000;2.122307
2602.000000;1.908788
2601.000000;1.870606
2600.000000;1.687666
2599.000000;1.649260
2598.000000;1.770607
2597.000000;1.971285
2596.000000;2.174219
2595.000000;1.957885
2594.000000;1.685851
2593.000000;1.663012
2592.000000;1.889223
2591.000000;2.049558
2590.000000;1.929748
2589.000000;1.930921
2588.000000;2.439379
2587.000000;2.025314
2586.000000;1.631780
2585.000000;1.553030
2584.000000;1.717311
2583.000000;1.960314
2582.000000;1.751432
2581.000000;1.772383
2580.000000;1.785746
2579.000000;1.628078
2578.000000;1.588729
2577.000000;1.648485
2576.000000;1.682039
2575.000000;1.622987
2574.000000;1.546173
2573.000000;1.485735
2572.000000;1.509385
2571.000000;1.696607
2570.000000;2.287823
2569.000000;2.065022
2568.000000;2.018747
2567.000000;2.220323
2566.000000;1.674436
2565.000000;1.510801
2564.000000;1.504986
2563.000000;1.525733
2562.000000;1.610426
2561.000000;1.835059
2560.000000;1.867566
2559.000000;1.818326
2558.000000;1.822954
2557.000000;1.601757
2556.000000;1.505738
2555.000000;1.583525
2554.000000;1.766234
2553.000000;1.806819
2552.000000;1.712746
2551.000000;1.714445
2550.000000;1.932590
2549.000000;2.001350
2548.000000;1.826222
2547.000000;2.112037
2546.000000;1.873231
2545.000000;1.616880
2544.000000;1.752861
2543.000000;1.983959
2542.000000;1.952648
2541.000000;1.862816
2540.000000;1.653897
2539.000000;1.411956
2538.000000;1.316046
2537.000000;1.375753
2536.000000;1.681839
2535.000000;1.599453
2534.000000;1.424444
2533.000000;1.473104
2532.000000;1.996896
2531.000000;1.752151
2530.000000;1.462790
2529.000000;1.498931
2528.000000;1.795035
2527.000000;1.890163
2526.000000;1.666429
2525.000000;1.600925
2524.000000;1.610318
2523.000000;1.708851
2522.000000;1.738781
2521.000000;1.599938
2520.000000;1.493484
2519.000000;1.450849
2518.000000;1.464339
2517.000000;1.624045
2516.000000;1.920098
2515.000000;1.714109
2514.000000;1.578318
2513.000000;1.818382
2512.000000;1.702105
2511.000000;1.447125
2510.000000;1.395159
2509.000000;1.420608
2508.000000;1.413554
2507.000000;1.347577
2506.000000;1.323385
2505.000000;1.386841
2504.000000;1.550731
2503.000000;1.895324
2502.000000;2.330771
2501.000000;1.863614
2500.000000;1.870761
2499.000000;1.885698
2498.000000;1.731668
2497.000000;1.621641
2496.000000;1.548821
2495.000000;1.506996
2494.000000;1.531163
2493.000000;1.674483
2492.000000;1.847028
2491.000000;1.780585
2490.000000;1.725920
2489.000000;1.961858
2488.000000;2.114575
2487.000000;1.870402
2486.000000;2.315035
2485.000000;2.208883
2484.000000;1.723859
2483.000000;1.615088
2482.000000;1.631160
2481.000000;1.607007
2480.000000;1.563992
2479.000000;1.653747
2478.000000;2.034799
2477.000000;1.900396
2476.000000;1.637901
2475.000000;1.629780
2474.000000;1.683841
2473.000000;1.567803
2472.000000;1.550187
2471.000000;1.715354
2470.000000;1.754546
2469.000000;1.560055
2468.000000;1.552453
2467.000000;1.763196
2466.000000;1.969069
2465.000000;1.812639
2464.000000;2.053590
2463.000000;2.317992
2462.000000;1.811807
2461.000000;1.632612
2460.000000;1.639981
2459.000000;1.703726
2458.000000;1.591853
2457.000000;1.425838
2456.000000;1.364494
2455.000000;1.437180
2454.000000;1.630112
2453.000000;1.551554
2452.000000;1.470703
2451.000000;1.601436
2450.000000;2.194223
2449.000000;1.885877
2448.000000;1.854228
2447.000000;2.814331
2446.000000;1.783739
2445.000000;1.725806
2444.000000;2.100126
2443.000000;1.819959
2442.000000;1.441085
2441.000000;1.374599
2440.000000;1.501727
2439.000000;1.556531
2438.000000;1.352724
2437.000000;1.329634
2436.000000;1.528460
2435.000000;2.011691
2434.000000;1.954048
2433.000000;1.898407
2432.000000;1.764783
2431.000000;1.474382
2430.000000;1.367784
2429.000000;1.406882
2428.000000;1.627720
2427.000000;1.952162
2426.000000;2.225151
2425.000000;1.782045
2424.000000;1.437982
2423.000000;1.345990
2422.000000;1.468830
2421.000000;2.125996
2420.000000;1.760598
2419.000000;1.621025
2418.000000;1.949189
2417.000000;1.901941
2416.000000;1.505865
2415.000000;1.486018
2414.000000;1.713270
2413.000000;2.106103
2412.000000;1.789690
2411.000000;1.731884
2410.000000;1.887667
2409.000000;1.874479
2408.000000;1.640268
2407.000000;1.571348
2406.000000;1.767819
2405.000000;2.057929
2404.000000;1.800598
2403.000000;1.812521
2402.000000;2.111526
2401.000000;2.070704
2400.000000;2.052719
2399.000000;2.408054
2398.000000;2.310697
2397.000000;1.836297
2396.000000;1.673240
2395.000000;1.669755
2394.000000;1.859440
2393.000000;2.092538
2392.000000;1.794673
2391.000000;1.890538
2390.000000;2.425350
2389.000000;1.870917
2388.000000;1.587303
2387.000000;1.457469
2386.000000;1.452616
2385.000000;1.715787
2384.000000;1.799901
2383.000000;1.478771
2382.000000;1.486026
2381.000000;1.914067
2380.000000;2.165212
2379.000000;1.765079
2378.000000;2.005897
2377.000000;2.351624
2376.000000;1.989557
2375.000000;1.897117
2374.000000;2.243883
2373.000000;1.635645
2372.000000;1.453847
2371.000000;1.513927
2370.000000;1.866944
2369.000000;1.823339
2368.000000;1.426867
2367.000000;1.381743
2366.000000;1.476570
2365.000000;1.777416
2364.000000;2.783085
2363.000000;1.796574
2362.000000;1.655671
2361.000000;1.505342
2360.000000;1.386519
2359.000000;1.334556
2358.000000;1.840550
2357.000000;2.122897
2356.000000;1.759527
2355.000000;1.717177
2354.000000;1.818005
2353.000000;1.837936
2352.000000;1.644335
2351.000000;1.533589
2350.000000;1.605693
2349.000000;1.798589
2348.000000;1.648695
2347.000000;1.468113
2346.000000;1.419376
2345.000000;1.518274
2344.000000;1.775178
2343.000000;1.775337
2342.000000;1.390804
2341.000000;1.500459
2340.000000;1.709925
2339.000000;1.858455
2338.000000;1.793593
2337.000000;1.446499
2336.000000;1.179980
2335.000000;1.101794
2334.000000;1.319549
2333.000000;1.937943
2332.000000;1.682688
2331.000000;1.769613
2330.000000;2.030899
2329.000000;1.555051
2328.000000;1.636605
2327.000000;1.764947
2326.000000;1.401850
2325.000000;1.380022
2324.000000;2.140031
2323.000000;1.912706
2322.000000;1.639034
2321.000000;1.721980
2320.000000;1.529392
2319.000000;1.446077
2318.000000;1.581510
2317.000000;1.595437
2316.000000;1.419797
2315.000000;1.439766
2314.000000;1.658609
2313.000000;1.722025
2312.000000;1.660266
2311.000000;1.628482
2310.000000;1.623038
2309.000000;1.843707
2308.000000;2.494513
2307.000000;1.728774
2306.000000;1.617316
2305.000000;1.812065
2304.000000;2.344994
2303.000000;1.856229
2302.000000;1.719694
2301.000000;1.762732
2300.000000;1.954011
2299.000000;2.026405
2298.000000;1.796252
2297.000000;1.701119
2296.000000;1.967323
2295.000000;2.174606
2294.000000;1.868203
2293.000000;1.841803
2292.000000;2.171982
2291.000000;2.315292
2290.000000;1.883316
2289.000000;1.792257
2288.000000;1.850648
2287.000000;1.995683
2286.000000;2.149509
2285.000000;1.846123
2284.000000;1.831954
2283.000000;1.886121
2282.000000;1.702586
2281.000000;1.680492
2280.000000;1.943909
2279.000000;2.401655
2278.000000;1.814940
2277.000000;1.655783
2276.000000;1.784473
2275.000000;2.345347
2274.000000;3.259903
2273.000000;2.747847
2272.000000;2.731393
2271.000000;1.950490
2270.000000;1.627109
2269.000000;1.608059
2268.000000;1.590597
2267.000000;1.544039
2266.000000;1.583311
2265.000000;1.862786
2264.000000;1.740629
2263.000000;1.459620
2262.000000;1.419051
2261.000000;1.560209
2260.000000;1.903823
2259.000000;2.262264
2258.000000;1.598551
2257.000000;1.357990
2256.000000;1.306102
2255.000000;1.446061
2254.000000;1.705212
2253.000000;1.671040
2252.000000;1.591312
2251.000000;1.610915
2250.000000;1.690023
2249.000000;2.038088
2248.000000;1.862532
2247.000000;1.449703
2246.000000;1.396061
2245.000000;1.454276
2244.000000;2.179960
2243.000000;1.889272
2242.000000;1.457834
2241.000000;1.526114
2240.000000;1.782178
2239.000000;1.451951
2238.000000;1.302369
2237.000000;1.428534
2236.000000;2.297168
2235.000000;1.623546
2234.000000;1.508243
2233.000000;1.739572
2232.000000;1.880164
2231.000000;1.817301
2230.000000;1.772345
2229.000000;1.693425
2228.000000;1.734764
2227.000000;1.654508
2226.000000;1.564387
2225.000000;1.733751
2224.000000;2.074362
2223.000000;1.680617
2222.000000;1.520243
2221.000000;1.578461
2220.000000;1.847502
2219.000000;1.826140
2218.000000;1.568486
2217.000000;1.459487
2216.000000;1.407180
2215.000000;1.423366
2214.000000;1.499256
2213.000000;1.570889
2212.000000;1.592931
2211.000000;1.613678
2210.000000;1.594346
2209.000000;1.559334
2208.000000;1.495299
2207.000000;1.377086
2206.000000;1.335782
2205.000000;1.445566
2204.000000;1.769036
2203.000000;2.089586
2202.000000;2.029388
2201.000000;1.896851
2200.000000;1.513620
2199.000000;1.387923
2198.000000;1.473289
2197.000000;1.749365
2196.000000;1.720490
2195.000000;1.704272
2194.000000;1.553625
2193.000000;1.330749
2192.000000;1.327259
2191.000000;1.660814
2190.000000;1.808329
2189.000000;1.443491
2188.000000;1.345489
2187.000000;1.382037
2186.000000;1.525935
2185.000000;1.737533
2184.000000;1.806664
2183.000000;1.484807
2182.000000;1.320681
2181.000000;1.335306
2180.000000;1.413243
2179.000000;1.397089
2178.000000;1.513553
2177.000000;1.892906
2176.000000;1.482922
2175.000000;1.428159
2174.000000;1.689707
2173.000000;2.346235
2172.000000;1.786322
2171.000000;2.023397
2170.000000;2.124089
2169.000000;1.507821
2168.000000;1.538152
2167.000000;1.723558
2166.000000;1.543829
2165.000000;1.435503
2164.000000;1.708866
2163.000000;2.047046
2162.000000;1.685784
2161.000000;1.547681
2160.000000;1.693607
2159.000000;1.728659
2158.000000;1.521905
2157.000000;1.523698
2156.000000;1.731377
2155.000000;1.736959
2154.000000;1.650706
2153.000000;1.557758
2152.000000;1.495891
2151.000000;1.557677
2150.000000;1.680914
2149.000000;1.488942
2148.000000;1.302232
2147.000000;1.269185
2146.000000;1.399151
2145.000000;1.551013
2144.000000;1.446925
2143.000000;1.404230
2142.000000;1.511410
2141.000000;1.607112
2140.000000;1.585874
2139.000000;1.666515
2138.000000;2.045902
2137.000000;2.421280
2136.000000;1.926785
2135.000000;1.790183
2134.000000;1.803437
2133.000000;1.696003
2132.000000;1.627407
2131.000000;1.724612
2130.000000;1.905679
2129.000000;1.832953
2128.000000;1.724430
2127.000000;1.729202
2126.000000;1.847021
2125.000000;2.020148
2124.000000;1.964586
2123.000000;1.761815
2122.000000;1.653578
2121.000000;1.623354
2120.000000;1.529814
2119.000000;1.442199
2118.000000;1.482855
2117.000000;1.610857
2116.000000;1.656024
2115.000000;1.631490
2114.000000;1.659828
2113.000000;1.740900
2112.000000;1.893453
2111.000000;2.133579
2110.000000;2.152539
2109.000000;1.828062
2108.000000;1.595113
2107.000000;1.533767
2106.000000;1.614350
2105.000000;1.861227
2104.000000;1.841498
2103.000000;1.642021
2102.000000;1.639850
2101.000000;1.712602
2100.000000;1.533776
2099.000000;1.462637
2098.000000;1.597533
2097.000000;1.674723
2096.000000;1.527904
2095.000000;1.594203
2094.000000;2.036509
2093.000000;1.853712
2092.000000;1.570065
2091.000000;1.668641
2090.000000;1.691775
2089.000000;1.570681
2088.000000;1.690999
2087.000000;1.761526
2086.000000;1.646598
2085.000000;2.120156
2084.000000;1.774700
2083.000000;1.406111
2082.000000;1.547491
2081.000000;1.846485
2080.000000;1.603626
2079.000000;1.592713
2078.000000;1.613844
2077.000000;1.417838
2076.000000;1.427863
2075.000000;1.714492
2074.000000;2.360480
2073.000000;1.819809
2072.000000;1.850762
2071.000000;1.813948
2070.000000;1.486014
2069.000000;1.354045
2068.000000;1.387428
2067.000000;1.588625
2066.000000;1.648776
2065.000000;1.453161
2064.000000;1.446736
2063.000000;1.629317
2062.000000;1.834733
2061.000000;1.544982
2060.000000;1.292292
2059.000000;1.202019
2058.000000;1.248843
2057.000000;1.430106
2056.000000;1.563289
2055.000000;1.464029
2054.000000;1.444796
2053.000000;1.577690
2052.000000;1.683762
2051.000000;1.666428
2050.000000;1.541302
2049.000000;1.344693
2048.000000;1.186037
2047.000000;1.091889
2046.000000;1.073181
2045.000000;1.145451
2044.000000;1.294454
2043.000000;1.328720
2042.000000;1.232236
2041.000000;1.221708
2040.000000;1.335395
2039.000000;1.546283
2038.000000;1.682759
2037.000000;1.825470
2036.000000;2.047587
2035.000000;1.748532
2034.000000;1.437864
2033.000000;1.243547
2032.000000;1.183815
2031.000000;1.287059
2030.000000;1.521678
2029.000000;1.390380
2028.000000;1.184226
2027.000000;1.155787
2026.000000;1.266918
2025.000000;1.553273
2024.000000;1.878375
2023.000000;1.815861
2022.000000;1.656451
2021.000000;1.594466
2020.000000;1.626218
2019.000000;1.731990
2018.000000;1.987269
2017.000000;2.440451
2016.000000;2.099535
2015.000000;1.583116
2014.000000;1.343253
2013.000000;1.318705
2012.000000;1.468647
2011.000000;1.571773
2010.000000;1.542735
2009.000000;1.592264
2008.000000;1.594875
2007.000000;1.566410
2006.000000;1.531683
2005.000000;1.477414
2004.000000;1.438271
2003.000000;1.414682
2002.000000;1.366081
2001.000000;1.328168
2000.000000;1.377189
1999.000000;1.543875
1998.000000;1.878420
1997.000000;2.179800
1996.000000;1.777795
1995.000000;1.463956
1994.000000;1.336834
1993.000000;1.385731
1992.000000;1.598184
1991.000000;1.583294
1990.000000;1.443459
1989.000000;1.446876
1988.000000;1.606613
1987.000000;1.787038
1986.000000;1.783373
1985.000000;1.511597
1984.000000;1.231179
1983.000000;1.142748
1982.000000;1.220306
1981.000000;1.459554
1980.000000;1.598576
1979.000000;1.581895
1978.000000;1.632649
1977.000000;1.596738
1976.000000;1.529466
1975.000000;1.493786
1974.000000;1.499360
1973.000000;1.515050
1972.000000;1.508206
1971.000000;1.384253
1970.000000;1.209153
1969.000000;1.107980
1968.000000;1.096464
1967.000000;1.139195
1966.000000;1.192332
1965.000000;1.224476
1964.000000;1.223195
1963.000000;1.228691
1962.000000;1.272078
1961.000000;1.313249
1960.000000;1.396410
1959.000000;1.578914
1958.000000;1.646000
1957.000000;1.522144
1956.000000;1.349078
1955.000000;1.267774
1954.000000;1.271224
1953.000000;1.264018
1952.000000;1.273786
1951.000000;1.342995
1950.000000;1.399091
1949.000000;1.356665
1948.000000;1.295346
1947.000000;1.311353
1946.000000;1.335495
1945.000000;1.268284
1944.000000;1.286504
1943.000000;1.509275
1942.000000;1.929853
1941.000000;1.876459
1940.000000;1.470057
1939.000000;1.303537
1938.000000;1.306790
1937.000000;1.427405
1936.000000;1.672761
1935.000000;1.739710
1934.000000;1.590971
1933.000000;1.541074
1932.000000;1.445920
1931.000000;1.361590
1930.000000;1.328561
1929.000000;1.349250
1928.000000;1.421302
1927.000000;1.537302
1926.000000;1.598671
1925.000000;1.544702
1924.000000;1.559730
1923.000000;1.446981
1922.000000;1.268400
1921.000000;1.234494
1920.000000;1.366921
1919.000000;1.609531
1918.000000;2.644061
1917.000000;2.042343
1916.000000;1.705489
1915.000000;1.735029
1914.000000;1.865732
1913.000000;1.654684
1912.000000;1.447390
1911.000000;1.435332
1910.000000;1.580771
1909.000000;2.212292
1908.000000;1.542427
1907.000000;1.223509
1906.000000;1.195608
1905.000000;1.542193
1904.000000;2.039211
1903.000000;1.417430
1902.000000;1.766128
1901.000000;2.233767
1900.000000;1.668098
1899.000000;1.800443
1898.000000;1.646039
1897.000000;1.367960
1896.000000;1.332507
1895.000000;1.509238
1894.000000;1.613086
1893.000000;1.457524
1892.000000;1.345631
1891.000000;1.357189
1890.000000;1.467040
1889.000000;1.532228
1888.000000;1.519739
1887.000000;1.430715
1886.000000;1.424416
1885.000000;1.439457
1884.000000;1.357889
1883.000000;1.310971
1882.000000;1.362000
1881.000000;1.557894
1880.000000;1.632065
1879.000000;1.342686
1878.000000;1.172313
1877.000000;1.217469
1876.000000;1.526710
1875.000000;1.484137
1874.000000;1.384596
1873.000000;1.814983
1872.000000;1.684043
1871.000000;1.341906
1870.000000;1.538498
1869.000000;1.597885
1868.000000;1.351667
1867.000000;1.496267
1866.000000;1.929802
1865.000000;1.679939
1864.000000;1.603608
1863.000000;1.535614
1862.000000;1.554812
1861.000000;1.634326
1860.000000;1.438025
1859.000000;1.321981
1858.000000;1.274117
1857.000000;1.282511
1856.000000;1.416472
1855.000000;1.502021
1854.000000;1.282321
1853.000000;1.226699
1852.000000;1.394650
1851.000000;1.706364
1850.000000;1.492551
1849.000000;1.423566
1848.000000;1.568812
1847.000000;1.800390
1846.000000;1.690616
1845.000000;1.546639
1844.000000;1.869967
1843.000000;2.035152
1842.000000;1.594132
1841.000000;1.517890
1840.000000;2.017225
1839.000000;1.997431
1838.000000;1.566287
1837.000000;1.576740
1836.000000;1.705322
1835.000000;2.040090
1834.000000;1.693499
1833.000000;1.536386
1832.000000;1.710817
1831.000000;1.727657
1830.000000;1.414982
1829.000000;1.384170
1828.000000;1.556019
1827.000000;1.823761
1826.000000;1.730566
1825.000000;1.648365
1824.000000;1.777135
1823.000000;2.143433
1822.000000;1.637776
1821.000000;1.341176
1820.000000;1.345110
1819.000000;1.512727
1818.000000;1.414484
1817.000000;1.306275
1816.000000;1.495618
1815.000000;1.954232
1814.000000;1.808310
1813.000000;1.737551
1812.000000;2.127914
1811.000000;1.579716
1810.000000;1.234734
1809.000000;1.160760
1808.000000;1.269221
1807.000000;1.779345
1806.000000;1.613757
1805.000000;1.463056
1804.000000;1.453946
1803.000000;1.425038
1802.000000;1.665529
1801.000000;1.828518
1800.000000;1.279195
1799.000000;1.306039
1798.000000;1.752137
1797.000000;1.301069
1796.000000;1.098845
1795.000000;1.171560
1794.000000;1.328752
1793.000000;1.088856
1792.000000;0.950602
1791.000000;0.994025
1790.000000;1.121040
1789.000000;1.219617
1788.000000;1.223676
1787.000000;1.250652
1786.000000;1.370832
1785.000000;1.561448
1784.000000;1.750942
1783.000000;1.686981
1782.000000;1.649251
1781.000000;1.671927
1780.000000;1.710003
1779.000000;2.451499
1778.000000;1.967477
1777.000000;1.754149
1776.000000;1.809778
1775.000000;1.603027
1774.000000;1.465550
1773.000000;1.939649
1772.000000;1.355918
1771.000000;1.312958
1770.000000;1.683533
1769.000000;1.616232
1768.000000;1.449884
1767.000000;1.531834
1766.000000;1.616859
1765.000000;1.650727
1764.000000;1.917617
1763.000000;1.672715
1762.000000;1.334597
1761.000000;1.296228
1760.000000;1.292850
1759.000000;1.241158
1758.000000;1.185087
1757.000000;1.255231
1756.000000;1.334247
1755.000000;1.147215
1754.000000;1.043084
1753.000000;1.102922
1752.000000;1.450888
1751.000000;1.630750
1750.000000;1.300683
1749.000000;1.322765
1748.000000;1.631124
1747.000000;1.764837
1746.000000;1.526860
1745.000000;1.496143
1744.000000;1.587024
1743.000000;1.806048
1742.000000;2.118199
1741.000000;1.856377
1740.000000;1.225298
1739.000000;1.012814
1738.000000;1.015116
1737.000000;1.211934
1736.000000;1.337829
1735.000000;1.095629
1734.000000;1.008636
1733.000000;1.447182
1732.000000;1.675971
1731.000000;1.240795
1730.000000;1.163453
1729.000000;1.286334
1728.000000;1.562767
1727.000000;1.358691
1726.000000;1.200584
1725.000000;1.248264
1724.000000;1.681243
1723.000000;1.680019
1722.000000;1.346988
1721.000000;1.295393
1720.000000;1.188547
1719.000000;1.062971
1718.000000;1.060948
1717.000000;1.124298
1716.000000;1.153239
1715.000000;1.145511
1714.000000;1.129709
1713.000000;1.171889
1712.000000;1.292044
1711.000000;1.336924
1710.000000;1.325078
1709.000000;1.423564
1708.000000;1.461590
1707.000000;1.413623
1706.000000;1.399365
1705.000000;1.312144
1704.000000;1.228780
1703.000000;1.206097
1702.000000;1.188135
1701.000000;1.210044
1700.000000;1.411282
1699.000000;1.551560
1698.000000;1.320782
1697.000000;1.067851
1696.000000;0.963389
1695.000000;1.088835
1694.000000;1.557518
1693.000000;1.805685
1692.000000;1.402088
1691.000000;1.435244
1690.000000;1.479850
1689.000000;1.380529
1688.000000;1.314177
1687.000000;1.441020
1686.000000;1.692444
1685.000000;1.081261
1684.000000;0.899612
1683.000000;1.053345
1682.000000;1.333689
1681.000000;1.554867
1680.000000;1.732611
1679.000000;1.911425
1678.000000;1.824507
1677.000000;1.340633
1676.000000;1.062535
1675.000000;1.055949
1674.000000;1.554774
1673.000000;1.599725
1672.000000;1.360519
1671.000000;1.691978
1670.000000;1.640804
1669.000000;1.534569
1668.000000;1.537449
1667.000000;1.300700
1666.000000;1.325382
1665.000000;1.710477
1664.000000;1.658539
1663.000000;1.379253
1662.000000;1.554359
1661.000000;1.767142
1660.000000;1.855315
1659.000000;1.413144
1658.000000;1.097515
1657.000000;0.976554
1656.000000;0.996985
1655.000000;1.075618
1654.000000;0.764320
1653.000000;0.567879
1652.000000;0.797730
1651.000000;1.048014
1650.000000;1.038790
1649.000000;1.215248
1648.000000;1.366599
1647.000000;0.865361
1646.000000;0.824944
1645.000000;1.154957
1644.000000;1.440960
1643.000000;1.102250
1642.000000;0.974357
1641.000000;1.030655
1640.000000;1.282001
1639.000000;1.442290
1638.000000;1.236388
1637.000000;1.186282
1636.000000;1.291538
1635.000000;1.460950
1634.000000;1.401205
1633.000000;1.268369
1632.000000;1.287751
1631.000000;1.435123
1630.000000;1.688583
1629.000000;1.806399
1628.000000;1.584804
1627.000000;1.460653
1626.000000;1.262791
1625.000000;1.026968
1624.000000;0.910482
1623.000000;0.955253
1622.000000;1.124887
1621.000000;1.195041
1620.000000;1.109709
1619.000000;0.982776
1618.000000;0.910596
1617.000000;0.985048
1616.000000;1.052280
1615.000000;0.988485
1614.000000;0.965819
1613.000000;0.998970
1612.000000;1.120413
1611.000000;1.414801
1610.000000;2.028065
1609.000000;2.134550
1608.000000;1.784750
1607.000000;1.309084
1606.000000;1.207891
1605.000000;1.312178
1604.000000;1.347279
1603.000000;1.226235
1602.000000;1.472958
1601.000000;1.845552
1600.000000;1.376471
1599.000000;1.211428
1598.000000;1.232562
1597.000000;1.421748
1596.000000;1.778372
1595.000000;1.501447
1594.000000;1.358296
1593.000000;1.578212
1592.000000;1.627742
1591.000000;1.325556
1590.000000;1.293784
1589.000000;1.703289
1588.000000;1.353749
1587.000000;1.185161
1586.000000;1.298479
1585.000000;1.633613
1584.000000;1.691200
1583.000000;1.460630
1582.000000;1.399284
1581.000000;1.599271
1580.000000;2.128578
1579.000000;2.246777
1578.000000;1.918398
1577.000000;1.280366
1576.000000;1.096882
1575.000000;1.191114
1574.000000;1.451295
1573.000000;2.000381
1572.000000;1.724869
1571.000000;1.312011
1570.000000;1.473252
1569.000000;1.701050
1568.000000;1.266687
1567.000000;1.144551
1566.000000;1.211900
1565.000000;1.340983
1564.000000;1.345538
1563.000000;1.388280
1562.000000;1.488072
1561.000000;1.079932
1560.000000;0.730913
1559.000000;0.679496
1558.000000;1.152830
1557.000000;1.362394
1556.000000;1.023260
1555.000000;1.005328
1554.000000;1.108483
1553.000000;1.354780
1552.000000;1.388698
1551.000000;1.189216
1550.000000;1.104976
1549.000000;1.128759
1548.000000;1.339905
1547.000000;1.848055
1546.000000;1.541110
1545.000000;1.426136
1544.000000;1.620533
1543.000000;1.189505
1542.000000;0.935719
1541.000000;0.953159
1540.000000;1.534077
1539.000000;1.295664
1538.000000;1.294998
1537.000000;1.378434
1536.000000;1.310060
1535.000000;1.360273
1534.000000;1.454215
1533.000000;1.165954
1532.000000;1.098586
1531.000000;1.149349
1530.000000;1.282162
1529.000000;1.672589
1528.000000;1.508880
1527.000000;1.204294
1526.000000;1.312006
1525.000000;1.465936
1524.000000;1.223735
1523.000000;1.464139
1522.000000;1.621383
1521.000000;0.995236
1520.000000;0.920418
1519.000000;0.940751
1518.000000;0.986972
1517.000000;1.053427
1516.000000;1.227055
1515.000000;1.383570
1514.000000;1.315666
1513.000000;1.148542
1512.000000;1.038850
1511.000000;1.021266
1510.000000;1.066104
1509.000000;1.113426
1508.000000;0.979088
1507.000000;0.791762
1506.000000;0.801870
1505.000000;0.890067
1504.000000;0.874917
1503.000000;0.901169
1502.000000;0.971630
1501.000000;1.047610
1500.000000;1.135153
1499.000000;1.177065
1498.000000;1.129147
1497.000000;1.216046
1496.000000;1.301568
1495.000000;1.262095
1494.000000;1.451845
1493.000000;1.972600
1492.000000;1.709505
1491.000000;1.256333
1490.000000;1.113785
1489.000000;1.155846
1488.000000;1.548782
1487.000000;1.787473
1486.000000;1.443135
1485.000000;1.499660
1484.000000;2.089726
1483.000000;1.333763
1482.000000;1.059979
1481.000000;1.012703
1480.000000;1.126066
1479.000000;1.327746
1478.000000;1.199001
1477.000000;1.197530
1476.000000;1.474877
1475.000000;1.055548
1474.000000;0.846900
1473.000000;0.899986
1472.000000;1.085967
1471.000000;1.052374
1470.000000;1.012113
1469.000000;1.044466
1468.000000;1.145230
1467.000000;1.205550
1466.000000;1.225994
1465.000000;1.621809
1464.000000;1.340467
1463.000000;1.104848
1462.000000;1.920501
1461.000000;1.314005
1460.000000;0.927214
1459.000000;0.940724
1458.000000;1.270528
1457.000000;0.947160
1456.000000;0.876670
1455.000000;1.153747
1454.000000;1.563361
1453.000000;1.243645
1452.000000;1.316153
1451.000000;1.894362
1450.000000;1.461483
1449.000000;1.207365
1448.000000;1.264332
1447.000000;1.533812
1446.000000;1.409309
1445.000000;1.532964
1444.000000;1.693697
1443.000000;1.208286
1442.000000;1.151592
1441.000000;1.248589
1440.000000;1.293842
1439.000000;1.165760
1438.000000;1.132642
1437.000000;1.211545
1436.000000;1.707069
1435.000000;1.841847
1434.000000;1.445083
1433.000000;2.044354
1432.000000;1.358966
1431.000000;0.987254
1430.000000;0.908047
1429.000000;0.950825
1428.000000;1.069463
1427.000000;1.192466
1426.000000;1.233246
1425.000000;1.235145
1424.000000;1.328923
1423.000000;1.355658
1422.000000;1.247713
1421.000000;1.398317
1420.000000;1.875154
1419.000000;1.469775
1418.000000;1.575540
1417.000000;1.949365
1416.000000;1.470053
1415.000000;1.179638
1414.000000;1.179972
1413.000000;1.438494
1412.000000;1.336178
1411.000000;1.108328
1410.000000;1.108630
1409.000000;1.190754
1408.000000;1.345701
1407.000000;1.569715
1406.000000;1.848494
1405.000000;2.261678
1404.000000;1.916396
1403.000000;1.647393
1402.000000;1.712757
1401.000000;2.131277
1400.000000;1.646507
1399.000000;1.626931
1398.000000;1.480932
1397.000000;1.294752
1396.000000;1.274085
1395.000000;1.553434
1394.000000;1.783447
1393.000000;1.248786
1392.000000;1.396882
1391.000000;1.813687
1390.000000;1.319146
1389.000000;1.231062
1388.000000;1.255755
1387.000000;1.104214
1386.000000;1.004000
1385.000000;1.068171
1384.000000;1.356090
1383.000000;1.434621
1382.000000;1.336228
1381.000000;1.321854
1380.000000;1.184373
1379.000000;1.127036
1378.000000;1.108258
1377.000000;0.991462
1376.000000;0.896013
1375.000000;0.924139
1374.000000;1.060410
1373.000000;1.192812
1372.000000;1.194414
1371.000000;1.118203
1370.000000;1.057904
1369.000000;1.031706
1368.000000;1.031591
1367.000000;1.028249
1366.000000;0.992821
1365.000000;0.991122
1364.000000;1.259606
1363.000000;1.673538
1362.000000;1.688574
1361.000000;1.786934
1360.000000;1.099807
1359.000000;0.863701
1358.000000;0.822169
1357.000000;0.938705
1356.000000;1.049465
1355.000000;1.002074
1354.000000;1.039883
1353.000000;1.093589
1352.000000;0.941968
1351.000000;0.846242
1350.000000;0.842922
1349.000000;0.866359
1348.000000;0.919762
1347.000000;0.992912
1346.000000;1.026171
1345.000000;1.010845
1344.000000;1.027992
1343.000000;1.111346
1342.000000;1.136301
1341.000000;1.177387
1340.000000;1.453324
1339.000000;1.492310
1338.000000;1.314108
1337.000000;1.644411
1336.000000;1.365824
1335.000000;1.034316
1334.000000;1.162118
1333.000000;1.075931
1332.000000;0.900277
1331.000000;0.977208
1330.000000;1.413437
1329.000000;1.885896
1328.000000;1.508705
1327.000000;1.510086
1326.000000;1.500579
1325.000000;1.348936
1324.000000;1.239679
1323.000000;1.423403
1322.000000;1.781570
1321.000000;1.409897
1320.000000;1.200197
1319.000000;1.086616
1318.000000;1.239603
1317.000000;1.471275
1316.000000;1.292181
1315.000000;1.568195
1314.000000;1.842430
1313.000000;1.519661
1312.000000;1.428135
1311.000000;1.110455
1310.000000;0.934505
1309.000000;0.929284
1308.000000;1.027567
1307.000000;0.935623
1306.000000;0.829781
1305.000000;0.905311
1304.000000;1.019073
1303.000000;0.928264
1302.000000;0.848511
1301.000000;0.939595
1300.000000;1.219105
1299.000000;2.010483
1298.000000;1.486836
1297.000000;1.183813
1296.000000;1.226493
1295.000000;1.293657
1294.000000;1.112852
1293.000000;0.939807
1292.000000;0.859071
1291.000000;0.921065
1290.000000;1.105547
1289.000000;1.401032
1288.000000;2.026180
1287.000000;1.202387
1286.000000;1.091050
1285.000000;1.116598
1284.000000;1.183451
1283.000000;1.117655
1282.000000;1.057651
1281.000000;1.058201
1280.000000;1.140053
1279.000000;1.530487
1278.000000;1.321928
1277.000000;1.036669
1276.000000;1.073884
1275.000000;1.220868
1274.000000;1.573425
1273.000000;1.561489
1272.000000;1.640859
1271.000000;2.155666
1270.000000;1.661019
1269.000000;1.100406
1268.000000;0.901442
1267.000000;0.950993
1266.000000;1.228360
1265.000000;1.562189
1264.000000;1.533008
1263.000000;1.326069
1262.000000;1.113820
1261.000000;1.026803
1260.000000;1.251242
1259.000000;1.634722
1258.000000;0.944060
1257.000000;0.809662
1256.000000;0.832279
1255.000000;1.172182
1254.000000;1.443366
1253.000000;1.043400
1252.000000;1.000170
1251.000000;1.033239
1250.000000;1.174938
1249.000000;1.404239
1248.000000;1.166781
1247.000000;0.913924
1246.000000;0.837768
1245.000000;0.880655
1244.000000;1.096088
1243.000000;1.218761
1242.000000;1.018033
1241.000000;1.002433
1240.000000;1.346350
1239.000000;1.601244
1238.000000;1.380042
1237.000000;1.527753
1236.000000;1.300108
1235.000000;1.088592
1234.000000;1.012873
1233.000000;1.145015
1232.000000;1.478158
1231.000000;1.290648
1230.000000;1.237665
1229.000000;1.467286
1228.000000;1.470530
1227.000000;1.480418
1226.000000;1.568810
1225.000000;1.274755
1224.000000;1.163347
1223.000000;1.088059
1222.000000;1.030893
1221.000000;1.051304
1220.000000;1.074630
1219.000000;1.109506
1218.000000;1.264100
1217.000000;1.886789
1216.000000;1.573444
1215.000000;1.366969
1214.000000;1.223096
1213.000000;1.043224
1212.000000;1.016138
1211.000000;1.189932
1210.000000;1.353870
1209.000000;1.334589
1208.000000;2.139173
1207.000000;0.978581
1206.000000;0.768025
1205.000000;0.779939
1204.000000;0.966008
1203.000000;1.033205
1202.000000;0.985126
1201.000000;1.190085
1200.000000;1.529670
