Criado como novo conjunto de dados;"2706_e01_daniel.spp","63545.3 Secs"
cm-1;Abs
10000.000000;0.706200
9999.000000;0.705418
9998.000000;0.704700
9997.000000;0.703921
9996.000000;0.703155
9995.000000;0.702584
9994.000000;0.702200
9993.000000;0.701903
9992.000000;0.701635
9991.000000;0.701440
9990.000000;0.701390
9989.000000;0.701566
9988.000000;0.702009
9987.000000;0.702574
9986.000000;0.702903
9985.000000;0.702714
9984.000000;0.702167
9983.000000;0.701764
9982.000000;0.701796
9981.000000;0.702039
9980.000000;0.702131
9979.000000;0.702124
9978.000000;0.702416
9977.000000;0.703170
9976.000000;0.704034
9975.000000;0.704523
9974.000000;0.704491
9973.000000;0.704130
9972.000000;0.703655
9971.000000;0.703141
9970.000000;0.702579
9969.000000;0.701979
9968.000000;0.701412
9967.000000;0.701015
9966.000000;0.700908
9965.000000;0.701057
9964.000000;0.701289
9963.000000;0.701507
9962.000000;0.701782
9961.000000;0.702160
9960.000000;0.702459
9959.000000;0.702423
9958.000000;0.702047
9957.000000;0.701644
9956.000000;0.701526
9955.000000;0.701670
9954.000000;0.701733
9953.000000;0.701404
9952.000000;0.700784
9951.000000;0.700345
9950.000000;0.700437
9949.000000;0.700879
9948.000000;0.701220
9947.000000;0.701375
9946.000000;0.701697
9945.000000;0.702323
9944.000000;0.702768
9943.000000;0.702489
9942.000000;0.701655
9941.000000;0.700971
9940.000000;0.700795
9939.000000;0.700802
9938.000000;0.700553
9937.000000;0.700066
9936.000000;0.699665
9935.000000;0.699510
9934.000000;0.699485
9933.000000;0.699462
9932.000000;0.699484
9931.000000;0.699688
9930.000000;0.700103
9929.000000;0.700520
9928.000000;0.700592
9927.000000;0.700151
9926.000000;0.699400
9925.000000;0.698687
9924.000000;0.698129
9923.000000;0.697596
9922.000000;0.697045
9921.000000;0.696666
9920.000000;0.696607
9919.000000;0.696721
9918.000000;0.696698
9917.000000;0.696343
9916.000000;0.695684
9915.000000;0.694927
9914.000000;0.694415
9913.000000;0.694476
9912.000000;0.695147
9911.000000;0.696103
9910.000000;0.696927
9909.000000;0.697409
9908.000000;0.697533
9907.000000;0.697315
9906.000000;0.696842
9905.000000;0.696377
9904.000000;0.696196
9903.000000;0.696282
9902.000000;0.696306
9901.000000;0.695962
9900.000000;0.695286
9899.000000;0.694618
9898.000000;0.694310
9897.000000;0.694457
9896.000000;0.694820
9895.000000;0.695011
9894.000000;0.694803
9893.000000;0.694310
9892.000000;0.693844
9891.000000;0.693618
9890.000000;0.693613
9889.000000;0.693682
9888.000000;0.693733
9887.000000;0.693811
9886.000000;0.694058
9885.000000;0.694552
9884.000000;0.695148
9883.000000;0.695515
9882.000000;0.695384
9881.000000;0.694782
9880.000000;0.693957
9879.000000;0.693125
9878.000000;0.692331
9877.000000;0.691565
9876.000000;0.690903
9875.000000;0.690473
9874.000000;0.690301
9873.000000;0.690253
9872.000000;0.690166
9871.000000;0.690028
9870.000000;0.690009
9869.000000;0.690293
9868.000000;0.690886
9867.000000;0.691617
9866.000000;0.692288
9865.000000;0.692777
9864.000000;0.693014
9863.000000;0.692954
9862.000000;0.692607
9861.000000;0.692036
9860.000000;0.691313
9859.000000;0.690547
9858.000000;0.689939
9857.000000;0.689677
9856.000000;0.689691
9855.000000;0.689661
9854.000000;0.689404
9853.000000;0.689158
9852.000000;0.689328
9851.000000;0.690009
9850.000000;0.690902
9849.000000;0.691676
9848.000000;0.692204
9847.000000;0.692441
9846.000000;0.692291
9845.000000;0.691737
9844.000000;0.690956
9843.000000;0.690183
9842.000000;0.689527
9841.000000;0.688996
9840.000000;0.688623
9839.000000;0.688442
9838.000000;0.688399
9837.000000;0.688403
9836.000000;0.688471
9835.000000;0.688680
9834.000000;0.688978
9833.000000;0.689116
9832.000000;0.688881
9831.000000;0.688358
9830.000000;0.687917
9829.000000;0.687905
9828.000000;0.688365
9827.000000;0.689025
9826.000000;0.689580
9825.000000;0.689951
9824.000000;0.690254
9823.000000;0.690560
9822.000000;0.690775
9821.000000;0.690794
9820.000000;0.690675
9819.000000;0.690552
9818.000000;0.690427
9817.000000;0.690148
9816.000000;0.689658
9815.000000;0.689155
9814.000000;0.688934
9813.000000;0.689077
9812.000000;0.689368
9811.000000;0.689515
9810.000000;0.689394
9809.000000;0.689071
9808.000000;0.688644
9807.000000;0.688152
9806.000000;0.687616
9805.000000;0.687099
9804.000000;0.686671
9803.000000;0.686355
9802.000000;0.686134
9801.000000;0.685996
9800.000000;0.685957
9799.000000;0.686036
9798.000000;0.686232
9797.000000;0.686505
9796.000000;0.686746
9795.000000;0.686803
9794.000000;0.686624
9793.000000;0.686312
9792.000000;0.685996
9791.000000;0.685659
9790.000000;0.685200
9789.000000;0.684683
9788.000000;0.684399
9787.000000;0.684607
9786.000000;0.685276
9785.000000;0.686099
9784.000000;0.686724
9783.000000;0.686934
9782.000000;0.686749
9781.000000;0.686441
9780.000000;0.686343
9779.000000;0.686487
9778.000000;0.686514
9777.000000;0.686097
9776.000000;0.685415
9775.000000;0.684990
9774.000000;0.685035
9773.000000;0.685176
9772.000000;0.684931
9771.000000;0.684314
9770.000000;0.683789
9769.000000;0.683702
9768.000000;0.683927
9767.000000;0.684071
9766.000000;0.683925
9765.000000;0.683680
9764.000000;0.683735
9763.000000;0.684306
9762.000000;0.685164
9761.000000;0.685775
9760.000000;0.685759
9759.000000;0.685248
9758.000000;0.684762
9757.000000;0.684716
9756.000000;0.685049
9755.000000;0.685297
9754.000000;0.685025
9753.000000;0.684243
9752.000000;0.683420
9751.000000;0.683040
9750.000000;0.683113
9749.000000;0.683169
9748.000000;0.682782
9747.000000;0.682050
9746.000000;0.681460
9745.000000;0.681343
9744.000000;0.681612
9743.000000;0.681993
9742.000000;0.682348
9741.000000;0.682660
9740.000000;0.682834
9739.000000;0.682707
9738.000000;0.682284
9737.000000;0.681854
9736.000000;0.681742
9735.000000;0.681962
9734.000000;0.682133
9733.000000;0.681804
9732.000000;0.680885
9731.000000;0.679733
9730.000000;0.678829
9729.000000;0.678388
9728.000000;0.678296
9727.000000;0.678366
9726.000000;0.678563
9725.000000;0.678966
9724.000000;0.679538
9723.000000;0.680011
9722.000000;0.680039
9721.000000;0.679534
9720.000000;0.678810
9719.000000;0.678364
9718.000000;0.678444
9717.000000;0.678863
9716.000000;0.679206
9715.000000;0.679169
9714.000000;0.678697
9713.000000;0.677940
9712.000000;0.677149
9711.000000;0.676575
9710.000000;0.676315
9709.000000;0.676265
9708.000000;0.676281
9707.000000;0.676336
9706.000000;0.676432
9705.000000;0.676431
9704.000000;0.676156
9703.000000;0.675682
9702.000000;0.675357
9701.000000;0.675458
9700.000000;0.675932
9699.000000;0.676509
9698.000000;0.676972
9697.000000;0.677254
9696.000000;0.677383
9695.000000;0.677435
9694.000000;0.677486
9693.000000;0.677548
9692.000000;0.677587
9691.000000;0.677638
9690.000000;0.677787
9689.000000;0.677995
9688.000000;0.678033
9687.000000;0.677712
9686.000000;0.677110
9685.000000;0.676482
9684.000000;0.676041
9683.000000;0.675890
9682.000000;0.676039
9681.000000;0.676321
9680.000000;0.676387
9679.000000;0.676014
9678.000000;0.675419
9677.000000;0.675052
9676.000000;0.675040
9675.000000;0.675020
9674.000000;0.674618
9673.000000;0.673907
9672.000000;0.673267
9671.000000;0.672920
9670.000000;0.672780
9669.000000;0.672690
9668.000000;0.672586
9667.000000;0.672433
9666.000000;0.672156
9665.000000;0.671740
9664.000000;0.671322
9663.000000;0.671125
9662.000000;0.671257
9661.000000;0.671617
9660.000000;0.671977
9659.000000;0.672184
9658.000000;0.672288
9657.000000;0.672470
9656.000000;0.672812
9655.000000;0.673178
9654.000000;0.673354
9653.000000;0.673264
9652.000000;0.672981
9651.000000;0.672564
9650.000000;0.672006
9649.000000;0.671368
9648.000000;0.670864
9647.000000;0.670702
9646.000000;0.670878
9645.000000;0.671171
9644.000000;0.671359
9643.000000;0.671382
9642.000000;0.671323
9641.000000;0.671303
9640.000000;0.671395
9639.000000;0.671587
9638.000000;0.671798
9637.000000;0.671971
9636.000000;0.672137
9635.000000;0.672343
9634.000000;0.672507
9633.000000;0.672434
9632.000000;0.672035
9631.000000;0.671444
9630.000000;0.670860
9629.000000;0.670354
9628.000000;0.669927
9627.000000;0.669680
9626.000000;0.669769
9625.000000;0.670145
9624.000000;0.670499
9623.000000;0.670573
9622.000000;0.670468
9621.000000;0.670509
9620.000000;0.670831
9619.000000;0.671178
9618.000000;0.671147
9617.000000;0.670564
9616.000000;0.669610
9615.000000;0.668675
9614.000000;0.668127
9613.000000;0.668116
9612.000000;0.668459
9611.000000;0.668714
9610.000000;0.668519
9609.000000;0.667943
9608.000000;0.667447
9607.000000;0.667450
9606.000000;0.667944
9605.000000;0.668549
9604.000000;0.668878
9603.000000;0.668779
9602.000000;0.668317
9601.000000;0.667680
9600.000000;0.667128
9599.000000;0.666877
9598.000000;0.666949
9597.000000;0.667166
9596.000000;0.667305
9595.000000;0.667241
9594.000000;0.666951
9593.000000;0.666532
9592.000000;0.666259
9591.000000;0.666458
9590.000000;0.667177
9589.000000;0.668049
9588.000000;0.668603
9587.000000;0.668721
9586.000000;0.668679
9585.000000;0.668767
9584.000000;0.668970
9583.000000;0.669050
9582.000000;0.668823
9581.000000;0.668334
9580.000000;0.667822
9579.000000;0.667517
9578.000000;0.667424
9577.000000;0.667332
9576.000000;0.667094
9575.000000;0.666841
9574.000000;0.666824
9573.000000;0.667040
9572.000000;0.667175
9571.000000;0.666950
9570.000000;0.666404
9569.000000;0.665795
9568.000000;0.665346
9567.000000;0.665125
9566.000000;0.665051
9565.000000;0.664912
9564.000000;0.664502
9563.000000;0.663848
9562.000000;0.663263
9561.000000;0.663073
9560.000000;0.663312
9559.000000;0.663748
9558.000000;0.664132
9557.000000;0.664360
9556.000000;0.664445
9555.000000;0.664475
9554.000000;0.664555
9553.000000;0.664703
9552.000000;0.664790
9551.000000;0.664675
9550.000000;0.664418
9549.000000;0.664273
9548.000000;0.664454
9547.000000;0.664931
9546.000000;0.665431
9545.000000;0.665606
9544.000000;0.665270
9543.000000;0.664564
9542.000000;0.663891
9541.000000;0.663578
9540.000000;0.663577
9539.000000;0.663565
9538.000000;0.663339
9537.000000;0.663003
9536.000000;0.662770
9535.000000;0.662686
9534.000000;0.662656
9533.000000;0.662645
9532.000000;0.662722
9531.000000;0.662932
9530.000000;0.663194
9529.000000;0.663375
9528.000000;0.663407
9527.000000;0.663315
9526.000000;0.663161
9525.000000;0.662979
9524.000000;0.662758
9523.000000;0.662496
9522.000000;0.662246
9521.000000;0.662094
9520.000000;0.662061
9519.000000;0.662057
9518.000000;0.661975
9517.000000;0.661820
9516.000000;0.661717
9515.000000;0.661774
9514.000000;0.661955
9513.000000;0.662131
9512.000000;0.662233
9511.000000;0.662335
9510.000000;0.662556
9509.000000;0.662857
9508.000000;0.662997
9507.000000;0.662742
9506.000000;0.662145
9505.000000;0.661547
9504.000000;0.661250
9503.000000;0.661233
9502.000000;0.661239
9501.000000;0.661129
9500.000000;0.661028
9499.000000;0.661094
9498.000000;0.661240
9497.000000;0.661201
9496.000000;0.660855
9495.000000;0.660378
9494.000000;0.660042
9493.000000;0.659915
9492.000000;0.659818
9491.000000;0.659568
9490.000000;0.659221
9489.000000;0.659037
9488.000000;0.659179
9487.000000;0.659483
9486.000000;0.659595
9485.000000;0.659376
9484.000000;0.659089
9483.000000;0.659091
9482.000000;0.659394
9481.000000;0.659673
9480.000000;0.659707
9479.000000;0.659633
9478.000000;0.659692
9477.000000;0.659868
9476.000000;0.659941
9475.000000;0.659792
9474.000000;0.659490
9473.000000;0.659109
9472.000000;0.658630
9471.000000;0.658059
9470.000000;0.657483
9469.000000;0.656980
9468.000000;0.656564
9467.000000;0.656286
9466.000000;0.656269
9465.000000;0.656545
9464.000000;0.656946
9463.000000;0.657235
9462.000000;0.657350
9461.000000;0.657412
9460.000000;0.657515
9459.000000;0.657595
9458.000000;0.657529
9457.000000;0.657321
9456.000000;0.657135
9455.000000;0.657136
9454.000000;0.657311
9453.000000;0.657481
9452.000000;0.657485
9451.000000;0.657324
9450.000000;0.657090
9449.000000;0.656813
9448.000000;0.656475
9447.000000;0.656138
9446.000000;0.655946
9445.000000;0.655933
9444.000000;0.655933
9443.000000;0.655769
9442.000000;0.655512
9441.000000;0.655441
9440.000000;0.655716
9439.000000;0.656159
9438.000000;0.656398
9437.000000;0.656243
9436.000000;0.655858
9435.000000;0.655557
9434.000000;0.655466
9433.000000;0.655448
9432.000000;0.655358
9431.000000;0.655272
9430.000000;0.655390
9429.000000;0.655763
9428.000000;0.656211
9427.000000;0.656496
9426.000000;0.656508
9425.000000;0.656289
9424.000000;0.655954
9423.000000;0.655613
9422.000000;0.655311
9421.000000;0.655025
9420.000000;0.654752
9419.000000;0.654562
9418.000000;0.654494
9417.000000;0.654443
9416.000000;0.654267
9415.000000;0.654021
9414.000000;0.653940
9413.000000;0.654133
9412.000000;0.654404
9411.000000;0.654464
9410.000000;0.654253
9409.000000;0.653984
9408.000000;0.653905
9407.000000;0.654074
9406.000000;0.654331
9405.000000;0.654437
9404.000000;0.654288
9403.000000;0.654010
9402.000000;0.653825
9401.000000;0.653783
9400.000000;0.653704
9399.000000;0.653378
9398.000000;0.652756
9397.000000;0.651951
9396.000000;0.651150
9395.000000;0.650571
9394.000000;0.650354
9393.000000;0.650406
9392.000000;0.650448
9391.000000;0.650339
9390.000000;0.650254
9389.000000;0.650416
9388.000000;0.650748
9387.000000;0.650950
9386.000000;0.650880
9385.000000;0.650714
9384.000000;0.650693
9383.000000;0.650852
9382.000000;0.650990
9381.000000;0.650846
9380.000000;0.650291
9379.000000;0.649492
9378.000000;0.648880
9377.000000;0.648844
9376.000000;0.649360
9375.000000;0.649965
9374.000000;0.650139
9373.000000;0.649746
9372.000000;0.649129
9371.000000;0.648803
9370.000000;0.649019
9369.000000;0.649552
9368.000000;0.649938
9367.000000;0.649921
9366.000000;0.649630
9365.000000;0.649307
9364.000000;0.649027
9363.000000;0.648781
9362.000000;0.648689
9361.000000;0.648894
9360.000000;0.649264
9359.000000;0.649440
9358.000000;0.649236
9357.000000;0.648841
9356.000000;0.648557
9355.000000;0.648492
9354.000000;0.648575
9353.000000;0.648752
9352.000000;0.649017
9351.000000;0.649329
9350.000000;0.649566
9349.000000;0.649578
9348.000000;0.649270
9347.000000;0.648700
9346.000000;0.648090
9345.000000;0.647632
9344.000000;0.647285
9343.000000;0.646848
9342.000000;0.646280
9341.000000;0.645798
9340.000000;0.645627
9339.000000;0.645757
9338.000000;0.646010
9337.000000;0.646204
9336.000000;0.646182
9335.000000;0.645834
9334.000000;0.645242
9333.000000;0.644717
9332.000000;0.644520
9331.000000;0.644585
9330.000000;0.644634
9329.000000;0.644516
9328.000000;0.644312
9327.000000;0.644159
9326.000000;0.644125
9325.000000;0.644254
9324.000000;0.644556
9323.000000;0.644949
9322.000000;0.645322
9321.000000;0.645703
9320.000000;0.646214
9319.000000;0.646827
9318.000000;0.647295
9317.000000;0.647406
9316.000000;0.647211
9315.000000;0.646918
9314.000000;0.646637
9313.000000;0.646340
9312.000000;0.646019
9311.000000;0.645752
9310.000000;0.645595
9309.000000;0.645500
9308.000000;0.645387
9307.000000;0.645254
9306.000000;0.645186
9305.000000;0.645253
9304.000000;0.645427
9303.000000;0.645590
9302.000000;0.645618
9301.000000;0.645455
9300.000000;0.645144
9299.000000;0.644789
9298.000000;0.644497
9297.000000;0.644310
9296.000000;0.644190
9295.000000;0.644078
9294.000000;0.643969
9293.000000;0.643895
9292.000000;0.643836
9291.000000;0.643717
9290.000000;0.643503
9289.000000;0.643255
9288.000000;0.643026
9287.000000;0.642772
9286.000000;0.642445
9285.000000;0.642129
9284.000000;0.641985
9283.000000;0.642072
9282.000000;0.642299
9281.000000;0.642578
9280.000000;0.642921
9279.000000;0.643368
9278.000000;0.643884
9277.000000;0.644326
9276.000000;0.644488
9275.000000;0.644190
9274.000000;0.643452
9273.000000;0.642574
9272.000000;0.641918
9271.000000;0.641560
9270.000000;0.641246
9269.000000;0.640763
9268.000000;0.640226
9267.000000;0.639903
9266.000000;0.639878
9265.000000;0.640020
9264.000000;0.640191
9263.000000;0.640330
9262.000000;0.640365
9261.000000;0.640247
9260.000000;0.640101
9259.000000;0.640192
9258.000000;0.640653
9257.000000;0.641336
9256.000000;0.641967
9255.000000;0.642378
9254.000000;0.642560
9253.000000;0.642588
9252.000000;0.642601
9251.000000;0.642732
9250.000000;0.642958
9249.000000;0.643052
9248.000000;0.642781
9247.000000;0.642146
9246.000000;0.641337
9245.000000;0.640504
9244.000000;0.639644
9243.000000;0.638764
9242.000000;0.638014
9241.000000;0.637592
9240.000000;0.637527
9239.000000;0.637618
9238.000000;0.637630
9237.000000;0.637537
9236.000000;0.637550
9235.000000;0.637869
9234.000000;0.638445
9233.000000;0.638999
9232.000000;0.639296
9231.000000;0.639362
9230.000000;0.639410
9229.000000;0.639600
9228.000000;0.639878
9227.000000;0.640013
9226.000000;0.639793
9225.000000;0.639224
9224.000000;0.638566
9223.000000;0.638127
9222.000000;0.637976
9221.000000;0.637899
9220.000000;0.637673
9219.000000;0.637313
9218.000000;0.637007
9217.000000;0.636863
9216.000000;0.636825
9215.000000;0.636805
9214.000000;0.636792
9213.000000;0.636818
9212.000000;0.636878
9211.000000;0.636932
9210.000000;0.636930
9209.000000;0.636839
9208.000000;0.636677
9207.000000;0.636547
9206.000000;0.636569
9205.000000;0.636740
9204.000000;0.636906
9203.000000;0.636905
9202.000000;0.636704
9201.000000;0.636382
9200.000000;0.636038
9199.000000;0.635761
9198.000000;0.635645
9197.000000;0.635730
9196.000000;0.635927
9195.000000;0.636048
9194.000000;0.635958
9193.000000;0.635704
9192.000000;0.635470
9191.000000;0.635414
9190.000000;0.635534
9189.000000;0.635680
9188.000000;0.635706
9187.000000;0.635604
9186.000000;0.635510
9185.000000;0.635558
9184.000000;0.635723
9183.000000;0.635807
9182.000000;0.635621
9181.000000;0.635202
9180.000000;0.634842
9179.000000;0.634825
9178.000000;0.635126
9177.000000;0.635410
9176.000000;0.635381
9175.000000;0.635086
9174.000000;0.634814
9173.000000;0.634748
9172.000000;0.634788
9171.000000;0.634724
9170.000000;0.634507
9169.000000;0.634303
9168.000000;0.634317
9167.000000;0.634585
9166.000000;0.634926
9165.000000;0.635087
9164.000000;0.634963
9163.000000;0.634687
9162.000000;0.634481
9161.000000;0.634426
9160.000000;0.634412
9159.000000;0.634279
9158.000000;0.633957
9157.000000;0.633479
9156.000000;0.632921
9155.000000;0.632360
9154.000000;0.631876
9153.000000;0.631553
9152.000000;0.631476
9151.000000;0.631672
9150.000000;0.632031
9149.000000;0.632333
9148.000000;0.632438
9147.000000;0.632402
9146.000000;0.632364
9145.000000;0.632331
9144.000000;0.632206
9143.000000;0.631968
9142.000000;0.631699
9141.000000;0.631424
9140.000000;0.631082
9139.000000;0.630714
9138.000000;0.630511
9137.000000;0.630553
9136.000000;0.630634
9135.000000;0.630478
9134.000000;0.630086
9133.000000;0.629721
9132.000000;0.629599
9131.000000;0.629688
9130.000000;0.629812
9129.000000;0.629836
9128.000000;0.629737
9127.000000;0.629596
9126.000000;0.629516
9125.000000;0.629511
9124.000000;0.629491
9123.000000;0.629397
9122.000000;0.629304
9121.000000;0.629331
9120.000000;0.629486
9119.000000;0.629704
9118.000000;0.629975
9117.000000;0.630318
9116.000000;0.630647
9115.000000;0.630801
9114.000000;0.630739
9113.000000;0.630576
9112.000000;0.630412
9111.000000;0.630254
9110.000000;0.630122
9109.000000;0.630102
9108.000000;0.630204
9107.000000;0.630274
9106.000000;0.630153
9105.000000;0.629870
9104.000000;0.629593
9103.000000;0.629420
9102.000000;0.629306
9101.000000;0.629139
9100.000000;0.628822
9099.000000;0.628316
9098.000000;0.627694
9097.000000;0.627140
9096.000000;0.626825
9095.000000;0.626753
9094.000000;0.626780
9093.000000;0.626785
9092.000000;0.626788
9091.000000;0.626879
9090.000000;0.627090
9089.000000;0.627327
9088.000000;0.627439
9087.000000;0.627347
9086.000000;0.627133
9085.000000;0.626960
9084.000000;0.626876
9083.000000;0.626743
9082.000000;0.626421
9081.000000;0.625984
9080.000000;0.625667
9079.000000;0.625577
9078.000000;0.625552
9077.000000;0.625361
9076.000000;0.624983
9075.000000;0.624634
9074.000000;0.624538
9073.000000;0.624730
9072.000000;0.625070
9071.000000;0.625374
9070.000000;0.625535
9069.000000;0.625560
9068.000000;0.625549
9067.000000;0.625603
9066.000000;0.625744
9065.000000;0.625917
9064.000000;0.626088
9063.000000;0.626288
9062.000000;0.626531
9061.000000;0.626713
9060.000000;0.626663
9059.000000;0.626309
9058.000000;0.625753
9057.000000;0.625142
9056.000000;0.624519
9055.000000;0.623868
9054.000000;0.623258
9053.000000;0.622867
9052.000000;0.622813
9051.000000;0.623014
9050.000000;0.623276
9049.000000;0.623486
9048.000000;0.623669
9047.000000;0.623851
9046.000000;0.623957
9045.000000;0.623910
9044.000000;0.623790
9043.000000;0.623801
9042.000000;0.624040
9041.000000;0.624365
9040.000000;0.624524
9039.000000;0.624392
9038.000000;0.624050
9037.000000;0.623669
9036.000000;0.623422
9035.000000;0.623463
9034.000000;0.623845
9033.000000;0.624400
9032.000000;0.624784
9031.000000;0.624756
9030.000000;0.624407
9029.000000;0.624034
9028.000000;0.623819
9027.000000;0.623695
9026.000000;0.623517
9025.000000;0.623251
9024.000000;0.622964
9023.000000;0.622690
9022.000000;0.622383
9021.000000;0.622018
9020.000000;0.621677
9019.000000;0.621517
9018.000000;0.621623
9017.000000;0.621894
9016.000000;0.622114
9015.000000;0.622142
9014.000000;0.622018
9013.000000;0.621861
9012.000000;0.621720
9011.000000;0.621575
9010.000000;0.621443
9009.000000;0.621375
9008.000000;0.621354
9007.000000;0.621286
9006.000000;0.621140
9005.000000;0.621018
9004.000000;0.621035
9003.000000;0.621158
9002.000000;0.621213
9001.000000;0.621034
9000.000000;0.620596
8999.000000;0.620029
8998.000000;0.619521
8997.000000;0.619170
8996.000000;0.618920
8995.000000;0.618662
8994.000000;0.618426
8993.000000;0.618391
8992.000000;0.618674
8991.000000;0.619159
8990.000000;0.619594
8989.000000;0.619830
8988.000000;0.619903
8987.000000;0.619923
8986.000000;0.619964
8985.000000;0.620038
8984.000000;0.620098
8983.000000;0.620057
8982.000000;0.619880
8981.000000;0.619655
8980.000000;0.619535
8979.000000;0.619572
8978.000000;0.619672
8977.000000;0.619721
8976.000000;0.619701
8975.000000;0.619638
8974.000000;0.619497
8973.000000;0.619208
8972.000000;0.618773
8971.000000;0.618294
8970.000000;0.617883
8969.000000;0.617579
8968.000000;0.617356
8967.000000;0.617183
8966.000000;0.617064
8965.000000;0.617026
8964.000000;0.617076
8963.000000;0.617179
8962.000000;0.617272
8961.000000;0.617310
8960.000000;0.617302
8959.000000;0.617294
8958.000000;0.617321
8957.000000;0.617386
8956.000000;0.617441
8955.000000;0.617418
8954.000000;0.617281
8953.000000;0.617070
8952.000000;0.616883
8951.000000;0.616806
8950.000000;0.616865
8949.000000;0.617018
8948.000000;0.617180
8947.000000;0.617248
8946.000000;0.617158
8945.000000;0.616960
8944.000000;0.616796
8943.000000;0.616765
8942.000000;0.616812
8941.000000;0.616765
8940.000000;0.616512
8939.000000;0.616111
8938.000000;0.615759
8937.000000;0.615659
8936.000000;0.615896
8935.000000;0.616369
8934.000000;0.616849
8933.000000;0.617145
8932.000000;0.617243
8931.000000;0.617274
8930.000000;0.617341
8929.000000;0.617420
8928.000000;0.617433
8927.000000;0.617352
8926.000000;0.617193
8925.000000;0.616942
8924.000000;0.616585
8923.000000;0.616189
8922.000000;0.615895
8921.000000;0.615775
8920.000000;0.615761
8919.000000;0.615737
8918.000000;0.615687
8917.000000;0.615674
8916.000000;0.615693
8915.000000;0.615594
8914.000000;0.615226
8913.000000;0.614634
8912.000000;0.614088
8911.000000;0.613868
8910.000000;0.614048
8909.000000;0.614484
8908.000000;0.614974
8907.000000;0.615386
8906.000000;0.615635
8905.000000;0.615644
8904.000000;0.615407
8903.000000;0.615062
8902.000000;0.614788
8901.000000;0.614608
8900.000000;0.614359
8899.000000;0.613901
8898.000000;0.613329
8897.000000;0.612901
8896.000000;0.612781
8895.000000;0.612894
8894.000000;0.613021
8893.000000;0.612992
8892.000000;0.612789
8891.000000;0.612527
8890.000000;0.612353
8889.000000;0.612351
8888.000000;0.612468
8887.000000;0.612558
8886.000000;0.612494
8885.000000;0.612280
8884.000000;0.612044
8883.000000;0.611924
8882.000000;0.611956
8881.000000;0.612054
8880.000000;0.612107
8879.000000;0.612076
8878.000000;0.611989
8877.000000;0.611868
8876.000000;0.611700
8875.000000;0.611500
8874.000000;0.611341
8873.000000;0.611272
8872.000000;0.611224
8871.000000;0.611069
8870.000000;0.610787
8869.000000;0.610510
8868.000000;0.610379
8867.000000;0.610395
8866.000000;0.610450
8865.000000;0.610485
8864.000000;0.610552
8863.000000;0.610713
8862.000000;0.610922
8861.000000;0.611033
8860.000000;0.610936
8859.000000;0.610677
8858.000000;0.610424
8857.000000;0.610312
8856.000000;0.610329
8855.000000;0.610366
8854.000000;0.610367
8853.000000;0.610384
8852.000000;0.610485
8851.000000;0.610635
8850.000000;0.610700
8849.000000;0.610553
8848.000000;0.610202
8847.000000;0.609819
8846.000000;0.609633
8845.000000;0.609741
8844.000000;0.610003
8843.000000;0.610168
8842.000000;0.610110
8841.000000;0.609910
8840.000000;0.609713
8839.000000;0.609566
8838.000000;0.609430
8837.000000;0.609275
8836.000000;0.609098
8835.000000;0.608895
8834.000000;0.608690
8833.000000;0.608575
8832.000000;0.608637
8831.000000;0.608841
8830.000000;0.609037
8829.000000;0.609090
8828.000000;0.608995
8827.000000;0.608852
8826.000000;0.608799
8825.000000;0.608917
8824.000000;0.609177
8823.000000;0.609437
8822.000000;0.609554
8821.000000;0.609503
8820.000000;0.609353
8819.000000;0.609178
8818.000000;0.609008
8817.000000;0.608874
8816.000000;0.608805
8815.000000;0.608799
8814.000000;0.608819
8813.000000;0.608820
8812.000000;0.608712
8811.000000;0.608344
8810.000000;0.607645
8809.000000;0.606800
8808.000000;0.606162
8807.000000;0.605931
8806.000000;0.606011
8805.000000;0.606216
8804.000000;0.606498
8803.000000;0.606887
8802.000000;0.607309
8801.000000;0.607620
8800.000000;0.607788
8799.000000;0.607918
8798.000000;0.608080
8797.000000;0.608228
8796.000000;0.608290
8795.000000;0.608238
8794.000000;0.608067
8793.000000;0.607770
8792.000000;0.607406
8791.000000;0.607108
8790.000000;0.606997
8789.000000;0.607094
8788.000000;0.607324
8787.000000;0.607561
8786.000000;0.607668
8785.000000;0.607545
8784.000000;0.607193
8783.000000;0.606690
8782.000000;0.606110
8781.000000;0.605486
8780.000000;0.604871
8779.000000;0.604360
8778.000000;0.604055
8777.000000;0.604009
8776.000000;0.604214
8775.000000;0.604594
8774.000000;0.605010
8773.000000;0.605345
8772.000000;0.605618
8771.000000;0.605958
8770.000000;0.606420
8769.000000;0.606865
8768.000000;0.607068
8767.000000;0.606930
8766.000000;0.606550
8765.000000;0.606118
8764.000000;0.605777
8763.000000;0.605578
8762.000000;0.605511
8761.000000;0.605551
8760.000000;0.605678
8759.000000;0.605861
8758.000000;0.606052
8757.000000;0.606215
8756.000000;0.606352
8755.000000;0.606477
8754.000000;0.606563
8753.000000;0.606573
8752.000000;0.606522
8751.000000;0.606473
8750.000000;0.606453
8749.000000;0.606418
8748.000000;0.606328
8747.000000;0.606209
8746.000000;0.606090
8745.000000;0.605948
8744.000000;0.605756
8743.000000;0.605562
8742.000000;0.605454
8741.000000;0.605440
8740.000000;0.605419
8739.000000;0.605293
8738.000000;0.605109
8737.000000;0.605031
8736.000000;0.605158
8735.000000;0.605380
8734.000000;0.605453
8733.000000;0.605231
8732.000000;0.604817
8731.000000;0.604446
8730.000000;0.604261
8729.000000;0.604232
8728.000000;0.604284
8727.000000;0.604380
8726.000000;0.604464
8725.000000;0.604416
8724.000000;0.604165
8723.000000;0.603810
8722.000000;0.603557
8721.000000;0.603510
8720.000000;0.603564
8719.000000;0.603522
8718.000000;0.603284
8717.000000;0.602932
8716.000000;0.602654
8715.000000;0.602575
8714.000000;0.602673
8713.000000;0.602815
8712.000000;0.602896
8711.000000;0.602895
8710.000000;0.602842
8709.000000;0.602779
8708.000000;0.602752
8707.000000;0.602780
8706.000000;0.602794
8705.000000;0.602675
8704.000000;0.602403
8703.000000;0.602128
8702.000000;0.602034
8701.000000;0.602157
8700.000000;0.602384
8699.000000;0.602607
8698.000000;0.602816
8697.000000;0.603046
8696.000000;0.603307
8695.000000;0.603569
8694.000000;0.603814
8693.000000;0.604053
8692.000000;0.604317
8691.000000;0.604590
8690.000000;0.604751
8689.000000;0.604630
8688.000000;0.604186
8687.000000;0.603616
8686.000000;0.603219
8685.000000;0.603135
8684.000000;0.603243
8683.000000;0.603302
8682.000000;0.603166
8681.000000;0.602852
8680.000000;0.602484
8679.000000;0.602186
8678.000000;0.602010
8677.000000;0.601923
8676.000000;0.601863
8675.000000;0.601793
8674.000000;0.601706
8673.000000;0.601616
8672.000000;0.601551
8671.000000;0.601538
8670.000000;0.601581
8669.000000;0.601645
8668.000000;0.601688
8667.000000;0.601689
8666.000000;0.601644
8665.000000;0.601566
8664.000000;0.601494
8663.000000;0.601464
8662.000000;0.601469
8661.000000;0.601464
8660.000000;0.601451
8659.000000;0.601474
8658.000000;0.601511
8657.000000;0.601432
8656.000000;0.601147
8655.000000;0.600735
8654.000000;0.600373
8653.000000;0.600146
8652.000000;0.600006
8651.000000;0.599880
8650.000000;0.599739
8649.000000;0.599575
8648.000000;0.599410
8647.000000;0.599316
8646.000000;0.599347
8645.000000;0.599434
8644.000000;0.599426
8643.000000;0.599250
8642.000000;0.598965
8641.000000;0.598673
8640.000000;0.598442
8639.000000;0.598309
8638.000000;0.598261
8637.000000;0.598206
8636.000000;0.598066
8635.000000;0.597917
8634.000000;0.597928
8633.000000;0.598105
8632.000000;0.598209
8631.000000;0.598022
8630.000000;0.597620
8629.000000;0.597304
8628.000000;0.597276
8627.000000;0.597459
8626.000000;0.597582
8625.000000;0.597391
8624.000000;0.596829
8623.000000;0.596084
8622.000000;0.595455
8621.000000;0.595105
8620.000000;0.594946
8619.000000;0.594788
8618.000000;0.594564
8617.000000;0.594374
8616.000000;0.594350
8615.000000;0.594544
8614.000000;0.594898
8613.000000;0.595269
8612.000000;0.595502
8611.000000;0.595560
8610.000000;0.595556
8609.000000;0.595631
8608.000000;0.595790
8607.000000;0.595922
8606.000000;0.595937
8605.000000;0.595827
8604.000000;0.595624
8603.000000;0.595383
8602.000000;0.595177
8601.000000;0.595026
8600.000000;0.594826
8599.000000;0.594459
8598.000000;0.593976
8597.000000;0.593583
8596.000000;0.593399
8595.000000;0.593309
8594.000000;0.593119
8593.000000;0.592789
8592.000000;0.592457
8591.000000;0.592250
8590.000000;0.592157
8589.000000;0.592074
8588.000000;0.591928
8587.000000;0.591718
8586.000000;0.591479
8585.000000;0.591234
8584.000000;0.590997
8583.000000;0.590816
8582.000000;0.590774
8581.000000;0.590922
8580.000000;0.591194
8579.000000;0.591439
8578.000000;0.591559
8577.000000;0.591595
8576.000000;0.591640
8575.000000;0.591679
8574.000000;0.591553
8573.000000;0.591128
8572.000000;0.590475
8571.000000;0.589849
8570.000000;0.589465
8569.000000;0.589315
8568.000000;0.589251
8567.000000;0.589195
8566.000000;0.589211
8565.000000;0.589353
8564.000000;0.589538
8563.000000;0.589639
8562.000000;0.589659
8561.000000;0.589707
8560.000000;0.589819
8559.000000;0.589886
8558.000000;0.589813
8557.000000;0.589662
8556.000000;0.589583
8555.000000;0.589630
8554.000000;0.589715
8553.000000;0.589702
8552.000000;0.589510
8551.000000;0.589141
8550.000000;0.588664
8549.000000;0.588181
8548.000000;0.587741
8547.000000;0.587285
8546.000000;0.586717
8545.000000;0.586090
8544.000000;0.585647
8543.000000;0.585615
8542.000000;0.585945
8541.000000;0.586308
8540.000000;0.586389
8539.000000;0.586171
8538.000000;0.585900
8537.000000;0.585800
8536.000000;0.585865
8535.000000;0.585930
8534.000000;0.585867
8533.000000;0.585682
8532.000000;0.585444
8531.000000;0.585196
8530.000000;0.584950
8529.000000;0.584705
8528.000000;0.584453
8527.000000;0.584173
8526.000000;0.583878
8525.000000;0.583636
8524.000000;0.583504
8523.000000;0.583462
8522.000000;0.583426
8521.000000;0.583344
8520.000000;0.583238
8519.000000;0.583143
8518.000000;0.583065
8517.000000;0.583002
8516.000000;0.582983
8515.000000;0.583039
8514.000000;0.583146
8513.000000;0.583226
8512.000000;0.583227
8511.000000;0.583165
8510.000000;0.583103
8509.000000;0.583097
8508.000000;0.583162
8507.000000;0.583249
8506.000000;0.583265
8505.000000;0.583132
8504.000000;0.582871
8503.000000;0.582594
8502.000000;0.582395
8501.000000;0.582277
8500.000000;0.582179
8499.000000;0.582055
8498.000000;0.581893
8497.000000;0.581685
8496.000000;0.581425
8495.000000;0.581131
8494.000000;0.580853
8493.000000;0.580652
8492.000000;0.580582
8491.000000;0.580647
8490.000000;0.580758
8489.000000;0.580736
8488.000000;0.580453
8487.000000;0.579975
8486.000000;0.579516
8485.000000;0.579237
8484.000000;0.579116
8483.000000;0.579039
8482.000000;0.578946
8481.000000;0.578858
8480.000000;0.578807
8479.000000;0.578822
8478.000000;0.578953
8477.000000;0.579234
8476.000000;0.579605
8475.000000;0.579922
8474.000000;0.580078
8473.000000;0.580077
8472.000000;0.579996
8471.000000;0.579886
8470.000000;0.579739
8469.000000;0.579540
8468.000000;0.579297
8467.000000;0.579038
8466.000000;0.578761
8465.000000;0.578411
8464.000000;0.577921
8463.000000;0.577326
8462.000000;0.576808
8461.000000;0.576586
8460.000000;0.576716
8459.000000;0.577022
8458.000000;0.577244
8457.000000;0.577254
8456.000000;0.577109
8455.000000;0.576927
8454.000000;0.576761
8453.000000;0.576598
8452.000000;0.576435
8451.000000;0.576321
8450.000000;0.576320
8449.000000;0.576441
8448.000000;0.576613
8447.000000;0.576729
8446.000000;0.576739
8445.000000;0.576691
8444.000000;0.576680
8443.000000;0.576748
8442.000000;0.576827
8441.000000;0.576786
8440.000000;0.576543
8439.000000;0.576130
8438.000000;0.575664
8437.000000;0.575252
8436.000000;0.574932
8435.000000;0.574680
8434.000000;0.574462
8433.000000;0.574256
8432.000000;0.574037
8431.000000;0.573781
8430.000000;0.573499
8429.000000;0.573243
8428.000000;0.573059
8427.000000;0.572947
8426.000000;0.572898
8425.000000;0.572946
8424.000000;0.573139
8423.000000;0.573427
8422.000000;0.573647
8421.000000;0.573657
8420.000000;0.573485
8419.000000;0.573294
8418.000000;0.573200
8417.000000;0.573173
8416.000000;0.573105
8415.000000;0.572943
8414.000000;0.572726
8413.000000;0.572525
8412.000000;0.572383
8411.000000;0.572293
8410.000000;0.572231
8409.000000;0.572196
8408.000000;0.572216
8407.000000;0.572305
8406.000000;0.572407
8405.000000;0.572415
8404.000000;0.572287
8403.000000;0.572116
8402.000000;0.572052
8401.000000;0.572158
8400.000000;0.572346
8399.000000;0.572455
8398.000000;0.572372
8397.000000;0.572084
8396.000000;0.571678
8395.000000;0.571293
8394.000000;0.571034
8393.000000;0.570905
8392.000000;0.570810
8391.000000;0.570646
8390.000000;0.570385
8389.000000;0.570070
8388.000000;0.569761
8387.000000;0.569520
8386.000000;0.569397
8385.000000;0.569403
8384.000000;0.569464
8383.000000;0.569474
8382.000000;0.569388
8381.000000;0.569259
8380.000000;0.569152
8379.000000;0.569042
8378.000000;0.568849
8377.000000;0.568557
8376.000000;0.568267
8375.000000;0.568093
8374.000000;0.568035
8373.000000;0.567996
8372.000000;0.567890
8371.000000;0.567708
8370.000000;0.567477
8369.000000;0.567233
8368.000000;0.567034
8367.000000;0.566943
8366.000000;0.566966
8365.000000;0.567029
8364.000000;0.567071
8363.000000;0.567115
8362.000000;0.567212
8361.000000;0.567320
8360.000000;0.567334
8359.000000;0.567234
8358.000000;0.567143
8357.000000;0.567189
8356.000000;0.567360
8355.000000;0.567522
8354.000000;0.567564
8353.000000;0.567462
8352.000000;0.567242
8351.000000;0.566933
8350.000000;0.566568
8349.000000;0.566199
8348.000000;0.565869
8347.000000;0.565613
8346.000000;0.565471
8345.000000;0.565484
8344.000000;0.565638
8343.000000;0.565842
8342.000000;0.565973
8341.000000;0.565941
8340.000000;0.565716
8339.000000;0.565338
8338.000000;0.564911
8337.000000;0.564580
8336.000000;0.564434
8335.000000;0.564430
8334.000000;0.564422
8333.000000;0.564308
8332.000000;0.564129
8331.000000;0.564022
8330.000000;0.564067
8329.000000;0.564203
8328.000000;0.564293
8327.000000;0.564253
8326.000000;0.564102
8325.000000;0.563917
8324.000000;0.563753
8323.000000;0.563630
8322.000000;0.563550
8321.000000;0.563515
8320.000000;0.563520
8319.000000;0.563553
8318.000000;0.563591
8317.000000;0.563607
8316.000000;0.563568
8315.000000;0.563458
8314.000000;0.563309
8313.000000;0.563188
8312.000000;0.563159
8311.000000;0.563215
8310.000000;0.563285
8309.000000;0.563282
8308.000000;0.563184
8307.000000;0.563044
8306.000000;0.562935
8305.000000;0.562866
8304.000000;0.562780
8303.000000;0.562616
8302.000000;0.562375
8301.000000;0.562100
8300.000000;0.561833
8299.000000;0.561611
8298.000000;0.561469
8297.000000;0.561416
8296.000000;0.561403
8295.000000;0.561354
8294.000000;0.561257
8293.000000;0.561184
8292.000000;0.561212
8291.000000;0.561330
8290.000000;0.561457
8289.000000;0.561509
8288.000000;0.561437
8287.000000;0.561243
8286.000000;0.560989
8285.000000;0.560767
8284.000000;0.560603
8283.000000;0.560416
8282.000000;0.560111
8281.000000;0.559726
8280.000000;0.559403
8279.000000;0.559216
8278.000000;0.559090
8277.000000;0.558912
8276.000000;0.558671
8275.000000;0.558458
8274.000000;0.558346
8273.000000;0.558329
8272.000000;0.558371
8271.000000;0.558460
8270.000000;0.558618
8269.000000;0.558846
8268.000000;0.559084
8267.000000;0.559233
8266.000000;0.559240
8265.000000;0.559152
8264.000000;0.559047
8263.000000;0.558924
8262.000000;0.558710
8261.000000;0.558391
8260.000000;0.558073
8259.000000;0.557870
8258.000000;0.557782
8257.000000;0.557742
8256.000000;0.557722
8255.000000;0.557742
8254.000000;0.557791
8253.000000;0.557819
8252.000000;0.557800
8251.000000;0.557743
8250.000000;0.557655
8249.000000;0.557547
8248.000000;0.557461
8247.000000;0.557432
8246.000000;0.557412
8245.000000;0.557317
8244.000000;0.557148
8243.000000;0.556995
8242.000000;0.556900
8241.000000;0.556772
8240.000000;0.556508
8239.000000;0.556119
8238.000000;0.555701
8237.000000;0.555333
8236.000000;0.555039
8235.000000;0.554824
8234.000000;0.554688
8233.000000;0.554602
8232.000000;0.554533
8231.000000;0.554486
8230.000000;0.554486
8229.000000;0.554536
8228.000000;0.554606
8227.000000;0.554661
8226.000000;0.554681
8225.000000;0.554674
8224.000000;0.554671
8223.000000;0.554704
8222.000000;0.554776
8221.000000;0.554847
8220.000000;0.554881
8219.000000;0.554870
8218.000000;0.554801
8217.000000;0.554641
8216.000000;0.554375
8215.000000;0.554044
8214.000000;0.553721
8213.000000;0.553464
8212.000000;0.553301
8211.000000;0.553223
8210.000000;0.553182
8209.000000;0.553101
8208.000000;0.552949
8207.000000;0.552769
8206.000000;0.552632
8205.000000;0.552563
8204.000000;0.552533
8203.000000;0.552498
8202.000000;0.552427
8201.000000;0.552328
8200.000000;0.552250
8199.000000;0.552234
8198.000000;0.552236
8197.000000;0.552150
8196.000000;0.551943
8195.000000;0.551701
8194.000000;0.551522
8193.000000;0.551378
8192.000000;0.551180
8191.000000;0.550932
8190.000000;0.550738
8189.000000;0.550673
8188.000000;0.550709
8187.000000;0.550785
8186.000000;0.550892
8185.000000;0.551046
8184.000000;0.551240
8183.000000;0.551422
8182.000000;0.551520
8181.000000;0.551476
8180.000000;0.551312
8179.000000;0.551154
8178.000000;0.551123
8177.000000;0.551198
8176.000000;0.551214
8175.000000;0.551059
8174.000000;0.550807
8173.000000;0.550648
8172.000000;0.550690
8171.000000;0.550880
8170.000000;0.551071
8169.000000;0.551157
8168.000000;0.551129
8167.000000;0.551042
8166.000000;0.550927
8165.000000;0.550760
8164.000000;0.550525
8163.000000;0.550277
8162.000000;0.550099
8161.000000;0.549998
8160.000000;0.549904
8159.000000;0.549772
8158.000000;0.549641
8157.000000;0.549575
8156.000000;0.549573
8155.000000;0.549569
8154.000000;0.549502
8153.000000;0.549344
8152.000000;0.549116
8151.000000;0.548891
8150.000000;0.548756
8149.000000;0.548731
8148.000000;0.548734
8147.000000;0.548670
8146.000000;0.548530
8145.000000;0.548387
8144.000000;0.548310
8143.000000;0.548310
8142.000000;0.548345
8141.000000;0.548333
8140.000000;0.548187
8139.000000;0.547883
8138.000000;0.547514
8137.000000;0.547235
8136.000000;0.547140
8135.000000;0.547197
8134.000000;0.547316
8133.000000;0.547435
8132.000000;0.547533
8131.000000;0.547611
8130.000000;0.547666
8129.000000;0.547695
8128.000000;0.547690
8127.000000;0.547633
8126.000000;0.547520
8125.000000;0.547373
8124.000000;0.547212
8123.000000;0.547031
8122.000000;0.546828
8121.000000;0.546648
8120.000000;0.546570
8119.000000;0.546616
8118.000000;0.546708
8117.000000;0.546747
8116.000000;0.546720
8115.000000;0.546700
8114.000000;0.546751
8113.000000;0.546862
8112.000000;0.546971
8111.000000;0.547020
8110.000000;0.546959
8109.000000;0.546753
8108.000000;0.546418
8107.000000;0.546042
8106.000000;0.545734
8105.000000;0.545551
8104.000000;0.545484
8103.000000;0.545499
8102.000000;0.545552
8101.000000;0.545595
8100.000000;0.545584
8099.000000;0.545500
8098.000000;0.545339
8097.000000;0.545108
8096.000000;0.544839
8095.000000;0.544600
8094.000000;0.544436
8093.000000;0.544309
8092.000000;0.544133
8091.000000;0.543886
8090.000000;0.543659
8089.000000;0.543561
8088.000000;0.543613
8087.000000;0.543733
8086.000000;0.543806
8085.000000;0.543772
8084.000000;0.543664
8083.000000;0.543575
8082.000000;0.543574
8081.000000;0.543643
8080.000000;0.543707
8079.000000;0.543716
8078.000000;0.543665
8077.000000;0.543542
8076.000000;0.543327
8075.000000;0.543065
8074.000000;0.542887
8073.000000;0.542894
8072.000000;0.543033
8071.000000;0.543124
8070.000000;0.543020
8069.000000;0.542722
8068.000000;0.542345
8067.000000;0.542012
8066.000000;0.541791
8065.000000;0.541702
8064.000000;0.541724
8063.000000;0.541807
8062.000000;0.541882
8061.000000;0.541907
8060.000000;0.541894
8059.000000;0.541892
8058.000000;0.541922
8057.000000;0.541958
8056.000000;0.541978
8055.000000;0.542009
8054.000000;0.542085
8053.000000;0.542161
8052.000000;0.542123
8051.000000;0.541911
8050.000000;0.541601
8049.000000;0.541333
8048.000000;0.541168
8047.000000;0.541049
8046.000000;0.540901
8045.000000;0.540719
8044.000000;0.540559
8043.000000;0.540456
8042.000000;0.540381
8041.000000;0.540284
8040.000000;0.540152
8039.000000;0.540021
8038.000000;0.539934
8037.000000;0.539903
8036.000000;0.539909
8035.000000;0.539939
8034.000000;0.539999
8033.000000;0.540099
8032.000000;0.540209
8031.000000;0.540244
8030.000000;0.540121
8029.000000;0.539849
8028.000000;0.539567
8027.000000;0.539438
8026.000000;0.539495
8025.000000;0.539607
8024.000000;0.539621
8023.000000;0.539512
8022.000000;0.539372
8021.000000;0.539277
8020.000000;0.539221
8019.000000;0.539165
8018.000000;0.539087
8017.000000;0.538975
8016.000000;0.538819
8015.000000;0.538645
8014.000000;0.538507
8013.000000;0.538424
8012.000000;0.538340
8011.000000;0.538203
8010.000000;0.538038
8009.000000;0.537919
8008.000000;0.537884
8007.000000;0.537915
8006.000000;0.537988
8005.000000;0.538099
8004.000000;0.538227
8003.000000;0.538319
8002.000000;0.538320
8001.000000;0.538229
8000.000000;0.538087
7999.000000;0.537939
7998.000000;0.537797
7997.000000;0.537653
7996.000000;0.537512
7995.000000;0.537404
7994.000000;0.537354
7993.000000;0.537340
7992.000000;0.537293
7991.000000;0.537148
7990.000000;0.536899
7989.000000;0.536599
7988.000000;0.536327
7987.000000;0.536142
7986.000000;0.536064
7985.000000;0.536072
7984.000000;0.536136
7983.000000;0.536247
7982.000000;0.536392
7981.000000;0.536506
7980.000000;0.536496
7979.000000;0.536334
7978.000000;0.536121
7977.000000;0.536009
7976.000000;0.536059
7975.000000;0.536197
7974.000000;0.536304
7973.000000;0.536324
7972.000000;0.536271
7971.000000;0.536174
7970.000000;0.536032
7969.000000;0.535837
7968.000000;0.535616
7967.000000;0.535442
7966.000000;0.535384
7965.000000;0.535424
7964.000000;0.535452
7963.000000;0.535344
7962.000000;0.535066
7961.000000;0.534694
7960.000000;0.534332
7959.000000;0.534034
7958.000000;0.533792
7957.000000;0.533590
7956.000000;0.533439
7955.000000;0.533374
7954.000000;0.533427
7953.000000;0.533605
7952.000000;0.533870
7951.000000;0.534154
7950.000000;0.534398
7949.000000;0.534572
7948.000000;0.534663
7947.000000;0.534640
7946.000000;0.534478
7945.000000;0.534194
7944.000000;0.533859
7943.000000;0.533539
7942.000000;0.533257
7941.000000;0.533016
7940.000000;0.532837
7939.000000;0.532760
7938.000000;0.532795
7937.000000;0.532902
7936.000000;0.533015
7935.000000;0.533081
7934.000000;0.533072
7933.000000;0.533005
7932.000000;0.532935
7931.000000;0.532920
7930.000000;0.532965
7929.000000;0.533029
7928.000000;0.533072
7927.000000;0.533074
7926.000000;0.533025
7925.000000;0.532915
7924.000000;0.532782
7923.000000;0.532705
7922.000000;0.532734
7921.000000;0.532819
7920.000000;0.532860
7919.000000;0.532792
7918.000000;0.532601
7917.000000;0.532297
7916.000000;0.531921
7915.000000;0.531564
7914.000000;0.531317
7913.000000;0.531176
7912.000000;0.531054
7911.000000;0.530891
7910.000000;0.530719
7909.000000;0.530594
7908.000000;0.530521
7907.000000;0.530465
7906.000000;0.530422
7905.000000;0.530426
7904.000000;0.530502
7903.000000;0.530643
7902.000000;0.530830
7901.000000;0.531037
7900.000000;0.531233
7899.000000;0.531395
7898.000000;0.531518
7897.000000;0.531596
7896.000000;0.531595
7895.000000;0.531488
7894.000000;0.531292
7893.000000;0.531061
7892.000000;0.530822
7891.000000;0.530542
7890.000000;0.530194
7889.000000;0.529821
7888.000000;0.529545
7887.000000;0.529473
7886.000000;0.529612
7885.000000;0.529853
7884.000000;0.530056
7883.000000;0.530128
7882.000000;0.530061
7881.000000;0.529920
7880.000000;0.529805
7879.000000;0.529787
7878.000000;0.529838
7877.000000;0.529840
7876.000000;0.529704
7875.000000;0.529472
7874.000000;0.529281
7873.000000;0.529210
7872.000000;0.529213
7871.000000;0.529185
7870.000000;0.529064
7869.000000;0.528855
7868.000000;0.528602
7867.000000;0.528372
7866.000000;0.528224
7865.000000;0.528154
7864.000000;0.528091
7863.000000;0.527972
7862.000000;0.527804
7861.000000;0.527650
7860.000000;0.527567
7859.000000;0.527597
7858.000000;0.527767
7857.000000;0.528048
7856.000000;0.528322
7855.000000;0.528460
7854.000000;0.528432
7853.000000;0.528319
7852.000000;0.528215
7851.000000;0.528154
7850.000000;0.528121
7849.000000;0.528070
7848.000000;0.527943
7847.000000;0.527733
7846.000000;0.527521
7845.000000;0.527432
7844.000000;0.527498
7843.000000;0.527626
7842.000000;0.527705
7841.000000;0.527714
7840.000000;0.527701
7839.000000;0.527694
7838.000000;0.527667
7837.000000;0.527578
7836.000000;0.527396
7835.000000;0.527113
7834.000000;0.526763
7833.000000;0.526413
7832.000000;0.526112
7831.000000;0.525876
7830.000000;0.525721
7829.000000;0.525677
7828.000000;0.525735
7827.000000;0.525813
7826.000000;0.525846
7825.000000;0.525865
7824.000000;0.525942
7823.000000;0.526064
7822.000000;0.526128
7821.000000;0.526080
7820.000000;0.525970
7819.000000;0.525876
7818.000000;0.525814
7817.000000;0.525761
7816.000000;0.525693
7815.000000;0.525583
7814.000000;0.525397
7813.000000;0.525172
7812.000000;0.525022
7811.000000;0.525014
7810.000000;0.525057
7809.000000;0.524983
7808.000000;0.524748
7807.000000;0.524468
7806.000000;0.524271
7805.000000;0.524164
7804.000000;0.524091
7803.000000;0.524039
7802.000000;0.524036
7801.000000;0.524078
7800.000000;0.524111
7799.000000;0.524088
7798.000000;0.524016
7797.000000;0.523942
7796.000000;0.523900
7795.000000;0.523890
7794.000000;0.523888
7793.000000;0.523871
7792.000000;0.523833
7791.000000;0.523758
7790.000000;0.523619
7789.000000;0.523415
7788.000000;0.523212
7787.000000;0.523105
7786.000000;0.523126
7785.000000;0.523210
7784.000000;0.523264
7783.000000;0.523244
7782.000000;0.523165
7781.000000;0.523067
7780.000000;0.522989
7779.000000;0.522951
7778.000000;0.522932
7777.000000;0.522877
7776.000000;0.522752
7775.000000;0.522600
7774.000000;0.522504
7773.000000;0.522496
7772.000000;0.522523
7771.000000;0.522492
7770.000000;0.522360
7769.000000;0.522175
7768.000000;0.522033
7767.000000;0.521974
7766.000000;0.521949
7765.000000;0.521877
7764.000000;0.521766
7763.000000;0.521712
7762.000000;0.521782
7761.000000;0.521928
7760.000000;0.522045
7759.000000;0.522094
7758.000000;0.522106
7757.000000;0.522110
7756.000000;0.522087
7755.000000;0.522006
7754.000000;0.521862
7753.000000;0.521672
7752.000000;0.521459
7751.000000;0.521251
7750.000000;0.521055
7749.000000;0.520857
7748.000000;0.520655
7747.000000;0.520495
7746.000000;0.520419
7745.000000;0.520389
7744.000000;0.520315
7743.000000;0.520174
7742.000000;0.520062
7741.000000;0.520090
7740.000000;0.520248
7739.000000;0.520395
7738.000000;0.520384
7737.000000;0.520191
7736.000000;0.519927
7735.000000;0.519735
7734.000000;0.519677
7733.000000;0.519704
7732.000000;0.519738
7731.000000;0.519755
7730.000000;0.519766
7729.000000;0.519762
7728.000000;0.519712
7727.000000;0.519626
7726.000000;0.519554
7725.000000;0.519495
7724.000000;0.519371
7723.000000;0.519113
7722.000000;0.518771
7721.000000;0.518471
7720.000000;0.518285
7719.000000;0.518173
7718.000000;0.518059
7717.000000;0.517936
7716.000000;0.517878
7715.000000;0.517962
7714.000000;0.518196
7713.000000;0.518498
7712.000000;0.518751
7711.000000;0.518884
7710.000000;0.518909
7709.000000;0.518872
7708.000000;0.518790
7707.000000;0.518636
7706.000000;0.518405
7705.000000;0.518157
7704.000000;0.517979
7703.000000;0.517914
7702.000000;0.517927
7701.000000;0.517947
7700.000000;0.517932
7699.000000;0.517886
7698.000000;0.517838
7697.000000;0.517804
7696.000000;0.517795
7695.000000;0.517820
7694.000000;0.517885
7693.000000;0.517983
7692.000000;0.518087
7691.000000;0.518151
7690.000000;0.518130
7689.000000;0.518017
7688.000000;0.517875
7687.000000;0.517787
7686.000000;0.517762
7685.000000;0.517701
7684.000000;0.517495
7683.000000;0.517153
7682.000000;0.516798
7681.000000;0.516552
7680.000000;0.516438
7679.000000;0.516398
7678.000000;0.516364
7677.000000;0.516315
7676.000000;0.516285
7675.000000;0.516338
7674.000000;0.516502
7673.000000;0.516715
7672.000000;0.516854
7671.000000;0.516832
7670.000000;0.516667
7669.000000;0.516440
7668.000000;0.516216
7667.000000;0.516016
7666.000000;0.515850
7665.000000;0.515721
7664.000000;0.515616
7663.000000;0.515509
7662.000000;0.515382
7661.000000;0.515243
7660.000000;0.515122
7659.000000;0.515056
7658.000000;0.515090
7657.000000;0.515247
7656.000000;0.515488
7655.000000;0.515708
7654.000000;0.515805
7653.000000;0.515766
7652.000000;0.515670
7651.000000;0.515603
7650.000000;0.515587
7649.000000;0.515584
7648.000000;0.515557
7647.000000;0.515497
7646.000000;0.515386
7645.000000;0.515193
7644.000000;0.514923
7643.000000;0.514638
7642.000000;0.514403
7641.000000;0.514228
7640.000000;0.514082
7639.000000;0.513963
7638.000000;0.513899
7637.000000;0.513899
7636.000000;0.513918
7635.000000;0.513915
7634.000000;0.513892
7633.000000;0.513894
7632.000000;0.513961
7631.000000;0.514101
7630.000000;0.514280
7629.000000;0.514441
7628.000000;0.514544
7627.000000;0.514593
7626.000000;0.514619
7625.000000;0.514634
7624.000000;0.514620
7623.000000;0.514564
7622.000000;0.514467
7621.000000;0.514333
7620.000000;0.514157
7619.000000;0.513948
7618.000000;0.513724
7617.000000;0.513489
7616.000000;0.513240
7615.000000;0.512995
7614.000000;0.512797
7613.000000;0.512658
7612.000000;0.512548
7611.000000;0.512457
7610.000000;0.512434
7609.000000;0.512515
7608.000000;0.512648
7607.000000;0.512735
7606.000000;0.512729
7605.000000;0.512673
7604.000000;0.512618
7603.000000;0.512569
7602.000000;0.512504
7601.000000;0.512418
7600.000000;0.512319
7599.000000;0.512203
7598.000000;0.512054
7597.000000;0.511882
7596.000000;0.511733
7595.000000;0.511649
7594.000000;0.511629
7593.000000;0.511638
7592.000000;0.511645
7591.000000;0.511666
7590.000000;0.511733
7589.000000;0.511850
7588.000000;0.511986
7587.000000;0.512115
7586.000000;0.512226
7585.000000;0.512297
7584.000000;0.512278
7583.000000;0.512131
7582.000000;0.511882
7581.000000;0.511624
7580.000000;0.511464
7579.000000;0.511457
7578.000000;0.511567
7577.000000;0.511689
7576.000000;0.511730
7575.000000;0.511703
7574.000000;0.511707
7573.000000;0.511821
7572.000000;0.512003
7571.000000;0.512134
7570.000000;0.512116
7569.000000;0.511943
7568.000000;0.511686
7567.000000;0.511447
7566.000000;0.511301
7565.000000;0.511246
7564.000000;0.511203
7563.000000;0.511100
7562.000000;0.510951
7561.000000;0.510817
7560.000000;0.510730
7559.000000;0.510665
7558.000000;0.510613
7557.000000;0.510602
7556.000000;0.510636
7555.000000;0.510654
7554.000000;0.510597
7553.000000;0.510488
7552.000000;0.510408
7551.000000;0.510409
7550.000000;0.510466
7549.000000;0.510507
7548.000000;0.510468
7547.000000;0.510334
7546.000000;0.510151
7545.000000;0.510007
7544.000000;0.509955
7543.000000;0.509939
7542.000000;0.509840
7541.000000;0.509610
7540.000000;0.509344
7539.000000;0.509190
7538.000000;0.509192
7537.000000;0.509259
7536.000000;0.509281
7535.000000;0.509231
7534.000000;0.509144
7533.000000;0.509051
7532.000000;0.508967
7531.000000;0.508928
7530.000000;0.508974
7529.000000;0.509094
7528.000000;0.509205
7527.000000;0.509222
7526.000000;0.509119
7525.000000;0.508939
7524.000000;0.508748
7523.000000;0.508601
7522.000000;0.508517
7521.000000;0.508473
7520.000000;0.508429
7519.000000;0.508366
7518.000000;0.508298
7517.000000;0.508239
7516.000000;0.508192
7515.000000;0.508166
7514.000000;0.508188
7513.000000;0.508273
7512.000000;0.508387
7511.000000;0.508477
7510.000000;0.508527
7509.000000;0.508587
7508.000000;0.508718
7507.000000;0.508935
7506.000000;0.509185
7505.000000;0.509378
7504.000000;0.509444
7503.000000;0.509359
7502.000000;0.509186
7501.000000;0.508992
7500.000000;0.508815
7499.000000;0.508663
7498.000000;0.508555
7497.000000;0.508520
7496.000000;0.508556
7495.000000;0.508607
7494.000000;0.508614
7493.000000;0.508559
7492.000000;0.508475
7491.000000;0.508405
7490.000000;0.508380
7489.000000;0.508420
7488.000000;0.508524
7487.000000;0.508672
7486.000000;0.508825
7485.000000;0.508951
7484.000000;0.509049
7483.000000;0.509137
7482.000000;0.509226
7481.000000;0.509301
7480.000000;0.509325
7479.000000;0.509266
7478.000000;0.509117
7477.000000;0.508899
7476.000000;0.508649
7475.000000;0.508414
7474.000000;0.508230
7473.000000;0.508103
7472.000000;0.507999
7471.000000;0.507873
7470.000000;0.507729
7469.000000;0.507643
7468.000000;0.507705
7467.000000;0.507925
7466.000000;0.508205
7465.000000;0.508420
7464.000000;0.508520
7463.000000;0.508552
7462.000000;0.508595
7461.000000;0.508692
7460.000000;0.508841
7459.000000;0.509019
7458.000000;0.509192
7457.000000;0.509323
7456.000000;0.509403
7455.000000;0.509454
7454.000000;0.509495
7453.000000;0.509509
7452.000000;0.509472
7451.000000;0.509414
7450.000000;0.509413
7449.000000;0.509514
7448.000000;0.509667
7447.000000;0.509768
7446.000000;0.509745
7445.000000;0.509607
7444.000000;0.509427
7443.000000;0.509278
7442.000000;0.509199
7441.000000;0.509167
7440.000000;0.509116
7439.000000;0.508993
7438.000000;0.508803
7437.000000;0.508624
7436.000000;0.508535
7435.000000;0.508550
7434.000000;0.508612
7433.000000;0.508659
7432.000000;0.508677
7431.000000;0.508688
7430.000000;0.508702
7429.000000;0.508707
7428.000000;0.508699
7427.000000;0.508694
7426.000000;0.508715
7425.000000;0.508773
7424.000000;0.508875
7423.000000;0.509019
7422.000000;0.509165
7421.000000;0.509245
7420.000000;0.509219
7419.000000;0.509130
7418.000000;0.509075
7417.000000;0.509123
7416.000000;0.509257
7415.000000;0.509394
7414.000000;0.509459
7413.000000;0.509440
7412.000000;0.509400
7411.000000;0.509407
7410.000000;0.509462
7409.000000;0.509488
7408.000000;0.509428
7407.000000;0.509310
7406.000000;0.509207
7405.000000;0.509145
7404.000000;0.509099
7403.000000;0.509068
7402.000000;0.509086
7401.000000;0.509182
7400.000000;0.509345
7399.000000;0.509545
7398.000000;0.509748
7397.000000;0.509919
7396.000000;0.510038
7395.000000;0.510118
7394.000000;0.510185
7393.000000;0.510232
7392.000000;0.510249
7391.000000;0.510266
7390.000000;0.510331
7389.000000;0.510449
7388.000000;0.510576
7387.000000;0.510690
7386.000000;0.510800
7385.000000;0.510888
7384.000000;0.510890
7383.000000;0.510796
7382.000000;0.510701
7381.000000;0.510695
7380.000000;0.510724
7379.000000;0.510640
7378.000000;0.510377
7377.000000;0.510036
7376.000000;0.509776
7375.000000;0.509680
7374.000000;0.509739
7373.000000;0.509899
7372.000000;0.510120
7371.000000;0.510382
7370.000000;0.510672
7369.000000;0.510969
7368.000000;0.511250
7367.000000;0.511495
7366.000000;0.511689
7365.000000;0.511812
7364.000000;0.511815
7363.000000;0.511681
7362.000000;0.511486
7361.000000;0.511375
7360.000000;0.511424
7359.000000;0.511574
7358.000000;0.511713
7357.000000;0.511792
7356.000000;0.511858
7355.000000;0.511968
7354.000000;0.512127
7353.000000;0.512295
7352.000000;0.512435
7351.000000;0.512549
7350.000000;0.512658
7349.000000;0.512748
7348.000000;0.512758
7347.000000;0.512664
7346.000000;0.512558
7345.000000;0.512571
7344.000000;0.512707
7343.000000;0.512819
7342.000000;0.512780
7341.000000;0.512643
7340.000000;0.512559
7339.000000;0.512569
7338.000000;0.512575
7337.000000;0.512489
7336.000000;0.512359
7335.000000;0.512329
7334.000000;0.512516
7333.000000;0.512893
7332.000000;0.513272
7331.000000;0.513447
7330.000000;0.513389
7329.000000;0.513266
7328.000000;0.513228
7327.000000;0.513233
7326.000000;0.513133
7325.000000;0.512892
7324.000000;0.512653
7323.000000;0.512577
7322.000000;0.512686
7321.000000;0.512886
7320.000000;0.513124
7319.000000;0.513434
7318.000000;0.513831
7317.000000;0.514219
7316.000000;0.514418
7315.000000;0.514328
7314.000000;0.514069
7313.000000;0.513920
7312.000000;0.514054
7311.000000;0.514364
7310.000000;0.514569
7309.000000;0.514515
7308.000000;0.514318
7307.000000;0.514230
7306.000000;0.514409
7305.000000;0.514819
7304.000000;0.515312
7303.000000;0.515752
7302.000000;0.516082
7301.000000;0.516357
7300.000000;0.516688
7299.000000;0.517104
7298.000000;0.517478
7297.000000;0.517639
7296.000000;0.517565
7295.000000;0.517404
7294.000000;0.517314
7293.000000;0.517318
7292.000000;0.517330
7291.000000;0.517272
7290.000000;0.517136
7289.000000;0.516971
7288.000000;0.516863
7287.000000;0.516915
7286.000000;0.517177
7285.000000;0.517580
7284.000000;0.517986
7283.000000;0.518311
7282.000000;0.518584
7281.000000;0.518880
7280.000000;0.519228
7279.000000;0.519597
7278.000000;0.519943
7277.000000;0.520242
7276.000000;0.520485
7275.000000;0.520687
7274.000000;0.520890
7273.000000;0.521123
7272.000000;0.521352
7271.000000;0.521512
7270.000000;0.521584
7269.000000;0.521621
7268.000000;0.521679
7267.000000;0.521755
7266.000000;0.521817
7265.000000;0.521854
7264.000000;0.521879
7263.000000;0.521895
7262.000000;0.521903
7261.000000;0.521942
7260.000000;0.522089
7259.000000;0.522392
7258.000000;0.522793
7257.000000;0.523161
7256.000000;0.523433
7255.000000;0.523690
7254.000000;0.524082
7253.000000;0.524666
7252.000000;0.525346
7251.000000;0.525971
7250.000000;0.526488
7249.000000;0.526978
7248.000000;0.527533
7247.000000;0.528138
7246.000000;0.528687
7245.000000;0.529098
7244.000000;0.529375
7243.000000;0.529580
7242.000000;0.529769
7241.000000;0.529954
7240.000000;0.530124
7239.000000;0.530326
7238.000000;0.530698
7237.000000;0.531340
7236.000000;0.532190
7235.000000;0.533042
7234.000000;0.533732
7233.000000;0.534264
7232.000000;0.534728
7231.000000;0.535159
7230.000000;0.535544
7229.000000;0.535897
7228.000000;0.536243
7227.000000;0.536531
7226.000000;0.536656
7225.000000;0.536604
7224.000000;0.536505
7223.000000;0.536522
7222.000000;0.536709
7221.000000;0.537019
7220.000000;0.537387
7219.000000;0.537805
7218.000000;0.538313
7217.000000;0.538951
7216.000000;0.539711
7215.000000;0.540525
7214.000000;0.541296
7213.000000;0.541953
7212.000000;0.542478
7211.000000;0.542870
7210.000000;0.543119
7209.000000;0.543240
7208.000000;0.543291
7207.000000;0.543351
7206.000000;0.543472
7205.000000;0.543671
7204.000000;0.543943
7203.000000;0.544278
7202.000000;0.544670
7201.000000;0.545132
7200.000000;0.545677
7199.000000;0.546282
7198.000000;0.546881
7197.000000;0.547428
7196.000000;0.547949
7195.000000;0.548508
7194.000000;0.549116
7193.000000;0.549732
7192.000000;0.550343
7191.000000;0.551014
7190.000000;0.551800
7189.000000;0.552655
7188.000000;0.553491
7187.000000;0.554268
7186.000000;0.554976
7185.000000;0.555545
7184.000000;0.555883
7183.000000;0.556033
7182.000000;0.556213
7181.000000;0.556617
7180.000000;0.557201
7179.000000;0.557754
7178.000000;0.558173
7177.000000;0.558575
7176.000000;0.559150
7175.000000;0.559986
7174.000000;0.561051
7173.000000;0.562253
7172.000000;0.563455
7171.000000;0.564484
7170.000000;0.565200
7169.000000;0.565568
7168.000000;0.565688
7167.000000;0.565750
7166.000000;0.565954
7165.000000;0.566397
7164.000000;0.566999
7163.000000;0.567552
7162.000000;0.567923
7161.000000;0.568190
7160.000000;0.568540
7159.000000;0.569058
7158.000000;0.569698
7157.000000;0.570427
7156.000000;0.571264
7155.000000;0.572179
7154.000000;0.573058
7153.000000;0.573882
7152.000000;0.574847
7151.000000;0.576145
7150.000000;0.577645
7149.000000;0.578909
7148.000000;0.579586
7147.000000;0.579745
7146.000000;0.579815
7145.000000;0.580230
7144.000000;0.581097
7143.000000;0.582127
7142.000000;0.582912
7141.000000;0.583323
7140.000000;0.583601
7139.000000;0.584034
7138.000000;0.584582
7137.000000;0.584950
7136.000000;0.584993
7135.000000;0.584899
7134.000000;0.584909
7133.000000;0.585018
7132.000000;0.585092
7131.000000;0.585176
7130.000000;0.585539
7129.000000;0.586391
7128.000000;0.587657
7127.000000;0.589033
7126.000000;0.590203
7125.000000;0.590975
7124.000000;0.591327
7123.000000;0.591369
7122.000000;0.591269
7121.000000;0.591136
7120.000000;0.590979
7119.000000;0.590794
7118.000000;0.590723
7117.000000;0.591061
7116.000000;0.592029
7115.000000;0.593520
7114.000000;0.595128
7113.000000;0.596483
7112.000000;0.597496
7111.000000;0.598297
7110.000000;0.598936
7109.000000;0.599203
7108.000000;0.598783
7107.000000;0.597592
7106.000000;0.595968
7105.000000;0.594515
7104.000000;0.593640
7103.000000;0.593210
7102.000000;0.592693
7101.000000;0.591730
7100.000000;0.590524
7099.000000;0.589564
7098.000000;0.589000
7097.000000;0.588482
7096.000000;0.587656
7095.000000;0.586619
7094.000000;0.585796
7093.000000;0.585463
7092.000000;0.585536
7091.000000;0.585696
7090.000000;0.585521
7089.000000;0.584635
7088.000000;0.583048
7087.000000;0.581379
7086.000000;0.580428
7085.000000;0.580354
7084.000000;0.580495
7083.000000;0.580140
7082.000000;0.579302
7081.000000;0.578514
7080.000000;0.578006
7079.000000;0.577429
7078.000000;0.576397
7077.000000;0.574944
7076.000000;0.573325
7075.000000;0.571692
7074.000000;0.570168
7073.000000;0.568966
7072.000000;0.568114
7071.000000;0.567253
7070.000000;0.566017
7069.000000;0.564561
7068.000000;0.563377
7067.000000;0.562645
7066.000000;0.562103
7065.000000;0.561575
7064.000000;0.561168
7063.000000;0.560779
7062.000000;0.559838
7061.000000;0.557883
7060.000000;0.555179
7059.000000;0.552402
7058.000000;0.549864
7057.000000;0.547351
7056.000000;0.544601
7055.000000;0.541611
7054.000000;0.538497
7053.000000;0.535381
7052.000000;0.532504
7051.000000;0.530212
7050.000000;0.528717
7049.000000;0.528012
7048.000000;0.528033
7047.000000;0.528660
7046.000000;0.529455
7045.000000;0.529620
7044.000000;0.528462
7043.000000;0.525882
7042.000000;0.522422
7041.000000;0.518989
7040.000000;0.516462
7039.000000;0.515166
7038.000000;0.514472
7037.000000;0.513181
7036.000000;0.510724
7035.000000;0.507877
7034.000000;0.505941
7033.000000;0.505187
7032.000000;0.504391
7031.000000;0.502063
7030.000000;0.498036
7029.000000;0.493629
7028.000000;0.490262
7027.000000;0.488031
7026.000000;0.485681
7025.000000;0.481990
7024.000000;0.477179
7023.000000;0.472871
7022.000000;0.470664
7021.000000;0.470762
7020.000000;0.471905
7019.000000;0.472514
7018.000000;0.471755
7017.000000;0.469609
7016.000000;0.466311
7015.000000;0.462050
7014.000000;0.457162
7013.000000;0.452311
7012.000000;0.448213
7011.000000;0.445071
7010.000000;0.442374
7009.000000;0.439400
7008.000000;0.435989
7007.000000;0.432630
7006.000000;0.429770
7005.000000;0.427301
7004.000000;0.424962
7003.000000;0.422996
7002.000000;0.421939
7001.000000;0.421697
7000.000000;0.421256
6999.000000;0.419620
6998.000000;0.416876
6997.000000;0.414057
6996.000000;0.412032
6995.000000;0.410731
6994.000000;0.409376
6993.000000;0.407291
6992.000000;0.404473
6991.000000;0.401494
6990.000000;0.398962
6989.000000;0.397187
6988.000000;0.396243
6987.000000;0.396025
6986.000000;0.396035
6985.000000;0.395391
6984.000000;0.393470
6983.000000;0.390525
6982.000000;0.387334
6981.000000;0.384289
6980.000000;0.381143
6979.000000;0.377646
6978.000000;0.373994
6977.000000;0.370449
6976.000000;0.366902
6975.000000;0.363126
6974.000000;0.359226
6973.000000;0.355505
6972.000000;0.352023
6971.000000;0.348592
6970.000000;0.345254
6969.000000;0.342474
6968.000000;0.340713
6967.000000;0.339890
6966.000000;0.339374
6965.000000;0.338525
6964.000000;0.337145
6963.000000;0.335281
6962.000000;0.332730
6961.000000;0.329175
6960.000000;0.324878
6959.000000;0.320759
6958.000000;0.317423
6957.000000;0.314512
6956.000000;0.311448
6955.000000;0.308418
6954.000000;0.305953
6953.000000;0.303779
6952.000000;0.300947
6951.000000;0.297198
6950.000000;0.293409
6949.000000;0.290430
6948.000000;0.288057
6947.000000;0.285496
6946.000000;0.282337
6945.000000;0.278762
6944.000000;0.275189
6943.000000;0.272086
6942.000000;0.269853
6941.000000;0.268617
6940.000000;0.268227
6939.000000;0.268479
6938.000000;0.269027
6937.000000;0.269099
6936.000000;0.267888
6935.000000;0.265395
6934.000000;0.262432
6933.000000;0.259632
6932.000000;0.256841
6931.000000;0.253595
6930.000000;0.249752
6929.000000;0.245512
6928.000000;0.241252
6927.000000;0.237475
6926.000000;0.234468
6925.000000;0.231919
6924.000000;0.229380
6923.000000;0.227170
6922.000000;0.226140
6921.000000;0.226273
6920.000000;0.226282
6919.000000;0.224993
6918.000000;0.222494
6917.000000;0.219506
6916.000000;0.216326
6915.000000;0.212999
6914.000000;0.209973
6913.000000;0.207848
6912.000000;0.206827
6911.000000;0.206925
6910.000000;0.208239
6909.000000;0.210336
6908.000000;0.211803
6907.000000;0.211322
6906.000000;0.209121
6905.000000;0.206619
6904.000000;0.204705
6903.000000;0.202973
6902.000000;0.200643
6901.000000;0.197577
6900.000000;0.194167
6899.000000;0.190647
6898.000000;0.186850
6897.000000;0.182620
6896.000000;0.178385
6895.000000;0.175236
6894.000000;0.174215
6893.000000;0.175345
6892.000000;0.177466
6891.000000;0.179077
6890.000000;0.179284
6889.000000;0.178112
6888.000000;0.176380
6887.000000;0.175225
6886.000000;0.175184
6885.000000;0.175540
6884.000000;0.175033
6883.000000;0.173341
6882.000000;0.171277
6881.000000;0.169447
6880.000000;0.167457
6879.000000;0.164798
6878.000000;0.161845
6877.000000;0.159454
6876.000000;0.158007
6875.000000;0.157328
6874.000000;0.157103
6873.000000;0.156977
6872.000000;0.156591
6871.000000;0.155897
6870.000000;0.155086
6869.000000;0.154034
6868.000000;0.152325
6867.000000;0.150131
6866.000000;0.148412
6865.000000;0.147818
6864.000000;0.147938
6863.000000;0.148113
6862.000000;0.148345
6861.000000;0.148796
6860.000000;0.148992
6859.000000;0.148295
6858.000000;0.146858
6857.000000;0.145476
6856.000000;0.144723
6855.000000;0.144702
6854.000000;0.145367
6853.000000;0.146558
6852.000000;0.147973
6851.000000;0.149525
6850.000000;0.151435
6849.000000;0.153556
6848.000000;0.155040
6847.000000;0.155202
6846.000000;0.154306
6845.000000;0.152957
6844.000000;0.151216
6843.000000;0.148937
6842.000000;0.146541
6841.000000;0.144689
6840.000000;0.143359
6839.000000;0.141933
6838.000000;0.140091
6837.000000;0.138010
6836.000000;0.135886
6835.000000;0.133897
6834.000000;0.132492
6833.000000;0.132088
6832.000000;0.132498
6831.000000;0.133147
6830.000000;0.133852
6829.000000;0.134968
6828.000000;0.136843
6827.000000;0.139534
6826.000000;0.142880
6825.000000;0.146329
6824.000000;0.148821
6823.000000;0.149466
6822.000000;0.148451
6821.000000;0.146941
6820.000000;0.146058
6819.000000;0.146173
6818.000000;0.146972
6817.000000;0.147786
6816.000000;0.147967
6815.000000;0.147433
6814.000000;0.146831
6813.000000;0.146845
6812.000000;0.147443
6811.000000;0.148138
6810.000000;0.148883
6809.000000;0.150208
6808.000000;0.152388
6807.000000;0.154877
6806.000000;0.156727
6805.000000;0.157378
6804.000000;0.157011
6803.000000;0.156283
6802.000000;0.155719
6801.000000;0.155298
6800.000000;0.154698
6799.000000;0.154007
6798.000000;0.153866
6797.000000;0.154638
6796.000000;0.155756
6795.000000;0.156304
6794.000000;0.156113
6793.000000;0.155834
6792.000000;0.156064
6791.000000;0.156830
6790.000000;0.157922
6789.000000;0.159221
6788.000000;0.160505
6787.000000;0.161335
6786.000000;0.161427
6785.000000;0.161000
6784.000000;0.160576
6783.000000;0.160480
6782.000000;0.160649
6781.000000;0.160851
6780.000000;0.160999
6779.000000;0.161242
6778.000000;0.161793
6777.000000;0.162726
6776.000000;0.163926
6775.000000;0.165207
6774.000000;0.166366
6773.000000;0.167180
6772.000000;0.167521
6771.000000;0.167528
6770.000000;0.167546
6769.000000;0.167844
6768.000000;0.168512
6767.000000;0.169589
6766.000000;0.171027
6765.000000;0.172481
6764.000000;0.173439
6763.000000;0.173760
6762.000000;0.173886
6761.000000;0.174314
6760.000000;0.175064
6759.000000;0.175833
6758.000000;0.176465
6757.000000;0.177016
6756.000000;0.177525
6755.000000;0.178002
6754.000000;0.178595
6753.000000;0.179488
6752.000000;0.180614
6751.000000;0.181636
6750.000000;0.182235
6749.000000;0.182367
6748.000000;0.182282
6747.000000;0.182336
6746.000000;0.182705
6745.000000;0.183198
6744.000000;0.183493
6743.000000;0.183610
6742.000000;0.183995
6741.000000;0.185002
6740.000000;0.186443
6739.000000;0.187804
6738.000000;0.188759
6737.000000;0.189324
6736.000000;0.189683
6735.000000;0.190055
6734.000000;0.190638
6733.000000;0.191456
6732.000000;0.192281
6731.000000;0.192868
6730.000000;0.193257
6729.000000;0.193742
6728.000000;0.194563
6727.000000;0.195692
6726.000000;0.196863
6725.000000;0.197720
6724.000000;0.198075
6723.000000;0.198116
6722.000000;0.198260
6721.000000;0.198694
6720.000000;0.199211
6719.000000;0.199569
6718.000000;0.199817
6717.000000;0.200113
6716.000000;0.200387
6715.000000;0.200462
6714.000000;0.200424
6713.000000;0.200587
6712.000000;0.201103
6711.000000;0.201805
6710.000000;0.202446
6709.000000;0.202955
6708.000000;0.203448
6707.000000;0.204062
6706.000000;0.204861
6705.000000;0.205725
6704.000000;0.206426
6703.000000;0.206862
6702.000000;0.207174
6701.000000;0.207556
6700.000000;0.208023
6699.000000;0.208455
6698.000000;0.208819
6697.000000;0.209220
6696.000000;0.209793
6695.000000;0.210647
6694.000000;0.211824
6693.000000;0.213222
6692.000000;0.214625
6691.000000;0.215933
6690.000000;0.217244
6689.000000;0.218593
6688.000000;0.219742
6687.000000;0.220414
6686.000000;0.220678
6685.000000;0.220897
6684.000000;0.221340
6683.000000;0.221997
6682.000000;0.222719
6681.000000;0.223358
6680.000000;0.223797
6679.000000;0.224056
6678.000000;0.224371
6677.000000;0.225000
6676.000000;0.225904
6675.000000;0.226776
6674.000000;0.227386
6673.000000;0.227790
6672.000000;0.228161
6671.000000;0.228611
6670.000000;0.229184
6669.000000;0.229890
6668.000000;0.230678
6667.000000;0.231477
6666.000000;0.232331
6665.000000;0.233368
6664.000000;0.234580
6663.000000;0.235751
6662.000000;0.236673
6661.000000;0.237338
6660.000000;0.237845
6659.000000;0.238214
6658.000000;0.238382
6657.000000;0.238334
6656.000000;0.238166
6655.000000;0.238029
6654.000000;0.238069
6653.000000;0.238396
6652.000000;0.239054
6651.000000;0.239997
6650.000000;0.241097
6649.000000;0.242181
6648.000000;0.243100
6647.000000;0.243818
6646.000000;0.244411
6645.000000;0.244954
6644.000000;0.245436
6643.000000;0.245845
6642.000000;0.246286
6641.000000;0.246902
6640.000000;0.247672
6639.000000;0.248396
6638.000000;0.248904
6637.000000;0.249202
6636.000000;0.249406
6635.000000;0.249638
6634.000000;0.250006
6633.000000;0.250571
6632.000000;0.251256
6631.000000;0.251846
6630.000000;0.252185
6629.000000;0.252350
6628.000000;0.252575
6627.000000;0.253029
6626.000000;0.253691
6625.000000;0.254420
6624.000000;0.255090
6623.000000;0.255680
6622.000000;0.256290
6621.000000;0.257050
6620.000000;0.257962
6619.000000;0.258862
6618.000000;0.259556
6617.000000;0.260010
6616.000000;0.260333
6615.000000;0.260603
6614.000000;0.260768
6613.000000;0.260757
6612.000000;0.260635
6611.000000;0.260595
6610.000000;0.260807
6609.000000;0.261305
6608.000000;0.262008
6607.000000;0.262796
6606.000000;0.263543
6605.000000;0.264123
6604.000000;0.264457
6603.000000;0.264576
6602.000000;0.264601
6601.000000;0.264657
6600.000000;0.264822
6599.000000;0.265136
6598.000000;0.265607
6597.000000;0.266202
6596.000000;0.266850
6595.000000;0.267511
6594.000000;0.268184
6593.000000;0.268856
6592.000000;0.269467
6591.000000;0.269977
6590.000000;0.270424
6589.000000;0.270886
6588.000000;0.271391
6587.000000;0.271890
6586.000000;0.272332
6585.000000;0.272721
6584.000000;0.273104
6583.000000;0.273514
6582.000000;0.273928
6581.000000;0.274303
6580.000000;0.274670
6579.000000;0.275164
6578.000000;0.275907
6577.000000;0.276844
6576.000000;0.277761
6575.000000;0.278483
6574.000000;0.279002
6573.000000;0.279393
6572.000000;0.279686
6571.000000;0.279909
6570.000000;0.280171
6569.000000;0.280589
6568.000000;0.281111
6567.000000;0.281534
6566.000000;0.281737
6565.000000;0.281841
6564.000000;0.282103
6563.000000;0.282658
6562.000000;0.283386
6561.000000;0.284008
6560.000000;0.284335
6559.000000;0.284452
6558.000000;0.284661
6557.000000;0.285198
6556.000000;0.286009
6555.000000;0.286832
6554.000000;0.287491
6553.000000;0.288037
6552.000000;0.288587
6551.000000;0.289106
6550.000000;0.289430
6549.000000;0.289466
6548.000000;0.289318
6547.000000;0.289183
6546.000000;0.289165
6545.000000;0.289220
6544.000000;0.289259
6543.000000;0.289296
6542.000000;0.289464
6541.000000;0.289882
6540.000000;0.290523
6539.000000;0.291238
6538.000000;0.291914
6537.000000;0.292565
6536.000000;0.293281
6535.000000;0.294092
6534.000000;0.294911
6533.000000;0.295605
6532.000000;0.296105
6531.000000;0.296480
6530.000000;0.296880
6529.000000;0.297399
6528.000000;0.297983
6527.000000;0.298481
6526.000000;0.298792
6525.000000;0.298957
6524.000000;0.299089
6523.000000;0.299265
6522.000000;0.299484
6521.000000;0.299719
6520.000000;0.299971
6519.000000;0.300259
6518.000000;0.300594
6517.000000;0.300975
6516.000000;0.301402
6515.000000;0.301876
6514.000000;0.302391
6513.000000;0.302917
6512.000000;0.303411
6511.000000;0.303840
6510.000000;0.304187
6509.000000;0.304448
6508.000000;0.304624
6507.000000;0.304729
6506.000000;0.304803
6505.000000;0.304914
6504.000000;0.305119
6503.000000;0.305432
6502.000000;0.305802
6501.000000;0.306158
6500.000000;0.306467
6499.000000;0.306758
6498.000000;0.307078
6497.000000;0.307428
6496.000000;0.307756
6495.000000;0.308006
6494.000000;0.308173
6493.000000;0.308308
6492.000000;0.308481
6491.000000;0.308735
6490.000000;0.309064
6489.000000;0.309433
6488.000000;0.309826
6487.000000;0.310259
6486.000000;0.310738
6485.000000;0.311218
6484.000000;0.311639
6483.000000;0.311998
6482.000000;0.312352
6481.000000;0.312729
6480.000000;0.313094
6479.000000;0.313413
6478.000000;0.313725
6477.000000;0.314098
6476.000000;0.314531
6475.000000;0.314942
6474.000000;0.315260
6473.000000;0.315500
6472.000000;0.315740
6471.000000;0.316037
6470.000000;0.316379
6469.000000;0.316707
6468.000000;0.316998
6467.000000;0.317309
6466.000000;0.317728
6465.000000;0.318265
6464.000000;0.318824
6463.000000;0.319294
6462.000000;0.319656
6461.000000;0.319961
6460.000000;0.320247
6459.000000;0.320492
6458.000000;0.320658
6457.000000;0.320726
6456.000000;0.320716
6455.000000;0.320684
6454.000000;0.320714
6453.000000;0.320868
6452.000000;0.321138
6451.000000;0.321461
6450.000000;0.321793
6449.000000;0.322139
6448.000000;0.322514
6447.000000;0.322877
6446.000000;0.323145
6445.000000;0.323249
6444.000000;0.323204
6443.000000;0.323127
6442.000000;0.323168
6441.000000;0.323393
6440.000000;0.323741
6439.000000;0.324103
6438.000000;0.324436
6437.000000;0.324780
6436.000000;0.325171
6435.000000;0.325584
6434.000000;0.325970
6433.000000;0.326303
6432.000000;0.326592
6431.000000;0.326864
6430.000000;0.327156
6429.000000;0.327489
6428.000000;0.327830
6427.000000;0.328115
6426.000000;0.328313
6425.000000;0.328465
6424.000000;0.328626
6423.000000;0.328808
6422.000000;0.328988
6421.000000;0.329164
6420.000000;0.329368
6419.000000;0.329618
6418.000000;0.329884
6417.000000;0.330104
6416.000000;0.330229
6415.000000;0.330269
6414.000000;0.330301
6413.000000;0.330402
6412.000000;0.330575
6411.000000;0.330757
6410.000000;0.330916
6409.000000;0.331110
6408.000000;0.331403
6407.000000;0.331756
6406.000000;0.332057
6405.000000;0.332260
6404.000000;0.332443
6403.000000;0.332723
6402.000000;0.333126
6401.000000;0.333574
6400.000000;0.333966
6399.000000;0.334241
6398.000000;0.334404
6397.000000;0.334520
6396.000000;0.334677
6395.000000;0.334916
6394.000000;0.335192
6393.000000;0.335415
6392.000000;0.335532
6391.000000;0.335579
6390.000000;0.335632
6389.000000;0.335742
6388.000000;0.335889
6387.000000;0.336014
6386.000000;0.336086
6385.000000;0.336148
6384.000000;0.336275
6383.000000;0.336492
6382.000000;0.336743
6381.000000;0.336949
6380.000000;0.337092
6379.000000;0.337195
6378.000000;0.337262
6377.000000;0.337276
6376.000000;0.337267
6375.000000;0.337337
6374.000000;0.337572
6373.000000;0.337953
6372.000000;0.338378
6371.000000;0.338772
6370.000000;0.339140
6369.000000;0.339499
6368.000000;0.339817
6367.000000;0.340035
6366.000000;0.340132
6365.000000;0.340142
6364.000000;0.340098
6363.000000;0.340012
6362.000000;0.339892
6361.000000;0.339782
6360.000000;0.339732
6359.000000;0.339747
6358.000000;0.339791
6357.000000;0.339837
6356.000000;0.339896
6355.000000;0.340000
6354.000000;0.340177
6353.000000;0.340440
6352.000000;0.340788
6351.000000;0.341196
6350.000000;0.341605
6349.000000;0.341956
6348.000000;0.342230
6347.000000;0.342452
6346.000000;0.342648
6345.000000;0.342816
6344.000000;0.342929
6343.000000;0.342965
6342.000000;0.342936
6341.000000;0.342895
6340.000000;0.342922
6339.000000;0.343062
6338.000000;0.343275
6337.000000;0.343443
6336.000000;0.343474
6335.000000;0.343387
6334.000000;0.343301
6333.000000;0.343332
6332.000000;0.343502
6331.000000;0.343744
6330.000000;0.343983
6329.000000;0.344197
6328.000000;0.344420
6327.000000;0.344681
6326.000000;0.344962
6325.000000;0.345205
6324.000000;0.345367
6323.000000;0.345457
6322.000000;0.345519
6321.000000;0.345582
6320.000000;0.345647
6319.000000;0.345713
6318.000000;0.345797
6317.000000;0.345916
6316.000000;0.346080
6315.000000;0.346279
6314.000000;0.346499
6313.000000;0.346729
6312.000000;0.346952
6311.000000;0.347149
6310.000000;0.347304
6309.000000;0.347408
6308.000000;0.347457
6307.000000;0.347463
6306.000000;0.347466
6305.000000;0.347508
6304.000000;0.347598
6303.000000;0.347688
6302.000000;0.347713
6301.000000;0.347656
6300.000000;0.347556
6299.000000;0.347468
6298.000000;0.347414
6297.000000;0.347386
6296.000000;0.347373
6295.000000;0.347382
6294.000000;0.347429
6293.000000;0.347534
6292.000000;0.347698
6291.000000;0.347901
6290.000000;0.348115
6289.000000;0.348328
6288.000000;0.348545
6287.000000;0.348745
6286.000000;0.348878
6285.000000;0.348906
6284.000000;0.348858
6283.000000;0.348811
6282.000000;0.348819
6281.000000;0.348894
6280.000000;0.349018
6279.000000;0.349166
6278.000000;0.349311
6277.000000;0.349449
6276.000000;0.349600
6275.000000;0.349766
6274.000000;0.349893
6273.000000;0.349907
6272.000000;0.349816
6271.000000;0.349714
6270.000000;0.349686
6269.000000;0.349726
6268.000000;0.349774
6267.000000;0.349808
6266.000000;0.349853
6265.000000;0.349927
6264.000000;0.350012
6263.000000;0.350082
6262.000000;0.350127
6261.000000;0.350154
6260.000000;0.350171
6259.000000;0.350181
6258.000000;0.350169
6257.000000;0.350120
6256.000000;0.350053
6255.000000;0.350034
6254.000000;0.350122
6253.000000;0.350321
6252.000000;0.350572
6251.000000;0.350812
6250.000000;0.351005
6249.000000;0.351138
6248.000000;0.351210
6247.000000;0.351225
6246.000000;0.351170
6245.000000;0.351011
6244.000000;0.350724
6243.000000;0.350352
6242.000000;0.350012
6241.000000;0.349818
6240.000000;0.349805
6239.000000;0.349910
6238.000000;0.350029
6237.000000;0.350106
6236.000000;0.350158
6235.000000;0.350240
6234.000000;0.350372
6233.000000;0.350519
6232.000000;0.350636
6231.000000;0.350705
6230.000000;0.350738
6229.000000;0.350750
6228.000000;0.350759
6227.000000;0.350788
6226.000000;0.350842
6225.000000;0.350899
6224.000000;0.350939
6223.000000;0.350971
6222.000000;0.351021
6221.000000;0.351092
6220.000000;0.351167
6219.000000;0.351231
6218.000000;0.351282
6217.000000;0.351313
6216.000000;0.351310
6215.000000;0.351275
6214.000000;0.351223
6213.000000;0.351165
6212.000000;0.351110
6211.000000;0.351079
6210.000000;0.351102
6209.000000;0.351185
6208.000000;0.351306
6207.000000;0.351421
6206.000000;0.351491
6205.000000;0.351493
6204.000000;0.351435
6203.000000;0.351352
6202.000000;0.351278
6201.000000;0.351223
6200.000000;0.351192
6199.000000;0.351210
6198.000000;0.351312
6197.000000;0.351488
6196.000000;0.351684
6195.000000;0.351841
6194.000000;0.351935
6193.000000;0.351977
6192.000000;0.352002
6191.000000;0.352031
6190.000000;0.352052
6189.000000;0.352013
6188.000000;0.351881
6187.000000;0.351707
6186.000000;0.351589
6185.000000;0.351583
6184.000000;0.351668
6183.000000;0.351795
6182.000000;0.351949
6181.000000;0.352129
6180.000000;0.352306
6179.000000;0.352414
6178.000000;0.352395
6177.000000;0.352236
6176.000000;0.351977
6175.000000;0.351688
6174.000000;0.351428
6173.000000;0.351220
6172.000000;0.351073
6171.000000;0.351015
6170.000000;0.351076
6169.000000;0.351241
6168.000000;0.351436
6167.000000;0.351591
6166.000000;0.351697
6165.000000;0.351792
6164.000000;0.351907
6163.000000;0.352024
6162.000000;0.352084
6161.000000;0.352031
6160.000000;0.351867
6159.000000;0.351674
6158.000000;0.351549
6157.000000;0.351518
6156.000000;0.351526
6155.000000;0.351520
6154.000000;0.351516
6153.000000;0.351568
6152.000000;0.351682
6151.000000;0.351804
6150.000000;0.351880
6149.000000;0.351895
6148.000000;0.351861
6147.000000;0.351782
6146.000000;0.351655
6145.000000;0.351491
6144.000000;0.351324
6143.000000;0.351192
6142.000000;0.351100
6141.000000;0.351023
6140.000000;0.350941
6139.000000;0.350878
6138.000000;0.350891
6137.000000;0.350987
6136.000000;0.351091
6135.000000;0.351096
6134.000000;0.350959
6133.000000;0.350741
6132.000000;0.350550
6131.000000;0.350468
6130.000000;0.350505
6129.000000;0.350607
6128.000000;0.350706
6127.000000;0.350763
6126.000000;0.350781
6125.000000;0.350790
6124.000000;0.350807
6123.000000;0.350829
6122.000000;0.350850
6121.000000;0.350870
6120.000000;0.350912
6119.000000;0.350998
6118.000000;0.351124
6117.000000;0.351253
6116.000000;0.351339
6115.000000;0.351357
6114.000000;0.351315
6113.000000;0.351245
6112.000000;0.351176
6111.000000;0.351120
6110.000000;0.351074
6109.000000;0.351029
6108.000000;0.350996
6107.000000;0.351004
6106.000000;0.351066
6105.000000;0.351154
6104.000000;0.351232
6103.000000;0.351314
6102.000000;0.351450
6101.000000;0.351652
6100.000000;0.351859
6099.000000;0.351979
6098.000000;0.351965
6097.000000;0.351829
6096.000000;0.351621
6095.000000;0.351396
6094.000000;0.351206
6093.000000;0.351087
6092.000000;0.351047
6091.000000;0.351066
6090.000000;0.351098
6089.000000;0.351100
6088.000000;0.351065
6087.000000;0.351027
6086.000000;0.351022
6085.000000;0.351044
6084.000000;0.351053
6083.000000;0.351041
6082.000000;0.351053
6081.000000;0.351130
6080.000000;0.351258
6079.000000;0.351373
6078.000000;0.351429
6077.000000;0.351432
6076.000000;0.351421
6075.000000;0.351438
6074.000000;0.351495
6073.000000;0.351566
6072.000000;0.351610
6071.000000;0.351600
6070.000000;0.351541
6069.000000;0.351439
6068.000000;0.351292
6067.000000;0.351107
6066.000000;0.350923
6065.000000;0.350783
6064.000000;0.350708
6063.000000;0.350694
6062.000000;0.350730
6061.000000;0.350822
6060.000000;0.350976
6059.000000;0.351184
6058.000000;0.351408
6057.000000;0.351580
6056.000000;0.351638
6055.000000;0.351570
6054.000000;0.351415
6053.000000;0.351235
6052.000000;0.351079
6051.000000;0.350969
6050.000000;0.350912
6049.000000;0.350901
6048.000000;0.350932
6047.000000;0.351003
6046.000000;0.351107
6045.000000;0.351212
6044.000000;0.351281
6043.000000;0.351308
6042.000000;0.351318
6041.000000;0.351333
6040.000000;0.351348
6039.000000;0.351354
6038.000000;0.351358
6037.000000;0.351360
6036.000000;0.351345
6035.000000;0.351318
6034.000000;0.351334
6033.000000;0.351454
6032.000000;0.351674
6031.000000;0.351920
6030.000000;0.352115
6029.000000;0.352228
6028.000000;0.352267
6027.000000;0.352237
6026.000000;0.352126
6025.000000;0.351924
6024.000000;0.351646
6023.000000;0.351347
6022.000000;0.351103
6021.000000;0.350962
6020.000000;0.350920
6019.000000;0.350942
6018.000000;0.351012
6017.000000;0.351131
6016.000000;0.351288
6015.000000;0.351431
6014.000000;0.351502
6013.000000;0.351491
6012.000000;0.351449
6011.000000;0.351433
6010.000000;0.351452
6009.000000;0.351459
6008.000000;0.351407
6007.000000;0.351321
6006.000000;0.351276
6005.000000;0.351315
6004.000000;0.351407
6003.000000;0.351475
6002.000000;0.351479
6001.000000;0.351430
6000.000000;0.351363
5999.000000;0.351310
5998.000000;0.351296
5997.000000;0.351323
5996.000000;0.351372
5995.000000;0.351414
5994.000000;0.351442
5993.000000;0.351478
5992.000000;0.351544
5991.000000;0.351636
5990.000000;0.351729
5989.000000;0.351795
5988.000000;0.351826
5987.000000;0.351836
5986.000000;0.351851
5985.000000;0.351876
5984.000000;0.351895
5983.000000;0.351892
5982.000000;0.351881
5981.000000;0.351897
5980.000000;0.351965
5979.000000;0.352081
5978.000000;0.352212
5977.000000;0.352309
5976.000000;0.352335
5975.000000;0.352292
5974.000000;0.352237
5973.000000;0.352233
5972.000000;0.352293
5971.000000;0.352379
5970.000000;0.352445
5969.000000;0.352491
5968.000000;0.352549
5967.000000;0.352638
5966.000000;0.352723
5965.000000;0.352746
5964.000000;0.352684
5963.000000;0.352591
5962.000000;0.352556
5961.000000;0.352608
5960.000000;0.352687
5959.000000;0.352703
5958.000000;0.352632
5957.000000;0.352530
5956.000000;0.352457
5955.000000;0.352419
5954.000000;0.352374
5953.000000;0.352293
5952.000000;0.352191
5951.000000;0.352116
5950.000000;0.352109
5949.000000;0.352174
5948.000000;0.352265
5947.000000;0.352317
5946.000000;0.352293
5945.000000;0.352218
5944.000000;0.352148
5943.000000;0.352117
5942.000000;0.352102
5941.000000;0.352051
5940.000000;0.351941
5939.000000;0.351804
5938.000000;0.351700
5937.000000;0.351661
5936.000000;0.351689
5935.000000;0.351768
5934.000000;0.351893
5933.000000;0.352057
5932.000000;0.352238
5931.000000;0.352411
5930.000000;0.352565
5929.000000;0.352711
5928.000000;0.352853
5927.000000;0.352982
5926.000000;0.353073
5925.000000;0.353109
5924.000000;0.353098
5923.000000;0.353071
5922.000000;0.353047
5921.000000;0.353020
5920.000000;0.352968
5919.000000;0.352895
5918.000000;0.352836
5917.000000;0.352833
5916.000000;0.352894
5915.000000;0.352997
5914.000000;0.353105
5913.000000;0.353191
5912.000000;0.353246
5911.000000;0.353273
5910.000000;0.353273
5909.000000;0.353233
5908.000000;0.353138
5907.000000;0.352998
5906.000000;0.352854
5905.000000;0.352748
5904.000000;0.352695
5903.000000;0.352697
5902.000000;0.352761
5901.000000;0.352878
5900.000000;0.353005
5899.000000;0.353090
5898.000000;0.353125
5897.000000;0.353150
5896.000000;0.353213
5895.000000;0.353322
5894.000000;0.353448
5893.000000;0.353548
5892.000000;0.353587
5891.000000;0.353557
5890.000000;0.353489
5889.000000;0.353434
5888.000000;0.353423
5887.000000;0.353448
5886.000000;0.353476
5885.000000;0.353493
5884.000000;0.353514
5883.000000;0.353552
5882.000000;0.353600
5881.000000;0.353639
5880.000000;0.353662
5879.000000;0.353679
5878.000000;0.353701
5877.000000;0.353728
5876.000000;0.353761
5875.000000;0.353806
5874.000000;0.353866
5873.000000;0.353923
5872.000000;0.353948
5871.000000;0.353924
5870.000000;0.353859
5869.000000;0.353775
5868.000000;0.353701
5867.000000;0.353658
5866.000000;0.353652
5865.000000;0.353658
5864.000000;0.353642
5863.000000;0.353606
5862.000000;0.353597
5861.000000;0.353662
5860.000000;0.353789
5859.000000;0.353916
5858.000000;0.353981
5857.000000;0.353979
5856.000000;0.353959
5855.000000;0.353978
5854.000000;0.354055
5853.000000;0.354163
5852.000000;0.354254
5851.000000;0.354303
5850.000000;0.354319
5849.000000;0.354334
5848.000000;0.354366
5847.000000;0.354394
5846.000000;0.354364
5845.000000;0.354234
5844.000000;0.354015
5843.000000;0.353778
5842.000000;0.353609
5841.000000;0.353535
5840.000000;0.353519
5839.000000;0.353503
5838.000000;0.353467
5837.000000;0.353444
5836.000000;0.353488
5835.000000;0.353629
5834.000000;0.353848
5833.000000;0.354091
5832.000000;0.354308
5831.000000;0.354484
5830.000000;0.354623
5829.000000;0.354722
5828.000000;0.354767
5827.000000;0.354764
5826.000000;0.354749
5825.000000;0.354745
5824.000000;0.354742
5823.000000;0.354717
5822.000000;0.354680
5821.000000;0.354669
5820.000000;0.354707
5819.000000;0.354774
5818.000000;0.354836
5817.000000;0.354874
5816.000000;0.354909
5815.000000;0.354975
5814.000000;0.355105
5813.000000;0.355304
5812.000000;0.355528
5811.000000;0.355700
5810.000000;0.355757
5809.000000;0.355700
5808.000000;0.355591
5807.000000;0.355492
5806.000000;0.355419
5805.000000;0.355341
5804.000000;0.355240
5803.000000;0.355140
5802.000000;0.355085
5801.000000;0.355094
5800.000000;0.355147
5799.000000;0.355210
5798.000000;0.355273
5797.000000;0.355361
5796.000000;0.355506
5795.000000;0.355697
5794.000000;0.355858
5793.000000;0.355902
5792.000000;0.355833
5791.000000;0.355765
5790.000000;0.355808
5789.000000;0.355952
5788.000000;0.356082
5787.000000;0.356122
5786.000000;0.356108
5785.000000;0.356122
5784.000000;0.356190
5783.000000;0.356261
5782.000000;0.356278
5781.000000;0.356239
5780.000000;0.356196
5779.000000;0.356206
5778.000000;0.356280
5777.000000;0.356376
5776.000000;0.356455
5775.000000;0.356525
5774.000000;0.356623
5773.000000;0.356747
5772.000000;0.356835
5771.000000;0.356834
5770.000000;0.356752
5769.000000;0.356636
5768.000000;0.356514
5767.000000;0.356389
5766.000000;0.356280
5765.000000;0.356214
5764.000000;0.356197
5763.000000;0.356199
5762.000000;0.356198
5761.000000;0.356217
5760.000000;0.356304
5759.000000;0.356480
5758.000000;0.356701
5757.000000;0.356871
5756.000000;0.356918
5755.000000;0.356848
5754.000000;0.356741
5753.000000;0.356673
5752.000000;0.356647
5751.000000;0.356616
5750.000000;0.356553
5749.000000;0.356480
5748.000000;0.356431
5747.000000;0.356405
5746.000000;0.356374
5745.000000;0.356322
5744.000000;0.356263
5743.000000;0.356218
5742.000000;0.356182
5741.000000;0.356128
5740.000000;0.356035
5739.000000;0.355929
5738.000000;0.355864
5737.000000;0.355875
5736.000000;0.355944
5735.000000;0.356011
5734.000000;0.356025
5733.000000;0.355970
5732.000000;0.355871
5731.000000;0.355767
5730.000000;0.355684
5729.000000;0.355616
5728.000000;0.355543
5727.000000;0.355465
5726.000000;0.355406
5725.000000;0.355384
5724.000000;0.355395
5723.000000;0.355430
5722.000000;0.355497
5721.000000;0.355603
5720.000000;0.355719
5719.000000;0.355784
5718.000000;0.355747
5717.000000;0.355609
5716.000000;0.355414
5715.000000;0.355224
5714.000000;0.355083
5713.000000;0.355019
5712.000000;0.355046
5711.000000;0.355170
5710.000000;0.355385
5709.000000;0.355666
5708.000000;0.355983
5707.000000;0.356299
5706.000000;0.356559
5705.000000;0.356699
5704.000000;0.356691
5703.000000;0.356585
5702.000000;0.356481
5701.000000;0.356445
5700.000000;0.356455
5699.000000;0.356441
5698.000000;0.356350
5697.000000;0.356182
5696.000000;0.355974
5695.000000;0.355789
5694.000000;0.355678
5693.000000;0.355652
5692.000000;0.355681
5691.000000;0.355720
5690.000000;0.355749
5689.000000;0.355771
5688.000000;0.355797
5687.000000;0.355829
5686.000000;0.355858
5685.000000;0.355874
5684.000000;0.355878
5683.000000;0.355895
5682.000000;0.355936
5681.000000;0.355965
5680.000000;0.355930
5679.000000;0.355839
5678.000000;0.355770
5677.000000;0.355788
5676.000000;0.355874
5675.000000;0.355964
5674.000000;0.356023
5673.000000;0.356071
5672.000000;0.356128
5671.000000;0.356193
5670.000000;0.356251
5669.000000;0.356288
5668.000000;0.356291
5667.000000;0.356259
5666.000000;0.356207
5665.000000;0.356140
5664.000000;0.356047
5663.000000;0.355940
5662.000000;0.355883
5661.000000;0.355946
5660.000000;0.356134
5659.000000;0.356384
5658.000000;0.356633
5657.000000;0.356853
5656.000000;0.357033
5655.000000;0.357155
5654.000000;0.357203
5653.000000;0.357181
5652.000000;0.357121
5651.000000;0.357089
5650.000000;0.357165
5649.000000;0.357374
5648.000000;0.357641
5647.000000;0.357833
5646.000000;0.357876
5645.000000;0.357817
5644.000000;0.357762
5643.000000;0.357788
5642.000000;0.357906
5641.000000;0.358095
5640.000000;0.358333
5639.000000;0.358604
5638.000000;0.358879
5637.000000;0.359113
5636.000000;0.359246
5635.000000;0.359249
5634.000000;0.359153
5633.000000;0.359023
5632.000000;0.358911
5631.000000;0.358831
5630.000000;0.358791
5629.000000;0.358809
5628.000000;0.358873
5627.000000;0.358923
5626.000000;0.358890
5625.000000;0.358783
5624.000000;0.358711
5623.000000;0.358796
5622.000000;0.359063
5621.000000;0.359404
5620.000000;0.359687
5619.000000;0.359879
5618.000000;0.360056
5617.000000;0.360292
5616.000000;0.360559
5615.000000;0.360778
5614.000000;0.360926
5613.000000;0.361045
5612.000000;0.361155
5611.000000;0.361218
5610.000000;0.361208
5609.000000;0.361184
5608.000000;0.361245
5607.000000;0.361421
5606.000000;0.361651
5605.000000;0.361856
5604.000000;0.362036
5603.000000;0.362255
5602.000000;0.362580
5601.000000;0.363008
5600.000000;0.363470
5599.000000;0.363870
5598.000000;0.364149
5597.000000;0.364312
5596.000000;0.364398
5595.000000;0.364426
5594.000000;0.364378
5593.000000;0.364236
5592.000000;0.364029
5591.000000;0.363832
5590.000000;0.363724
5589.000000;0.363742
5588.000000;0.363874
5587.000000;0.364090
5586.000000;0.364377
5585.000000;0.364745
5584.000000;0.365188
5583.000000;0.365654
5582.000000;0.366067
5581.000000;0.366398
5580.000000;0.366681
5579.000000;0.366974
5578.000000;0.367280
5577.000000;0.367540
5576.000000;0.367701
5575.000000;0.367768
5574.000000;0.367784
5573.000000;0.367782
5572.000000;0.367775
5571.000000;0.367775
5570.000000;0.367805
5569.000000;0.367878
5568.000000;0.367982
5567.000000;0.368084
5566.000000;0.368153
5565.000000;0.368172
5564.000000;0.368165
5563.000000;0.368192
5562.000000;0.368309
5561.000000;0.368525
5560.000000;0.368799
5559.000000;0.369074
5558.000000;0.369299
5557.000000;0.369443
5556.000000;0.369513
5555.000000;0.369564
5554.000000;0.369668
5553.000000;0.369845
5552.000000;0.370035
5551.000000;0.370158
5550.000000;0.370190
5549.000000;0.370168
5548.000000;0.370159
5547.000000;0.370224
5546.000000;0.370398
5545.000000;0.370653
5544.000000;0.370919
5543.000000;0.371152
5542.000000;0.371394
5541.000000;0.371707
5540.000000;0.372069
5539.000000;0.372366
5538.000000;0.372512
5537.000000;0.372539
5536.000000;0.372545
5535.000000;0.372581
5534.000000;0.372614
5533.000000;0.372601
5532.000000;0.372560
5531.000000;0.372553
5530.000000;0.372618
5529.000000;0.372721
5528.000000;0.372796
5527.000000;0.372816
5526.000000;0.372811
5525.000000;0.372831
5524.000000;0.372874
5523.000000;0.372893
5522.000000;0.372858
5521.000000;0.372805
5520.000000;0.372816
5519.000000;0.372948
5518.000000;0.373196
5517.000000;0.373506
5516.000000;0.373823
5515.000000;0.374126
5514.000000;0.374421
5513.000000;0.374726
5512.000000;0.375040
5511.000000;0.375352
5510.000000;0.375654
5509.000000;0.375922
5508.000000;0.376105
5507.000000;0.376134
5506.000000;0.375985
5505.000000;0.375718
5504.000000;0.375458
5503.000000;0.375310
5502.000000;0.375299
5501.000000;0.375362
5500.000000;0.375409
5499.000000;0.375415
5498.000000;0.375438
5497.000000;0.375556
5496.000000;0.375781
5495.000000;0.376052
5494.000000;0.376313
5493.000000;0.376557
5492.000000;0.376818
5491.000000;0.377133
5490.000000;0.377507
5489.000000;0.377877
5488.000000;0.378124
5487.000000;0.378172
5486.000000;0.378075
5485.000000;0.377999
5484.000000;0.378059
5483.000000;0.378205
5482.000000;0.378298
5481.000000;0.378287
5480.000000;0.378270
5479.000000;0.378371
5478.000000;0.378599
5477.000000;0.378846
5476.000000;0.378993
5475.000000;0.378982
5474.000000;0.378847
5473.000000;0.378698
5472.000000;0.378639
5471.000000;0.378702
5470.000000;0.378880
5469.000000;0.379163
5468.000000;0.379535
5467.000000;0.379941
5466.000000;0.380294
5465.000000;0.380559
5464.000000;0.380788
5463.000000;0.381051
5462.000000;0.381327
5461.000000;0.381509
5460.000000;0.381511
5459.000000;0.381376
5458.000000;0.381248
5457.000000;0.381235
5456.000000;0.381320
5455.000000;0.381424
5454.000000;0.381511
5453.000000;0.381622
5452.000000;0.381841
5451.000000;0.382227
5450.000000;0.382764
5449.000000;0.383307
5448.000000;0.383658
5447.000000;0.383754
5446.000000;0.383730
5445.000000;0.383773
5444.000000;0.383943
5443.000000;0.384174
5442.000000;0.384389
5441.000000;0.384580
5440.000000;0.384787
5439.000000;0.385045
5438.000000;0.385355
5437.000000;0.385658
5436.000000;0.385874
5435.000000;0.385982
5434.000000;0.386039
5433.000000;0.386108
5432.000000;0.386205
5431.000000;0.386327
5430.000000;0.386486
5429.000000;0.386659
5428.000000;0.386771
5427.000000;0.386805
5426.000000;0.386872
5425.000000;0.387101
5424.000000;0.387518
5423.000000;0.388044
5422.000000;0.388587
5421.000000;0.389112
5420.000000;0.389645
5419.000000;0.390222
5418.000000;0.390813
5417.000000;0.391317
5416.000000;0.391655
5415.000000;0.391883
5414.000000;0.392117
5413.000000;0.392382
5412.000000;0.392585
5411.000000;0.392685
5410.000000;0.392781
5409.000000;0.393013
5408.000000;0.393417
5407.000000;0.393921
5406.000000;0.394445
5405.000000;0.394955
5404.000000;0.395438
5403.000000;0.395899
5402.000000;0.396346
5401.000000;0.396759
5400.000000;0.397107
5399.000000;0.397399
5398.000000;0.397670
5397.000000;0.397920
5396.000000;0.398103
5395.000000;0.398214
5394.000000;0.398324
5393.000000;0.398510
5392.000000;0.398800
5391.000000;0.399210
5390.000000;0.399761
5389.000000;0.400440
5388.000000;0.401185
5387.000000;0.401950
5386.000000;0.402744
5385.000000;0.403557
5384.000000;0.404316
5383.000000;0.404989
5382.000000;0.405660
5381.000000;0.406435
5380.000000;0.407318
5379.000000;0.408216
5378.000000;0.409029
5377.000000;0.409699
5376.000000;0.410243
5375.000000;0.410788
5374.000000;0.411494
5373.000000;0.412364
5372.000000;0.413202
5371.000000;0.413826
5370.000000;0.414283
5369.000000;0.414811
5368.000000;0.415615
5367.000000;0.416724
5366.000000;0.418042
5365.000000;0.419449
5364.000000;0.420859
5363.000000;0.422249
5362.000000;0.423639
5361.000000;0.425009
5360.000000;0.426279
5359.000000;0.427414
5358.000000;0.428497
5357.000000;0.429653
5356.000000;0.430945
5355.000000;0.432411
5354.000000;0.434093
5353.000000;0.435927
5352.000000;0.437726
5351.000000;0.439400
5350.000000;0.441096
5349.000000;0.442962
5348.000000;0.444844
5347.000000;0.446385
5346.000000;0.447469
5345.000000;0.448409
5344.000000;0.449609
5343.000000;0.451118
5342.000000;0.452600
5341.000000;0.453716
5340.000000;0.454494
5339.000000;0.455376
5338.000000;0.456894
5337.000000;0.459173
5336.000000;0.461801
5335.000000;0.464254
5334.000000;0.466347
5333.000000;0.468206
5332.000000;0.469954
5331.000000;0.471580
5330.000000;0.473060
5329.000000;0.474463
5328.000000;0.475950
5327.000000;0.477733
5326.000000;0.479894
5325.000000;0.482071
5324.000000;0.483517
5323.000000;0.483794
5322.000000;0.483360
5321.000000;0.483165
5320.000000;0.483627
5319.000000;0.484212
5318.000000;0.483940
5317.000000;0.482093
5316.000000;0.478579
5315.000000;0.474040
5314.000000;0.469485
5313.000000;0.465287
5312.000000;0.460450
5311.000000;0.453204
5310.000000;0.442652
5309.000000;0.429932
5308.000000;0.417962
5307.000000;0.409801
5306.000000;0.406128
5305.000000;0.403873
5304.000000;0.398223
5303.000000;0.386951
5302.000000;0.372571
5301.000000;0.359443
5300.000000;0.349536
5299.000000;0.341839
5298.000000;0.335983
5297.000000;0.334528
5296.000000;0.339333
5295.000000;0.349769
5294.000000;0.367156
5293.000000;0.394523
5292.000000;0.430525
5291.000000;0.470384
5290.000000;0.511833
5289.000000;0.552871
5288.000000;0.587383
5287.000000;0.611820
5286.000000;0.632381
5285.000000;0.657210
5284.000000;0.687232
5283.000000;0.721319
5282.000000;0.763162
5281.000000;0.815819
5280.000000;0.874335
5279.000000;0.931685
5278.000000;0.988897
5277.000000;1.047356
5276.000000;1.092881
5275.000000;1.104260
5274.000000;1.082539
5273.000000;1.047350
5272.000000;1.007878
5271.000000;0.964270
5270.000000;0.921791
5269.000000;0.886928
5268.000000;0.859815
5267.000000;0.839592
5266.000000;0.830371
5265.000000;0.835681
5264.000000;0.852524
5263.000000;0.876658
5262.000000;0.907799
5261.000000;0.942060
5260.000000;0.966453
5259.000000;0.973643
5258.000000;0.973809
5257.000000;0.981391
5256.000000;1.001061
5255.000000;1.029375
5254.000000;1.061159
5253.000000;1.086896
5252.000000;1.091226
5251.000000;1.068935
5250.000000;1.035129
5249.000000;1.004246
5248.000000;0.974872
5247.000000;0.943746
5246.000000;0.917413
5245.000000;0.902227
5244.000000;0.895653
5243.000000;0.894120
5242.000000;0.900835
5241.000000;0.917886
5240.000000;0.937574
5239.000000;0.951790
5238.000000;0.966633
5237.000000;0.996240
5236.000000;1.044496
5235.000000;1.099233
5234.000000;1.135779
5233.000000;1.132548
5232.000000;1.096178
5231.000000;1.049130
5230.000000;1.005320
5229.000000;0.963843
5228.000000;0.918644
5227.000000;0.874641
5226.000000;0.844177
5225.000000;0.833587
5224.000000;0.838980
5223.000000;0.852746
5222.000000;0.872383
5221.000000;0.899543
5220.000000;0.932828
5219.000000;0.966118
5218.000000;0.989137
5217.000000;0.989822
5216.000000;0.968174
5215.000000;0.940791
5214.000000;0.923087
5213.000000;0.915730
5212.000000;0.909178
5211.000000;0.899511
5210.000000;0.893040
5209.000000;0.894055
5208.000000;0.898133
5207.000000;0.897964
5206.000000;0.889366
5205.000000;0.875941
5204.000000;0.867838
5203.000000;0.872552
5202.000000;0.888133
5201.000000;0.901132
5200.000000;0.896577
5199.000000;0.878053
5198.000000;0.866744
5197.000000;0.879021
5196.000000;0.914146
5195.000000;0.957107
5194.000000;0.988719
5193.000000;1.001505
5192.000000;1.004120
5191.000000;1.010599
5190.000000;1.031516
5189.000000;1.065190
5188.000000;1.097250
5187.000000;1.116755
5186.000000;1.126663
5185.000000;1.130891
5184.000000;1.123499
5183.000000;1.095991
5182.000000;1.053797
5181.000000;1.012761
5180.000000;0.975427
5179.000000;0.931845
5178.000000;0.880545
5177.000000;0.832423
5176.000000;0.796880
5175.000000;0.776895
5174.000000;0.772027
5173.000000;0.776184
5172.000000;0.777031
5171.000000;0.768078
5170.000000;0.757639
5169.000000;0.757208
5168.000000;0.768594
5167.000000;0.786212
5166.000000;0.805452
5165.000000;0.825962
5164.000000;0.849766
5163.000000;0.878731
5162.000000;0.912288
5161.000000;0.945988
5160.000000;0.976116
5159.000000;1.007636
5158.000000;1.050462
5157.000000;1.100223
5156.000000;1.127712
5155.000000;1.117621
5154.000000;1.099278
5153.000000;1.099816
5152.000000;1.113849
5151.000000;1.116929
5150.000000;1.098650
5149.000000;1.075723
5148.000000;1.067840
5147.000000;1.080369
5146.000000;1.104383
5145.000000;1.122398
5144.000000;1.122088
5143.000000;1.109258
5142.000000;1.098825
5141.000000;1.092698
5140.000000;1.072968
5139.000000;1.024283
5138.000000;0.962094
5137.000000;0.915501
5136.000000;0.898430
5135.000000;0.909190
5134.000000;0.936754
5133.000000;0.963686
5132.000000;0.977679
5131.000000;0.985014
5130.000000;1.000799
5129.000000;1.026620
5128.000000;1.045359
5127.000000;1.041109
5126.000000;1.021732
5125.000000;1.008692
5124.000000;1.010121
5123.000000;1.017918
5122.000000;1.022584
5121.000000;1.021186
5120.000000;1.014905
5119.000000;1.006510
5118.000000;0.999223
5117.000000;0.993470
5116.000000;0.986949
5115.000000;0.979126
5114.000000;0.970823
5113.000000;0.959003
5112.000000;0.937970
5111.000000;0.908632
5110.000000;0.881230
5109.000000;0.866170
5108.000000;0.867085
5107.000000;0.883073
5106.000000;0.911285
5105.000000;0.943608
5104.000000;0.966112
5103.000000;0.970041
5102.000000;0.959776
5101.000000;0.942475
5100.000000;0.918080
5099.000000;0.886052
5098.000000;0.852947
5097.000000;0.826383
5096.000000;0.808892
5095.000000;0.801155
5094.000000;0.804138
5093.000000;0.814959
5092.000000;0.827131
5091.000000;0.839455
5090.000000;0.858835
5089.000000;0.888668
5088.000000;0.919898
5087.000000;0.941778
5086.000000;0.957936
5085.000000;0.979807
5084.000000;1.009588
5083.000000;1.039251
5082.000000;1.062444
5081.000000;1.080975
5080.000000;1.100628
5079.000000;1.124389
5078.000000;1.148123
5077.000000;1.157514
5076.000000;1.133503
5075.000000;1.075182
5074.000000;1.005422
5073.000000;0.944869
5072.000000;0.900230
5071.000000;0.872987
5070.000000;0.866189
5069.000000;0.880477
5068.000000;0.907490
5067.000000;0.931353
5066.000000;0.940826
5065.000000;0.941640
5064.000000;0.949728
5063.000000;0.975670
5062.000000;1.019568
5061.000000;1.071351
5060.000000;1.114716
5059.000000;1.136919
5058.000000;1.132979
5057.000000;1.103345
5056.000000;1.056994
5055.000000;1.010744
5054.000000;0.978063
5053.000000;0.959199
5052.000000;0.944386
5051.000000;0.929003
5050.000000;0.919607
5049.000000;0.921323
5048.000000;0.927572
5047.000000;0.928476
5046.000000;0.926350
5045.000000;0.931420
5044.000000;0.944018
5043.000000;0.952007
5042.000000;0.945339
5041.000000;0.925492
5040.000000;0.900184
5039.000000;0.876976
5038.000000;0.861266
5037.000000;0.853937
5036.000000;0.850862
5035.000000;0.848109
5034.000000;0.846110
5033.000000;0.846834
5032.000000;0.849494
5031.000000;0.851413
5030.000000;0.852690
5029.000000;0.856358
5028.000000;0.862326
5027.000000;0.865087
5026.000000;0.859234
5025.000000;0.845134
5024.000000;0.829282
5023.000000;0.821077
5022.000000;0.827810
5021.000000;0.849115
5020.000000;0.875413
5019.000000;0.894590
5018.000000;0.901879
5017.000000;0.900221
5016.000000;0.892018
5015.000000;0.877246
5014.000000;0.860078
5013.000000;0.849108
5012.000000;0.848460
5011.000000;0.853417
5010.000000;0.854143
5009.000000;0.842979
5008.000000;0.820864
5007.000000;0.796833
5006.000000;0.781517
5005.000000;0.780601
5004.000000;0.791848
5003.000000;0.807116
5002.000000;0.818596
5001.000000;0.823936
5000.000000;0.823961
4999.000000;0.817815
4998.000000;0.802605
4997.000000;0.776954
4996.000000;0.744993
4995.000000;0.715150
4994.000000;0.694396
4993.000000;0.683837
4992.000000;0.678876
4991.000000;0.674442
4990.000000;0.669968
4989.000000;0.667873
4988.000000;0.668816
4987.000000;0.670903
4986.000000;0.672993
4985.000000;0.676468
4984.000000;0.682895
4983.000000;0.691108
4982.000000;0.696857
4981.000000;0.695273
4980.000000;0.684860
4979.000000;0.668019
4978.000000;0.646257
4977.000000;0.618237
4976.000000;0.584767
4975.000000;0.552167
4974.000000;0.528169
4973.000000;0.515771
4972.000000;0.512071
4971.000000;0.512457
4970.000000;0.514792
4969.000000;0.519256
4968.000000;0.525566
4967.000000;0.531626
4966.000000;0.533643
4965.000000;0.526910
4964.000000;0.509222
4963.000000;0.484780
4962.000000;0.461885
4961.000000;0.446047
4960.000000;0.436949
4959.000000;0.431748
4958.000000;0.428889
4957.000000;0.427677
4956.000000;0.427011
4955.000000;0.426784
4954.000000;0.428191
4953.000000;0.430591
4952.000000;0.430222
4951.000000;0.424348
4950.000000;0.415174
4949.000000;0.407284
4948.000000;0.402502
4947.000000;0.398980
4946.000000;0.393600
4945.000000;0.383440
4944.000000;0.366826
4943.000000;0.345621
4942.000000;0.325328
4941.000000;0.310690
4940.000000;0.301737
4939.000000;0.295442
4938.000000;0.290379
4937.000000;0.287925
4936.000000;0.289276
4935.000000;0.293178
4934.000000;0.296437
4933.000000;0.295793
4932.000000;0.290037
4931.000000;0.281344
4930.000000;0.273936
4929.000000;0.270072
4928.000000;0.267944
4927.000000;0.264688
4926.000000;0.260127
4925.000000;0.256121
4924.000000;0.253880
4923.000000;0.252798
4922.000000;0.250654
4921.000000;0.245573
4920.000000;0.238337
4919.000000;0.231284
4918.000000;0.225103
4917.000000;0.217073
4916.000000;0.202908
4915.000000;0.181630
4914.000000;0.157483
4913.000000;0.135992
4912.000000;0.119731
4911.000000;0.108385
4910.000000;0.101152
4909.000000;0.097625
4908.000000;0.096724
4907.000000;0.096001
4906.000000;0.092256
4905.000000;0.082896
4904.000000;0.067961
4903.000000;0.051210
4902.000000;0.037772
4901.000000;0.029962
4900.000000;0.025608
4899.000000;0.020771
4898.000000;0.014012
4897.000000;0.007408
4896.000000;0.003428
4895.000000;0.001666
4894.000000;-0.001415
4893.000000;-0.009745
4892.000000;-0.023980
4891.000000;-0.040656
4890.000000;-0.055380
4889.000000;-0.066313
4888.000000;-0.074612
4887.000000;-0.082157
4886.000000;-0.089257
4885.000000;-0.094735
4884.000000;-0.097723
4883.000000;-0.098801
4882.000000;-0.099546
4881.000000;-0.101291
4880.000000;-0.104243
4879.000000;-0.107691
4878.000000;-0.111054
4877.000000;-0.114683
4876.000000;-0.119459
4875.000000;-0.125491
4874.000000;-0.131462
4873.000000;-0.135609
4872.000000;-0.137232
4871.000000;-0.137158
4870.000000;-0.136820
4869.000000;-0.136967
4868.000000;-0.137369
4867.000000;-0.137647
4866.000000;-0.137890
4865.000000;-0.138254
4864.000000;-0.138461
4863.000000;-0.138212
4862.000000;-0.137919
4861.000000;-0.138362
4860.000000;-0.139500
4859.000000;-0.140334
4858.000000;-0.140231
4857.000000;-0.139761
4856.000000;-0.139622
4855.000000;-0.139025
4854.000000;-0.136105
4853.000000;-0.130165
4852.000000;-0.122781
4851.000000;-0.116307
4850.000000;-0.111696
4849.000000;-0.108177
4848.000000;-0.104907
4847.000000;-0.102271
4846.000000;-0.101383
4845.000000;-0.102631
4844.000000;-0.104889
4843.000000;-0.106175
4842.000000;-0.105044
4841.000000;-0.101519
4840.000000;-0.096845
4839.000000;-0.092008
4838.000000;-0.086534
4837.000000;-0.079353
4836.000000;-0.070935
4835.000000;-0.063784
4834.000000;-0.060114
4833.000000;-0.059379
4832.000000;-0.059075
4831.000000;-0.057651
4830.000000;-0.055671
4829.000000;-0.054344
4828.000000;-0.053839
4827.000000;-0.053330
4826.000000;-0.052162
4825.000000;-0.050473
4824.000000;-0.048825
4823.000000;-0.047536
4822.000000;-0.046217
4821.000000;-0.043896
4820.000000;-0.039907
4819.000000;-0.034847
4818.000000;-0.030281
4817.000000;-0.027164
4816.000000;-0.024780
4815.000000;-0.021560
4814.000000;-0.016763
4813.000000;-0.011087
4812.000000;-0.005677
4811.000000;-0.000798
4810.000000;0.004194
4809.000000;0.009673
4808.000000;0.014929
4807.000000;0.018754
4806.000000;0.020749
4805.000000;0.021727
4804.000000;0.022719
4803.000000;0.023917
4802.000000;0.024780
4801.000000;0.024988
4800.000000;0.025105
4799.000000;0.026215
4798.000000;0.028936
4797.000000;0.032769
4796.000000;0.036439
4795.000000;0.039159
4794.000000;0.041627
4793.000000;0.045388
4792.000000;0.051027
4791.000000;0.057306
4790.000000;0.062339
4789.000000;0.065368
4788.000000;0.066978
4787.000000;0.067838
4786.000000;0.067970
4785.000000;0.067350
4784.000000;0.066740
4783.000000;0.067515
4782.000000;0.070661
4781.000000;0.075994
4780.000000;0.082222
4779.000000;0.087761
4778.000000;0.091733
4777.000000;0.094292
4776.000000;0.096014
4775.000000;0.097127
4774.000000;0.097466
4773.000000;0.097096
4772.000000;0.096711
4771.000000;0.097218
4770.000000;0.098940
4769.000000;0.101331
4768.000000;0.103480
4767.000000;0.104917
4766.000000;0.105952
4765.000000;0.107314
4764.000000;0.109511
4763.000000;0.112509
4762.000000;0.115851
4761.000000;0.118930
4760.000000;0.121283
4759.000000;0.122935
4758.000000;0.124515
4757.000000;0.126783
4756.000000;0.129864
4755.000000;0.133050
4754.000000;0.135509
4753.000000;0.137129
4752.000000;0.138489
4751.000000;0.140133
4750.000000;0.142080
4749.000000;0.143945
4748.000000;0.145291
4747.000000;0.145870
4746.000000;0.145751
4745.000000;0.145294
4744.000000;0.144957
4743.000000;0.145129
4742.000000;0.146127
4741.000000;0.148157
4740.000000;0.151121
4739.000000;0.154593
4738.000000;0.158196
4737.000000;0.161901
4736.000000;0.165744
4735.000000;0.169319
4734.000000;0.171895
4733.000000;0.173093
4732.000000;0.173217
4731.000000;0.172860
4730.000000;0.172420
4729.000000;0.172105
4728.000000;0.172132
4727.000000;0.172659
4726.000000;0.173601
4725.000000;0.174685
4724.000000;0.175703
4723.000000;0.176647
4722.000000;0.177677
4721.000000;0.179011
4720.000000;0.180777
4719.000000;0.182872
4718.000000;0.185015
4717.000000;0.187029
4716.000000;0.189062
4715.000000;0.191418
4714.000000;0.194135
4713.000000;0.196775
4712.000000;0.198725
4711.000000;0.199738
4710.000000;0.200181
4709.000000;0.200641
4708.000000;0.201251
4707.000000;0.201479
4706.000000;0.200731
4705.000000;0.199131
4704.000000;0.197548
4703.000000;0.196810
4702.000000;0.197057
4701.000000;0.197903
4700.000000;0.199108
4699.000000;0.200902
4698.000000;0.203593
4697.000000;0.207013
4696.000000;0.210467
4695.000000;0.213259
4694.000000;0.215234
4693.000000;0.216773
4692.000000;0.218249
4691.000000;0.219583
4690.000000;0.220422
4689.000000;0.220684
4688.000000;0.220783
4687.000000;0.221223
4686.000000;0.222071
4685.000000;0.222919
4684.000000;0.223393
4683.000000;0.223577
4682.000000;0.223895
4681.000000;0.224580
4680.000000;0.225382
4679.000000;0.225847
4678.000000;0.225903
4677.000000;0.226029
4676.000000;0.226789
4675.000000;0.228257
4674.000000;0.229994
4673.000000;0.231556
4672.000000;0.232859
4671.000000;0.234049
4670.000000;0.235228
4669.000000;0.236459
4668.000000;0.237883
4667.000000;0.239583
4666.000000;0.241316
4665.000000;0.242545
4664.000000;0.242857
4663.000000;0.242343
4662.000000;0.241557
4661.000000;0.241108
4660.000000;0.241251
4659.000000;0.241776
4658.000000;0.242294
4657.000000;0.242718
4656.000000;0.243433
4655.000000;0.244913
4654.000000;0.247158
4653.000000;0.249589
4652.000000;0.251504
4651.000000;0.252601
4650.000000;0.253050
4649.000000;0.253172
4648.000000;0.253199
4647.000000;0.253292
4646.000000;0.253626
4645.000000;0.254343
4644.000000;0.255395
4643.000000;0.256502
4642.000000;0.257317
4641.000000;0.257712
4640.000000;0.257862
4639.000000;0.258035
4638.000000;0.258300
4637.000000;0.258537
4636.000000;0.258725
4635.000000;0.259114
4634.000000;0.260005
4633.000000;0.261415
4632.000000;0.263033
4631.000000;0.264515
4630.000000;0.265759
4629.000000;0.266893
4628.000000;0.268045
4627.000000;0.269131
4626.000000;0.269873
4625.000000;0.270036
4624.000000;0.269641
4623.000000;0.268910
4622.000000;0.267984
4621.000000;0.266798
4620.000000;0.265303
4619.000000;0.263763
4618.000000;0.262670
4617.000000;0.262320
4616.000000;0.262587
4615.000000;0.263141
4614.000000;0.263836
4613.000000;0.264745
4612.000000;0.265854
4611.000000;0.266847
4610.000000;0.267322
4609.000000;0.267227
4608.000000;0.267051
4607.000000;0.267510
4606.000000;0.268984
4605.000000;0.271233
4604.000000;0.273627
4603.000000;0.275655
4602.000000;0.277228
4601.000000;0.278552
4600.000000;0.279807
4599.000000;0.280994
4598.000000;0.282003
4597.000000;0.282729
4596.000000;0.283138
4595.000000;0.283298
4594.000000;0.283396
4593.000000;0.283645
4592.000000;0.284085
4591.000000;0.284474
4590.000000;0.284467
4589.000000;0.284005
4588.000000;0.283469
4587.000000;0.283383
4586.000000;0.283928
4585.000000;0.284838
4584.000000;0.285773
4583.000000;0.286717
4582.000000;0.287879
4581.000000;0.289235
4580.000000;0.290331
4579.000000;0.290630
4578.000000;0.290000
4577.000000;0.288804
4576.000000;0.287537
4575.000000;0.286464
4574.000000;0.285625
4573.000000;0.285074
4572.000000;0.284950
4571.000000;0.285264
4570.000000;0.285719
4569.000000;0.285911
4568.000000;0.285783
4567.000000;0.285790
4566.000000;0.286486
4565.000000;0.287960
4564.000000;0.289707
4563.000000;0.291081
4562.000000;0.291811
4561.000000;0.292064
4560.000000;0.292057
4559.000000;0.291762
4558.000000;0.291036
4557.000000;0.290015
4556.000000;0.289282
4555.000000;0.289470
4554.000000;0.290632
4553.000000;0.292065
4552.000000;0.292901
4551.000000;0.292894
4550.000000;0.292559
4549.000000;0.292535
4548.000000;0.292943
4547.000000;0.293384
4546.000000;0.293429
4545.000000;0.293005
4544.000000;0.292375
4543.000000;0.291872
4542.000000;0.291685
4541.000000;0.291775
4540.000000;0.291920
4539.000000;0.291830
4538.000000;0.291311
4537.000000;0.290435
4536.000000;0.289614
4535.000000;0.289420
4534.000000;0.290192
4533.000000;0.291745
4532.000000;0.293499
4531.000000;0.294919
4530.000000;0.295826
4529.000000;0.296336
4528.000000;0.296637
4527.000000;0.296910
4526.000000;0.297337
4525.000000;0.298025
4524.000000;0.298925
4523.000000;0.299851
4522.000000;0.300623
4521.000000;0.301196
4520.000000;0.301699
4519.000000;0.302365
4518.000000;0.303327
4517.000000;0.304441
4516.000000;0.305348
4515.000000;0.305772
4514.000000;0.305703
4513.000000;0.305276
4512.000000;0.304580
4511.000000;0.303695
4510.000000;0.302818
4509.000000;0.302158
4508.000000;0.301692
4507.000000;0.301151
4506.000000;0.300355
4505.000000;0.299521
4504.000000;0.299208
4503.000000;0.299920
4502.000000;0.301680
4501.000000;0.303944
4500.000000;0.305962
4499.000000;0.307347
4498.000000;0.308287
4497.000000;0.309187
4496.000000;0.310128
4495.000000;0.310752
4494.000000;0.310621
4493.000000;0.309596
4492.000000;0.307891
4491.000000;0.305918
4490.000000;0.304123
4489.000000;0.302838
4488.000000;0.302145
4487.000000;0.301811
4486.000000;0.301416
4485.000000;0.300651
4484.000000;0.299614
4483.000000;0.298848
4482.000000;0.298973
4481.000000;0.300125
4480.000000;0.301675
4479.000000;0.302588
4478.000000;0.302250
4477.000000;0.301001
4476.000000;0.299784
4475.000000;0.299284
4474.000000;0.299390
4473.000000;0.299456
4472.000000;0.299030
4471.000000;0.298272
4470.000000;0.297653
4469.000000;0.297354
4468.000000;0.297100
4467.000000;0.296583
4466.000000;0.295893
4465.000000;0.295385
4464.000000;0.295175
4463.000000;0.294975
4462.000000;0.294499
4461.000000;0.293963
4460.000000;0.294009
4459.000000;0.295076
4458.000000;0.296906
4457.000000;0.298754
4456.000000;0.300154
4455.000000;0.301417
4454.000000;0.303193
4453.000000;0.305553
4452.000000;0.307690
4451.000000;0.308662
4450.000000;0.308396
4449.000000;0.307750
4448.000000;0.307553
4447.000000;0.307716
4446.000000;0.307352
4445.000000;0.305702
4444.000000;0.302924
4443.000000;0.299943
4442.000000;0.297604
4441.000000;0.296015
4440.000000;0.294695
4439.000000;0.293270
4438.000000;0.291919
4437.000000;0.291093
4436.000000;0.290928
4435.000000;0.291085
4434.000000;0.291133
4433.000000;0.290932
4432.000000;0.290629
4431.000000;0.290470
4430.000000;0.290737
4429.000000;0.291678
4428.000000;0.293236
4427.000000;0.294822
4426.000000;0.295622
4425.000000;0.295335
4424.000000;0.294565
4423.000000;0.294301
4422.000000;0.294911
4421.000000;0.295710
4420.000000;0.295583
4419.000000;0.294121
4418.000000;0.292086
4417.000000;0.290727
4416.000000;0.290734
4415.000000;0.291892
4414.000000;0.293588
4413.000000;0.295457
4412.000000;0.297485
4411.000000;0.299660
4410.000000;0.301756
4409.000000;0.303452
4408.000000;0.304455
4407.000000;0.304474
4406.000000;0.303293
4405.000000;0.301085
4404.000000;0.298499
4403.000000;0.296079
4402.000000;0.293485
4401.000000;0.289680
4400.000000;0.284343
4399.000000;0.278938
4398.000000;0.275856
4397.000000;0.276309
4396.000000;0.279140
4395.000000;0.281781
4394.000000;0.282560
4393.000000;0.282069
4392.000000;0.282183
4391.000000;0.284059
4390.000000;0.287177
4389.000000;0.290176
4388.000000;0.292495
4387.000000;0.294914
4386.000000;0.298286
4385.000000;0.302111
4384.000000;0.304773
4383.000000;0.305263
4382.000000;0.304235
4381.000000;0.302956
4380.000000;0.301598
4379.000000;0.299128
4378.000000;0.294836
4377.000000;0.289386
4376.000000;0.284120
4375.000000;0.279801
4374.000000;0.276498
4373.000000;0.274385
4372.000000;0.274009
4371.000000;0.275578
4370.000000;0.278390
4369.000000;0.281312
4368.000000;0.283723
4367.000000;0.285697
4366.000000;0.287286
4365.000000;0.288039
4364.000000;0.287466
4363.000000;0.285679
4362.000000;0.283160
4361.000000;0.279947
4360.000000;0.275528
4359.000000;0.269738
4358.000000;0.263448
4357.000000;0.257973
4356.000000;0.253808
4355.000000;0.250144
4354.000000;0.245740
4353.000000;0.240269
4352.000000;0.234787
4351.000000;0.230970
4350.000000;0.230055
4349.000000;0.232368
4348.000000;0.237364
4347.000000;0.243726
4346.000000;0.249563
4345.000000;0.253099
4344.000000;0.253705
4343.000000;0.252304
4342.000000;0.250520
4341.000000;0.249305
4340.000000;0.248400
4339.000000;0.247003
4338.000000;0.244824
4337.000000;0.242573
4336.000000;0.241620
4335.000000;0.243157
4334.000000;0.247346
4333.000000;0.253039
4332.000000;0.258466
4331.000000;0.262517
4330.000000;0.265396
4329.000000;0.267849
4328.000000;0.269819
4327.000000;0.270018
4326.000000;0.266842
4325.000000;0.259821
4324.000000;0.250063
4323.000000;0.239131
4322.000000;0.227771
4321.000000;0.215916
4320.000000;0.203820
4319.000000;0.192818
4318.000000;0.184664
4317.000000;0.180233
4316.000000;0.178852
4315.000000;0.178674
4314.000000;0.177810
4313.000000;0.175436
4312.000000;0.172169
4311.000000;0.169463
4310.000000;0.168567
4309.000000;0.169984
4308.000000;0.173648
4307.000000;0.179229
4306.000000;0.186068
4305.000000;0.193045
4304.000000;0.198889
4303.000000;0.202651
4302.000000;0.203756
4301.000000;0.202035
4300.000000;0.198475
4299.000000;0.195812
4298.000000;0.197154
4297.000000;0.203052
4296.000000;0.210287
4295.000000;0.214747
4294.000000;0.215479
4293.000000;0.214484
4292.000000;0.213039
4291.000000;0.210111
4290.000000;0.204757
4289.000000;0.198515
4288.000000;0.194106
4287.000000;0.192422
4286.000000;0.191884
4285.000000;0.190882
4284.000000;0.190222
4283.000000;0.192576
4282.000000;0.199578
4281.000000;0.209709
4280.000000;0.219168
4279.000000;0.225286
4278.000000;0.228771
4277.000000;0.232125
4276.000000;0.236888
4275.000000;0.242790
4274.000000;0.248699
4273.000000;0.253975
4272.000000;0.259050
4271.000000;0.264732
4270.000000;0.270595
4269.000000;0.274319
4268.000000;0.273928
4267.000000;0.270963
4266.000000;0.269966
4265.000000;0.274401
4264.000000;0.284164
4263.000000;0.296800
4262.000000;0.309236
4261.000000;0.317860
4260.000000;0.319538
4259.000000;0.314646
4258.000000;0.307692
4257.000000;0.303719
4256.000000;0.304152
4255.000000;0.306314
4254.000000;0.307721
4253.000000;0.309932
4252.000000;0.316094
4251.000000;0.325976
4250.000000;0.335942
4249.000000;0.343058
4248.000000;0.347703
4247.000000;0.351552
4246.000000;0.354274
4245.000000;0.354025
4244.000000;0.351487
4243.000000;0.351876
4242.000000;0.361501
4241.000000;0.382170
4240.000000;0.408622
4239.000000;0.432357
4238.000000;0.450314
4237.000000;0.467122
4236.000000;0.486897
4235.000000;0.507296
4234.000000;0.522122
4233.000000;0.528296
4232.000000;0.530088
4231.000000;0.535857
4230.000000;0.551329
4229.000000;0.575549
4228.000000;0.601848
4227.000000;0.623374
4226.000000;0.638208
4225.000000;0.648532
4224.000000;0.656836
4223.000000;0.664945
4222.000000;0.673719
4221.000000;0.680824
4220.000000;0.681597
4219.000000;0.674731
4218.000000;0.665489
4217.000000;0.662242
4216.000000;0.670421
4215.000000;0.689564
4214.000000;0.715132
4213.000000;0.742673
4212.000000;0.770888
4211.000000;0.801630
4210.000000;0.837865
4209.000000;0.880610
4208.000000;0.924203
4207.000000;0.953719
4206.000000;0.953735
4205.000000;0.925718
4204.000000;0.890290
4203.000000;0.870794
4202.000000;0.879505
4201.000000;0.913534
4200.000000;0.958687
4199.000000;1.001945
4198.000000;1.042026
4197.000000;1.082183
4196.000000;1.118825
4195.000000;1.145710
4194.000000;1.164602
4193.000000;1.188577
4192.000000;1.229509
4191.000000;1.275224
4190.000000;1.287844
4189.000000;1.256510
4188.000000;1.224514
4187.000000;1.238155
4186.000000;1.324500
4185.000000;1.497601
4184.000000;1.749086
4183.000000;1.960633
4182.000000;1.922865
4181.000000;1.674212
4180.000000;1.444600
4179.000000;1.304330
4178.000000;1.234811
4177.000000;1.202890
4176.000000;1.162012
4175.000000;1.088032
4174.000000;1.004403
4173.000000;0.944086
4172.000000;0.922873
4171.000000;0.942509
4170.000000;0.992279
4169.000000;1.043278
4168.000000;1.067459
4167.000000;1.073936
4166.000000;1.091005
4165.000000;1.135640
4164.000000;1.191523
4163.000000;1.200746
4162.000000;1.141108
4161.000000;1.062734
4160.000000;1.007915
4159.000000;0.990441
4158.000000;1.003976
4157.000000;1.022318
4156.000000;1.022522
4155.000000;1.025956
4154.000000;1.069969
4153.000000;1.165047
4152.000000;1.291832
4151.000000;1.411157
4150.000000;1.474837
4149.000000;1.463709
4148.000000;1.443492
4147.000000;1.507652
4146.000000;1.717359
4145.000000;2.252761
4144.000000;1.991529
4143.000000;1.698453
4142.000000;1.569063
4141.000000;1.511688
4140.000000;1.490698
4139.000000;1.500602
4138.000000;1.551884
4137.000000;1.639194
4136.000000;1.713131
4135.000000;1.699584
4134.000000;1.603506
4133.000000;1.494996
4132.000000;1.408907
4131.000000;1.340233
4130.000000;1.275566
4129.000000;1.211615
4128.000000;1.162079
4127.000000;1.151650
4126.000000;1.200933
4125.000000;1.311827
4124.000000;1.438776
4123.000000;1.493430
4122.000000;1.475156
4121.000000;1.444284
4120.000000;1.436621
4119.000000;1.443947
4118.000000;1.416532
4117.000000;1.375320
4116.000000;1.379303
4115.000000;1.434140
4114.000000;1.490678
4113.000000;1.528654
4112.000000;1.628085
4111.000000;1.964946
4110.000000;2.177818
4109.000000;1.716184
4108.000000;1.583288
4107.000000;1.489453
4106.000000;1.409080
4105.000000;1.336673
4104.000000;1.284652
4103.000000;1.268144
4102.000000;1.307149
4101.000000;1.412519
4100.000000;1.557589
4099.000000;1.702979
4098.000000;1.817040
4097.000000;2.214880
4096.000000;2.089036
4095.000000;1.571987
4094.000000;1.343532
4093.000000;1.242911
4092.000000;1.207478
4091.000000;1.201415
4090.000000;1.207327
4089.000000;1.229273
4088.000000;1.284450
4087.000000;1.407835
4086.000000;1.576778
4085.000000;1.516995
4084.000000;1.350661
4083.000000;1.263555
4082.000000;1.222912
4081.000000;1.205749
4080.000000;1.205714
4079.000000;1.219598
4078.000000;1.240260
4077.000000;1.268749
4076.000000;1.314401
4075.000000;1.388879
4074.000000;1.507323
4073.000000;1.694785
4072.000000;2.066436
4071.000000;1.910413
4070.000000;1.576432
4069.000000;1.405760
4068.000000;1.303284
4067.000000;1.260114
4066.000000;1.269025
4065.000000;1.325808
4064.000000;1.423677
4063.000000;1.562884
4062.000000;1.782226
4061.000000;1.886036
4060.000000;1.596254
4059.000000;1.403358
4058.000000;1.342152
4057.000000;1.404060
4056.000000;1.660146
4055.000000;2.176042
4054.000000;2.038799
4053.000000;1.833943
4052.000000;1.695712
4051.000000;1.563973
4050.000000;1.514882
4049.000000;1.541133
4048.000000;1.641630
4047.000000;1.812119
4046.000000;1.983476
4045.000000;1.899819
4044.000000;1.731206
4043.000000;1.663251
4042.000000;1.746003
4041.000000;1.795508
4040.000000;1.502058
4039.000000;1.284165
4038.000000;1.180685
4037.000000;1.133470
4036.000000;1.105404
4035.000000;1.073672
4034.000000;1.042140
4033.000000;1.025274
4032.000000;1.034251
4031.000000;1.072308
4030.000000;1.135588
4029.000000;1.211995
4028.000000;1.287586
4027.000000;1.342518
4026.000000;1.331232
4025.000000;1.271279
4024.000000;1.244637
4023.000000;1.286961
4022.000000;1.347437
4021.000000;1.345151
4020.000000;1.343681
4019.000000;1.420855
4018.000000;1.535663
4017.000000;1.574430
4016.000000;1.531918
4015.000000;1.436558
4014.000000;1.317129
4013.000000;1.227506
4012.000000;1.183629
4011.000000;1.172545
4010.000000;1.163364
4009.000000;1.129737
4008.000000;1.087896
4007.000000;1.075468
4006.000000;1.110977
4005.000000;1.177942
4004.000000;1.223204
4003.000000;1.221790
4002.000000;1.213684
4001.000000;1.231375
4000.000000;1.281141
3999.000000;1.343158
3998.000000;1.368685
3997.000000;1.334162
3996.000000;1.271986
3995.000000;1.211263
3994.000000;1.154782
3993.000000;1.100440
3992.000000;1.058518
3991.000000;1.048274
3990.000000;1.087373
3989.000000;1.186621
3988.000000;1.336071
3987.000000;1.442410
3986.000000;1.385074
3985.000000;1.285519
3984.000000;1.263999
3983.000000;1.370556
3982.000000;1.759337
3981.000000;1.897089
3980.000000;1.442420
3979.000000;1.320680
3978.000000;1.323219
3977.000000;1.365557
3976.000000;1.376203
3975.000000;1.317077
3974.000000;1.244781
3973.000000;1.201163
3972.000000;1.206743
3971.000000;1.267289
3970.000000;1.385460
3969.000000;1.578661
3968.000000;1.735414
3967.000000;1.546111
3966.000000;1.314486
3965.000000;1.187171
3964.000000;1.139670
3963.000000;1.153226
3962.000000;1.210281
3961.000000;1.308610
3960.000000;1.452823
3959.000000;1.582676
3958.000000;1.591127
3957.000000;1.562576
3956.000000;1.571257
3955.000000;1.578439
3954.000000;1.540652
3953.000000;1.504223
3952.000000;1.549908
3951.000000;1.781849
3950.000000;1.933042
3949.000000;1.691929
3948.000000;1.597098
3947.000000;1.611204
3946.000000;1.644164
3945.000000;1.611780
3944.000000;1.538323
3943.000000;1.472010
3942.000000;1.452470
3941.000000;1.534791
3940.000000;1.731498
3939.000000;1.941094
3938.000000;1.924036
3937.000000;1.769181
3936.000000;1.644273
3935.000000;1.591519
3934.000000;1.598141
3933.000000;1.604236
3932.000000;1.587024
3931.000000;1.575419
3930.000000;1.571927
3929.000000;1.553615
3928.000000;1.509219
3927.000000;1.449089
3926.000000;1.382721
3925.000000;1.326448
3924.000000;1.304662
3923.000000;1.320215
3922.000000;1.334504
3921.000000;1.303612
3920.000000;1.245729
3919.000000;1.221171
3918.000000;1.251982
3917.000000;1.326792
3916.000000;1.409933
3915.000000;1.441968
3914.000000;1.461110
3913.000000;1.550862
3912.000000;1.723897
3911.000000;1.951403
3910.000000;2.217295
3909.000000;2.374719
3908.000000;2.216988
3907.000000;2.109941
3906.000000;2.118470
3905.000000;2.097230
3904.000000;2.003878
3903.000000;1.945440
3902.000000;2.035995
3901.000000;2.216623
3900.000000;2.229598
3899.000000;2.192657
3898.000000;2.204773
3897.000000;2.159109
3896.000000;2.000736
3895.000000;1.769494
3894.000000;1.658086
3893.000000;1.728340
3892.000000;1.885858
3891.000000;2.043726
3890.000000;2.048661
3889.000000;1.773612
3888.000000;1.679888
3887.000000;1.741067
3886.000000;1.772377
3885.000000;1.733829
3884.000000;1.695026
3883.000000;1.745641
3882.000000;1.864136
3881.000000;1.929107
3880.000000;1.866655
3879.000000;1.708021
3878.000000;1.605326
3877.000000;1.676420
3876.000000;1.852895
3875.000000;1.929906
3874.000000;1.809516
3873.000000;1.713249
3872.000000;1.803258
3871.000000;1.968072
3870.000000;1.978053
3869.000000;1.832421
3868.000000;1.703385
3867.000000;1.688056
3866.000000;1.755793
3865.000000;1.848874
3864.000000;1.906872
3863.000000;1.899246
3862.000000;1.937585
3861.000000;2.103451
3860.000000;2.352368
3859.000000;2.512256
3858.000000;2.464125
3857.000000;2.337098
3856.000000;2.367462
3855.000000;2.685260
3854.000000;2.579345
3853.000000;2.026795
3852.000000;1.703848
3851.000000;1.537359
3850.000000;1.489964
3849.000000;1.518975
3848.000000;1.581582
3847.000000;1.689970
3846.000000;1.858248
3845.000000;2.018900
3844.000000;2.125950
3843.000000;2.224980
3842.000000;2.322033
3841.000000;2.384103
3840.000000;2.364104
3839.000000;2.305283
3838.000000;2.259994
3837.000000;2.278665
3836.000000;2.346626
3835.000000;2.177611
3834.000000;2.036005
3833.000000;2.005372
3832.000000;1.832551
3831.000000;1.564603
3830.000000;1.405145
3829.000000;1.430448
3828.000000;1.590236
3827.000000;1.709763
3826.000000;1.662188
3825.000000;1.487136
3824.000000;1.441570
3823.000000;1.606407
3822.000000;1.812178
3821.000000;1.872760
3820.000000;1.820022
3819.000000;1.764000
3818.000000;1.754959
3817.000000;1.729126
3816.000000;1.662740
3815.000000;1.621827
3814.000000;1.643826
3813.000000;1.688151
3812.000000;1.701795
3811.000000;1.711431
3810.000000;1.922766
3809.000000;2.365321
3808.000000;2.459572
3807.000000;2.348305
3806.000000;2.148536
3805.000000;1.920932
3804.000000;1.815550
3803.000000;1.789677
3802.000000;1.703397
3801.000000;1.535120
3800.000000;1.392374
3799.000000;1.345583
3798.000000;1.360893
3797.000000;1.374547
3796.000000;1.356660
3795.000000;1.285582
3794.000000;1.206855
3793.000000;1.170294
3792.000000;1.163014
3791.000000;1.166775
3790.000000;1.180845
3789.000000;1.208451
3788.000000;1.248845
3787.000000;1.284744
3786.000000;1.301529
3785.000000;1.296347
3784.000000;1.282091
3783.000000;1.305260
3782.000000;1.350343
3781.000000;1.352184
3780.000000;1.307913
3779.000000;1.245230
3778.000000;1.225448
3777.000000;1.268389
3776.000000;1.309500
3775.000000;1.291799
3774.000000;1.246386
3773.000000;1.260120
3772.000000;1.351110
3771.000000;1.454089
3770.000000;1.501573
3769.000000;1.585971
3768.000000;1.706259
3767.000000;1.659748
3766.000000;1.605104
3765.000000;1.612815
3764.000000;1.674587
3763.000000;1.881065
3762.000000;2.174912
3761.000000;1.997731
3760.000000;1.754979
3759.000000;1.711143
3758.000000;1.793681
3757.000000;1.938836
3756.000000;2.091932
3755.000000;2.203842
3754.000000;2.229780
3753.000000;2.218754
3752.000000;2.268670
3751.000000;2.381252
3750.000000;2.401729
3749.000000;2.228482
3748.000000;1.983200
3747.000000;1.926377
3746.000000;1.996651
3745.000000;1.918202
3744.000000;1.732948
3743.000000;1.653904
3742.000000;1.722845
3741.000000;1.843631
3740.000000;1.942666
3739.000000;2.059063
3738.000000;2.208501
3737.000000;2.255946
3736.000000;2.078549
3735.000000;1.892163
3734.000000;1.805823
3733.000000;1.740442
3732.000000;1.632902
3731.000000;1.525184
3730.000000;1.544670
3729.000000;1.659234
3728.000000;1.634078
3727.000000;1.558086
3726.000000;1.585440
3725.000000;1.747739
3724.000000;1.997963
3723.000000;2.021428
3722.000000;1.787925
3721.000000;1.604225
3720.000000;1.565634
3719.000000;1.650091
3718.000000;1.791260
3717.000000;1.952694
3716.000000;2.136098
3715.000000;2.489637
3714.000000;2.567893
3713.000000;2.010129
3712.000000;1.694782
3711.000000;1.510040
3710.000000;1.441223
3709.000000;1.489167
3708.000000;1.620838
3707.000000;1.690044
3706.000000;1.536760
3705.000000;1.398056
3704.000000;1.381246
3703.000000;1.433152
3702.000000;1.459545
3701.000000;1.436405
3700.000000;1.468700
3699.000000;1.637051
3698.000000;2.018404
3697.000000;2.618384
3696.000000;2.420313
3695.000000;2.223210
3694.000000;2.115189
3693.000000;1.932209
3692.000000;1.739969
3691.000000;1.594794
3690.000000;1.518871
3689.000000;1.463366
3688.000000;1.464308
3687.000000;1.581625
3686.000000;1.989786
3685.000000;2.855990
3684.000000;2.249758
3683.000000;2.173256
3682.000000;2.267273
3681.000000;2.318640
3680.000000;2.270377
3679.000000;2.096214
3678.000000;2.053663
3677.000000;2.184028
3676.000000;2.341989
3675.000000;2.370455
3674.000000;2.261190
3673.000000;2.026573
3672.000000;1.831664
3671.000000;1.685541
3670.000000;1.548811
3669.000000;1.425066
3668.000000;1.348539
3667.000000;1.300959
3666.000000;1.308172
3665.000000;1.402812
3664.000000;1.691159
3663.000000;2.227489
3662.000000;1.986765
3661.000000;1.749755
3660.000000;1.606611
3659.000000;1.550745
3658.000000;1.629607
3657.000000;1.782392
3656.000000;1.961365
3655.000000;2.188328
3654.000000;2.506878
3653.000000;2.518192
3652.000000;2.384855
3651.000000;2.537590
3650.000000;2.360076
3649.000000;2.000269
3648.000000;1.927088
3647.000000;1.955965
3646.000000;1.840022
3645.000000;1.698835
3644.000000;1.701419
3643.000000;1.787256
3642.000000;1.725794
3641.000000;1.595845
3640.000000;1.561504
3639.000000;1.605561
3638.000000;1.741565
3637.000000;1.953620
3636.000000;2.080058
3635.000000;2.101607
3634.000000;2.108569
3633.000000;2.012367
3632.000000;2.178252
3631.000000;2.951696
3630.000000;2.229034
3629.000000;2.047868
3628.000000;2.159055
3627.000000;2.456566
3626.000000;2.518179
3625.000000;2.217820
3624.000000;2.027802
3623.000000;1.856382
3622.000000;1.781730
3621.000000;1.776540
3620.000000;1.812575
3619.000000;1.870327
3618.000000;1.956992
3617.000000;1.984261
3616.000000;1.903194
3615.000000;1.807785
3614.000000;1.690875
3613.000000;1.551588
3612.000000;1.427019
3611.000000;1.371489
3610.000000;1.392812
3609.000000;1.462915
3608.000000;1.554825
3607.000000;1.696393
3606.000000;1.866616
3605.000000;1.686880
3604.000000;1.423099
3603.000000;1.293659
3602.000000;1.257249
3601.000000;1.271478
3600.000000;1.299818
3599.000000;1.320622
3598.000000;1.334167
3597.000000;1.375275
3596.000000;1.480320
3595.000000;1.619316
3594.000000;1.684164
3593.000000;1.632790
3592.000000;1.513706
3591.000000;1.399371
3590.000000;1.361654
3589.000000;1.406080
3588.000000;1.449264
3587.000000;1.419041
3586.000000;1.362675
3585.000000;1.335635
3584.000000;1.341590
3583.000000;1.358810
3582.000000;1.350887
3581.000000;1.306572
3580.000000;1.263046
3579.000000;1.250503
3578.000000;1.297753
3577.000000;1.428877
3576.000000;1.710650
3575.000000;2.048442
3574.000000;1.894740
3573.000000;1.719674
3572.000000;1.581813
3571.000000;1.475272
3570.000000;1.472009
3569.000000;1.638816
3568.000000;1.780534
3567.000000;1.624299
3566.000000;1.547837
3565.000000;1.631032
3564.000000;1.643266
3563.000000;1.465820
3562.000000;1.317596
3561.000000;1.220016
3560.000000;1.167458
3559.000000;1.167768
3558.000000;1.200722
3557.000000;1.236063
3556.000000;1.242305
3555.000000;1.248889
3554.000000;1.320596
3553.000000;1.485746
3552.000000;1.725171
3551.000000;1.869446
3550.000000;1.825468
3549.000000;1.878199
3548.000000;1.837974
3547.000000;1.519408
3546.000000;1.283422
3545.000000;1.153525
3544.000000;1.107951
3543.000000;1.130321
3542.000000;1.181846
3541.000000;1.206013
3540.000000;1.193611
3539.000000;1.202958
3538.000000;1.260916
3537.000000;1.334273
3536.000000;1.332212
3535.000000;1.255060
3534.000000;1.193835
3533.000000;1.204547
3532.000000;1.304695
3531.000000;1.531317
3530.000000;1.963511
3529.000000;2.039417
3528.000000;1.871537
3527.000000;1.900295
3526.000000;1.814222
3525.000000;1.604835
3524.000000;1.427355
3523.000000;1.273024
3522.000000;1.141711
3521.000000;1.051722
3520.000000;1.004320
3519.000000;0.986221
3518.000000;0.983261
3517.000000;0.984375
3516.000000;0.978239
3515.000000;0.962466
3514.000000;0.948879
3513.000000;0.958873
3512.000000;1.013555
3511.000000;1.114603
3510.000000;1.228404
3509.000000;1.321506
3508.000000;1.394818
3507.000000;1.475909
3506.000000;1.567330
3505.000000;1.801285
3504.000000;2.110028
3503.000000;1.658516
3502.000000;1.414011
3501.000000;1.342104
3500.000000;1.326937
3499.000000;1.324983
3498.000000;1.278796
3497.000000;1.189072
3496.000000;1.088879
3495.000000;1.009912
3494.000000;0.963817
3493.000000;0.946934
3492.000000;0.945853
3491.000000;0.952830
3490.000000;0.968516
3489.000000;0.995518
3488.000000;1.024310
3487.000000;1.069003
3486.000000;1.165445
3485.000000;1.374780
3484.000000;1.870560
3483.000000;1.829693
3482.000000;1.529261
3481.000000;1.566297
3480.000000;1.559506
3479.000000;1.406122
3478.000000;1.288095
3477.000000;1.277524
3476.000000;1.363165
3475.000000;1.549061
3474.000000;1.698384
3473.000000;1.463446
3472.000000;1.213050
3471.000000;1.054151
3470.000000;0.974016
3469.000000;0.967842
3468.000000;1.016815
3467.000000;1.095265
3466.000000;1.183646
3465.000000;1.272580
3464.000000;1.342546
3463.000000;1.377955
3462.000000;1.374484
3461.000000;1.345891
3460.000000;1.338837
3459.000000;1.389786
3458.000000;1.486481
3457.000000;1.533140
3456.000000;1.438946
3455.000000;1.274266
3454.000000;1.130870
3453.000000;1.032578
3452.000000;0.965097
3451.000000;0.915860
3450.000000;0.891166
3449.000000;0.901092
3448.000000;0.940125
3447.000000;0.991631
3446.000000;1.049291
3445.000000;1.124432
3444.000000;1.224561
3443.000000;1.307789
3442.000000;1.290549
3441.000000;1.197159
3440.000000;1.107877
3439.000000;1.054903
3438.000000;1.044751
3437.000000;1.071369
3436.000000;1.117136
3435.000000;1.156637
3434.000000;1.167992
3433.000000;1.155486
3432.000000;1.141412
3431.000000;1.146592
3430.000000;1.172845
3429.000000;1.218056
3428.000000;1.299079
3427.000000;1.444042
3426.000000;1.817549
3425.000000;2.001482
3424.000000;1.586041
3423.000000;1.381074
3422.000000;1.265981
3421.000000;1.186711
3420.000000;1.148180
3419.000000;1.144586
3418.000000;1.141113
3417.000000;1.112736
3416.000000;1.090234
3415.000000;1.091926
3414.000000;1.098182
3413.000000;1.102852
3412.000000;1.133858
3411.000000;1.202936
3410.000000;1.265893
3409.000000;1.263364
3408.000000;1.214307
3407.000000;1.151643
3406.000000;1.080936
3405.000000;1.012407
3404.000000;0.961303
3403.000000;0.944095
3402.000000;0.982482
3401.000000;1.101621
3400.000000;1.329845
3399.000000;1.556658
3398.000000;1.459361
3397.000000;1.269324
3396.000000;1.143521
3395.000000;1.087312
3394.000000;1.085537
3393.000000;1.096704
3392.000000;1.091009
3391.000000;1.077286
3390.000000;1.077741
3389.000000;1.095764
3388.000000;1.122258
3387.000000;1.153453
3386.000000;1.186860
3385.000000;1.208867
3384.000000;1.211328
3383.000000;1.212545
3382.000000;1.245265
3381.000000;1.268957
3380.000000;1.174826
3379.000000;1.045793
3378.000000;0.967685
3377.000000;0.914339
3376.000000;0.864955
3375.000000;0.847081
3374.000000;0.891017
3373.000000;0.978038
3372.000000;1.019425
3371.000000;0.998869
3370.000000;0.986485
3369.000000;0.996285
3368.000000;1.014435
3367.000000;1.032394
3366.000000;1.051895
3365.000000;1.079510
3364.000000;1.111270
3363.000000;1.132107
3362.000000;1.138766
3361.000000;1.150111
3360.000000;1.173079
3359.000000;1.165018
3358.000000;1.115543
3357.000000;1.099898
3356.000000;1.165083
3355.000000;1.317643
3354.000000;1.474906
3353.000000;1.412465
3352.000000;1.229651
3351.000000;1.103250
3350.000000;1.063226
3349.000000;1.107399
3348.000000;1.208834
3347.000000;1.249612
3346.000000;1.152854
3345.000000;1.039948
3344.000000;0.969495
3343.000000;0.940679
3342.000000;0.938350
3341.000000;0.936119
3340.000000;0.929429
3339.000000;0.938761
3338.000000;0.973813
3337.000000;1.018962
3336.000000;1.041971
3335.000000;1.024048
3334.000000;0.983067
3333.000000;0.947281
3332.000000;0.931286
3331.000000;0.942057
3330.000000;0.983478
3329.000000;1.045973
3328.000000;1.102505
3327.000000;1.144101
3326.000000;1.189706
3325.000000;1.244244
3324.000000;1.305309
3323.000000;1.279790
3322.000000;1.124245
3321.000000;0.992178
3320.000000;0.946847
3319.000000;0.984633
3318.000000;1.083354
3317.000000;1.202452
3316.000000;1.313667
3315.000000;1.298456
3314.000000;1.165699
3313.000000;1.088003
3312.000000;1.100590
3311.000000;1.151081
3310.000000;1.119039
3309.000000;1.037112
3308.000000;0.993300
3307.000000;0.983673
3306.000000;0.997999
3305.000000;1.055815
3304.000000;1.136354
3303.000000;1.144696
3302.000000;1.114102
3301.000000;1.145394
3300.000000;1.258890
3299.000000;1.422202
3298.000000;1.498517
3297.000000;1.430447
3296.000000;1.334504
3295.000000;1.257710
3294.000000;1.209711
3293.000000;1.187904
3292.000000;1.191544
3291.000000;1.226782
3290.000000;1.291502
3289.000000;1.334252
3288.000000;1.299899
3287.000000;1.226125
3286.000000;1.140891
3285.000000;1.056543
3284.000000;1.007096
3283.000000;1.020709
3282.000000;1.109659
3281.000000;1.273668
3280.000000;1.506113
3279.000000;1.922405
3278.000000;2.165181
3277.000000;1.622980
3276.000000;1.513108
3275.000000;1.445213
3274.000000;1.365722
3273.000000;1.337756
3272.000000;1.440718
3271.000000;1.707653
3270.000000;1.717544
3269.000000;1.535085
3268.000000;1.508484
3267.000000;1.457307
3266.000000;1.369680
3265.000000;1.305916
3264.000000;1.298097
3263.000000;1.362606
3262.000000;1.495007
3261.000000;1.675505
3260.000000;1.836667
3259.000000;2.435854
3258.000000;1.787998
3257.000000;1.384726
3256.000000;1.178638
3255.000000;1.077655
3254.000000;1.067134
3253.000000;1.135213
3252.000000;1.247748
3251.000000;1.342112
3250.000000;1.405118
3249.000000;1.469940
3248.000000;1.517434
3247.000000;1.533689
3246.000000;1.616775
3245.000000;1.826245
3244.000000;1.564300
3243.000000;1.230023
3242.000000;1.069795
3241.000000;0.985213
3240.000000;0.958927
3239.000000;0.982486
3238.000000;1.046528
3237.000000;1.110257
3236.000000;1.117683
3235.000000;1.058099
3234.000000;0.996573
3233.000000;1.004266
3232.000000;1.127013
3231.000000;1.438097
3230.000000;1.654066
3229.000000;1.302184
3228.000000;1.055491
3227.000000;0.891167
3226.000000;0.808833
3225.000000;0.802878
3224.000000;0.863068
3223.000000;0.976278
3222.000000;1.141562
3221.000000;1.405793
3220.000000;1.912189
3219.000000;1.872033
3218.000000;1.520262
3217.000000;1.432163
3216.000000;1.408728
3215.000000;1.451477
3214.000000;1.513619
3213.000000;1.618147
3212.000000;1.866045
3211.000000;1.939172
3210.000000;1.765695
3209.000000;1.706852
3208.000000;1.519679
3207.000000;1.288343
3206.000000;1.135224
3205.000000;1.052240
3204.000000;1.020340
3203.000000;1.024343
3202.000000;1.040693
3201.000000;1.029291
3200.000000;0.974840
3199.000000;0.902334
3198.000000;0.835288
3197.000000;0.791075
3196.000000;0.780177
3195.000000;0.800561
3194.000000;0.838997
3193.000000;0.876072
3192.000000;0.895641
3191.000000;0.903728
3190.000000;0.926136
3189.000000;0.976352
3188.000000;1.035528
3187.000000;1.061823
3186.000000;1.043771
3185.000000;1.025208
3184.000000;1.056861
3183.000000;1.170329
3182.000000;1.382302
3181.000000;1.670376
3180.000000;1.877241
3179.000000;1.981581
3178.000000;2.150585
3177.000000;2.150548
3176.000000;1.810966
3175.000000;1.550332
3174.000000;1.311743
3173.000000;1.110161
3172.000000;0.974924
3171.000000;0.901955
3170.000000;0.870983
3169.000000;0.856160
3168.000000;0.837517
3167.000000;0.814500
3166.000000;0.804522
3165.000000;0.826516
3164.000000;0.886916
3163.000000;0.973720
3162.000000;1.066523
3161.000000;1.162294
3160.000000;1.271797
3159.000000;1.391615
3158.000000;1.519322
3157.000000;1.656557
3156.000000;1.795440
3155.000000;1.714231
3154.000000;1.449391
3153.000000;1.273102
3152.000000;1.206266
3151.000000;1.212863
3150.000000;1.230555
3149.000000;1.191326
3148.000000;1.111484
3147.000000;1.045039
3146.000000;1.018024
3145.000000;1.040628
3144.000000;1.125196
3143.000000;1.301438
3142.000000;1.568345
3141.000000;1.620826
3140.000000;1.531558
3139.000000;1.548468
3138.000000;1.517696
3137.000000;1.396110
3136.000000;1.270386
3135.000000;1.205805
3134.000000;1.232946
3133.000000;1.398380
3132.000000;1.610656
3131.000000;1.355435
3130.000000;1.102084
3129.000000;0.973944
3128.000000;0.912209
3127.000000;0.914002
3126.000000;0.972007
3125.000000;1.112324
3124.000000;1.352000
3123.000000;2.300597
3122.000000;1.479653
3121.000000;1.154749
3120.000000;1.030699
3119.000000;1.013961
3118.000000;1.061411
3117.000000;1.124064
3116.000000;1.168972
3115.000000;1.201577
3114.000000;1.237818
3113.000000;1.303629
3112.000000;1.417108
3111.000000;1.577423
3110.000000;1.767115
3109.000000;1.754635
3108.000000;1.566176
3107.000000;1.413868
3106.000000;1.272011
3105.000000;1.167940
3104.000000;1.126159
3103.000000;1.193957
3102.000000;1.377737
3101.000000;2.202024
3100.000000;1.864417
3099.000000;1.551348
3098.000000;1.567061
3097.000000;1.567141
3096.000000;1.549818
3095.000000;1.494377
3094.000000;1.339997
3093.000000;1.200725
3092.000000;1.153361
3091.000000;1.201878
3090.000000;1.306343
3089.000000;1.318132
3088.000000;1.175685
3087.000000;1.017883
3086.000000;0.899699
3085.000000;0.827598
3084.000000;0.795152
3083.000000;0.795225
3082.000000;0.823254
3081.000000;0.871978
3080.000000;0.919006
3079.000000;0.935738
3078.000000;0.926995
3077.000000;0.931856
3076.000000;0.990366
3075.000000;1.130957
3074.000000;1.307768
3073.000000;1.262162
3072.000000;1.149039
3071.000000;1.116419
3070.000000;1.108781
3069.000000;1.068845
3068.000000;1.024424
3067.000000;1.019059
3066.000000;1.054785
3065.000000;1.121778
3064.000000;1.215174
3063.000000;1.279605
3062.000000;1.253395
3061.000000;1.218733
3060.000000;1.231850
3059.000000;1.281428
3058.000000;1.303559
3057.000000;1.290391
3056.000000;1.332326
3055.000000;1.526790
3054.000000;1.948244
3053.000000;1.722026
3052.000000;1.448359
3051.000000;1.387580
3050.000000;1.347238
3049.000000;1.297043
3048.000000;1.234964
3047.000000;1.180896
3046.000000;1.129375
3045.000000;1.095118
3044.000000;1.116350
3043.000000;1.216346
3042.000000;1.374787
3041.000000;1.467122
3040.000000;1.389665
3039.000000;1.239480
3038.000000;1.104947
3037.000000;1.008194
3036.000000;0.946891
3035.000000;0.920521
3034.000000;0.925956
3033.000000;0.942850
3032.000000;0.936516
3031.000000;0.890744
3030.000000;0.830702
3029.000000;0.793901
3028.000000;0.808900
3027.000000;0.899782
3026.000000;1.094003
3025.000000;1.439189
3024.000000;1.582294
3023.000000;1.472251
3022.000000;1.519535
3021.000000;1.612830
3020.000000;1.508714
3019.000000;1.262849
3018.000000;1.051424
3017.000000;0.917720
3016.000000;0.878090
3015.000000;0.931803
3014.000000;1.056170
3013.000000;1.219695
3012.000000;1.553641
3011.000000;1.561551
3010.000000;1.088724
3009.000000;0.914767
3008.000000;0.848068
3007.000000;0.826670
3006.000000;0.823709
3005.000000;0.848852
3004.000000;0.917225
3003.000000;1.022461
3002.000000;1.119761
3001.000000;1.148153
3000.000000;1.112358
2999.000000;1.061009
2998.000000;1.041708
2997.000000;1.087912
2996.000000;1.222586
2995.000000;1.465591
2994.000000;2.014072
2993.000000;1.944149
2992.000000;1.491301
2991.000000;1.211544
2990.000000;1.016229
2989.000000;0.917071
2988.000000;0.910406
2987.000000;0.992120
2986.000000;1.149039
2985.000000;1.333605
2984.000000;1.456585
2983.000000;1.515746
2982.000000;1.590448
2981.000000;1.714019
2980.000000;1.911375
2979.000000;2.050911
2978.000000;1.919128
2977.000000;1.755009
2976.000000;1.641802
2975.000000;1.597164
2974.000000;1.658863
2973.000000;2.080670
2972.000000;1.702313
2971.000000;1.283345
2970.000000;1.171713
2969.000000;1.213087
2968.000000;1.502422
2967.000000;1.436415
2966.000000;1.177719
2965.000000;1.140784
2964.000000;1.240195
2963.000000;1.294446
2962.000000;1.198620
2961.000000;1.134704
2960.000000;1.105923
2959.000000;1.084674
2958.000000;1.085185
2957.000000;1.083538
2956.000000;1.075422
2955.000000;1.095104
2954.000000;1.141872
2953.000000;1.184564
2952.000000;1.194492
2951.000000;1.160435
2950.000000;1.122155
2949.000000;1.120297
2948.000000;1.156790
2947.000000;1.203089
2946.000000;1.216364
2945.000000;1.199809
2944.000000;1.190936
2943.000000;1.205544
2942.000000;1.250040
2941.000000;1.337741
2940.000000;1.486911
2939.000000;1.594148
2938.000000;1.520523
2937.000000;1.445861
2936.000000;1.403748
2935.000000;1.304309
2934.000000;1.160395
2933.000000;1.019084
2932.000000;0.900518
2931.000000;0.821280
2930.000000;0.792311
2929.000000;0.815158
2928.000000;0.889320
2927.000000;1.020791
2926.000000;1.186680
2925.000000;1.228275
2924.000000;1.116006
2923.000000;0.984269
2922.000000;0.880977
2921.000000;0.829253
2920.000000;0.853247
2919.000000;0.975250
2918.000000;1.228131
2917.000000;1.968816
2916.000000;1.852487
2915.000000;1.422608
2914.000000;1.374274
2913.000000;1.443508
2912.000000;1.704445
2911.000000;1.419126
2910.000000;1.206434
2909.000000;1.235245
2908.000000;1.539193
2907.000000;1.803057
2906.000000;1.375469
2905.000000;1.253906
2904.000000;1.246566
2903.000000;1.246310
2902.000000;1.263577
2901.000000;1.322431
2900.000000;1.420588
2899.000000;1.438933
2898.000000;1.322102
2897.000000;1.142136
2896.000000;0.990149
2895.000000;0.895180
2894.000000;0.860993
2893.000000;0.878180
2892.000000;0.930624
2891.000000;1.013392
2890.000000;1.149091
2889.000000;1.501873
2888.000000;1.709061
2887.000000;1.305311
2886.000000;1.116136
2885.000000;1.075446
2884.000000;1.132248
2883.000000;1.293935
2882.000000;1.473242
2881.000000;1.252659
2880.000000;1.017189
2879.000000;0.929708
2878.000000;0.950578
2877.000000;1.030890
2876.000000;1.067092
2875.000000;1.052806
2874.000000;1.070160
2873.000000;1.139020
2872.000000;1.236368
2871.000000;1.315573
2870.000000;1.319031
2869.000000;1.242102
2868.000000;1.145228
2867.000000;1.060939
2866.000000;0.998885
2865.000000;0.960016
2864.000000;0.969767
2863.000000;1.055324
2862.000000;1.264563
2861.000000;1.704157
2860.000000;1.661162
2859.000000;1.479737
2858.000000;1.554223
2857.000000;1.448263
2856.000000;1.268264
2855.000000;1.212682
2854.000000;1.287544
2853.000000;1.517379
2852.000000;1.813050
2851.000000;1.592762
2850.000000;1.277878
2849.000000;1.073068
2848.000000;0.974312
2847.000000;0.978887
2846.000000;1.080744
2845.000000;1.257862
2844.000000;1.306913
2843.000000;1.173787
2842.000000;1.072123
2841.000000;1.019846
2840.000000;1.000146
2839.000000;1.006464
2838.000000;1.027747
2837.000000;1.044340
2836.000000;1.044101
2835.000000;1.038506
2834.000000;1.028139
2833.000000;1.010946
2832.000000;1.007417
2831.000000;1.040212
2830.000000;1.079552
2829.000000;1.088676
2828.000000;1.128606
2827.000000;1.290982
2826.000000;1.385484
2825.000000;1.193915
2824.000000;1.094461
2823.000000;1.121738
2822.000000;1.298035
2821.000000;1.724868
2820.000000;1.600658
2819.000000;1.302120
2818.000000;1.259356
2817.000000;1.343940
2816.000000;1.583344
2815.000000;1.936170
2814.000000;1.727996
2813.000000;1.447103
2812.000000;1.298272
2811.000000;1.226278
2810.000000;1.230188
2809.000000;1.353873
2808.000000;1.563822
2807.000000;1.445065
2806.000000;1.277000
2805.000000;1.303392
2804.000000;1.465662
2803.000000;1.768551
2802.000000;2.028485
2801.000000;1.577986
2800.000000;1.276366
2799.000000;1.146153
2798.000000;1.085982
2797.000000;1.044783
2796.000000;1.010798
2795.000000;1.005061
2794.000000;1.027119
2793.000000;1.064917
2792.000000;1.099220
2791.000000;1.103677
2790.000000;1.067041
2789.000000;1.017693
2788.000000;0.992737
2787.000000;1.007646
2786.000000;1.038557
2785.000000;1.051937
2784.000000;1.042518
2783.000000;1.051873
2782.000000;1.115376
2781.000000;1.270056
2780.000000;1.571797
2779.000000;1.592927
2778.000000;1.319856
2777.000000;1.137850
2776.000000;1.000352
2775.000000;0.899979
2774.000000;0.838851
2773.000000;0.818999
2772.000000;0.835768
2771.000000;0.867646
2770.000000;0.881619
2769.000000;0.863984
2768.000000;0.834013
2767.000000;0.806127
2766.000000;0.787956
2765.000000;0.788439
2764.000000;0.829160
2763.000000;0.935194
2762.000000;1.155990
2761.000000;1.545950
2760.000000;1.560724
2759.000000;1.259518
2758.000000;1.043698
2757.000000;0.892094
2756.000000;0.843884
2755.000000;0.912118
2754.000000;1.102344
2753.000000;1.417648
2752.000000;1.735564
2751.000000;1.471675
2750.000000;1.121477
2749.000000;1.001407
2748.000000;1.026360
2747.000000;1.258374
2746.000000;1.926670
2745.000000;1.515849
2744.000000;1.253070
2743.000000;1.219460
2742.000000;1.374233
2741.000000;1.697027
2740.000000;1.373696
2739.000000;1.202868
2738.000000;1.201105
2737.000000;1.315066
2736.000000;1.447085
2735.000000;1.335372
2734.000000;1.201839
2733.000000;1.164466
2732.000000;1.205636
2731.000000;1.290677
2730.000000;1.490130
2729.000000;1.558398
2728.000000;1.256960
2727.000000;1.060898
2726.000000;0.968039
2725.000000;0.901714
2724.000000;0.835415
2723.000000;0.787091
2722.000000;0.786243
2721.000000;0.834258
2720.000000;0.896990
2719.000000;0.907492
2718.000000;0.861230
2717.000000;0.813635
2716.000000;0.788008
2715.000000;0.768130
2714.000000;0.736864
2713.000000;0.714327
2712.000000;0.726842
2711.000000;0.779748
2710.000000;0.862385
2709.000000;0.963495
2708.000000;1.029584
2707.000000;1.014045
2706.000000;0.993898
2705.000000;1.060170
2704.000000;1.223048
2703.000000;1.193060
2702.000000;1.022378
2701.000000;0.969002
2700.000000;1.026031
2699.000000;1.168028
2698.000000;1.220849
2697.000000;1.120881
2696.000000;1.032470
2695.000000;0.954530
2694.000000;0.879149
2693.000000;0.830027
2692.000000;0.825990
2691.000000;0.875675
2690.000000;0.963322
2689.000000;0.993218
2688.000000;0.929237
2687.000000;0.884050
2686.000000;0.911654
2685.000000;1.020736
2684.000000;1.204209
2683.000000;1.360088
2682.000000;1.331667
2681.000000;1.189897
2680.000000;1.086824
2679.000000;1.074409
2678.000000;1.166253
2677.000000;1.384045
2676.000000;1.480860
2675.000000;1.296131
2674.000000;1.165347
2673.000000;1.103145
2672.000000;1.113157
2671.000000;1.213585
2670.000000;1.444972
2669.000000;1.782278
2668.000000;1.956901
2667.000000;1.929176
2666.000000;1.630468
2665.000000;1.428430
2664.000000;1.455434
2663.000000;1.829991
2662.000000;1.801456
2661.000000;1.360432
2660.000000;1.187468
2659.000000;1.060630
2658.000000;0.947336
2657.000000;0.866195
2656.000000;0.838068
2655.000000;0.884126
2654.000000;1.028998
2653.000000;1.239776
2652.000000;1.298349
2651.000000;1.261284
2650.000000;1.130092
2649.000000;0.923970
2648.000000;0.808358
2647.000000;0.796001
2646.000000;0.865576
2645.000000;0.957686
2644.000000;0.994310
2643.000000;0.983859
2642.000000;1.005720
2641.000000;1.084602
2640.000000;1.265825
2639.000000;1.494280
2638.000000;1.267974
2637.000000;1.055212
2636.000000;1.005010
2635.000000;1.028473
2634.000000;1.034108
2633.000000;0.984371
2632.000000;0.956623
2631.000000;0.978966
2630.000000;1.053217
2629.000000;1.146152
2628.000000;1.227596
2627.000000;1.289651
2626.000000;1.381650
2625.000000;1.542697
2624.000000;1.392538
2623.000000;1.120517
2622.000000;1.020212
2621.000000;1.049374
2620.000000;1.246224
2619.000000;1.602090
2618.000000;1.448135
2617.000000;1.213540
2616.000000;1.133222
2615.000000;1.141188
2614.000000;1.252382
2613.000000;1.344383
2612.000000;1.281329
2611.000000;1.141821
2610.000000;0.976063
2609.000000;0.818466
2608.000000;0.710179
2607.000000;0.670414
2606.000000;0.698344
2605.000000;0.774755
2604.000000;0.867795
2603.000000;0.955733
2602.000000;1.043908
2601.000000;1.121578
2600.000000;1.281258
2599.000000;1.604225
2598.000000;1.478790
2597.000000;1.290759
2596.000000;1.378572
2595.000000;1.643132
2594.000000;1.927799
2593.000000;1.629890
2592.000000;1.225243
2591.000000;0.958469
2590.000000;0.796675
2589.000000;0.706514
2588.000000;0.662289
2587.000000;0.661396
2586.000000;0.716942
2585.000000;0.847138
2584.000000;1.048521
2583.000000;1.194017
2582.000000;1.142736
2581.000000;1.024208
2580.000000;0.980203
2579.000000;1.026952
2578.000000;1.272814
2577.000000;1.716237
2576.000000;1.326602
2575.000000;1.083450
2574.000000;1.064449
2573.000000;1.172073
2572.000000;1.657500
2571.000000;1.765692
2570.000000;1.347625
2569.000000;1.725326
2568.000000;1.555461
2567.000000;1.034670
2566.000000;0.875931
2565.000000;0.827310
2564.000000;0.837077
2563.000000;0.840857
2562.000000;0.850885
2561.000000;0.918332
2560.000000;1.051389
2559.000000;1.192170
2558.000000;1.223406
2557.000000;1.142899
2556.000000;1.024617
2555.000000;0.948077
2554.000000;0.950348
2553.000000;1.021129
2552.000000;1.133724
2551.000000;1.227162
2550.000000;1.243204
2549.000000;1.244504
2548.000000;1.253129
2547.000000;1.582295
2546.000000;1.777998
2545.000000;1.115942
2544.000000;0.852691
2543.000000;0.719198
2542.000000;0.658764
2541.000000;0.652088
2540.000000;0.679214
2539.000000;0.749374
2538.000000;0.821904
2537.000000;0.815122
2536.000000;0.778437
2535.000000;0.812535
2534.000000;0.950578
2533.000000;1.174305
2532.000000;1.184829
2531.000000;1.023971
2530.000000;0.945130
2529.000000;0.945667
2528.000000;1.005212
2527.000000;1.052309
2526.000000;0.998708
2525.000000;0.904098
2524.000000;0.852244
2523.000000;0.870442
2522.000000;0.966274
2521.000000;1.146988
2520.000000;1.294424
2519.000000;1.201997
2518.000000;1.067480
2517.000000;0.993028
2516.000000;0.956959
2515.000000;0.934984
2514.000000;0.909105
2513.000000;0.885071
2512.000000;0.871607
2511.000000;0.864584
2510.000000;0.842391
2509.000000;0.818550
2508.000000;0.838875
2507.000000;0.928952
2506.000000;1.010988
2505.000000;0.948677
2504.000000;0.833518
2503.000000;0.738471
2502.000000;0.669141
2501.000000;0.646468
2500.000000;0.694524
2499.000000;0.826072
2498.000000;1.061253
2497.000000;1.336239
2496.000000;1.239341
2495.000000;1.012830
2494.000000;0.868475
2493.000000;0.773667
2492.000000;0.720609
2491.000000;0.711146
2490.000000;0.743200
2489.000000;0.794053
2488.000000;0.837392
2487.000000;0.901646
2486.000000;1.000199
2485.000000;0.959957
2484.000000;0.826498
2483.000000;0.773050
2482.000000;0.818944
2481.000000;0.961478
2480.000000;1.209802
2479.000000;1.563922
2478.000000;1.569897
2477.000000;1.279572
2476.000000;1.165032
2475.000000;1.199310
2474.000000;1.399803
2473.000000;1.793378
2472.000000;1.544738
2471.000000;1.236325
2470.000000;1.115006
2469.000000;1.039505
2468.000000;0.958788
2467.000000;0.911519
2466.000000;0.959184
2465.000000;1.129958
2464.000000;1.502158
2463.000000;1.769685
2462.000000;1.723347
2461.000000;2.084563
2460.000000;1.896845
2459.000000;1.549084
2458.000000;1.481940
2457.000000;1.852602
2456.000000;1.700040
2455.000000;1.201384
2454.000000;1.046500
2453.000000;1.066549
2452.000000;1.232869
2451.000000;1.459159
2450.000000;1.423290
2449.000000;1.201516
2448.000000;1.064397
2447.000000;1.062515
2446.000000;1.130992
2445.000000;1.096595
2444.000000;1.008798
2443.000000;1.002671
2442.000000;1.087359
2441.000000;1.167462
2440.000000;1.098056
2439.000000;0.992947
2438.000000;0.942102
2437.000000;0.925207
2436.000000;0.929426
2435.000000;0.968718
2434.000000;1.070623
2433.000000;1.220732
2432.000000;1.343844
2431.000000;1.409175
2430.000000;1.333104
2429.000000;1.182698
2428.000000;1.110983
2427.000000;1.140744
2426.000000;1.160091
2425.000000;1.064765
2424.000000;0.997285
2423.000000;1.031851
2422.000000;1.116293
2421.000000;1.095403
2420.000000;0.982565
2419.000000;0.894529
2418.000000;0.833888
2417.000000;0.783781
2416.000000;0.740575
2415.000000;0.702593
2414.000000;0.671324
2413.000000;0.656783
2412.000000;0.664744
2411.000000;0.687904
2410.000000;0.716869
2409.000000;0.752107
2408.000000;0.798744
2407.000000;0.850287
2406.000000;0.883732
2405.000000;0.884074
2404.000000;0.863257
2403.000000;0.831323
2402.000000;0.799858
2401.000000;0.793495
2400.000000;0.831969
2399.000000;0.916672
2398.000000;1.052586
2397.000000;1.214375
2396.000000;1.138891
2395.000000;0.912055
2394.000000;0.751608
2393.000000;0.664420
2392.000000;0.631490
2391.000000;0.628074
2390.000000;0.631649
2389.000000;0.633661
2388.000000;0.637803
2387.000000;0.646811
2386.000000;0.649154
2385.000000;0.632164
2384.000000;0.612168
2383.000000;0.621842
2382.000000;0.681637
2381.000000;0.794006
2380.000000;0.888619
2379.000000;0.852765
2378.000000;0.769953
2377.000000;0.732279
2376.000000;0.738384
2375.000000;0.765797
2374.000000;0.734776
2373.000000;0.609545
2372.000000;0.500560
2371.000000;0.464643
2370.000000;0.494563
2369.000000;0.564541
2368.000000;0.623154
2367.000000;0.632027
2366.000000;0.624801
2365.000000;0.630245
2364.000000;0.644603
2363.000000;0.655721
2362.000000;0.650702
2361.000000;0.614953
2360.000000;0.568030
2359.000000;0.549818
2358.000000;0.574032
2357.000000;0.631960
2356.000000;0.683783
2355.000000;0.699218
2354.000000;0.679251
2353.000000;0.647981
2352.000000;0.685863
2351.000000;0.939460
2350.000000;1.373634
2349.000000;1.265364
2348.000000;1.260407
2347.000000;1.362513
2346.000000;1.376006
2345.000000;1.195881
2344.000000;0.946580
2343.000000;0.773924
2342.000000;0.690811
2341.000000;0.673163
2340.000000;0.690789
2339.000000;0.713887
2338.000000;0.745591
2337.000000;0.793761
2336.000000;0.848314
2335.000000;0.852243
2334.000000;0.819533
2333.000000;0.805776
2332.000000;0.809728
2331.000000;0.765006
2330.000000;0.694369
2329.000000;0.622848
2328.000000;0.544985
2327.000000;0.499136
2326.000000;0.521331
2325.000000;0.618372
2324.000000;0.742954
2323.000000;0.830830
2322.000000;0.845943
2321.000000;0.742575
2320.000000;0.616081
2319.000000;0.559897
2318.000000;0.578967
2317.000000;0.592966
2316.000000;0.570607
2315.000000;0.580778
2314.000000;0.687995
2313.000000;0.812958
2312.000000;0.718069
2311.000000;0.614266
2310.000000;0.605121
2309.000000;0.646050
2308.000000;0.693307
2307.000000;0.719622
2306.000000;0.714673
2305.000000;0.680645
2304.000000;0.648386
2303.000000;0.643358
2302.000000;0.684833
2301.000000;0.785882
2300.000000;0.957328
2299.000000;1.156681
2298.000000;1.317695
2297.000000;1.575699
2296.000000;1.460964
2295.000000;1.210068
2294.000000;1.177730
2293.000000;1.301177
2292.000000;2.197356
2291.000000;1.488437
2290.000000;1.082196
2289.000000;0.926542
2288.000000;0.861806
2287.000000;0.862392
2286.000000;0.884755
2285.000000;0.912264
2284.000000;0.957959
2283.000000;1.042723
2282.000000;1.173962
2281.000000;1.332835
2280.000000;1.455852
2279.000000;1.501874
2278.000000;1.593254
2277.000000;1.854359
2276.000000;1.565125
2275.000000;1.188563
2274.000000;1.018120
2273.000000;0.947519
2272.000000;0.966524
2271.000000;1.062946
2270.000000;1.140635
2269.000000;1.070321
2268.000000;0.998578
2267.000000;1.014241
2266.000000;1.091451
2265.000000;1.197068
2264.000000;1.335808
2263.000000;1.498295
2262.000000;1.479238
2261.000000;1.333779
2260.000000;1.197340
2259.000000;1.091866
2258.000000;1.019200
2257.000000;0.971645
2256.000000;0.959902
2255.000000;0.977058
2254.000000;0.995235
2253.000000;1.012578
2252.000000;1.009412
2251.000000;0.972044
2250.000000;0.954190
2249.000000;0.940438
2248.000000;0.857351
2247.000000;0.750156
2246.000000;0.688633
2245.000000;0.682858
2244.000000;0.719467
2243.000000;0.776568
2242.000000;0.836395
2241.000000;0.897805
2240.000000;0.982367
2239.000000;1.101020
2238.000000;1.077623
2237.000000;0.926441
2236.000000;0.835256
2235.000000;0.830579
2234.000000;0.902686
2233.000000;1.019080
2232.000000;1.090299
2231.000000;1.089157
2230.000000;1.076440
2229.000000;1.085657
2228.000000;1.136436
2227.000000;1.159482
2226.000000;1.091300
2225.000000;1.018780
2224.000000;0.974614
2223.000000;0.960143
2222.000000;0.968258
2221.000000;0.944713
2220.000000;0.865309
2219.000000;0.791837
2218.000000;0.765150
2217.000000;0.780868
2216.000000;0.808257
2215.000000;0.820011
2214.000000;0.823178
2213.000000;0.835239
2212.000000;0.856586
2211.000000;0.871874
2210.000000;0.858623
2209.000000;0.808693
2208.000000;0.746778
2207.000000;0.704165
2206.000000;0.695349
2205.000000;0.720269
2204.000000;0.761895
2203.000000;0.779593
2202.000000;0.753702
2201.000000;0.721587
2200.000000;0.730421
2199.000000;0.808081
2198.000000;1.017661
2197.000000;1.132115
2196.000000;0.869427
2195.000000;0.728885
2194.000000;0.699617
2193.000000;0.722925
2192.000000;0.743467
2191.000000;0.803663
2190.000000;1.017908
2189.000000;1.522104
2188.000000;1.043506
2187.000000;0.743161
2186.000000;0.641274
2185.000000;0.591393
2184.000000;0.578393
2183.000000;0.583956
2182.000000;0.610542
2181.000000;0.655545
2180.000000;0.702621
2179.000000;0.709356
2178.000000;0.668232
2177.000000;0.626862
2176.000000;0.604180
2175.000000;0.580935
2174.000000;0.544029
2173.000000;0.514012
2172.000000;0.519155
2171.000000;0.590608
2170.000000;0.750274
2169.000000;1.115132
2168.000000;1.637438
2167.000000;1.286096
2166.000000;1.144054
2165.000000;1.078710
2164.000000;1.013454
2163.000000;0.956919
2162.000000;0.925279
2161.000000;0.917499
2160.000000;0.918770
2159.000000;0.906575
2158.000000;0.882477
2157.000000;0.861553
2156.000000;0.820779
2155.000000;0.754488
2154.000000;0.682346
2153.000000;0.599835
2152.000000;0.515547
2151.000000;0.458909
2150.000000;0.449024
2149.000000;0.487676
2148.000000;0.563321
2147.000000;0.658542
2146.000000;0.768048
2145.000000;0.908094
2144.000000;1.101838
2143.000000;1.282247
2142.000000;1.221034
2141.000000;1.054177
2140.000000;0.927526
2139.000000;0.834837
2138.000000;0.784806
2137.000000;0.831930
2136.000000;1.019681
2135.000000;1.589321
2134.000000;1.286976
2133.000000;1.010060
2132.000000;1.007979
2131.000000;1.046629
2130.000000;1.121415
2129.000000;1.240017
2128.000000;2.162484
2127.000000;1.186590
2126.000000;0.873179
2125.000000;0.759019
2124.000000;0.747786
2123.000000;0.798203
2122.000000;0.867205
2121.000000;0.898725
2120.000000;0.878632
2119.000000;0.844365
2118.000000;0.851037
2117.000000;0.944192
2116.000000;1.170016
2115.000000;1.309547
2114.000000;1.168067
2113.000000;1.152979
2112.000000;1.239133
2111.000000;1.590895
2110.000000;1.908363
2109.000000;1.377276
2108.000000;1.217060
2107.000000;1.265342
2106.000000;1.735221
2105.000000;1.526057
2104.000000;1.279557
2103.000000;1.596184
2102.000000;1.543977
2101.000000;1.078531
2100.000000;0.937261
2099.000000;0.973356
2098.000000;1.198764
2097.000000;1.496272
2096.000000;1.080248
2095.000000;0.904384
2094.000000;0.848112
2093.000000;0.854391
2092.000000;0.860366
2091.000000;0.866568
2090.000000;0.908886
2089.000000;1.106939
2088.000000;1.095813
2087.000000;0.756303
2086.000000;0.598174
2085.000000;0.548237
2084.000000;0.569464
2083.000000;0.614250
2082.000000;0.650538
2081.000000;0.685626
2080.000000;0.776215
2079.000000;1.054791
2078.000000;1.520671
2077.000000;0.979616
2076.000000;0.755232
2075.000000;0.697647
2074.000000;0.697308
2073.000000;0.715803
2072.000000;0.716489
2071.000000;0.725955
2070.000000;0.789390
2069.000000;0.913194
2068.000000;0.972278
2067.000000;0.878439
2066.000000;0.830039
2065.000000;0.900618
2064.000000;1.168631
2063.000000;1.635843
2062.000000;1.548768
2061.000000;1.777221
2060.000000;1.547066
2059.000000;1.144934
2058.000000;1.027879
2057.000000;0.975090
2056.000000;0.952050
2055.000000;0.921890
2054.000000;0.904257
2053.000000;0.896578
2052.000000;0.876719
2051.000000;0.848359
2050.000000;0.827820
2049.000000;0.818683
2048.000000;0.821340
2047.000000;0.828849
2046.000000;0.819241
2045.000000;0.780512
2044.000000;0.735414
2043.000000;0.715509
2042.000000;0.746569
2041.000000;0.856343
2040.000000;1.083490
2039.000000;1.569462
2038.000000;1.599608
2037.000000;1.068140
2036.000000;0.843522
2035.000000;0.687456
2034.000000;0.595176
2033.000000;0.566286
2032.000000;0.613653
2031.000000;0.736159
2030.000000;0.907435
2029.000000;1.086187
2028.000000;1.128064
2027.000000;1.029948
2026.000000;0.986584
2025.000000;0.937026
2024.000000;0.803749
2023.000000;0.681189
2022.000000;0.611911
2021.000000;0.587792
2020.000000;0.596366
2019.000000;0.634289
2018.000000;0.717586
2017.000000;0.860174
2016.000000;0.963561
2015.000000;0.915298
2014.000000;0.904970
2013.000000;1.012523
2012.000000;1.123195
2011.000000;1.017088
2010.000000;0.887700
2009.000000;0.832133
2008.000000;0.837396
2007.000000;0.862215
2006.000000;0.876854
2005.000000;0.846917
2004.000000;0.748105
2003.000000;0.659421
2002.000000;0.633011
2001.000000;0.646500
2000.000000;0.633397
1999.000000;0.580252
1998.000000;0.538426
1997.000000;0.526793
1996.000000;0.534343
1995.000000;0.555995
1994.000000;0.603727
1993.000000;0.681406
1992.000000;0.755978
1991.000000;0.791453
1990.000000;0.808607
1989.000000;0.847590
1988.000000;0.910702
1987.000000;0.948984
1986.000000;0.952449
1985.000000;0.956611
1984.000000;0.935991
1983.000000;0.884133
1982.000000;0.835065
1981.000000;0.789029
1980.000000;0.744746
1979.000000;0.716084
1978.000000;0.700383
1977.000000;0.677491
1976.000000;0.639419
1975.000000;0.595681
1974.000000;0.573760
1973.000000;0.613659
1972.000000;0.739486
1971.000000;0.925176
1970.000000;1.050993
1969.000000;1.218330
1968.000000;1.604999
1967.000000;1.112000
1966.000000;0.863252
1965.000000;0.768482
1964.000000;0.737277
1963.000000;0.762487
1962.000000;0.844217
1961.000000;0.988958
1960.000000;1.237031
1959.000000;1.446068
1958.000000;1.173293
1957.000000;0.982242
1956.000000;0.892985
1955.000000;0.862971
1954.000000;0.859924
1953.000000;0.863204
1952.000000;0.850512
1951.000000;0.801235
1950.000000;0.738821
1949.000000;0.719469
1948.000000;0.791785
1947.000000;0.981530
1946.000000;1.463399
1945.000000;1.287137
1944.000000;0.878873
1943.000000;0.673332
1942.000000;0.560019
1941.000000;0.530771
1940.000000;0.577398
1939.000000;0.688624
1938.000000;0.778309
1937.000000;0.739400
1936.000000;0.652302
1935.000000;0.602980
1934.000000;0.626810
1933.000000;0.750847
1932.000000;0.978657
1931.000000;1.171260
1930.000000;1.399036
1929.000000;1.669900
1928.000000;1.276043
1927.000000;1.191226
1926.000000;1.601587
1925.000000;1.454507
1924.000000;1.031624
1923.000000;1.033720
1922.000000;1.237090
1921.000000;1.634621
1920.000000;1.281772
1919.000000;1.049085
1918.000000;1.058675
1917.000000;1.202076
1916.000000;1.287555
1915.000000;1.153955
1914.000000;1.144538
1913.000000;1.441130
1912.000000;1.781613
1911.000000;1.360901
1910.000000;1.350857
1909.000000;1.200847
1908.000000;0.928773
1907.000000;0.814379
1906.000000;0.804744
1905.000000;0.817566
1904.000000;0.781295
1903.000000;0.733498
1902.000000;0.735726
1901.000000;0.830094
1900.000000;0.971254
1899.000000;0.914278
1898.000000;0.771232
1897.000000;0.727119
1896.000000;0.785910
1895.000000;0.924566
1894.000000;1.028967
1893.000000;1.032723
1892.000000;0.928286
1891.000000;0.771935
1890.000000;0.687758
1889.000000;0.702706
1888.000000;0.816285
1887.000000;0.944925
1886.000000;0.922189
1885.000000;0.898318
1884.000000;0.876235
1883.000000;0.798217
1882.000000;0.759081
1881.000000;0.768607
1880.000000;0.766959
1879.000000;0.738233
1878.000000;0.741078
1877.000000;0.863572
1876.000000;1.176546
1875.000000;1.211962
1874.000000;1.026337
1873.000000;1.107684
1872.000000;1.320465
1871.000000;1.409511
1870.000000;1.456009
1869.000000;1.653485
1868.000000;1.559236
1867.000000;1.390147
1866.000000;1.381954
1865.000000;1.478882
1864.000000;1.388204
1863.000000;1.037933
1862.000000;0.787495
1861.000000;0.660249
1860.000000;0.637858
1859.000000;0.725128
1858.000000;0.942250
1857.000000;1.295373
1856.000000;1.426690
1855.000000;1.061947
1854.000000;0.775449
1853.000000;0.632420
1852.000000;0.587424
1851.000000;0.601846
1850.000000;0.639228
1849.000000;0.682927
1848.000000;0.741803
1847.000000;0.827767
1846.000000;0.940039
1845.000000;1.117681
1844.000000;1.354452
1843.000000;1.521844
1842.000000;1.696700
1841.000000;1.413419
1840.000000;1.112520
1839.000000;1.044734
1838.000000;1.089117
1837.000000;1.116210
1836.000000;1.089636
1835.000000;1.136192
1834.000000;1.251271
1833.000000;1.179375
1832.000000;1.035586
1831.000000;0.997299
1830.000000;1.035003
1829.000000;1.087810
1828.000000;1.099997
1827.000000;1.166366
1826.000000;1.360215
1825.000000;1.127200
1824.000000;0.819260
1823.000000;0.683108
1822.000000;0.667819
1821.000000;0.777823
1820.000000;1.008347
1819.000000;1.027475
1818.000000;0.826005
1817.000000;0.729654
1816.000000;0.696430
1815.000000;0.671962
1814.000000;0.624534
1813.000000;0.585536
1812.000000;0.589549
1811.000000;0.614577
1810.000000;0.613283
1809.000000;0.578643
1808.000000;0.549118
1807.000000;0.571261
1806.000000;0.667453
1805.000000;0.877731
1804.000000;1.228705
1803.000000;1.155012
1802.000000;0.932668
1801.000000;0.835454
1800.000000;0.787182
1799.000000;0.770436
1798.000000;0.763423
1797.000000;0.756303
1796.000000;0.745610
1795.000000;0.753834
1794.000000;0.794826
1793.000000;0.818942
1792.000000;0.805783
1791.000000;0.840563
1790.000000;0.986161
1789.000000;1.256600
1788.000000;1.840209
1787.000000;1.822134
1786.000000;1.270080
1785.000000;1.096751
1784.000000;0.978566
1783.000000;0.807061
1782.000000;0.683545
1781.000000;0.664115
1780.000000;0.743688
1779.000000;0.841424
1778.000000;0.799903
1777.000000;0.699855
1776.000000;0.650020
1775.000000;0.672405
1774.000000;0.758934
1773.000000;0.807895
1772.000000;0.771361
1771.000000;0.717483
1770.000000;0.702973
1769.000000;0.794517
1768.000000;1.025918
1767.000000;1.109806
1766.000000;0.890612
1765.000000;0.705842
1764.000000;0.591510
1763.000000;0.535462
1762.000000;0.495813
1761.000000;0.455178
1760.000000;0.439294
1759.000000;0.479512
1758.000000;0.629524
1757.000000;0.908504
1756.000000;1.054486
1755.000000;0.932293
1754.000000;0.824294
1753.000000;0.709825
1752.000000;0.604546
1751.000000;0.541839
1750.000000;0.494631
1749.000000;0.448258
1748.000000;0.407594
1747.000000;0.379283
1746.000000;0.364861
1745.000000;0.375044
1744.000000;0.422777
1743.000000;0.505194
1742.000000;0.620568
1741.000000;0.800908
1740.000000;1.039401
1739.000000;1.105935
1738.000000;0.951138
1737.000000;0.784705
1736.000000;0.659732
1735.000000;0.598616
1734.000000;0.590024
1733.000000;0.602184
1732.000000;0.616926
1731.000000;0.645108
1730.000000;0.709341
1729.000000;0.822057
1728.000000;0.979369
1727.000000;1.178518
1726.000000;1.280835
1725.000000;1.060599
1724.000000;0.853231
1723.000000;0.760224
1722.000000;0.739274
1721.000000;0.770495
1720.000000;0.878624
1719.000000;1.012012
1718.000000;0.977699
1717.000000;0.897389
1716.000000;0.899239
1715.000000;0.985313
1714.000000;1.230467
1713.000000;1.294402
1712.000000;1.064903
1711.000000;1.112376
1710.000000;1.066519
1709.000000;0.807221
1708.000000;0.644483
1707.000000;0.557162
1706.000000;0.547535
1705.000000;0.589232
1704.000000;0.626084
1703.000000;0.631771
1702.000000;0.625076
1701.000000;0.653843
1700.000000;0.697264
1699.000000;0.697019
1698.000000;0.686109
1697.000000;0.744257
1696.000000;0.889241
1695.000000;1.109137
1694.000000;1.420929
1693.000000;1.690425
1692.000000;1.476370
1691.000000;1.143922
1690.000000;0.905640
1689.000000;0.753928
1688.000000;0.673761
1687.000000;0.714665
1686.000000;0.947927
1685.000000;1.352178
1684.000000;1.371963
1683.000000;1.187710
1682.000000;1.454535
1681.000000;1.457920
1680.000000;0.973257
1679.000000;0.805718
1678.000000;0.801336
1677.000000;0.946267
1676.000000;1.041944
1675.000000;0.902198
1674.000000;0.866405
1673.000000;0.901997
1672.000000;1.120363
1671.000000;1.827667
1670.000000;1.139399
1669.000000;0.832012
1668.000000;0.765475
1667.000000;0.789651
1666.000000;0.982246
1665.000000;1.206345
1664.000000;1.042684
1663.000000;0.834373
1662.000000;0.743549
1661.000000;0.744674
1660.000000;0.854898
1659.000000;1.027619
1658.000000;1.118593
1657.000000;0.998040
1656.000000;0.767456
1655.000000;0.642920
1654.000000;0.741467
1653.000000;1.146713
1652.000000;1.342114
1651.000000;1.228088
1650.000000;1.847650
1649.000000;1.385385
1648.000000;0.884577
1647.000000;0.691460
1646.000000;0.646016
1645.000000;0.716591
1644.000000;1.007966
1643.000000;1.682680
1642.000000;1.017664
1641.000000;0.794834
1640.000000;0.766388
1639.000000;0.764907
1638.000000;0.894987
1637.000000;1.202742
1636.000000;1.294256
1635.000000;1.033100
1634.000000;0.983951
1633.000000;1.021551
1632.000000;1.185022
1631.000000;1.520921
1630.000000;1.313717
1629.000000;1.036324
1628.000000;0.959985
1627.000000;0.953541
1626.000000;0.975132
1625.000000;1.048069
1624.000000;1.318633
1623.000000;1.387111
1622.000000;1.076047
1621.000000;0.896805
1620.000000;0.802042
1619.000000;0.884374
1618.000000;0.765934
1617.000000;0.525653
1616.000000;0.451810
1615.000000;0.455184
1614.000000;0.476984
1613.000000;0.547861
1612.000000;0.680760
1611.000000;1.017885
1610.000000;1.336459
1609.000000;0.845612
1608.000000;0.670313
1607.000000;0.633590
1606.000000;0.621123
1605.000000;0.603298
1604.000000;0.586758
1603.000000;0.634069
1602.000000;0.731278
1601.000000;0.874183
1600.000000;1.035044
1599.000000;1.062202
1598.000000;0.859436
1597.000000;0.674572
1596.000000;0.574849
1595.000000;0.556657
1594.000000;0.619318
1593.000000;0.758335
1592.000000;0.941857
1591.000000;0.964782
1590.000000;0.809324
1589.000000;0.693080
1588.000000;0.646805
1587.000000;0.640501
1586.000000;0.659026
1585.000000;0.702114
1584.000000;0.790546
1583.000000;0.874534
1582.000000;0.779516
1581.000000;0.614322
1580.000000;0.493407
1579.000000;0.418811
1578.000000;0.449962
1577.000000;0.544727
1576.000000;0.590257
1575.000000;0.631339
1574.000000;0.665205
1573.000000;0.634732
1572.000000;0.596601
1571.000000;0.582659
1570.000000;0.593709
1569.000000;0.639560
1568.000000;0.740924
1567.000000;1.122469
1566.000000;1.299960
1565.000000;0.905211
1564.000000;0.797717
1563.000000;0.946812
1562.000000;1.370026
1561.000000;1.093979
1560.000000;1.039058
1559.000000;1.261435
1558.000000;1.220319
1557.000000;1.143319
1556.000000;1.068031
1555.000000;0.887391
1554.000000;0.690462
1553.000000;0.629728
1552.000000;0.680012
1551.000000;0.898411
1550.000000;1.226976
1549.000000;1.115697
1548.000000;0.964788
1547.000000;0.915533
1546.000000;0.929307
1545.000000;0.938163
1544.000000;0.938721
1543.000000;0.938231
1542.000000;1.035611
1541.000000;1.696177
1540.000000;1.237676
1539.000000;0.856352
1538.000000;0.799505
1537.000000;0.751549
1536.000000;0.736528
1535.000000;0.747972
1534.000000;0.756622
1533.000000;0.712154
1532.000000;0.638235
1531.000000;0.631910
1530.000000;0.686744
1529.000000;0.970882
1528.000000;1.541597
1527.000000;0.998460
1526.000000;0.837270
1525.000000;0.876032
1524.000000;1.077533
1523.000000;1.067857
1522.000000;0.795002
1521.000000;0.766337
1520.000000;0.796535
1519.000000;0.800815
1518.000000;0.807463
1517.000000;0.832243
1516.000000;0.767441
1515.000000;0.650622
1514.000000;0.621887
1513.000000;0.725184
1512.000000;0.961595
1511.000000;1.198978
1510.000000;1.091239
1509.000000;0.785031
1508.000000;0.611961
1507.000000;0.621195
1506.000000;0.736520
1505.000000;0.725049
1504.000000;0.568200
1503.000000;0.445860
1502.000000;0.406207
1501.000000;0.458726
1500.000000;0.582645
1499.000000;0.709896
1498.000000;0.741984
1497.000000;0.781356
1496.000000;0.925200
1495.000000;0.979605
1494.000000;0.892797
1493.000000;0.833658
1492.000000;0.832644
1491.000000;0.859801
1490.000000;0.871543
1489.000000;0.862691
1488.000000;0.870006
1487.000000;0.911394
1486.000000;0.888676
1485.000000;0.755438
1484.000000;0.645456
1483.000000;0.608757
1482.000000;0.607724
1481.000000;0.575359
1480.000000;0.504772
1479.000000;0.455565
1478.000000;0.465505
1477.000000;0.533530
1476.000000;0.633944
1475.000000;0.698874
1474.000000;0.643246
1473.000000;0.562398
1472.000000;0.560423
1471.000000;0.643331
1470.000000;0.802246
1469.000000;0.967483
1468.000000;0.970726
1467.000000;0.922618
1466.000000;0.959966
1465.000000;0.905196
1464.000000;0.715231
1463.000000;0.604813
1462.000000;0.608967
1461.000000;0.710269
1460.000000;0.990781
1459.000000;0.948919
1458.000000;0.706648
1457.000000;0.734843
1456.000000;1.034895
1455.000000;1.704593
1454.000000;1.282319
1453.000000;1.046976
1452.000000;0.999608
1451.000000;0.997282
1450.000000;1.058307
1449.000000;1.212397
1448.000000;1.255840
1447.000000;0.978671
1446.000000;0.803742
1445.000000;0.722644
1444.000000;0.690629
1443.000000;0.669325
1442.000000;0.665281
1441.000000;0.686677
1440.000000;0.654487
1439.000000;0.540309
1438.000000;0.458774
1437.000000;0.441541
1436.000000;0.454928
1435.000000;0.450480
1434.000000;0.465303
1433.000000;0.534724
1432.000000;0.734413
1431.000000;1.383721
1430.000000;1.145588
1429.000000;0.765990
1428.000000;0.693978
1427.000000;0.697005
1426.000000;0.860716
1425.000000;1.321728
1424.000000;1.110718
1423.000000;0.744839
1422.000000;0.625719
1421.000000;0.631841
1420.000000;0.622997
1419.000000;0.553909
1418.000000;0.543531
1417.000000;0.593677
1416.000000;0.692145
1415.000000;0.841192
1414.000000;1.012395
1413.000000;0.972199
1412.000000;0.790558
1411.000000;0.684419
1410.000000;0.623166
1409.000000;0.574378
1408.000000;0.540048
1407.000000;0.529865
1406.000000;0.557819
1405.000000;0.628979
1404.000000;0.751434
1403.000000;0.922367
1402.000000;1.149354
1401.000000;1.389703
1400.000000;1.164551
1399.000000;0.910705
1398.000000;0.816684
1397.000000;0.856750
1396.000000;0.918457
1395.000000;0.800337
1394.000000;0.684313
1393.000000;0.650056
1392.000000;0.663232
1391.000000;0.687494
1390.000000;0.685413
1389.000000;0.669314
1388.000000;0.632416
1387.000000;0.547855
1386.000000;0.457061
1385.000000;0.403658
1384.000000;0.405024
1383.000000;0.476473
1382.000000;0.601293
1381.000000;0.663898
1380.000000;0.628106
1379.000000;0.614420
1378.000000;0.657663
1377.000000;0.757639
1376.000000;0.876463
1375.000000;0.872127
1374.000000;0.804911
1373.000000;0.784735
1372.000000;0.782153
1371.000000;0.743833
1370.000000;0.666103
1369.000000;0.590899
1368.000000;0.547599
1367.000000;0.551610
1366.000000;0.594810
1365.000000;0.641984
1364.000000;0.627350
1363.000000;0.553051
1362.000000;0.512324
1361.000000;0.551763
1360.000000;0.839477
1359.000000;1.189544
1358.000000;0.707628
1357.000000;0.472033
1356.000000;0.402281
1355.000000;0.413246
1354.000000;0.464175
1353.000000;0.504435
1352.000000;0.489030
1351.000000;0.469067
1350.000000;0.507129
1349.000000;0.698905
1348.000000;1.220346
1347.000000;0.731840
1346.000000;0.450038
1345.000000;0.399103
1344.000000;0.474657
1343.000000;0.659289
1342.000000;0.815906
1341.000000;0.852578
1340.000000;0.788585
1339.000000;0.704472
1338.000000;0.647774
1337.000000;0.602836
1336.000000;0.576919
1335.000000;0.576316
1334.000000;0.574917
1333.000000;0.562760
1332.000000;0.549136
1331.000000;0.522640
1330.000000;0.494525
1329.000000;0.513413
1328.000000;0.606031
1327.000000;0.673291
1326.000000;0.590808
1325.000000;0.505261
1324.000000;0.505791
1323.000000;0.589804
1322.000000;0.750182
1321.000000;0.978818
1320.000000;1.198094
1319.000000;1.095171
1318.000000;0.829619
1317.000000;0.638142
1316.000000;0.541500
1315.000000;0.527576
1314.000000;0.590406
1313.000000;0.724688
1312.000000;0.851924
1311.000000;0.821350
1310.000000;0.684677
1309.000000;0.608260
1308.000000;0.642604
1307.000000;0.834091
1306.000000;1.201369
1305.000000;0.926532
1304.000000;0.615059
1303.000000;0.534946
1302.000000;0.580110
1301.000000;0.749531
1300.000000;1.137181
1299.000000;1.234662
1298.000000;0.796846
1297.000000;0.555982
1296.000000;0.448642
1295.000000;0.438376
1294.000000;0.503402
1293.000000;0.595330
1292.000000;0.637122
1291.000000;0.614193
1290.000000;0.598220
1289.000000;0.615015
1288.000000;0.607000
1287.000000;0.542863
1286.000000;0.485960
1285.000000;0.478898
1284.000000;0.530777
1283.000000;0.649672
1282.000000;0.794101
1281.000000;0.760230
1280.000000;0.608072
1279.000000;0.534572
1278.000000;0.545603
1277.000000;0.603926
1276.000000;0.661026
1275.000000;0.749449
1274.000000;1.088413
1273.000000;1.014681
1272.000000;0.677106
1271.000000;0.564892
1270.000000;0.550711
1269.000000;0.566331
1268.000000;0.531828
1267.000000;0.440583
1266.000000;0.368628
1265.000000;0.363741
1264.000000;0.430785
1263.000000;0.544259
1262.000000;0.650006
1261.000000;0.709447
1260.000000;0.762372
1259.000000;0.901566
1258.000000;0.982209
1257.000000;0.713706
1256.000000;0.486002
1255.000000;0.354242
1254.000000;0.300170
1253.000000;0.308419
1252.000000;0.366751
1251.000000;0.485635
1250.000000;0.667643
1249.000000;1.332383
1248.000000;1.055833
1247.000000;0.580345
1246.000000;0.450748
1245.000000;0.385218
1244.000000;0.373030
1243.000000;0.378393
1242.000000;0.391260
1241.000000;0.403591
1240.000000;0.409596
1239.000000;0.413191
1238.000000;0.427441
1237.000000;0.478509
1236.000000;0.588850
1235.000000;0.787294
1234.000000;1.066306
1233.000000;1.019646
1232.000000;0.784721
1231.000000;0.596777
1230.000000;0.433349
1229.000000;0.333428
1228.000000;0.300414
1227.000000;0.325686
1226.000000;0.374772
1225.000000;0.392840
1224.000000;0.425065
1223.000000;0.522251
1222.000000;1.126472
1221.000000;1.066947
1220.000000;0.597848
1219.000000;0.603734
1218.000000;0.719278
1217.000000;0.616468
1216.000000;0.440703
1215.000000;0.397171
1214.000000;0.450371
1213.000000;0.547663
1212.000000;0.602575
1211.000000;0.607595
1210.000000;0.677138
1209.000000;0.985903
1208.000000;1.626946
1207.000000;1.037006
1206.000000;0.960687
1205.000000;0.750078
1204.000000;0.597729
1203.000000;0.529328
1202.000000;0.485087
1201.000000;0.455543
1200.000000;0.426890
