Criado como novo conjunto de dados;"2706_e01_daniel.spp","85686.5 Secs"
cm-1;Abs
10000.000000;0.804723
9999.000000;0.804576
9998.000000;0.804429
9997.000000;0.804282
9996.000000;0.804136
9995.000000;0.803987
9994.000000;0.803844
9993.000000;0.803690
9992.000000;0.803564
9991.000000;0.802818
9990.000000;0.802297
9989.000000;0.802408
9988.000000;0.802576
9987.000000;0.801879
9986.000000;0.800106
9985.000000;0.798134
9984.000000;0.797050
9983.000000;0.797085
9982.000000;0.797592
9981.000000;0.797997
9980.000000;0.798464
9979.000000;0.799515
9978.000000;0.801264
9977.000000;0.803170
9976.000000;0.804376
9975.000000;0.804291
9974.000000;0.803034
9973.000000;0.801343
9972.000000;0.799873
9971.000000;0.798660
9970.000000;0.797518
9969.000000;0.796789
9968.000000;0.797163
9967.000000;0.798618
9966.000000;0.800058
9965.000000;0.800397
9964.000000;0.799724
9963.000000;0.798946
9962.000000;0.798514
9961.000000;0.797969
9960.000000;0.796708
9959.000000;0.794950
9958.000000;0.793800
9957.000000;0.794373
9956.000000;0.796697
9955.000000;0.799363
9954.000000;0.800553
9953.000000;0.799768
9952.000000;0.798297
9951.000000;0.797717
9950.000000;0.798227
9949.000000;0.798696
9948.000000;0.798188
9947.000000;0.797007
9946.000000;0.796153
9945.000000;0.796157
9944.000000;0.796614
9943.000000;0.796696
9942.000000;0.796053
9941.000000;0.795247
9940.000000;0.795237
9939.000000;0.796336
9938.000000;0.797835
9937.000000;0.798761
9936.000000;0.798807
9935.000000;0.798239
9934.000000;0.797197
9933.000000;0.795640
9932.000000;0.793879
9931.000000;0.792616
9930.000000;0.792304
9929.000000;0.792728
9928.000000;0.793302
9927.000000;0.793531
9926.000000;0.793182
9925.000000;0.792389
9924.000000;0.791696
9923.000000;0.791703
9922.000000;0.792494
9921.000000;0.793582
9920.000000;0.794462
9919.000000;0.794989
9918.000000;0.795187
9917.000000;0.795051
9916.000000;0.794726
9915.000000;0.794569
9914.000000;0.794749
9913.000000;0.795001
9912.000000;0.794988
9911.000000;0.794781
9910.000000;0.794745
9909.000000;0.795052
9908.000000;0.795478
9907.000000;0.795629
9906.000000;0.795242
9905.000000;0.794377
9904.000000;0.793389
9903.000000;0.792599
9902.000000;0.791935
9901.000000;0.791087
9900.000000;0.790139
9899.000000;0.789813
9898.000000;0.790774
9897.000000;0.792736
9896.000000;0.794536
9895.000000;0.795094
9894.000000;0.794203
9893.000000;0.792480
9892.000000;0.790733
9891.000000;0.789410
9890.000000;0.788493
9889.000000;0.787855
9888.000000;0.787684
9887.000000;0.788364
9886.000000;0.789846
9885.000000;0.791352
9884.000000;0.791954
9883.000000;0.791495
9882.000000;0.790733
9881.000000;0.790511
9880.000000;0.790942
9879.000000;0.791425
9878.000000;0.791275
9877.000000;0.790303
9876.000000;0.788849
9875.000000;0.787408
9874.000000;0.786285
9873.000000;0.785559
9872.000000;0.785255
9871.000000;0.785447
9870.000000;0.786178
9869.000000;0.787364
9868.000000;0.788809
9867.000000;0.790259
9866.000000;0.791386
9865.000000;0.791813
9864.000000;0.791286
9863.000000;0.789907
9862.000000;0.788223
9861.000000;0.786980
9860.000000;0.786588
9859.000000;0.786721
9858.000000;0.786561
9857.000000;0.785652
9856.000000;0.784450
9855.000000;0.783810
9854.000000;0.784012
9853.000000;0.784527
9852.000000;0.784757
9851.000000;0.784761
9850.000000;0.785024
9849.000000;0.785693
9848.000000;0.786294
9847.000000;0.786237
9846.000000;0.785498
9845.000000;0.784731
9844.000000;0.784661
9843.000000;0.785308
9842.000000;0.785878
9841.000000;0.785605
9840.000000;0.784682
9839.000000;0.784068
9838.000000;0.784348
9837.000000;0.785126
9836.000000;0.785698
9835.000000;0.785969
9834.000000;0.786345
9833.000000;0.786900
9832.000000;0.787118
9831.000000;0.786501
9830.000000;0.785096
9829.000000;0.783346
9828.000000;0.781670
9827.000000;0.780314
9826.000000;0.779431
9825.000000;0.779157
9824.000000;0.779591
9823.000000;0.780692
9822.000000;0.782157
9821.000000;0.783518
9820.000000;0.784494
9819.000000;0.785166
9818.000000;0.785675
9817.000000;0.785908
9816.000000;0.785707
9815.000000;0.785259
9814.000000;0.784939
9813.000000;0.784811
9812.000000;0.784630
9811.000000;0.784358
9810.000000;0.784273
9809.000000;0.784405
9808.000000;0.784272
9807.000000;0.783473
9806.000000;0.782298
9805.000000;0.781442
9804.000000;0.781246
9803.000000;0.781500
9802.000000;0.781885
9801.000000;0.782301
9800.000000;0.782753
9799.000000;0.783168
9798.000000;0.783376
9797.000000;0.783173
9796.000000;0.782436
9795.000000;0.781320
9794.000000;0.780268
9793.000000;0.779601
9792.000000;0.779133
9791.000000;0.778440
9790.000000;0.777546
9789.000000;0.777039
9788.000000;0.777378
9787.000000;0.778294
9786.000000;0.779102
9785.000000;0.779505
9784.000000;0.779855
9783.000000;0.780563
9782.000000;0.781411
9781.000000;0.781587
9780.000000;0.780505
9779.000000;0.778575
9778.000000;0.777062
9777.000000;0.777032
9776.000000;0.778378
9775.000000;0.779885
9774.000000;0.780342
9773.000000;0.779588
9772.000000;0.778488
9771.000000;0.777979
9770.000000;0.778281
9769.000000;0.778935
9768.000000;0.779392
9767.000000;0.779458
9766.000000;0.779233
9765.000000;0.778823
9764.000000;0.778290
9763.000000;0.777775
9762.000000;0.777465
9761.000000;0.777357
9760.000000;0.777231
9759.000000;0.776949
9758.000000;0.776666
9757.000000;0.776592
9756.000000;0.776632
9755.000000;0.776464
9754.000000;0.775991
9753.000000;0.775523
9752.000000;0.775464
9751.000000;0.775912
9750.000000;0.776628
9749.000000;0.777277
9748.000000;0.777635
9747.000000;0.777641
9746.000000;0.777354
9745.000000;0.776886
9744.000000;0.776353
9743.000000;0.775890
9742.000000;0.775592
9741.000000;0.775394
9740.000000;0.775070
9739.000000;0.774490
9738.000000;0.773800
9737.000000;0.773216
9736.000000;0.772702
9735.000000;0.772097
9734.000000;0.771539
9733.000000;0.771446
9732.000000;0.771989
9731.000000;0.772825
9730.000000;0.773559
9729.000000;0.774244
9728.000000;0.775182
9727.000000;0.776344
9726.000000;0.777261
9725.000000;0.777516
9724.000000;0.777150
9723.000000;0.776559
9722.000000;0.776083
9721.000000;0.775719
9720.000000;0.775176
9719.000000;0.774273
9718.000000;0.773293
9717.000000;0.772803
9716.000000;0.772982
9715.000000;0.773290
9714.000000;0.773060
9713.000000;0.772378
9712.000000;0.772051
9711.000000;0.772643
9710.000000;0.773786
9709.000000;0.774578
9708.000000;0.774513
9707.000000;0.773879
9706.000000;0.773289
9705.000000;0.772990
9704.000000;0.772679
9703.000000;0.771969
9702.000000;0.770984
9701.000000;0.770328
9700.000000;0.770375
9699.000000;0.770727
9698.000000;0.770624
9697.000000;0.769898
9696.000000;0.769243
9695.000000;0.769379
9694.000000;0.770176
9693.000000;0.770853
9692.000000;0.770954
9691.000000;0.770824
9690.000000;0.771024
9689.000000;0.771500
9688.000000;0.771576
9687.000000;0.770774
9686.000000;0.769481
9685.000000;0.768656
9684.000000;0.768894
9683.000000;0.769852
9682.000000;0.770608
9681.000000;0.770561
9680.000000;0.769954
9679.000000;0.769476
9678.000000;0.769462
9677.000000;0.769564
9676.000000;0.769234
9675.000000;0.768453
9674.000000;0.767807
9673.000000;0.767801
9672.000000;0.768242
9671.000000;0.768506
9670.000000;0.768332
9669.000000;0.768109
9668.000000;0.768285
9667.000000;0.768761
9666.000000;0.769054
9665.000000;0.768900
9664.000000;0.768471
9663.000000;0.768061
9662.000000;0.767808
9661.000000;0.767701
9660.000000;0.767660
9659.000000;0.767567
9658.000000;0.767364
9657.000000;0.767126
9656.000000;0.766941
9655.000000;0.766779
9654.000000;0.766641
9653.000000;0.766760
9652.000000;0.767366
9651.000000;0.768223
9650.000000;0.768699
9649.000000;0.768461
9648.000000;0.767845
9647.000000;0.767342
9646.000000;0.766902
9645.000000;0.766035
9644.000000;0.764557
9643.000000;0.762991
9642.000000;0.762127
9641.000000;0.762324
9640.000000;0.763294
9639.000000;0.764485
9638.000000;0.765560
9637.000000;0.766459
9636.000000;0.767082
9635.000000;0.767146
9634.000000;0.766484
9633.000000;0.765401
9632.000000;0.764475
9631.000000;0.763978
9630.000000;0.763662
9629.000000;0.763163
9628.000000;0.762475
9627.000000;0.761907
9626.000000;0.761690
9625.000000;0.761786
9624.000000;0.762023
9623.000000;0.762314
9622.000000;0.762718
9621.000000;0.763352
9620.000000;0.764185
9619.000000;0.764946
9618.000000;0.765335
9617.000000;0.765350
9616.000000;0.765255
9615.000000;0.765172
9614.000000;0.764911
9613.000000;0.764346
9612.000000;0.763754
9611.000000;0.763494
9610.000000;0.763469
9609.000000;0.763191
9608.000000;0.762427
9607.000000;0.761559
9606.000000;0.761187
9605.000000;0.761535
9604.000000;0.762306
9603.000000;0.763010
9602.000000;0.763332
9601.000000;0.763268
9600.000000;0.763014
9599.000000;0.762730
9598.000000;0.762401
9597.000000;0.761975
9596.000000;0.761594
9595.000000;0.761537
9594.000000;0.761871
9593.000000;0.762266
9592.000000;0.762280
9591.000000;0.761807
9590.000000;0.761187
9589.000000;0.760854
9588.000000;0.760948
9587.000000;0.761211
9586.000000;0.761249
9585.000000;0.760906
9584.000000;0.760404
9583.000000;0.760100
9582.000000;0.760116
9581.000000;0.760256
9580.000000;0.760296
9579.000000;0.760258
9578.000000;0.760302
9577.000000;0.760394
9576.000000;0.760254
9575.000000;0.759690
9574.000000;0.758926
9573.000000;0.758472
9572.000000;0.758638
9571.000000;0.759231
9570.000000;0.759749
9569.000000;0.759881
9568.000000;0.759769
9567.000000;0.759779
9566.000000;0.760053
9565.000000;0.760338
9564.000000;0.760270
9563.000000;0.759811
9562.000000;0.759321
9561.000000;0.759163
9560.000000;0.759262
9559.000000;0.759133
9558.000000;0.758378
9557.000000;0.757137
9556.000000;0.755974
9555.000000;0.755342
9554.000000;0.755246
9553.000000;0.755415
9552.000000;0.755715
9551.000000;0.756306
9550.000000;0.757394
9549.000000;0.758884
9548.000000;0.760328
9547.000000;0.761207
9546.000000;0.761249
9545.000000;0.760506
9544.000000;0.759197
9543.000000;0.757575
9542.000000;0.755943
9541.000000;0.754678
9540.000000;0.754098
9539.000000;0.754276
9538.000000;0.754992
9537.000000;0.755862
9536.000000;0.756496
9535.000000;0.756611
9534.000000;0.756159
9533.000000;0.755421
9532.000000;0.754901
9531.000000;0.754982
9530.000000;0.755617
9529.000000;0.756348
9528.000000;0.756657
9527.000000;0.756351
9526.000000;0.755655
9525.000000;0.754973
9524.000000;0.754579
9523.000000;0.754543
9522.000000;0.754870
9521.000000;0.755571
9520.000000;0.756509
9519.000000;0.757262
9518.000000;0.757341
9517.000000;0.756630
9516.000000;0.755545
9515.000000;0.754671
9514.000000;0.754246
9513.000000;0.754002
9512.000000;0.753483
9511.000000;0.752549
9510.000000;0.751603
9509.000000;0.751274
9508.000000;0.751798
9507.000000;0.752756
9506.000000;0.753515
9505.000000;0.753935
9504.000000;0.754432
9503.000000;0.755282
9502.000000;0.756106
9501.000000;0.756230
9500.000000;0.755476
9499.000000;0.754337
9498.000000;0.753376
9497.000000;0.752702
9496.000000;0.752102
9495.000000;0.751466
9494.000000;0.750915
9493.000000;0.750610
9492.000000;0.750628
9491.000000;0.751019
9490.000000;0.751820
9489.000000;0.752930
9488.000000;0.754008
9487.000000;0.754614
9486.000000;0.754503
9485.000000;0.753820
9484.000000;0.752977
9483.000000;0.752309
9482.000000;0.751859
9481.000000;0.751492
9480.000000;0.751167
9479.000000;0.751014
9478.000000;0.751148
9477.000000;0.751471
9476.000000;0.751742
9475.000000;0.751815
9474.000000;0.751758
9473.000000;0.751727
9472.000000;0.751762
9471.000000;0.751724
9470.000000;0.751401
9469.000000;0.750674
9468.000000;0.749610
9467.000000;0.748463
9466.000000;0.747562
9465.000000;0.747152
9464.000000;0.747272
9463.000000;0.747782
9462.000000;0.748510
9461.000000;0.749322
9460.000000;0.750040
9459.000000;0.750390
9458.000000;0.750184
9457.000000;0.749603
9456.000000;0.749153
9455.000000;0.749210
9454.000000;0.749606
9453.000000;0.749780
9452.000000;0.749400
9451.000000;0.748777
9450.000000;0.748556
9449.000000;0.748985
9448.000000;0.749561
9447.000000;0.749493
9446.000000;0.748583
9445.000000;0.747513
9444.000000;0.747124
9443.000000;0.747502
9442.000000;0.747958
9441.000000;0.747908
9440.000000;0.747548
9439.000000;0.747498
9438.000000;0.747962
9437.000000;0.748514
9436.000000;0.748659
9435.000000;0.748344
9434.000000;0.747857
9433.000000;0.747426
9432.000000;0.747052
9431.000000;0.746610
9430.000000;0.746002
9429.000000;0.745280
9428.000000;0.744709
9427.000000;0.744587
9426.000000;0.744907
9425.000000;0.745293
9424.000000;0.745413
9423.000000;0.745379
9422.000000;0.745577
9421.000000;0.746142
9420.000000;0.746803
9419.000000;0.747228
9418.000000;0.747349
9417.000000;0.747279
9416.000000;0.747113
9415.000000;0.746886
9414.000000;0.746612
9413.000000;0.746245
9412.000000;0.745707
9411.000000;0.745044
9410.000000;0.744473
9409.000000;0.744164
9408.000000;0.744054
9407.000000;0.743989
9406.000000;0.743945
9405.000000;0.743988
9404.000000;0.744103
9403.000000;0.744226
9402.000000;0.744413
9401.000000;0.744772
9400.000000;0.745193
9399.000000;0.745308
9398.000000;0.744850
9397.000000;0.743971
9396.000000;0.743122
9395.000000;0.742664
9394.000000;0.742655
9393.000000;0.742935
9392.000000;0.743318
9391.000000;0.743690
9390.000000;0.743979
9389.000000;0.744129
9388.000000;0.744138
9387.000000;0.744080
9386.000000;0.744023
9385.000000;0.743905
9384.000000;0.743568
9383.000000;0.742961
9382.000000;0.742229
9381.000000;0.741555
9380.000000;0.741022
9379.000000;0.740703
9378.000000;0.740759
9377.000000;0.741280
9376.000000;0.742051
9375.000000;0.742654
9374.000000;0.742812
9373.000000;0.742547
9372.000000;0.742006
9371.000000;0.741331
9370.000000;0.740672
9369.000000;0.740167
9368.000000;0.739832
9367.000000;0.739591
9366.000000;0.739461
9365.000000;0.739574
9364.000000;0.739943
9363.000000;0.740336
9362.000000;0.740471
9361.000000;0.740291
9360.000000;0.739986
9359.000000;0.739839
9358.000000;0.740049
9357.000000;0.740584
9356.000000;0.741178
9355.000000;0.741584
9354.000000;0.741830
9353.000000;0.742071
9352.000000;0.742177
9351.000000;0.741743
9350.000000;0.740644
9349.000000;0.739355
9348.000000;0.738509
9347.000000;0.738276
9346.000000;0.738352
9345.000000;0.738427
9344.000000;0.738467
9343.000000;0.738615
9342.000000;0.739006
9341.000000;0.739606
9340.000000;0.740097
9339.000000;0.740046
9338.000000;0.739384
9337.000000;0.738612
9336.000000;0.738250
9335.000000;0.738169
9334.000000;0.737773
9333.000000;0.736856
9332.000000;0.735984
9331.000000;0.735903
9330.000000;0.736777
9329.000000;0.738088
9328.000000;0.739114
9327.000000;0.739415
9326.000000;0.739060
9325.000000;0.738542
9324.000000;0.738357
9323.000000;0.738569
9322.000000;0.738776
9321.000000;0.738550
9320.000000;0.737827
9319.000000;0.736886
9318.000000;0.736069
9317.000000;0.735590
9316.000000;0.735437
9315.000000;0.735378
9314.000000;0.735187
9313.000000;0.734994
9312.000000;0.735230
9311.000000;0.736104
9310.000000;0.737214
9309.000000;0.737880
9308.000000;0.737843
9307.000000;0.737505
9306.000000;0.737433
9305.000000;0.737723
9304.000000;0.737897
9303.000000;0.737392
9302.000000;0.736172
9301.000000;0.734882
9300.000000;0.734315
9299.000000;0.734643
9298.000000;0.735210
9297.000000;0.735184
9296.000000;0.734428
9295.000000;0.733640
9294.000000;0.733598
9293.000000;0.734387
9292.000000;0.735396
9291.000000;0.735962
9290.000000;0.735948
9289.000000;0.735711
9288.000000;0.735625
9287.000000;0.735714
9286.000000;0.735709
9285.000000;0.735410
9284.000000;0.734940
9283.000000;0.734624
9282.000000;0.734611
9281.000000;0.734676
9280.000000;0.734480
9279.000000;0.734010
9278.000000;0.733649
9277.000000;0.733740
9276.000000;0.734176
9275.000000;0.734527
9274.000000;0.734525
9273.000000;0.734259
9272.000000;0.733906
9271.000000;0.733472
9270.000000;0.732878
9269.000000;0.732158
9268.000000;0.731472
9267.000000;0.730979
9266.000000;0.730791
9265.000000;0.730943
9264.000000;0.731312
9263.000000;0.731660
9262.000000;0.731892
9261.000000;0.732173
9260.000000;0.732680
9259.000000;0.733287
9258.000000;0.733640
9257.000000;0.733504
9256.000000;0.732906
9255.000000;0.731996
9254.000000;0.730960
9253.000000;0.730042
9252.000000;0.729447
9251.000000;0.729181
9250.000000;0.729112
9249.000000;0.729188
9248.000000;0.729448
9247.000000;0.729836
9246.000000;0.730181
9245.000000;0.730405
9244.000000;0.730563
9243.000000;0.730608
9242.000000;0.730354
9241.000000;0.729812
9240.000000;0.729387
9239.000000;0.729502
9238.000000;0.730099
9237.000000;0.730679
9236.000000;0.730853
9235.000000;0.730688
9234.000000;0.730500
9233.000000;0.730456
9232.000000;0.730456
9231.000000;0.730313
9230.000000;0.729959
9229.000000;0.729499
9228.000000;0.729106
9227.000000;0.728879
9226.000000;0.728767
9225.000000;0.728600
9224.000000;0.728228
9223.000000;0.727692
9222.000000;0.727261
9221.000000;0.727230
9220.000000;0.727625
9219.000000;0.728157
9218.000000;0.728536
9217.000000;0.728773
9216.000000;0.729054
9215.000000;0.729375
9214.000000;0.729458
9213.000000;0.729085
9212.000000;0.728366
9211.000000;0.727589
9210.000000;0.726919
9209.000000;0.726386
9208.000000;0.726086
9207.000000;0.726200
9206.000000;0.726755
9205.000000;0.727451
9204.000000;0.727844
9203.000000;0.727731
9202.000000;0.727339
9201.000000;0.727070
9200.000000;0.727062
9199.000000;0.727066
9198.000000;0.726799
9197.000000;0.726348
9196.000000;0.726079
9195.000000;0.726154
9194.000000;0.726311
9193.000000;0.726168
9192.000000;0.725668
9191.000000;0.725116
9190.000000;0.724834
9189.000000;0.724864
9188.000000;0.724994
9187.000000;0.725018
9186.000000;0.724968
9185.000000;0.725082
9184.000000;0.725507
9183.000000;0.726029
9182.000000;0.726213
9181.000000;0.725864
9180.000000;0.725276
9179.000000;0.724907
9178.000000;0.724840
9177.000000;0.724707
9176.000000;0.724169
9175.000000;0.723349
9174.000000;0.722711
9173.000000;0.722592
9172.000000;0.722953
9171.000000;0.723561
9170.000000;0.724253
9169.000000;0.724944
9168.000000;0.725481
9167.000000;0.725686
9166.000000;0.725590
9165.000000;0.725454
9164.000000;0.725463
9163.000000;0.725461
9162.000000;0.725139
9161.000000;0.724455
9160.000000;0.723716
9159.000000;0.723224
9158.000000;0.722945
9157.000000;0.722617
9156.000000;0.722128
9155.000000;0.721727
9154.000000;0.721792
9153.000000;0.722372
9152.000000;0.722995
9151.000000;0.723028
9150.000000;0.722335
9149.000000;0.721498
9148.000000;0.721260
9147.000000;0.721782
9146.000000;0.722559
9145.000000;0.723000
9144.000000;0.722977
9143.000000;0.722750
9142.000000;0.722556
9141.000000;0.722379
9140.000000;0.722043
9139.000000;0.721427
9138.000000;0.720650
9137.000000;0.720084
9136.000000;0.720088
9135.000000;0.720648
9134.000000;0.721304
9133.000000;0.721558
9132.000000;0.721347
9131.000000;0.721068
9130.000000;0.721138
9129.000000;0.721574
9128.000000;0.722011
9127.000000;0.722059
9126.000000;0.721662
9125.000000;0.721123
9124.000000;0.720793
9123.000000;0.720738
9122.000000;0.720711
9121.000000;0.720449
9120.000000;0.719981
9119.000000;0.719633
9118.000000;0.719729
9117.000000;0.720249
9116.000000;0.720783
9115.000000;0.720852
9114.000000;0.720368
9113.000000;0.719740
9112.000000;0.719456
9111.000000;0.719595
9110.000000;0.719785
9109.000000;0.719652
9108.000000;0.719219
9107.000000;0.718848
9106.000000;0.718857
9105.000000;0.719231
9104.000000;0.719651
9103.000000;0.719786
9102.000000;0.719602
9101.000000;0.719375
9100.000000;0.719367
9099.000000;0.719493
9098.000000;0.719408
9097.000000;0.718901
9096.000000;0.718121
9095.000000;0.717418
9094.000000;0.717087
9093.000000;0.717232
9092.000000;0.717738
9091.000000;0.718274
9090.000000;0.718502
9089.000000;0.718377
9088.000000;0.718191
9087.000000;0.718192
9086.000000;0.718285
9085.000000;0.718226
9084.000000;0.718022
9083.000000;0.717936
9082.000000;0.718086
9081.000000;0.718227
9080.000000;0.718013
9079.000000;0.717413
9078.000000;0.716762
9077.000000;0.716415
9076.000000;0.716418
9075.000000;0.716522
9074.000000;0.716487
9073.000000;0.716346
9072.000000;0.716327
9071.000000;0.716519
9070.000000;0.716657
9069.000000;0.716345
9068.000000;0.715499
9067.000000;0.714541
9066.000000;0.714075
9065.000000;0.714353
9064.000000;0.715047
9063.000000;0.715578
9062.000000;0.715680
9061.000000;0.715613
9060.000000;0.715802
9059.000000;0.716310
9058.000000;0.716750
9057.000000;0.716708
9056.000000;0.716181
9055.000000;0.715552
9054.000000;0.715194
9053.000000;0.715147
9052.000000;0.715175
9051.000000;0.715083
9050.000000;0.714930
9049.000000;0.714952
9048.000000;0.715257
9047.000000;0.715659
9046.000000;0.715826
9045.000000;0.715591
9044.000000;0.715068
9043.000000;0.714513
9042.000000;0.714107
9041.000000;0.713885
9040.000000;0.713763
9039.000000;0.713603
9038.000000;0.713327
9037.000000;0.713019
9036.000000;0.712885
9035.000000;0.713029
9034.000000;0.713290
9033.000000;0.713343
9032.000000;0.712982
9031.000000;0.712303
9030.000000;0.711644
9029.000000;0.711344
9028.000000;0.711507
9027.000000;0.711957
9026.000000;0.712428
9025.000000;0.712804
9024.000000;0.713166
9023.000000;0.713591
9022.000000;0.713988
9021.000000;0.714166
9020.000000;0.714028
9019.000000;0.713638
9018.000000;0.713116
9017.000000;0.712529
9016.000000;0.711900
9015.000000;0.711282
9014.000000;0.710784
9013.000000;0.710511
9012.000000;0.710452
9011.000000;0.710454
9010.000000;0.710323
9009.000000;0.710021
9008.000000;0.709739
9007.000000;0.709751
9006.000000;0.710149
9005.000000;0.710726
9004.000000;0.711132
9003.000000;0.711198
9002.000000;0.711078
9001.000000;0.711037
9000.000000;0.711120
8999.000000;0.711125
8998.000000;0.710925
8997.000000;0.710696
8996.000000;0.710717
8995.000000;0.710995
8994.000000;0.711224
8993.000000;0.711138
8992.000000;0.710799
8991.000000;0.710485
8990.000000;0.710366
8989.000000;0.710346
8988.000000;0.710212
8987.000000;0.709858
8986.000000;0.709397
8985.000000;0.709022
8984.000000;0.708807
8983.000000;0.708665
8982.000000;0.708532
8981.000000;0.708503
8980.000000;0.708700
8979.000000;0.709041
8978.000000;0.709268
8977.000000;0.709220
8976.000000;0.708990
8975.000000;0.708759
8974.000000;0.708572
8973.000000;0.708351
8972.000000;0.708058
8971.000000;0.707813
8970.000000;0.707835
8969.000000;0.708259
8968.000000;0.708933
8967.000000;0.709424
8966.000000;0.709342
8965.000000;0.708717
8964.000000;0.707983
8963.000000;0.707535
8962.000000;0.707391
8961.000000;0.707338
8960.000000;0.707287
8959.000000;0.707338
8958.000000;0.707535
8957.000000;0.707729
8956.000000;0.707733
8955.000000;0.707524
8954.000000;0.707253
8953.000000;0.707092
8952.000000;0.707096
8951.000000;0.707178
8950.000000;0.707144
8949.000000;0.706821
8948.000000;0.706220
8947.000000;0.705577
8946.000000;0.705168
8945.000000;0.705046
8944.000000;0.705005
8943.000000;0.704858
8942.000000;0.704705
8941.000000;0.704818
8940.000000;0.705272
8939.000000;0.705813
8938.000000;0.706150
8937.000000;0.706272
8936.000000;0.706379
8935.000000;0.706571
8934.000000;0.706742
8933.000000;0.706742
8932.000000;0.706508
8931.000000;0.706054
8930.000000;0.705453
8929.000000;0.704862
8928.000000;0.704436
8927.000000;0.704168
8926.000000;0.703909
8925.000000;0.703587
8924.000000;0.703314
8923.000000;0.703259
8922.000000;0.703485
8921.000000;0.703931
8920.000000;0.704439
8919.000000;0.704777
8918.000000;0.704778
8917.000000;0.704543
8916.000000;0.704392
8915.000000;0.704519
8914.000000;0.704743
8913.000000;0.704711
8912.000000;0.704282
8911.000000;0.703639
8910.000000;0.703084
8909.000000;0.702796
8908.000000;0.702776
8907.000000;0.702905
8906.000000;0.703048
8905.000000;0.703153
8904.000000;0.703243
8903.000000;0.703310
8902.000000;0.703272
8901.000000;0.703072
8900.000000;0.702765
8899.000000;0.702448
8898.000000;0.702171
8897.000000;0.701984
8896.000000;0.702010
8895.000000;0.702345
8894.000000;0.702867
8893.000000;0.703282
8892.000000;0.703393
8891.000000;0.703300
8890.000000;0.703268
8889.000000;0.703421
8888.000000;0.703581
8887.000000;0.703433
8886.000000;0.702897
8885.000000;0.702316
8884.000000;0.702174
8883.000000;0.702562
8882.000000;0.702998
8881.000000;0.702891
8880.000000;0.702142
8879.000000;0.701190
8878.000000;0.700477
8877.000000;0.700025
8876.000000;0.699582
8875.000000;0.699043
8874.000000;0.698605
8873.000000;0.698519
8872.000000;0.698786
8871.000000;0.699158
8870.000000;0.699378
8869.000000;0.699413
8868.000000;0.699443
8867.000000;0.699655
8866.000000;0.700059
8865.000000;0.700489
8864.000000;0.700758
8863.000000;0.700825
8862.000000;0.700835
8861.000000;0.700995
8860.000000;0.701371
8859.000000;0.701763
8858.000000;0.701814
8857.000000;0.701320
8856.000000;0.700457
8855.000000;0.699663
8854.000000;0.699253
8853.000000;0.699155
8852.000000;0.699029
8851.000000;0.698693
8850.000000;0.698401
8849.000000;0.698622
8848.000000;0.699492
8847.000000;0.700508
8846.000000;0.700883
8845.000000;0.700315
8844.000000;0.699312
8843.000000;0.698681
8842.000000;0.698729
8841.000000;0.699033
8840.000000;0.699003
8839.000000;0.698555
8838.000000;0.698146
8837.000000;0.698184
8836.000000;0.698536
8835.000000;0.698684
8834.000000;0.698329
8833.000000;0.697724
8832.000000;0.697346
8831.000000;0.697366
8830.000000;0.697559
8829.000000;0.697696
8828.000000;0.697843
8827.000000;0.698182
8826.000000;0.698639
8825.000000;0.698853
8824.000000;0.698538
8823.000000;0.697817
8822.000000;0.697146
8821.000000;0.696941
8820.000000;0.697239
8819.000000;0.697714
8818.000000;0.698025
8817.000000;0.698139
8816.000000;0.698279
8815.000000;0.698553
8814.000000;0.698708
8813.000000;0.698348
8812.000000;0.697366
8811.000000;0.696102
8810.000000;0.695060
8809.000000;0.694506
8808.000000;0.694374
8807.000000;0.694506
8806.000000;0.694910
8805.000000;0.695704
8804.000000;0.696806
8803.000000;0.697786
8802.000000;0.698157
8801.000000;0.697832
8800.000000;0.697186
8799.000000;0.696601
8798.000000;0.696084
8797.000000;0.695432
8796.000000;0.694684
8795.000000;0.694213
8794.000000;0.694311
8793.000000;0.694821
8792.000000;0.695292
8791.000000;0.695466
8790.000000;0.695533
8789.000000;0.695851
8788.000000;0.696472
8787.000000;0.697013
8786.000000;0.697038
8785.000000;0.696560
8784.000000;0.696065
8783.000000;0.695998
8782.000000;0.696280
8781.000000;0.696420
8780.000000;0.696076
8779.000000;0.695416
8778.000000;0.694877
8777.000000;0.694671
8776.000000;0.694619
8775.000000;0.694427
8774.000000;0.694055
8773.000000;0.693765
8772.000000;0.693824
8771.000000;0.694201
8770.000000;0.694584
8769.000000;0.694714
8768.000000;0.694658
8767.000000;0.694699
8766.000000;0.694957
8765.000000;0.695183
8764.000000;0.695011
8763.000000;0.694391
8762.000000;0.693681
8761.000000;0.693291
8760.000000;0.693301
8759.000000;0.693470
8758.000000;0.693571
8757.000000;0.693635
8756.000000;0.693844
8755.000000;0.694251
8754.000000;0.694676
8753.000000;0.694861
8752.000000;0.694702
8751.000000;0.694322
8750.000000;0.693908
8749.000000;0.693534
8748.000000;0.693147
8747.000000;0.692754
8746.000000;0.692537
8745.000000;0.692687
8744.000000;0.693142
8743.000000;0.693569
8742.000000;0.693675
8741.000000;0.693473
8740.000000;0.693204
8739.000000;0.693073
8738.000000;0.693109
8737.000000;0.693248
8736.000000;0.693421
8735.000000;0.693558
8734.000000;0.693594
8733.000000;0.693522
8732.000000;0.693412
8731.000000;0.693362
8730.000000;0.693426
8729.000000;0.693552
8728.000000;0.693595
8727.000000;0.693409
8726.000000;0.692991
8725.000000;0.692512
8724.000000;0.692159
8723.000000;0.691963
8722.000000;0.691829
8721.000000;0.691708
8720.000000;0.691648
8719.000000;0.691679
8718.000000;0.691735
8717.000000;0.691709
8716.000000;0.691547
8715.000000;0.691300
8714.000000;0.691121
8713.000000;0.691179
8712.000000;0.691473
8711.000000;0.691723
8710.000000;0.691586
8709.000000;0.691038
8708.000000;0.690465
8707.000000;0.690271
8706.000000;0.690457
8705.000000;0.690664
8704.000000;0.690616
8703.000000;0.690447
8702.000000;0.690546
8701.000000;0.691134
8700.000000;0.692008
8699.000000;0.692677
8698.000000;0.692792
8697.000000;0.692433
8696.000000;0.691973
8695.000000;0.691663
8694.000000;0.691428
8693.000000;0.691083
8692.000000;0.690653
8691.000000;0.690377
8690.000000;0.690390
8689.000000;0.690518
8688.000000;0.690460
8687.000000;0.690138
8686.000000;0.689804
8685.000000;0.689753
8684.000000;0.690003
8683.000000;0.690292
8682.000000;0.690376
8681.000000;0.690263
8680.000000;0.690132
8679.000000;0.690105
8678.000000;0.690164
8677.000000;0.690236
8676.000000;0.690260
8675.000000;0.690159
8674.000000;0.689873
8673.000000;0.689440
8672.000000;0.689024
8671.000000;0.688799
8670.000000;0.688827
8669.000000;0.689038
8668.000000;0.689290
8667.000000;0.689434
8666.000000;0.689401
8665.000000;0.689247
8664.000000;0.689096
8663.000000;0.689002
8662.000000;0.688926
8661.000000;0.688840
8660.000000;0.688787
8659.000000;0.688806
8658.000000;0.688853
8657.000000;0.688831
8656.000000;0.688657
8655.000000;0.688277
8654.000000;0.687679
8653.000000;0.686981
8652.000000;0.686446
8651.000000;0.686340
8650.000000;0.686699
8649.000000;0.687267
8648.000000;0.687692
8647.000000;0.687802
8646.000000;0.687720
8645.000000;0.687673
8644.000000;0.687681
8643.000000;0.687476
8642.000000;0.686824
8641.000000;0.685900
8640.000000;0.685216
8639.000000;0.685128
8638.000000;0.685488
8637.000000;0.685872
8636.000000;0.686077
8635.000000;0.686265
8634.000000;0.686606
8633.000000;0.686945
8632.000000;0.686930
8631.000000;0.686441
8630.000000;0.685774
8629.000000;0.685339
8628.000000;0.685216
8627.000000;0.685107
8626.000000;0.684754
8625.000000;0.684295
8624.000000;0.684080
8623.000000;0.684204
8622.000000;0.684370
8621.000000;0.684285
8620.000000;0.684052
8619.000000;0.684026
8618.000000;0.684331
8617.000000;0.684683
8616.000000;0.684721
8615.000000;0.684418
8614.000000;0.684078
8613.000000;0.683951
8612.000000;0.683944
8611.000000;0.683766
8610.000000;0.683306
8609.000000;0.682785
8608.000000;0.682499
8607.000000;0.682489
8606.000000;0.682546
8605.000000;0.682507
8604.000000;0.682426
8603.000000;0.682412
8602.000000;0.682406
8601.000000;0.682219
8600.000000;0.681778
8599.000000;0.681215
8598.000000;0.680718
8597.000000;0.680354
8596.000000;0.680066
8595.000000;0.679831
8594.000000;0.679762
8593.000000;0.680029
8592.000000;0.680652
8591.000000;0.681376
8590.000000;0.681829
8589.000000;0.681836
8588.000000;0.681578
8587.000000;0.681366
8586.000000;0.681265
8585.000000;0.681019
8584.000000;0.680391
8583.000000;0.679531
8582.000000;0.678893
8581.000000;0.678742
8580.000000;0.678839
8579.000000;0.678719
8578.000000;0.678281
8577.000000;0.677957
8576.000000;0.678207
8575.000000;0.678930
8574.000000;0.679523
8573.000000;0.679488
8572.000000;0.678893
8571.000000;0.678215
8570.000000;0.677837
8569.000000;0.677798
8568.000000;0.677893
8567.000000;0.677917
8566.000000;0.677786
8565.000000;0.677530
8564.000000;0.677237
8563.000000;0.677002
8562.000000;0.676886
8561.000000;0.676872
8560.000000;0.676838
8559.000000;0.676648
8558.000000;0.676330
8557.000000;0.676094
8556.000000;0.676085
8555.000000;0.676143
8554.000000;0.675952
8553.000000;0.675490
8552.000000;0.675176
8551.000000;0.675423
8550.000000;0.676130
8549.000000;0.676730
8548.000000;0.676754
8547.000000;0.676238
8546.000000;0.675565
8545.000000;0.675022
8544.000000;0.674595
8543.000000;0.674139
8542.000000;0.673664
8541.000000;0.673386
8540.000000;0.673524
8539.000000;0.674060
8538.000000;0.674734
8537.000000;0.675263
8536.000000;0.675532
8535.000000;0.675573
8534.000000;0.675393
8533.000000;0.674911
8532.000000;0.674081
8531.000000;0.673067
8530.000000;0.672209
8529.000000;0.671767
8528.000000;0.671673
8527.000000;0.671618
8526.000000;0.671426
8525.000000;0.671282
8524.000000;0.671480
8523.000000;0.671979
8522.000000;0.672366
8521.000000;0.672337
8520.000000;0.672075
8519.000000;0.672030
8518.000000;0.672356
8517.000000;0.672711
8516.000000;0.672641
8515.000000;0.672072
8514.000000;0.671366
8513.000000;0.670909
8512.000000;0.670728
8511.000000;0.670522
8510.000000;0.670077
8509.000000;0.669601
8508.000000;0.669564
8507.000000;0.670172
8506.000000;0.671066
8505.000000;0.671609
8504.000000;0.671480
8503.000000;0.670894
8502.000000;0.670245
8501.000000;0.669652
8500.000000;0.668939
8499.000000;0.668026
8498.000000;0.667185
8497.000000;0.666844
8496.000000;0.667143
8495.000000;0.667797
8494.000000;0.668426
8493.000000;0.668942
8492.000000;0.669517
8491.000000;0.670185
8490.000000;0.670634
8489.000000;0.670493
8488.000000;0.669776
8487.000000;0.668910
8486.000000;0.668295
8485.000000;0.667932
8484.000000;0.667538
8483.000000;0.666967
8482.000000;0.666402
8481.000000;0.666118
8480.000000;0.666153
8479.000000;0.666300
8478.000000;0.666381
8477.000000;0.666411
8476.000000;0.666475
8475.000000;0.666535
8474.000000;0.666478
8473.000000;0.666293
8472.000000;0.666115
8471.000000;0.666071
8470.000000;0.666164
8469.000000;0.666311
8468.000000;0.666447
8467.000000;0.666540
8466.000000;0.666556
8465.000000;0.666443
8464.000000;0.666147
8463.000000;0.665655
8462.000000;0.665050
8461.000000;0.664520
8460.000000;0.664235
8459.000000;0.664199
8458.000000;0.664249
8457.000000;0.664231
8456.000000;0.664134
8455.000000;0.664056
8454.000000;0.664091
8453.000000;0.664276
8452.000000;0.664569
8451.000000;0.664840
8450.000000;0.664926
8449.000000;0.664760
8448.000000;0.664442
8447.000000;0.664136
8446.000000;0.663913
8445.000000;0.663732
8444.000000;0.663512
8443.000000;0.663205
8442.000000;0.662821
8441.000000;0.662443
8440.000000;0.662185
8439.000000;0.662077
8438.000000;0.662025
8437.000000;0.661927
8436.000000;0.661818
8435.000000;0.661835
8434.000000;0.662017
8433.000000;0.662218
8432.000000;0.662235
8431.000000;0.662019
8430.000000;0.661709
8429.000000;0.661498
8428.000000;0.661463
8427.000000;0.661517
8426.000000;0.661498
8425.000000;0.661308
8424.000000;0.660985
8423.000000;0.660666
8422.000000;0.660494
8421.000000;0.660520
8420.000000;0.660667
8419.000000;0.660764
8418.000000;0.660678
8417.000000;0.660445
8416.000000;0.660228
8415.000000;0.660126
8414.000000;0.660050
8413.000000;0.659859
8412.000000;0.659570
8411.000000;0.659347
8410.000000;0.659270
8409.000000;0.659225
8408.000000;0.659068
8407.000000;0.658849
8406.000000;0.658766
8405.000000;0.658905
8404.000000;0.659127
8403.000000;0.659236
8402.000000;0.659211
8401.000000;0.659185
8400.000000;0.659201
8399.000000;0.659089
8398.000000;0.658656
8397.000000;0.657971
8396.000000;0.657377
8395.000000;0.657153
8394.000000;0.657223
8393.000000;0.657279
8392.000000;0.657191
8391.000000;0.657192
8390.000000;0.657558
8389.000000;0.658148
8388.000000;0.658431
8387.000000;0.658052
8386.000000;0.657290
8385.000000;0.656788
8384.000000;0.656808
8383.000000;0.656925
8382.000000;0.656526
8381.000000;0.655571
8380.000000;0.654677
8379.000000;0.654477
8378.000000;0.655003
8377.000000;0.655757
8376.000000;0.656262
8375.000000;0.656455
8374.000000;0.656539
8373.000000;0.656601
8372.000000;0.656497
8371.000000;0.656107
8370.000000;0.655580
8369.000000;0.655242
8368.000000;0.655260
8367.000000;0.655489
8366.000000;0.655689
8365.000000;0.655774
8364.000000;0.655810
8363.000000;0.655810
8362.000000;0.655691
8361.000000;0.655425
8360.000000;0.655119
8359.000000;0.654901
8358.000000;0.654777
8357.000000;0.654669
8356.000000;0.654519
8355.000000;0.654341
8354.000000;0.654179
8353.000000;0.654063
8352.000000;0.653980
8351.000000;0.653863
8350.000000;0.653644
8349.000000;0.653331
8348.000000;0.653015
8347.000000;0.652757
8346.000000;0.652510
8345.000000;0.652179
8344.000000;0.651788
8343.000000;0.651527
8342.000000;0.651615
8341.000000;0.652100
8340.000000;0.652784
8339.000000;0.653346
8338.000000;0.653574
8337.000000;0.653491
8336.000000;0.653263
8335.000000;0.652999
8334.000000;0.652674
8333.000000;0.652229
8332.000000;0.651707
8331.000000;0.651274
8330.000000;0.651097
8329.000000;0.651203
8328.000000;0.651420
8327.000000;0.651489
8326.000000;0.651298
8325.000000;0.650983
8324.000000;0.650760
8323.000000;0.650629
8322.000000;0.650367
8321.000000;0.649839
8320.000000;0.649229
8319.000000;0.648858
8318.000000;0.648805
8317.000000;0.648844
8316.000000;0.648769
8315.000000;0.648700
8314.000000;0.648946
8313.000000;0.649597
8312.000000;0.650333
8311.000000;0.650676
8310.000000;0.650434
8309.000000;0.649863
8308.000000;0.649389
8307.000000;0.649212
8306.000000;0.649193
8305.000000;0.649073
8304.000000;0.648760
8303.000000;0.648379
8302.000000;0.648093
8301.000000;0.647926
8300.000000;0.647777
8299.000000;0.647588
8298.000000;0.647453
8297.000000;0.647519
8296.000000;0.647796
8295.000000;0.648117
8294.000000;0.648312
8293.000000;0.648368
8292.000000;0.648364
8291.000000;0.648306
8290.000000;0.648115
8289.000000;0.647770
8288.000000;0.647364
8287.000000;0.647011
8286.000000;0.646746
8285.000000;0.646570
8284.000000;0.646506
8283.000000;0.646561
8282.000000;0.646648
8281.000000;0.646610
8280.000000;0.646328
8279.000000;0.645808
8278.000000;0.645201
8277.000000;0.644730
8276.000000;0.644526
8275.000000;0.644520
8274.000000;0.644518
8273.000000;0.644451
8272.000000;0.644476
8271.000000;0.644776
8270.000000;0.645278
8269.000000;0.645653
8268.000000;0.645623
8267.000000;0.645221
8266.000000;0.644740
8265.000000;0.644460
8264.000000;0.644444
8263.000000;0.644563
8262.000000;0.644660
8261.000000;0.644677
8260.000000;0.644649
8259.000000;0.644600
8258.000000;0.644516
8257.000000;0.644394
8256.000000;0.644277
8255.000000;0.644197
8254.000000;0.644113
8253.000000;0.643957
8252.000000;0.643717
8251.000000;0.643450
8250.000000;0.643198
8249.000000;0.642937
8248.000000;0.642628
8247.000000;0.642292
8246.000000;0.642002
8245.000000;0.641810
8244.000000;0.641708
8243.000000;0.641671
8242.000000;0.641722
8241.000000;0.641941
8240.000000;0.642372
8239.000000;0.642926
8238.000000;0.643379
8237.000000;0.643513
8236.000000;0.643270
8235.000000;0.642787
8234.000000;0.642276
8233.000000;0.641862
8232.000000;0.641535
8231.000000;0.641244
8230.000000;0.641018
8229.000000;0.640970
8228.000000;0.641165
8227.000000;0.641492
8226.000000;0.641703
8225.000000;0.641594
8224.000000;0.641179
8223.000000;0.640672
8222.000000;0.640309
8221.000000;0.640163
8220.000000;0.640127
8219.000000;0.640061
8218.000000;0.639951
8217.000000;0.639901
8216.000000;0.639977
8215.000000;0.640084
8214.000000;0.640020
8213.000000;0.639678
8212.000000;0.639201
8211.000000;0.638911
8210.000000;0.639039
8209.000000;0.639467
8208.000000;0.639804
8207.000000;0.639773
8206.000000;0.639521
8205.000000;0.639439
8204.000000;0.639663
8203.000000;0.639874
8202.000000;0.639679
8201.000000;0.639118
8200.000000;0.638658
8199.000000;0.638694
8198.000000;0.639136
8197.000000;0.639516
8196.000000;0.639440
8195.000000;0.638910
8194.000000;0.638278
8193.000000;0.637869
8192.000000;0.637662
8191.000000;0.637339
8190.000000;0.636706
8189.000000;0.635998
8188.000000;0.635671
8187.000000;0.635892
8186.000000;0.636354
8185.000000;0.636652
8184.000000;0.636716
8183.000000;0.636786
8182.000000;0.637036
8181.000000;0.637349
8180.000000;0.637465
8179.000000;0.637276
8178.000000;0.636919
8177.000000;0.636622
8176.000000;0.636481
8175.000000;0.636419
8174.000000;0.636325
8173.000000;0.636199
8172.000000;0.636109
8171.000000;0.636012
8170.000000;0.635748
8169.000000;0.635253
8168.000000;0.634757
8167.000000;0.634626
8166.000000;0.634998
8165.000000;0.635612
8164.000000;0.636062
8163.000000;0.636180
8162.000000;0.636134
8161.000000;0.636117
8160.000000;0.636035
8159.000000;0.635606
8158.000000;0.634773
8157.000000;0.633911
8156.000000;0.633496
8155.000000;0.633603
8154.000000;0.633846
8153.000000;0.633857
8152.000000;0.633718
8151.000000;0.633821
8150.000000;0.634342
8149.000000;0.634957
8148.000000;0.635121
8147.000000;0.634615
8146.000000;0.633778
8145.000000;0.633181
8144.000000;0.633081
8143.000000;0.633218
8142.000000;0.633165
8141.000000;0.632834
8140.000000;0.632544
8139.000000;0.632593
8138.000000;0.632913
8137.000000;0.633186
8136.000000;0.633227
8135.000000;0.633118
8134.000000;0.633010
8133.000000;0.632919
8132.000000;0.632770
8131.000000;0.632559
8130.000000;0.632390
8129.000000;0.632374
8128.000000;0.632510
8127.000000;0.632666
8126.000000;0.632688
8125.000000;0.632533
8124.000000;0.632301
8123.000000;0.632118
8122.000000;0.631999
8121.000000;0.631859
8120.000000;0.631655
8119.000000;0.631470
8118.000000;0.631409
8117.000000;0.631445
8116.000000;0.631406
8115.000000;0.631127
8114.000000;0.630633
8113.000000;0.630150
8112.000000;0.629943
8111.000000;0.630094
8110.000000;0.630414
8109.000000;0.630584
8108.000000;0.630434
8107.000000;0.630111
8106.000000;0.629924
8105.000000;0.630011
8104.000000;0.630176
8103.000000;0.630132
8102.000000;0.629870
8101.000000;0.629686
8100.000000;0.629806
8099.000000;0.630052
8098.000000;0.630030
8097.000000;0.629612
8096.000000;0.629128
8095.000000;0.629008
8094.000000;0.629310
8093.000000;0.629692
8092.000000;0.629823
8091.000000;0.629716
8090.000000;0.629624
8089.000000;0.629692
8088.000000;0.629797
8087.000000;0.629743
8086.000000;0.629513
8085.000000;0.629281
8084.000000;0.629191
8083.000000;0.629189
8082.000000;0.629108
8081.000000;0.628880
8080.000000;0.628619
8079.000000;0.628481
8078.000000;0.628477
8077.000000;0.628459
8076.000000;0.628284
8075.000000;0.627971
8074.000000;0.627665
8073.000000;0.627455
8072.000000;0.627281
8071.000000;0.627056
8070.000000;0.626815
8069.000000;0.626681
8068.000000;0.626692
8067.000000;0.626724
8066.000000;0.626632
8065.000000;0.626410
8064.000000;0.626178
8063.000000;0.626049
8062.000000;0.626053
8061.000000;0.626158
8060.000000;0.626312
8059.000000;0.626466
8058.000000;0.626600
8057.000000;0.626705
8056.000000;0.626755
8055.000000;0.626720
8054.000000;0.626638
8053.000000;0.626617
8052.000000;0.626698
8051.000000;0.626756
8050.000000;0.626601
8049.000000;0.626185
8048.000000;0.625637
8047.000000;0.625131
8046.000000;0.624765
8045.000000;0.624564
8044.000000;0.624506
8043.000000;0.624519
8042.000000;0.624532
8041.000000;0.624550
8040.000000;0.624642
8039.000000;0.624835
8038.000000;0.625067
8037.000000;0.625276
8036.000000;0.625451
8035.000000;0.625566
8034.000000;0.625537
8033.000000;0.625296
8032.000000;0.624902
8031.000000;0.624506
8030.000000;0.624211
8029.000000;0.624001
8028.000000;0.623812
8027.000000;0.623625
8026.000000;0.623501
8025.000000;0.623518
8024.000000;0.623698
8023.000000;0.623960
8022.000000;0.624173
8021.000000;0.624265
8020.000000;0.624273
8019.000000;0.624257
8018.000000;0.624190
8017.000000;0.623974
8016.000000;0.623598
8015.000000;0.623219
8014.000000;0.623037
8013.000000;0.623091
8012.000000;0.623202
8011.000000;0.623157
8010.000000;0.622926
8009.000000;0.622677
8008.000000;0.622598
8007.000000;0.622723
8006.000000;0.622937
8005.000000;0.623091
8004.000000;0.623105
8003.000000;0.622980
8002.000000;0.622760
8001.000000;0.622467
8000.000000;0.622088
7999.000000;0.621642
7998.000000;0.621261
7997.000000;0.621132
7996.000000;0.621298
7995.000000;0.621582
7994.000000;0.621756
7993.000000;0.621760
7992.000000;0.621696
7991.000000;0.621630
7990.000000;0.621488
7989.000000;0.621166
7988.000000;0.620692
7987.000000;0.620251
7986.000000;0.620060
7985.000000;0.620201
7984.000000;0.620533
7983.000000;0.620801
7982.000000;0.620853
7981.000000;0.620754
7980.000000;0.620654
7979.000000;0.620587
7978.000000;0.620470
7977.000000;0.620274
7976.000000;0.620102
7975.000000;0.620075
7974.000000;0.620206
7973.000000;0.620383
7972.000000;0.620441
7971.000000;0.620249
7970.000000;0.619821
7969.000000;0.619378
7968.000000;0.619202
7967.000000;0.619368
7966.000000;0.619648
7965.000000;0.619738
7964.000000;0.619554
7963.000000;0.619273
7962.000000;0.619118
7961.000000;0.619143
7960.000000;0.619204
7959.000000;0.619110
7958.000000;0.618817
7957.000000;0.618469
7956.000000;0.618250
7955.000000;0.618191
7954.000000;0.618167
7953.000000;0.618076
7952.000000;0.617961
7951.000000;0.617903
7950.000000;0.617888
7949.000000;0.617846
7948.000000;0.617762
7947.000000;0.617687
7946.000000;0.617641
7945.000000;0.617574
7944.000000;0.617448
7943.000000;0.617301
7942.000000;0.617226
7941.000000;0.617278
7940.000000;0.617414
7939.000000;0.617513
7938.000000;0.617484
7937.000000;0.617350
7936.000000;0.617213
7935.000000;0.617113
7934.000000;0.616965
7933.000000;0.616697
7932.000000;0.616399
7931.000000;0.616262
7930.000000;0.616346
7929.000000;0.616461
7928.000000;0.616358
7927.000000;0.616011
7926.000000;0.615669
7925.000000;0.615602
7924.000000;0.615821
7923.000000;0.616076
7922.000000;0.616144
7921.000000;0.616054
7920.000000;0.616017
7919.000000;0.616137
7918.000000;0.616281
7917.000000;0.616251
7916.000000;0.616025
7915.000000;0.615789
7914.000000;0.615724
7913.000000;0.615823
7912.000000;0.615915
7911.000000;0.615839
7910.000000;0.615556
7909.000000;0.615129
7908.000000;0.614640
7907.000000;0.614171
7906.000000;0.613823
7905.000000;0.613697
7904.000000;0.613828
7903.000000;0.614155
7902.000000;0.614564
7901.000000;0.614955
7900.000000;0.615253
7899.000000;0.615392
7898.000000;0.615325
7897.000000;0.615060
7896.000000;0.614673
7895.000000;0.614272
7894.000000;0.613952
7893.000000;0.613760
7892.000000;0.613662
7891.000000;0.613575
7890.000000;0.613449
7889.000000;0.613311
7888.000000;0.613221
7887.000000;0.613205
7886.000000;0.613239
7885.000000;0.613293
7884.000000;0.613352
7883.000000;0.613398
7882.000000;0.613412
7881.000000;0.613372
7880.000000;0.613247
7879.000000;0.613044
7878.000000;0.612855
7877.000000;0.612821
7876.000000;0.612958
7875.000000;0.613094
7874.000000;0.613034
7873.000000;0.612793
7872.000000;0.612571
7871.000000;0.612501
7870.000000;0.612500
7869.000000;0.612397
7868.000000;0.612135
7867.000000;0.611809
7866.000000;0.611566
7865.000000;0.611511
7864.000000;0.611641
7863.000000;0.611838
7862.000000;0.611949
7861.000000;0.611911
7860.000000;0.611792
7859.000000;0.611675
7858.000000;0.611564
7857.000000;0.611416
7856.000000;0.611231
7855.000000;0.611065
7854.000000;0.610970
7853.000000;0.610963
7852.000000;0.611031
7851.000000;0.611128
7850.000000;0.611189
7849.000000;0.611163
7848.000000;0.611053
7847.000000;0.610904
7846.000000;0.610766
7845.000000;0.610662
7844.000000;0.610579
7843.000000;0.610479
7842.000000;0.610340
7841.000000;0.610183
7840.000000;0.610033
7839.000000;0.609872
7838.000000;0.609685
7837.000000;0.609535
7836.000000;0.609547
7835.000000;0.609760
7834.000000;0.610055
7833.000000;0.610261
7832.000000;0.610309
7831.000000;0.610236
7830.000000;0.610082
7829.000000;0.609820
7828.000000;0.609433
7827.000000;0.609010
7826.000000;0.608737
7825.000000;0.608737
7824.000000;0.608918
7823.000000;0.609022
7822.000000;0.608873
7821.000000;0.608559
7820.000000;0.608307
7819.000000;0.608223
7818.000000;0.608230
7817.000000;0.608254
7816.000000;0.608339
7815.000000;0.608522
7814.000000;0.608686
7813.000000;0.608651
7812.000000;0.608395
7811.000000;0.608094
7810.000000;0.607922
7809.000000;0.607886
7808.000000;0.607879
7807.000000;0.607840
7806.000000;0.607804
7805.000000;0.607799
7804.000000;0.607770
7803.000000;0.607645
7802.000000;0.607471
7801.000000;0.607390
7800.000000;0.607449
7799.000000;0.607500
7798.000000;0.607345
7797.000000;0.606984
7796.000000;0.606631
7795.000000;0.606474
7794.000000;0.606487
7793.000000;0.606495
7792.000000;0.606387
7791.000000;0.606218
7790.000000;0.606123
7789.000000;0.606171
7788.000000;0.606275
7787.000000;0.606265
7786.000000;0.606054
7785.000000;0.605754
7784.000000;0.605569
7783.000000;0.605591
7782.000000;0.605749
7781.000000;0.605948
7780.000000;0.606166
7779.000000;0.606372
7778.000000;0.606437
7777.000000;0.606230
7776.000000;0.605769
7775.000000;0.605219
7774.000000;0.604761
7773.000000;0.604491
7772.000000;0.604428
7771.000000;0.604557
7770.000000;0.604823
7769.000000;0.605136
7768.000000;0.605384
7767.000000;0.605469
7766.000000;0.605364
7765.000000;0.605147
7764.000000;0.604943
7763.000000;0.604804
7762.000000;0.604664
7761.000000;0.604443
7760.000000;0.604158
7759.000000;0.603892
7758.000000;0.603690
7757.000000;0.603521
7756.000000;0.603342
7755.000000;0.603167
7754.000000;0.603072
7753.000000;0.603148
7752.000000;0.603424
7751.000000;0.603797
7750.000000;0.604055
7749.000000;0.604023
7748.000000;0.603713
7747.000000;0.603318
7746.000000;0.603051
7745.000000;0.602977
7744.000000;0.602995
7743.000000;0.602969
7742.000000;0.602871
7741.000000;0.602791
7740.000000;0.602801
7739.000000;0.602837
7738.000000;0.602773
7737.000000;0.602597
7736.000000;0.602450
7735.000000;0.602457
7734.000000;0.602577
7733.000000;0.602647
7732.000000;0.602570
7731.000000;0.602404
7730.000000;0.602286
7729.000000;0.602296
7728.000000;0.602394
7727.000000;0.602466
7726.000000;0.602427
7725.000000;0.602296
7724.000000;0.602143
7723.000000;0.601969
7722.000000;0.601679
7721.000000;0.601205
7720.000000;0.600646
7719.000000;0.600232
7718.000000;0.600131
7717.000000;0.600290
7716.000000;0.600493
7715.000000;0.600571
7714.000000;0.600565
7713.000000;0.600665
7712.000000;0.600977
7711.000000;0.601376
7710.000000;0.601633
7709.000000;0.601640
7708.000000;0.601471
7707.000000;0.601228
7706.000000;0.600920
7705.000000;0.600510
7704.000000;0.600032
7703.000000;0.599586
7702.000000;0.599273
7701.000000;0.599142
7700.000000;0.599179
7699.000000;0.599309
7698.000000;0.599436
7697.000000;0.599522
7696.000000;0.599590
7695.000000;0.599658
7694.000000;0.599690
7693.000000;0.599655
7692.000000;0.599567
7691.000000;0.599451
7690.000000;0.599310
7689.000000;0.599176
7688.000000;0.599126
7687.000000;0.599197
7686.000000;0.599309
7685.000000;0.599335
7684.000000;0.599219
7683.000000;0.599008
7682.000000;0.598769
7681.000000;0.598539
7680.000000;0.598328
7679.000000;0.598131
7678.000000;0.597955
7677.000000;0.597844
7676.000000;0.597860
7675.000000;0.598003
7674.000000;0.598176
7673.000000;0.598275
7672.000000;0.598283
7671.000000;0.598247
7670.000000;0.598194
7669.000000;0.598114
7668.000000;0.598004
7667.000000;0.597865
7666.000000;0.597673
7665.000000;0.597402
7664.000000;0.597090
7663.000000;0.596825
7662.000000;0.596676
7661.000000;0.596659
7660.000000;0.596773
7659.000000;0.597010
7658.000000;0.597315
7657.000000;0.597586
7656.000000;0.597716
7655.000000;0.597638
7654.000000;0.597331
7653.000000;0.596846
7652.000000;0.596318
7651.000000;0.595913
7650.000000;0.595732
7649.000000;0.595748
7648.000000;0.595827
7647.000000;0.595817
7646.000000;0.595669
7645.000000;0.595492
7644.000000;0.595458
7643.000000;0.595600
7642.000000;0.595745
7641.000000;0.595696
7640.000000;0.595466
7639.000000;0.595269
7638.000000;0.595270
7637.000000;0.595417
7636.000000;0.595542
7635.000000;0.595555
7634.000000;0.595506
7633.000000;0.595482
7632.000000;0.595492
7631.000000;0.595463
7630.000000;0.595323
7629.000000;0.595088
7628.000000;0.594863
7627.000000;0.594749
7626.000000;0.594752
7625.000000;0.594796
7624.000000;0.594819
7623.000000;0.594811
7622.000000;0.594778
7621.000000;0.594721
7620.000000;0.594662
7619.000000;0.594651
7618.000000;0.594707
7617.000000;0.594767
7616.000000;0.594736
7615.000000;0.594592
7614.000000;0.594405
7613.000000;0.594252
7612.000000;0.594137
7611.000000;0.594018
7610.000000;0.593896
7609.000000;0.593823
7608.000000;0.593839
7607.000000;0.593899
7606.000000;0.593914
7605.000000;0.593828
7604.000000;0.593639
7603.000000;0.593367
7602.000000;0.593036
7601.000000;0.592696
7600.000000;0.592424
7599.000000;0.592265
7598.000000;0.592194
7597.000000;0.592153
7596.000000;0.592116
7595.000000;0.592112
7594.000000;0.592192
7593.000000;0.592378
7592.000000;0.592623
7591.000000;0.592829
7590.000000;0.592922
7589.000000;0.592921
7588.000000;0.592900
7587.000000;0.592883
7586.000000;0.592800
7585.000000;0.592578
7584.000000;0.592250
7583.000000;0.591943
7582.000000;0.591748
7581.000000;0.591649
7580.000000;0.591560
7579.000000;0.591437
7578.000000;0.591327
7577.000000;0.591318
7576.000000;0.591433
7575.000000;0.591600
7574.000000;0.591724
7573.000000;0.591792
7572.000000;0.591863
7571.000000;0.591954
7570.000000;0.591978
7569.000000;0.591840
7568.000000;0.591566
7567.000000;0.591305
7566.000000;0.591175
7565.000000;0.591153
7564.000000;0.591119
7563.000000;0.591001
7562.000000;0.590841
7561.000000;0.590721
7560.000000;0.590649
7559.000000;0.590577
7558.000000;0.590527
7557.000000;0.590625
7556.000000;0.590934
7555.000000;0.591305
7554.000000;0.591483
7553.000000;0.591388
7552.000000;0.591199
7551.000000;0.591122
7550.000000;0.591141
7549.000000;0.591047
7548.000000;0.590722
7547.000000;0.590305
7546.000000;0.590053
7545.000000;0.590067
7544.000000;0.590176
7543.000000;0.590102
7542.000000;0.589764
7541.000000;0.589365
7540.000000;0.589173
7539.000000;0.589253
7538.000000;0.589467
7537.000000;0.589692
7536.000000;0.589925
7535.000000;0.590172
7534.000000;0.590336
7533.000000;0.590314
7532.000000;0.590135
7531.000000;0.589925
7530.000000;0.589766
7529.000000;0.589654
7528.000000;0.589571
7527.000000;0.589523
7526.000000;0.589503
7525.000000;0.589481
7524.000000;0.589423
7523.000000;0.589314
7522.000000;0.589157
7521.000000;0.588985
7520.000000;0.588848
7519.000000;0.588750
7518.000000;0.588631
7517.000000;0.588453
7516.000000;0.588279
7515.000000;0.588221
7514.000000;0.588307
7513.000000;0.588460
7512.000000;0.588586
7511.000000;0.588651
7510.000000;0.588648
7509.000000;0.588562
7508.000000;0.588389
7507.000000;0.588186
7506.000000;0.588069
7505.000000;0.588154
7504.000000;0.588465
7503.000000;0.588889
7502.000000;0.589228
7501.000000;0.589351
7500.000000;0.589301
7499.000000;0.589222
7498.000000;0.589195
7497.000000;0.589161
7496.000000;0.589010
7495.000000;0.588755
7494.000000;0.588544
7493.000000;0.588523
7492.000000;0.588618
7491.000000;0.588604
7490.000000;0.588300
7489.000000;0.587806
7488.000000;0.587440
7487.000000;0.587383
7486.000000;0.587521
7485.000000;0.587622
7484.000000;0.587626
7483.000000;0.587663
7482.000000;0.587832
7481.000000;0.588058
7480.000000;0.588189
7479.000000;0.588157
7478.000000;0.587994
7477.000000;0.587751
7476.000000;0.587442
7475.000000;0.587084
7474.000000;0.586765
7473.000000;0.586635
7472.000000;0.586797
7471.000000;0.587190
7470.000000;0.587619
7469.000000;0.587918
7468.000000;0.588066
7467.000000;0.588118
7466.000000;0.588068
7465.000000;0.587853
7464.000000;0.587488
7463.000000;0.587116
7462.000000;0.586877
7461.000000;0.586757
7460.000000;0.586625
7459.000000;0.586423
7458.000000;0.586277
7457.000000;0.586359
7456.000000;0.586656
7455.000000;0.586944
7454.000000;0.587046
7453.000000;0.587056
7452.000000;0.587225
7451.000000;0.587622
7450.000000;0.588016
7449.000000;0.588138
7448.000000;0.587987
7447.000000;0.587782
7446.000000;0.587670
7445.000000;0.587564
7444.000000;0.587286
7443.000000;0.586818
7442.000000;0.586369
7441.000000;0.586191
7440.000000;0.586325
7439.000000;0.586548
7438.000000;0.586592
7437.000000;0.586422
7436.000000;0.586235
7435.000000;0.586195
7434.000000;0.586265
7433.000000;0.586340
7432.000000;0.586451
7431.000000;0.586723
7430.000000;0.587159
7429.000000;0.587575
7428.000000;0.587759
7427.000000;0.587628
7426.000000;0.587245
7425.000000;0.586734
7424.000000;0.586235
7423.000000;0.585873
7422.000000;0.585742
7421.000000;0.585876
7420.000000;0.586222
7419.000000;0.586604
7418.000000;0.586784
7417.000000;0.586638
7416.000000;0.586281
7415.000000;0.585953
7414.000000;0.585799
7413.000000;0.585787
7412.000000;0.585835
7411.000000;0.585917
7410.000000;0.586045
7409.000000;0.586196
7408.000000;0.586317
7407.000000;0.586384
7406.000000;0.586420
7405.000000;0.586466
7404.000000;0.586533
7403.000000;0.586595
7402.000000;0.586606
7401.000000;0.586542
7400.000000;0.586441
7399.000000;0.586370
7398.000000;0.586378
7397.000000;0.586463
7396.000000;0.586569
7395.000000;0.586623
7394.000000;0.586582
7393.000000;0.586475
7392.000000;0.586381
7391.000000;0.586344
7390.000000;0.586317
7389.000000;0.586208
7388.000000;0.586016
7387.000000;0.585859
7386.000000;0.585877
7385.000000;0.586120
7384.000000;0.586532
7383.000000;0.587000
7382.000000;0.587415
7381.000000;0.587704
7380.000000;0.587837
7379.000000;0.587782
7378.000000;0.587493
7377.000000;0.587000
7376.000000;0.586495
7375.000000;0.586247
7374.000000;0.586389
7373.000000;0.586804
7372.000000;0.587212
7371.000000;0.587392
7370.000000;0.587332
7369.000000;0.587218
7368.000000;0.587247
7367.000000;0.587426
7366.000000;0.587570
7365.000000;0.587496
7364.000000;0.587203
7363.000000;0.586871
7362.000000;0.586735
7361.000000;0.586936
7360.000000;0.587419
7359.000000;0.587917
7358.000000;0.588092
7357.000000;0.587826
7356.000000;0.587377
7355.000000;0.587173
7354.000000;0.587405
7353.000000;0.587860
7352.000000;0.588111
7351.000000;0.587885
7350.000000;0.587285
7349.000000;0.586733
7348.000000;0.586616
7347.000000;0.586933
7346.000000;0.587311
7345.000000;0.587401
7344.000000;0.587219
7343.000000;0.587050
7342.000000;0.587119
7341.000000;0.587406
7340.000000;0.587743
7339.000000;0.587979
7338.000000;0.588085
7337.000000;0.588162
7336.000000;0.588361
7335.000000;0.588743
7334.000000;0.589215
7333.000000;0.589624
7332.000000;0.589868
7331.000000;0.589878
7330.000000;0.589591
7329.000000;0.589040
7328.000000;0.588426
7327.000000;0.587976
7326.000000;0.587761
7325.000000;0.587696
7324.000000;0.587685
7323.000000;0.587716
7322.000000;0.587850
7321.000000;0.588157
7320.000000;0.588627
7319.000000;0.589099
7318.000000;0.589379
7317.000000;0.589439
7316.000000;0.589419
7315.000000;0.589390
7314.000000;0.589222
7313.000000;0.588789
7312.000000;0.588243
7311.000000;0.587916
7310.000000;0.587927
7309.000000;0.588079
7308.000000;0.588198
7307.000000;0.588371
7306.000000;0.588757
7305.000000;0.589324
7304.000000;0.589848
7303.000000;0.590110
7302.000000;0.590069
7301.000000;0.589915
7300.000000;0.589936
7299.000000;0.590258
7298.000000;0.590671
7297.000000;0.590801
7296.000000;0.590498
7295.000000;0.590064
7294.000000;0.590026
7293.000000;0.590649
7292.000000;0.591681
7291.000000;0.592541
7290.000000;0.592761
7289.000000;0.592343
7288.000000;0.591745
7287.000000;0.591484
7286.000000;0.591674
7285.000000;0.592006
7284.000000;0.592145
7283.000000;0.592075
7282.000000;0.592034
7281.000000;0.592213
7280.000000;0.592566
7279.000000;0.592895
7278.000000;0.593043
7277.000000;0.593015
7276.000000;0.592943
7275.000000;0.592989
7274.000000;0.593233
7273.000000;0.593624
7272.000000;0.594041
7271.000000;0.594394
7270.000000;0.594667
7269.000000;0.594879
7268.000000;0.595034
7267.000000;0.595099
7266.000000;0.595047
7265.000000;0.594892
7264.000000;0.594684
7263.000000;0.594488
7262.000000;0.594392
7261.000000;0.594520
7260.000000;0.594977
7259.000000;0.595740
7258.000000;0.596623
7257.000000;0.597388
7256.000000;0.597927
7255.000000;0.598307
7254.000000;0.598617
7253.000000;0.598806
7252.000000;0.598711
7251.000000;0.598274
7250.000000;0.597717
7249.000000;0.597455
7248.000000;0.597792
7247.000000;0.598632
7246.000000;0.599468
7245.000000;0.599783
7244.000000;0.599551
7243.000000;0.599300
7242.000000;0.599544
7241.000000;0.600205
7240.000000;0.600719
7239.000000;0.600766
7238.000000;0.600732
7237.000000;0.601281
7236.000000;0.602546
7235.000000;0.603845
7234.000000;0.604335
7233.000000;0.603891
7232.000000;0.603225
7231.000000;0.603105
7230.000000;0.603601
7229.000000;0.604177
7228.000000;0.604451
7227.000000;0.604641
7226.000000;0.605237
7225.000000;0.606362
7224.000000;0.607563
7223.000000;0.608224
7222.000000;0.608143
7221.000000;0.607738
7220.000000;0.607642
7219.000000;0.608112
7218.000000;0.608886
7217.000000;0.609564
7216.000000;0.610002
7215.000000;0.610290
7214.000000;0.610514
7213.000000;0.610646
7212.000000;0.610660
7211.000000;0.610636
7210.000000;0.610684
7209.000000;0.610807
7208.000000;0.610931
7207.000000;0.611085
7206.000000;0.611458
7205.000000;0.612200
7204.000000;0.613197
7203.000000;0.614102
7202.000000;0.614638
7201.000000;0.614840
7200.000000;0.615008
7199.000000;0.615433
7198.000000;0.616184
7197.000000;0.617097
7196.000000;0.617906
7195.000000;0.618418
7194.000000;0.618657
7193.000000;0.618855
7192.000000;0.619230
7191.000000;0.619777
7190.000000;0.620282
7189.000000;0.620583
7188.000000;0.620808
7187.000000;0.621305
7186.000000;0.622274
7185.000000;0.623471
7184.000000;0.624329
7183.000000;0.624462
7182.000000;0.624055
7181.000000;0.623704
7180.000000;0.623790
7179.000000;0.624087
7178.000000;0.624120
7177.000000;0.623902
7176.000000;0.624125
7175.000000;0.625434
7174.000000;0.627562
7173.000000;0.629379
7172.000000;0.629954
7171.000000;0.629474
7170.000000;0.628949
7169.000000;0.629111
7168.000000;0.629778
7167.000000;0.630303
7166.000000;0.630491
7165.000000;0.630761
7164.000000;0.631442
7163.000000;0.632253
7162.000000;0.632726
7161.000000;0.632999
7160.000000;0.633847
7159.000000;0.635747
7158.000000;0.638094
7157.000000;0.639653
7156.000000;0.639794
7155.000000;0.639070
7154.000000;0.638470
7153.000000;0.638305
7152.000000;0.638124
7151.000000;0.637644
7150.000000;0.637389
7149.000000;0.638140
7148.000000;0.639944
7147.000000;0.641980
7146.000000;0.643398
7145.000000;0.644040
7144.000000;0.644239
7143.000000;0.644180
7142.000000;0.643769
7141.000000;0.643117
7140.000000;0.642789
7139.000000;0.643256
7138.000000;0.644198
7137.000000;0.644741
7136.000000;0.644501
7135.000000;0.644167
7134.000000;0.644807
7133.000000;0.646660
7132.000000;0.648793
7131.000000;0.650088
7130.000000;0.650411
7129.000000;0.650546
7128.000000;0.651005
7127.000000;0.651266
7126.000000;0.650526
7125.000000;0.649055
7124.000000;0.648224
7123.000000;0.649014
7122.000000;0.650845
7121.000000;0.652152
7120.000000;0.652086
7119.000000;0.651336
7118.000000;0.651208
7117.000000;0.652191
7116.000000;0.653502
7115.000000;0.654001
7114.000000;0.653427
7113.000000;0.652570
7112.000000;0.652272
7111.000000;0.652431
7110.000000;0.652144
7109.000000;0.650800
7108.000000;0.648767
7107.000000;0.646933
7106.000000;0.645848
7105.000000;0.645528
7104.000000;0.645850
7103.000000;0.646760
7102.000000;0.648107
7101.000000;0.649566
7100.000000;0.650805
7099.000000;0.651572
7098.000000;0.651608
7097.000000;0.650706
7096.000000;0.649005
7095.000000;0.647125
7094.000000;0.645868
7093.000000;0.645774
7092.000000;0.646826
7091.000000;0.648430
7090.000000;0.649729
7089.000000;0.650132
7088.000000;0.649532
7087.000000;0.647931
7086.000000;0.645151
7085.000000;0.641283
7084.000000;0.637320
7083.000000;0.634799
7082.000000;0.634540
7081.000000;0.635869
7080.000000;0.637216
7079.000000;0.637445
7078.000000;0.636643
7077.000000;0.635671
7076.000000;0.635101
7075.000000;0.634651
7074.000000;0.633554
7073.000000;0.631464
7072.000000;0.628891
7071.000000;0.626646
7070.000000;0.624981
7069.000000;0.623477
7068.000000;0.621745
7067.000000;0.620029
7066.000000;0.618985
7065.000000;0.618986
7064.000000;0.619740
7063.000000;0.620515
7062.000000;0.620603
7061.000000;0.619547
7060.000000;0.617017
7059.000000;0.612803
7058.000000;0.607311
7057.000000;0.602025
7056.000000;0.598889
7055.000000;0.598754
7054.000000;0.600426
7053.000000;0.601532
7052.000000;0.600613
7051.000000;0.598300
7050.000000;0.596305
7049.000000;0.595535
7048.000000;0.595275
7047.000000;0.593949
7046.000000;0.590718
7045.000000;0.586457
7044.000000;0.582858
7043.000000;0.580466
7042.000000;0.577911
7041.000000;0.573540
7040.000000;0.567749
7039.000000;0.562878
7038.000000;0.560591
7037.000000;0.560079
7036.000000;0.559279
7035.000000;0.557513
7034.000000;0.556037
7033.000000;0.555834
7032.000000;0.555839
7031.000000;0.553922
7030.000000;0.549442
7029.000000;0.544395
7028.000000;0.541607
7027.000000;0.541866
7026.000000;0.543161
7025.000000;0.542921
7024.000000;0.540888
7023.000000;0.539069
7022.000000;0.538920
7021.000000;0.539453
7020.000000;0.538329
7019.000000;0.534345
7018.000000;0.528407
7017.000000;0.522212
7016.000000;0.516742
7015.000000;0.512243
7014.000000;0.509018
7013.000000;0.507521
7012.000000;0.507569
7011.000000;0.507933
7010.000000;0.507060
7009.000000;0.504336
7008.000000;0.500513
7007.000000;0.496752
7006.000000;0.493439
7005.000000;0.490203
7004.000000;0.486987
7003.000000;0.484592
7002.000000;0.483768
7001.000000;0.484056
7000.000000;0.484064
6999.000000;0.482960
6998.000000;0.481276
6997.000000;0.479987
6996.000000;0.479071
6995.000000;0.477268
6994.000000;0.473214
6993.000000;0.466823
6992.000000;0.459543
6991.000000;0.453149
6990.000000;0.448366
6989.000000;0.444826
6988.000000;0.442194
6987.000000;0.440806
6986.000000;0.440882
6985.000000;0.441609
6984.000000;0.441658
6983.000000;0.440388
6982.000000;0.437931
6981.000000;0.434438
6980.000000;0.430041
6979.000000;0.425541
6978.000000;0.422279
6977.000000;0.420698
6976.000000;0.419350
6975.000000;0.416118
6974.000000;0.410600
6973.000000;0.404728
6972.000000;0.400814
6971.000000;0.399048
6970.000000;0.396925
6969.000000;0.391698
6968.000000;0.383790
6967.000000;0.376948
6966.000000;0.374581
6965.000000;0.376387
6964.000000;0.378778
6963.000000;0.378715
6962.000000;0.376618
6961.000000;0.374989
6960.000000;0.375209
6959.000000;0.376376
6958.000000;0.376504
6957.000000;0.374540
6956.000000;0.371427
6955.000000;0.369088
6954.000000;0.368159
6953.000000;0.366851
6952.000000;0.362704
6951.000000;0.355683
6950.000000;0.348647
6949.000000;0.344314
6948.000000;0.342555
6947.000000;0.341262
6946.000000;0.339180
6945.000000;0.336861
6944.000000;0.334956
6943.000000;0.332799
6942.000000;0.329344
6941.000000;0.324996
6940.000000;0.321743
6939.000000;0.321271
6938.000000;0.323016
6937.000000;0.324295
6936.000000;0.322920
6935.000000;0.319540
6934.000000;0.316554
6933.000000;0.315025
6932.000000;0.313517
6931.000000;0.310108
6930.000000;0.305115
6929.000000;0.301001
6928.000000;0.299594
6927.000000;0.300217
6926.000000;0.300566
6925.000000;0.299129
6924.000000;0.296616
6923.000000;0.294780
6922.000000;0.294041
6921.000000;0.292650
6920.000000;0.288529
6919.000000;0.281992
6918.000000;0.275858
6917.000000;0.272564
6916.000000;0.271976
6915.000000;0.272376
6914.000000;0.272865
6913.000000;0.273984
6912.000000;0.276261
6911.000000;0.279051
6910.000000;0.280785
6909.000000;0.279940
6908.000000;0.276017
6907.000000;0.270020
6906.000000;0.263896
6905.000000;0.259119
6904.000000;0.255730
6903.000000;0.253049
6902.000000;0.251169
6901.000000;0.251097
6900.000000;0.253302
6899.000000;0.256555
6898.000000;0.258286
6897.000000;0.256255
6896.000000;0.250476
6895.000000;0.243700
6894.000000;0.239469
6893.000000;0.239165
6892.000000;0.240989
6891.000000;0.242193
6890.000000;0.242039
6889.000000;0.241835
6888.000000;0.242278
6887.000000;0.241824
6886.000000;0.238250
6885.000000;0.231544
6884.000000;0.224612
6883.000000;0.220914
6882.000000;0.221562
6881.000000;0.224484
6880.000000;0.226503
6879.000000;0.226584
6878.000000;0.226648
6877.000000;0.228811
6876.000000;0.232308
6875.000000;0.233835
6874.000000;0.231173
6873.000000;0.225825
6872.000000;0.221339
6871.000000;0.219546
6870.000000;0.219017
6869.000000;0.217170
6868.000000;0.213689
6867.000000;0.211243
6866.000000;0.212551
6865.000000;0.217031
6864.000000;0.220880
6863.000000;0.220726
6862.000000;0.216773
6861.000000;0.211965
6860.000000;0.208741
6859.000000;0.207210
6858.000000;0.205968
6857.000000;0.204094
6856.000000;0.202487
6855.000000;0.203210
6854.000000;0.207102
6853.000000;0.211996
6852.000000;0.213991
6851.000000;0.211293
6850.000000;0.206379
6849.000000;0.203415
6848.000000;0.203954
6847.000000;0.206025
6846.000000;0.207189
6845.000000;0.207415
6844.000000;0.208434
6843.000000;0.211184
6842.000000;0.214633
6841.000000;0.216704
6840.000000;0.216110
6839.000000;0.213417
6838.000000;0.210370
6837.000000;0.208255
6836.000000;0.207037
6835.000000;0.206166
6834.000000;0.205895
6833.000000;0.207112
6832.000000;0.209865
6831.000000;0.212731
6830.000000;0.213948
6829.000000;0.212979
6828.000000;0.210759
6827.000000;0.208635
6826.000000;0.207243
6825.000000;0.206259
6824.000000;0.205084
6823.000000;0.203720
6822.000000;0.202846
6821.000000;0.203111
6820.000000;0.204484
6819.000000;0.206337
6818.000000;0.207925
6817.000000;0.208702
6816.000000;0.208468
6815.000000;0.207656
6814.000000;0.207318
6813.000000;0.208360
6812.000000;0.210711
6811.000000;0.213484
6810.000000;0.215806
6809.000000;0.217241
6808.000000;0.217612
6807.000000;0.216900
6806.000000;0.215475
6805.000000;0.214078
6804.000000;0.213366
6803.000000;0.213474
6802.000000;0.213996
6801.000000;0.214378
6800.000000;0.214476
6799.000000;0.214814
6798.000000;0.216038
6797.000000;0.217974
6796.000000;0.219607
6795.000000;0.220381
6794.000000;0.221112
6793.000000;0.222973
6792.000000;0.225670
6791.000000;0.227321
6790.000000;0.226551
6789.000000;0.224216
6788.000000;0.222479
6787.000000;0.222615
6786.000000;0.224204
6785.000000;0.226042
6784.000000;0.227334
6783.000000;0.228072
6782.000000;0.228597
6781.000000;0.229104
6780.000000;0.229559
6779.000000;0.229884
6778.000000;0.230070
6777.000000;0.230145
6776.000000;0.230206
6775.000000;0.230581
6774.000000;0.231751
6773.000000;0.233823
6772.000000;0.236128
6771.000000;0.237627
6770.000000;0.237881
6769.000000;0.237552
6768.000000;0.237788
6767.000000;0.239130
6766.000000;0.240975
6765.000000;0.242021
6764.000000;0.241437
6763.000000;0.239799
6762.000000;0.238757
6761.000000;0.239544
6760.000000;0.241838
6759.000000;0.244204
6758.000000;0.245605
6757.000000;0.246239
6756.000000;0.246848
6755.000000;0.247609
6754.000000;0.248040
6753.000000;0.247833
6752.000000;0.247415
6751.000000;0.247511
6750.000000;0.248340
6749.000000;0.249373
6748.000000;0.249837
6747.000000;0.249399
6746.000000;0.248488
6745.000000;0.247986
6744.000000;0.248586
6743.000000;0.250318
6742.000000;0.252544
6741.000000;0.254383
6740.000000;0.255304
6739.000000;0.255454
6738.000000;0.255457
6737.000000;0.255871
6736.000000;0.256826
6735.000000;0.258141
6734.000000;0.259678
6733.000000;0.261433
6732.000000;0.263344
6731.000000;0.265167
6730.000000;0.266585
6729.000000;0.267378
6728.000000;0.267506
6727.000000;0.267145
6726.000000;0.266670
6725.000000;0.266480
6724.000000;0.266746
6723.000000;0.267332
6722.000000;0.268020
6721.000000;0.268737
6720.000000;0.269523
6719.000000;0.270279
6718.000000;0.270677
6717.000000;0.270436
6716.000000;0.269726
6715.000000;0.269214
6714.000000;0.269578
6713.000000;0.270950
6712.000000;0.272867
6711.000000;0.274767
6710.000000;0.276388
6709.000000;0.277663
6708.000000;0.278486
6707.000000;0.278812
6706.000000;0.278948
6705.000000;0.279457
6704.000000;0.280645
6703.000000;0.282259
6702.000000;0.283730
6701.000000;0.284645
6700.000000;0.284949
6699.000000;0.284829
6698.000000;0.284479
6697.000000;0.284093
6696.000000;0.283984
6695.000000;0.284374
6694.000000;0.285195
6693.000000;0.286024
6692.000000;0.286435
6691.000000;0.286441
6690.000000;0.286502
6689.000000;0.287006
6688.000000;0.287861
6687.000000;0.288729
6686.000000;0.289573
6685.000000;0.290744
6684.000000;0.292477
6683.000000;0.294470
6682.000000;0.296077
6681.000000;0.296848
6680.000000;0.296831
6679.000000;0.296429
6678.000000;0.296080
6677.000000;0.296065
6676.000000;0.296467
6675.000000;0.297250
6674.000000;0.298328
6673.000000;0.299566
6672.000000;0.300756
6671.000000;0.301718
6670.000000;0.302445
6669.000000;0.303070
6668.000000;0.303647
6667.000000;0.304039
6666.000000;0.304114
6665.000000;0.303978
6664.000000;0.303912
6663.000000;0.304091
6662.000000;0.304486
6661.000000;0.305037
6660.000000;0.305768
6659.000000;0.306609
6658.000000;0.307220
6657.000000;0.307240
6656.000000;0.306792
6655.000000;0.306582
6654.000000;0.307325
6653.000000;0.309037
6652.000000;0.311026
6651.000000;0.312618
6650.000000;0.313794
6649.000000;0.314996
6648.000000;0.316364
6647.000000;0.317374
6646.000000;0.317366
6645.000000;0.316416
6644.000000;0.315490
6643.000000;0.315631
6642.000000;0.317010
6641.000000;0.318806
6640.000000;0.320013
6639.000000;0.320327
6638.000000;0.320189
6637.000000;0.320134
6636.000000;0.320267
6635.000000;0.320377
6634.000000;0.320346
6633.000000;0.320321
6632.000000;0.320560
6631.000000;0.321236
6630.000000;0.322343
6629.000000;0.323665
6628.000000;0.324834
6627.000000;0.325545
6626.000000;0.325793
6625.000000;0.325865
6624.000000;0.326064
6623.000000;0.326447
6622.000000;0.326853
6621.000000;0.327170
6620.000000;0.327552
6619.000000;0.328317
6618.000000;0.329580
6617.000000;0.331024
6616.000000;0.332127
6615.000000;0.332672
6614.000000;0.332962
6613.000000;0.333428
6612.000000;0.334113
6611.000000;0.334696
6610.000000;0.334985
6609.000000;0.335208
6608.000000;0.335730
6607.000000;0.336583
6606.000000;0.337391
6605.000000;0.337754
6604.000000;0.337629
6603.000000;0.337344
6602.000000;0.337281
6601.000000;0.337563
6600.000000;0.338050
6599.000000;0.338611
6598.000000;0.339321
6597.000000;0.340320
6596.000000;0.341497
6595.000000;0.342448
6594.000000;0.342809
6593.000000;0.342621
6592.000000;0.342274
6591.000000;0.342154
6590.000000;0.342381
6589.000000;0.342879
6588.000000;0.343576
6587.000000;0.344454
6586.000000;0.345432
6585.000000;0.346297
6584.000000;0.346843
6583.000000;0.347068
6582.000000;0.347208
6581.000000;0.347537
6580.000000;0.348146
6579.000000;0.348954
6578.000000;0.349852
6577.000000;0.350780
6576.000000;0.351651
6575.000000;0.352301
6574.000000;0.352581
6573.000000;0.352497
6572.000000;0.352236
6571.000000;0.352057
6570.000000;0.352160
6569.000000;0.352608
6568.000000;0.353340
6567.000000;0.354244
6566.000000;0.355240
6565.000000;0.356243
6564.000000;0.357077
6563.000000;0.357501
6562.000000;0.357422
6561.000000;0.357074
6560.000000;0.356880
6559.000000;0.357092
6558.000000;0.357592
6557.000000;0.358091
6556.000000;0.358494
6555.000000;0.358982
6554.000000;0.359715
6553.000000;0.360546
6552.000000;0.361146
6551.000000;0.361414
6550.000000;0.361649
6549.000000;0.362201
6548.000000;0.363018
6547.000000;0.363649
6546.000000;0.363726
6545.000000;0.363384
6544.000000;0.363139
6543.000000;0.363366
6542.000000;0.363991
6541.000000;0.364663
6540.000000;0.365186
6539.000000;0.365696
6538.000000;0.366412
6537.000000;0.367305
6536.000000;0.368102
6535.000000;0.368603
6534.000000;0.368895
6533.000000;0.369194
6532.000000;0.369585
6531.000000;0.369993
6530.000000;0.370362
6529.000000;0.370704
6528.000000;0.370986
6527.000000;0.371112
6526.000000;0.371103
6525.000000;0.371182
6524.000000;0.371584
6523.000000;0.372286
6522.000000;0.372985
6521.000000;0.373363
6520.000000;0.373366
6519.000000;0.373250
6518.000000;0.373362
6517.000000;0.373853
6516.000000;0.374579
6515.000000;0.375282
6514.000000;0.375858
6513.000000;0.376389
6512.000000;0.376941
6511.000000;0.377418
6510.000000;0.377694
6509.000000;0.377817
6508.000000;0.377988
6507.000000;0.378346
6506.000000;0.378834
6505.000000;0.379280
6504.000000;0.379549
6503.000000;0.379601
6502.000000;0.379459
6501.000000;0.379210
6500.000000;0.379047
6499.000000;0.379232
6498.000000;0.379937
6497.000000;0.381048
6496.000000;0.382187
6495.000000;0.382980
6494.000000;0.383340
6493.000000;0.383468
6492.000000;0.383599
6491.000000;0.383796
6490.000000;0.383985
6489.000000;0.384121
6488.000000;0.384272
6487.000000;0.384566
6486.000000;0.385071
6485.000000;0.385696
6484.000000;0.386229
6483.000000;0.386523
6482.000000;0.386666
6481.000000;0.386892
6480.000000;0.387295
6479.000000;0.387704
6478.000000;0.387882
6477.000000;0.387791
6476.000000;0.387610
6475.000000;0.387546
6474.000000;0.387690
6473.000000;0.388011
6472.000000;0.388414
6471.000000;0.388817
6470.000000;0.389213
6469.000000;0.389654
6468.000000;0.390146
6467.000000;0.390605
6466.000000;0.390961
6465.000000;0.391264
6464.000000;0.391630
6463.000000;0.392109
6462.000000;0.392672
6461.000000;0.393278
6460.000000;0.393870
6459.000000;0.394316
6458.000000;0.394478
6457.000000;0.394374
6456.000000;0.394231
6455.000000;0.394308
6454.000000;0.394681
6453.000000;0.395197
6452.000000;0.395613
6451.000000;0.395803
6450.000000;0.395856
6449.000000;0.395978
6448.000000;0.396235
6447.000000;0.396457
6446.000000;0.396449
6445.000000;0.396283
6444.000000;0.396275
6443.000000;0.396626
6442.000000;0.397175
6441.000000;0.397559
6440.000000;0.397594
6439.000000;0.397444
6438.000000;0.397430
6437.000000;0.397738
6436.000000;0.398299
6435.000000;0.398909
6434.000000;0.399427
6433.000000;0.399864
6432.000000;0.400276
6431.000000;0.400625
6430.000000;0.400787
6429.000000;0.400709
6428.000000;0.400536
6427.000000;0.400522
6426.000000;0.400820
6425.000000;0.401351
6424.000000;0.401888
6423.000000;0.402272
6422.000000;0.402548
6421.000000;0.402870
6420.000000;0.403273
6419.000000;0.403588
6418.000000;0.403627
6417.000000;0.403437
6416.000000;0.403299
6415.000000;0.403437
6414.000000;0.403788
6413.000000;0.404081
6412.000000;0.404152
6411.000000;0.404147
6410.000000;0.404385
6409.000000;0.405020
6408.000000;0.405835
6407.000000;0.406403
6406.000000;0.406480
6405.000000;0.406221
6404.000000;0.405986
6403.000000;0.405973
6402.000000;0.406109
6401.000000;0.406240
6400.000000;0.406329
6399.000000;0.406465
6398.000000;0.406753
6397.000000;0.407229
6396.000000;0.407808
6395.000000;0.408281
6394.000000;0.408434
6393.000000;0.408261
6392.000000;0.408027
6391.000000;0.408046
6390.000000;0.408390
6389.000000;0.408841
6388.000000;0.409142
6387.000000;0.409256
6386.000000;0.409375
6385.000000;0.409677
6384.000000;0.410116
6383.000000;0.410452
6382.000000;0.410511
6381.000000;0.410385
6380.000000;0.410314
6379.000000;0.410406
6378.000000;0.410545
6377.000000;0.410610
6376.000000;0.410707
6375.000000;0.411065
6374.000000;0.411730
6373.000000;0.412452
6372.000000;0.412920
6371.000000;0.413066
6370.000000;0.413067
6369.000000;0.413084
6368.000000;0.413060
6367.000000;0.412842
6366.000000;0.412473
6365.000000;0.412265
6364.000000;0.412499
6363.000000;0.413094
6362.000000;0.413667
6361.000000;0.413949
6360.000000;0.414055
6359.000000;0.414296
6358.000000;0.414763
6357.000000;0.415211
6356.000000;0.415332
6355.000000;0.415090
6354.000000;0.414751
6353.000000;0.414617
6352.000000;0.414764
6351.000000;0.415006
6350.000000;0.415108
6349.000000;0.415015
6348.000000;0.414873
6347.000000;0.414851
6346.000000;0.414994
6345.000000;0.415232
6344.000000;0.415484
6343.000000;0.415713
6342.000000;0.415906
6341.000000;0.416081
6340.000000;0.416279
6339.000000;0.416510
6338.000000;0.416702
6337.000000;0.416781
6336.000000;0.416790
6335.000000;0.416863
6334.000000;0.417048
6333.000000;0.417229
6332.000000;0.417265
6331.000000;0.417179
6330.000000;0.417143
6329.000000;0.417272
6328.000000;0.417495
6327.000000;0.417645
6326.000000;0.417641
6325.000000;0.417560
6324.000000;0.417524
6323.000000;0.417561
6322.000000;0.417587
6321.000000;0.417538
6320.000000;0.417485
6319.000000;0.417581
6318.000000;0.417899
6317.000000;0.418356
6316.000000;0.418806
6315.000000;0.419178
6314.000000;0.419476
6313.000000;0.419678
6312.000000;0.419708
6311.000000;0.419544
6310.000000;0.419323
6309.000000;0.419273
6308.000000;0.419512
6307.000000;0.419947
6306.000000;0.420358
6305.000000;0.420579
6304.000000;0.420578
6303.000000;0.420398
6302.000000;0.420077
6301.000000;0.419663
6300.000000;0.419260
6299.000000;0.419033
6298.000000;0.419110
6297.000000;0.419484
6296.000000;0.420012
6295.000000;0.420491
6294.000000;0.420771
6293.000000;0.420815
6292.000000;0.420698
6291.000000;0.420550
6290.000000;0.420477
6289.000000;0.420498
6288.000000;0.420544
6287.000000;0.420533
6286.000000;0.420474
6285.000000;0.420472
6284.000000;0.420614
6283.000000;0.420851
6282.000000;0.421027
6281.000000;0.421048
6280.000000;0.421009
6279.000000;0.421120
6278.000000;0.421479
6277.000000;0.421949
6276.000000;0.422274
6275.000000;0.422313
6274.000000;0.422147
6273.000000;0.421962
6272.000000;0.421853
6271.000000;0.421766
6270.000000;0.421610
6269.000000;0.421404
6268.000000;0.421298
6267.000000;0.421431
6266.000000;0.421787
6265.000000;0.422186
6264.000000;0.422445
6263.000000;0.422526
6262.000000;0.422536
6261.000000;0.422576
6260.000000;0.422630
6259.000000;0.422608
6258.000000;0.422482
6257.000000;0.422334
6256.000000;0.422266
6255.000000;0.422301
6254.000000;0.422379
6253.000000;0.422439
6252.000000;0.422468
6251.000000;0.422486
6250.000000;0.422517
6249.000000;0.422576
6248.000000;0.422675
6247.000000;0.422813
6246.000000;0.422972
6245.000000;0.423099
6244.000000;0.423116
6243.000000;0.422974
6242.000000;0.422729
6241.000000;0.422540
6240.000000;0.422536
6239.000000;0.422687
6238.000000;0.422838
6237.000000;0.422882
6236.000000;0.422881
6235.000000;0.422978
6234.000000;0.423213
6233.000000;0.423469
6232.000000;0.423585
6231.000000;0.423519
6230.000000;0.423367
6229.000000;0.423263
6228.000000;0.423255
6227.000000;0.423284
6226.000000;0.423254
6225.000000;0.423137
6224.000000;0.423015
6223.000000;0.423025
6222.000000;0.423239
6221.000000;0.423573
6220.000000;0.423814
6219.000000;0.423761
6218.000000;0.423390
6217.000000;0.422876
6216.000000;0.422447
6215.000000;0.422215
6214.000000;0.422149
6213.000000;0.422196
6212.000000;0.422392
6211.000000;0.422810
6210.000000;0.423418
6209.000000;0.424003
6208.000000;0.424283
6207.000000;0.424125
6206.000000;0.423670
6205.000000;0.423225
6204.000000;0.423025
6203.000000;0.423072
6202.000000;0.423216
6201.000000;0.423350
6200.000000;0.423504
6199.000000;0.423728
6198.000000;0.423949
6197.000000;0.424012
6196.000000;0.423858
6195.000000;0.423606
6194.000000;0.423431
6193.000000;0.423386
6192.000000;0.423389
6191.000000;0.423362
6190.000000;0.423336
6189.000000;0.423392
6188.000000;0.423534
6187.000000;0.423659
6186.000000;0.423659
6185.000000;0.423530
6184.000000;0.423361
6183.000000;0.423246
6182.000000;0.423198
6181.000000;0.423169
6180.000000;0.423105
6179.000000;0.422995
6178.000000;0.422871
6177.000000;0.422777
6176.000000;0.422738
6175.000000;0.422743
6174.000000;0.422765
6173.000000;0.422807
6172.000000;0.422920
6171.000000;0.423168
6170.000000;0.423531
6169.000000;0.423874
6168.000000;0.424023
6167.000000;0.423917
6166.000000;0.423667
6165.000000;0.423451
6164.000000;0.423356
6163.000000;0.423327
6162.000000;0.423266
6161.000000;0.423155
6160.000000;0.423071
6159.000000;0.423093
6158.000000;0.423206
6157.000000;0.423318
6156.000000;0.423351
6155.000000;0.423322
6154.000000;0.423305
6153.000000;0.423339
6152.000000;0.423377
6151.000000;0.423360
6150.000000;0.423304
6149.000000;0.423291
6148.000000;0.423356
6147.000000;0.423423
6146.000000;0.423370
6145.000000;0.423154
6144.000000;0.422863
6143.000000;0.422625
6142.000000;0.422494
6141.000000;0.422418
6140.000000;0.422338
6139.000000;0.422286
6138.000000;0.422372
6137.000000;0.422644
6136.000000;0.422991
6135.000000;0.423207
6134.000000;0.423172
6133.000000;0.422948
6132.000000;0.422703
6131.000000;0.422564
6130.000000;0.422548
6129.000000;0.422599
6128.000000;0.422654
6127.000000;0.422686
6126.000000;0.422705
6125.000000;0.422721
6124.000000;0.422725
6123.000000;0.422695
6122.000000;0.422629
6121.000000;0.422546
6120.000000;0.422450
6119.000000;0.422336
6118.000000;0.422231
6117.000000;0.422211
6116.000000;0.422318
6115.000000;0.422476
6114.000000;0.422539
6113.000000;0.422426
6112.000000;0.422203
6111.000000;0.422008
6110.000000;0.421921
6109.000000;0.421905
6108.000000;0.421868
6107.000000;0.421772
6106.000000;0.421678
6105.000000;0.421696
6104.000000;0.421873
6103.000000;0.422150
6102.000000;0.422410
6101.000000;0.422574
6100.000000;0.422626
6099.000000;0.422581
6098.000000;0.422463
6097.000000;0.422319
6096.000000;0.422222
6095.000000;0.422225
6094.000000;0.422308
6093.000000;0.422373
6092.000000;0.422324
6091.000000;0.422166
6090.000000;0.422014
6089.000000;0.421994
6088.000000;0.422100
6087.000000;0.422206
6086.000000;0.422189
6085.000000;0.422058
6084.000000;0.421918
6083.000000;0.421858
6082.000000;0.421898
6081.000000;0.422009
6080.000000;0.422144
6079.000000;0.422252
6078.000000;0.422302
6077.000000;0.422312
6076.000000;0.422327
6075.000000;0.422353
6074.000000;0.422341
6073.000000;0.422238
6072.000000;0.422058
6071.000000;0.421876
6070.000000;0.421766
6069.000000;0.421735
6068.000000;0.421725
6067.000000;0.421674
6066.000000;0.421582
6065.000000;0.421505
6064.000000;0.421494
6063.000000;0.421537
6062.000000;0.421578
6061.000000;0.421574
6060.000000;0.421520
6059.000000;0.421439
6058.000000;0.421374
6057.000000;0.421370
6056.000000;0.421426
6055.000000;0.421483
6054.000000;0.421480
6053.000000;0.421433
6052.000000;0.421429
6051.000000;0.421529
6050.000000;0.421714
6049.000000;0.421901
6048.000000;0.422010
6047.000000;0.422015
6046.000000;0.421960
6045.000000;0.421932
6044.000000;0.421972
6043.000000;0.422025
6042.000000;0.421990
6041.000000;0.421839
6040.000000;0.421644
6039.000000;0.421480
6038.000000;0.421332
6037.000000;0.421139
6036.000000;0.420903
6035.000000;0.420716
6034.000000;0.420688
6033.000000;0.420829
6032.000000;0.421035
6031.000000;0.421169
6030.000000;0.421195
6029.000000;0.421204
6028.000000;0.421298
6027.000000;0.421456
6026.000000;0.421548
6025.000000;0.421481
6024.000000;0.421299
6023.000000;0.421140
6022.000000;0.421103
6021.000000;0.421187
6020.000000;0.421313
6019.000000;0.421399
6018.000000;0.421422
6017.000000;0.421435
6016.000000;0.421497
6015.000000;0.421590
6014.000000;0.421635
6013.000000;0.421587
6012.000000;0.421501
6011.000000;0.421455
6010.000000;0.421457
6009.000000;0.421449
6008.000000;0.421393
6007.000000;0.421328
6006.000000;0.421346
6005.000000;0.421504
6004.000000;0.421762
6003.000000;0.421980
6002.000000;0.422020
6001.000000;0.421860
6000.000000;0.421613
5999.000000;0.421406
5998.000000;0.421270
5997.000000;0.421152
5996.000000;0.421012
5995.000000;0.420883
5994.000000;0.420823
5993.000000;0.420847
5992.000000;0.420913
5991.000000;0.420958
5990.000000;0.420955
5989.000000;0.420925
5988.000000;0.420900
5987.000000;0.420874
5986.000000;0.420819
5985.000000;0.420756
5984.000000;0.420767
5983.000000;0.420906
5982.000000;0.421104
5981.000000;0.421219
5980.000000;0.421192
5979.000000;0.421119
5978.000000;0.421138
5977.000000;0.421273
5976.000000;0.421391
5975.000000;0.421354
5974.000000;0.421196
5973.000000;0.421126
5972.000000;0.421322
5971.000000;0.421718
5970.000000;0.422040
5969.000000;0.422066
5968.000000;0.421835
5967.000000;0.421581
5966.000000;0.421482
5965.000000;0.421515
5964.000000;0.421540
5963.000000;0.421477
5962.000000;0.421377
5961.000000;0.421348
5960.000000;0.421439
5959.000000;0.421588
5958.000000;0.421676
5957.000000;0.421630
5956.000000;0.421489
5955.000000;0.421350
5954.000000;0.421282
5953.000000;0.421268
5952.000000;0.421247
5951.000000;0.421181
5950.000000;0.421108
5949.000000;0.421128
5948.000000;0.421320
5947.000000;0.421651
5946.000000;0.421975
5945.000000;0.422155
5944.000000;0.422170
5943.000000;0.422093
5942.000000;0.421967
5941.000000;0.421760
5940.000000;0.421449
5939.000000;0.421122
5938.000000;0.420942
5937.000000;0.421024
5936.000000;0.421331
5935.000000;0.421703
5934.000000;0.421959
5933.000000;0.422014
5932.000000;0.421909
5931.000000;0.421749
5930.000000;0.421629
5929.000000;0.421605
5928.000000;0.421699
5927.000000;0.421891
5926.000000;0.422106
5925.000000;0.422240
5924.000000;0.422245
5923.000000;0.422152
5922.000000;0.422025
5921.000000;0.421891
5920.000000;0.421765
5919.000000;0.421700
5918.000000;0.421772
5917.000000;0.421980
5916.000000;0.422208
5915.000000;0.422313
5914.000000;0.422272
5913.000000;0.422198
5912.000000;0.422214
5911.000000;0.422320
5910.000000;0.422412
5909.000000;0.422413
5908.000000;0.422365
5907.000000;0.422345
5906.000000;0.422338
5905.000000;0.422256
5904.000000;0.422082
5903.000000;0.421956
5902.000000;0.422042
5901.000000;0.422322
5900.000000;0.422573
5899.000000;0.422574
5898.000000;0.422324
5897.000000;0.422025
5896.000000;0.421855
5895.000000;0.421789
5894.000000;0.421678
5893.000000;0.421471
5892.000000;0.421317
5891.000000;0.421404
5890.000000;0.421729
5889.000000;0.422087
5888.000000;0.422271
5887.000000;0.422260
5886.000000;0.422162
5885.000000;0.422043
5884.000000;0.421889
5883.000000;0.421707
5882.000000;0.421601
5881.000000;0.421687
5880.000000;0.421950
5879.000000;0.422244
5878.000000;0.422411
5877.000000;0.422394
5876.000000;0.422231
5875.000000;0.421975
5874.000000;0.421659
5873.000000;0.421337
5872.000000;0.421113
5871.000000;0.421091
5870.000000;0.421290
5869.000000;0.421616
5868.000000;0.421949
5867.000000;0.422229
5866.000000;0.422437
5865.000000;0.422523
5864.000000;0.422424
5863.000000;0.422169
5862.000000;0.421920
5861.000000;0.421833
5860.000000;0.421903
5859.000000;0.421984
5858.000000;0.421972
5857.000000;0.421911
5856.000000;0.421908
5855.000000;0.421991
5854.000000;0.422076
5853.000000;0.422074
5852.000000;0.421994
5851.000000;0.421927
5850.000000;0.421942
5849.000000;0.422016
5848.000000;0.422080
5847.000000;0.422130
5846.000000;0.422243
5845.000000;0.422464
5844.000000;0.422706
5843.000000;0.422817
5842.000000;0.422755
5841.000000;0.422622
5840.000000;0.422521
5839.000000;0.422423
5838.000000;0.422235
5837.000000;0.421970
5836.000000;0.421789
5835.000000;0.421843
5834.000000;0.422116
5833.000000;0.422428
5832.000000;0.422603
5831.000000;0.422614
5830.000000;0.422575
5829.000000;0.422578
5828.000000;0.422592
5827.000000;0.422536
5826.000000;0.422439
5825.000000;0.422444
5824.000000;0.422630
5823.000000;0.422885
5822.000000;0.423010
5821.000000;0.422927
5820.000000;0.422737
5819.000000;0.422574
5818.000000;0.422472
5817.000000;0.422395
5816.000000;0.422345
5815.000000;0.422393
5814.000000;0.422591
5813.000000;0.422879
5812.000000;0.423099
5811.000000;0.423132
5810.000000;0.423013
5809.000000;0.422900
5808.000000;0.422901
5807.000000;0.422960
5806.000000;0.422949
5805.000000;0.422839
5804.000000;0.422740
5803.000000;0.422760
5802.000000;0.422882
5801.000000;0.423000
5800.000000;0.423037
5799.000000;0.423010
5798.000000;0.422979
5797.000000;0.422983
5796.000000;0.423006
5795.000000;0.422992
5794.000000;0.422905
5793.000000;0.422763
5792.000000;0.422629
5791.000000;0.422543
5790.000000;0.422499
5789.000000;0.422474
5788.000000;0.422474
5787.000000;0.422544
5786.000000;0.422722
5785.000000;0.422993
5784.000000;0.423263
5783.000000;0.423413
5782.000000;0.423390
5781.000000;0.423270
5780.000000;0.423182
5779.000000;0.423191
5778.000000;0.423250
5777.000000;0.423280
5776.000000;0.423271
5775.000000;0.423279
5774.000000;0.423350
5773.000000;0.423457
5772.000000;0.423508
5771.000000;0.423420
5770.000000;0.423191
5769.000000;0.422913
5768.000000;0.422697
5767.000000;0.422593
5766.000000;0.422576
5765.000000;0.422615
5764.000000;0.422699
5763.000000;0.422803
5762.000000;0.422867
5761.000000;0.422844
5760.000000;0.422756
5759.000000;0.422666
5758.000000;0.422613
5757.000000;0.422575
5756.000000;0.422516
5755.000000;0.422433
5754.000000;0.422374
5753.000000;0.422384
5752.000000;0.422459
5751.000000;0.422546
5750.000000;0.422606
5749.000000;0.422659
5748.000000;0.422744
5747.000000;0.422852
5746.000000;0.422929
5745.000000;0.422948
5744.000000;0.422947
5743.000000;0.422972
5742.000000;0.423024
5741.000000;0.423087
5740.000000;0.423169
5739.000000;0.423279
5738.000000;0.423352
5737.000000;0.423261
5736.000000;0.422927
5735.000000;0.422427
5734.000000;0.421960
5733.000000;0.421691
5732.000000;0.421623
5731.000000;0.421644
5730.000000;0.421681
5729.000000;0.421775
5728.000000;0.421989
5727.000000;0.422270
5726.000000;0.422460
5725.000000;0.422443
5724.000000;0.422257
5723.000000;0.422040
5722.000000;0.421893
5721.000000;0.421815
5720.000000;0.421743
5719.000000;0.421622
5718.000000;0.421462
5717.000000;0.421333
5716.000000;0.421298
5715.000000;0.421353
5714.000000;0.421436
5713.000000;0.421503
5712.000000;0.421560
5711.000000;0.421620
5710.000000;0.421671
5709.000000;0.421706
5708.000000;0.421749
5707.000000;0.421810
5706.000000;0.421852
5705.000000;0.421817
5704.000000;0.421707
5703.000000;0.421583
5702.000000;0.421501
5701.000000;0.421464
5700.000000;0.421435
5699.000000;0.421389
5698.000000;0.421338
5697.000000;0.421336
5696.000000;0.421417
5695.000000;0.421543
5694.000000;0.421609
5693.000000;0.421552
5692.000000;0.421381
5691.000000;0.421175
5690.000000;0.421004
5689.000000;0.420910
5688.000000;0.420918
5687.000000;0.421030
5686.000000;0.421206
5685.000000;0.421371
5684.000000;0.421449
5683.000000;0.421400
5682.000000;0.421224
5681.000000;0.420971
5680.000000;0.420716
5679.000000;0.420515
5678.000000;0.420400
5677.000000;0.420410
5676.000000;0.420591
5675.000000;0.420920
5674.000000;0.421261
5673.000000;0.421445
5672.000000;0.421408
5671.000000;0.421207
5670.000000;0.420926
5669.000000;0.420606
5668.000000;0.420291
5667.000000;0.420072
5666.000000;0.420039
5665.000000;0.420193
5664.000000;0.420434
5663.000000;0.420646
5662.000000;0.420784
5661.000000;0.420896
5660.000000;0.421067
5659.000000;0.421334
5658.000000;0.421640
5657.000000;0.421877
5656.000000;0.421968
5655.000000;0.421913
5654.000000;0.421767
5653.000000;0.421596
5652.000000;0.421450
5651.000000;0.421363
5650.000000;0.421357
5649.000000;0.421440
5648.000000;0.421588
5647.000000;0.421724
5646.000000;0.421741
5645.000000;0.421583
5644.000000;0.421309
5643.000000;0.421083
5642.000000;0.421069
5641.000000;0.421326
5640.000000;0.421771
5639.000000;0.422234
5638.000000;0.422565
5637.000000;0.422716
5636.000000;0.422733
5635.000000;0.422694
5634.000000;0.422651
5633.000000;0.422634
5632.000000;0.422671
5631.000000;0.422761
5630.000000;0.422857
5629.000000;0.422911
5628.000000;0.422936
5627.000000;0.422990
5626.000000;0.423100
5625.000000;0.423224
5624.000000;0.423310
5623.000000;0.423361
5622.000000;0.423412
5621.000000;0.423474
5620.000000;0.423499
5619.000000;0.423453
5618.000000;0.423394
5617.000000;0.423478
5616.000000;0.423824
5615.000000;0.424364
5614.000000;0.424863
5613.000000;0.425132
5612.000000;0.425200
5611.000000;0.425235
5610.000000;0.425311
5609.000000;0.425334
5608.000000;0.425190
5607.000000;0.424921
5606.000000;0.424703
5605.000000;0.424662
5604.000000;0.424776
5603.000000;0.424940
5602.000000;0.425108
5601.000000;0.425336
5600.000000;0.425680
5599.000000;0.426069
5598.000000;0.426328
5597.000000;0.426358
5596.000000;0.426262
5595.000000;0.426236
5594.000000;0.426356
5593.000000;0.426516
5592.000000;0.426598
5591.000000;0.426633
5590.000000;0.426749
5589.000000;0.427000
5588.000000;0.427295
5587.000000;0.427501
5586.000000;0.427592
5585.000000;0.427679
5584.000000;0.427894
5583.000000;0.428243
5582.000000;0.428580
5581.000000;0.428749
5580.000000;0.428752
5579.000000;0.428744
5578.000000;0.428848
5577.000000;0.429015
5576.000000;0.429094
5575.000000;0.429024
5574.000000;0.428889
5573.000000;0.428826
5572.000000;0.428893
5571.000000;0.429068
5570.000000;0.429310
5569.000000;0.429614
5568.000000;0.429967
5567.000000;0.430297
5566.000000;0.430487
5565.000000;0.430477
5564.000000;0.430334
5563.000000;0.430186
5562.000000;0.430080
5561.000000;0.429967
5560.000000;0.429846
5559.000000;0.429852
5558.000000;0.430129
5557.000000;0.430630
5556.000000;0.431101
5555.000000;0.431292
5554.000000;0.431172
5553.000000;0.430926
5552.000000;0.430779
5551.000000;0.430807
5550.000000;0.430913
5549.000000;0.430970
5548.000000;0.431006
5547.000000;0.431207
5546.000000;0.431710
5545.000000;0.432421
5544.000000;0.433078
5543.000000;0.433486
5542.000000;0.433659
5541.000000;0.433710
5540.000000;0.433696
5539.000000;0.433595
5538.000000;0.433397
5537.000000;0.433164
5536.000000;0.432984
5535.000000;0.432904
5534.000000;0.432910
5533.000000;0.432968
5532.000000;0.433049
5531.000000;0.433134
5530.000000;0.433203
5529.000000;0.433259
5528.000000;0.433344
5527.000000;0.433506
5526.000000;0.433719
5525.000000;0.433878
5524.000000;0.433900
5523.000000;0.433820
5522.000000;0.433760
5521.000000;0.433791
5520.000000;0.433861
5519.000000;0.433885
5518.000000;0.433864
5517.000000;0.433892
5516.000000;0.434044
5515.000000;0.434291
5514.000000;0.434534
5513.000000;0.434727
5512.000000;0.434921
5511.000000;0.435162
5510.000000;0.435384
5509.000000;0.435466
5508.000000;0.435395
5507.000000;0.435309
5506.000000;0.435328
5505.000000;0.435410
5504.000000;0.435438
5503.000000;0.435400
5502.000000;0.435410
5501.000000;0.435556
5500.000000;0.435779
5499.000000;0.435946
5498.000000;0.435971
5497.000000;0.435865
5496.000000;0.435715
5495.000000;0.435641
5494.000000;0.435714
5493.000000;0.435881
5492.000000;0.435995
5491.000000;0.435986
5490.000000;0.436012
5489.000000;0.436332
5488.000000;0.437008
5487.000000;0.437756
5486.000000;0.438190
5485.000000;0.438203
5484.000000;0.438043
5483.000000;0.438012
5482.000000;0.438155
5481.000000;0.438279
5480.000000;0.438200
5479.000000;0.437901
5478.000000;0.437533
5477.000000;0.437320
5476.000000;0.437473
5475.000000;0.438009
5474.000000;0.438627
5473.000000;0.438931
5472.000000;0.438885
5471.000000;0.438858
5470.000000;0.439140
5469.000000;0.439507
5468.000000;0.439472
5467.000000;0.438882
5466.000000;0.438119
5465.000000;0.437708
5464.000000;0.437847
5463.000000;0.438344
5462.000000;0.438886
5461.000000;0.439324
5460.000000;0.439681
5459.000000;0.439995
5458.000000;0.440228
5457.000000;0.440329
5456.000000;0.440314
5455.000000;0.440243
5454.000000;0.440143
5453.000000;0.440034
5452.000000;0.440009
5451.000000;0.440175
5450.000000;0.440504
5449.000000;0.440787
5448.000000;0.440811
5447.000000;0.440599
5446.000000;0.440444
5445.000000;0.440619
5444.000000;0.441071
5443.000000;0.441513
5442.000000;0.441838
5441.000000;0.442258
5440.000000;0.442908
5439.000000;0.443532
5438.000000;0.443732
5437.000000;0.443641
5436.000000;0.443526
5435.000000;0.443818
5434.000000;0.443699
5433.000000;0.442227
5432.000000;0.442615
5431.000000;0.442831
5430.000000;0.443009
5429.000000;0.443563
5428.000000;0.443959
5427.000000;0.443856
5426.000000;0.443496
5425.000000;0.443493
5424.000000;0.444148
5423.000000;0.445086
5422.000000;0.445625
5421.000000;0.445495
5420.000000;0.445036
5419.000000;0.444772
5418.000000;0.444907
5417.000000;0.445221
5416.000000;0.445410
5415.000000;0.445418
5414.000000;0.445423
5413.000000;0.445544
5412.000000;0.445710
5411.000000;0.445869
5410.000000;0.446187
5409.000000;0.446905
5408.000000;0.448017
5407.000000;0.449268
5406.000000;0.450420
5405.000000;0.451370
5404.000000;0.452012
5403.000000;0.452184
5402.000000;0.451849
5401.000000;0.451230
5400.000000;0.450683
5399.000000;0.450452
5398.000000;0.450563
5397.000000;0.450895
5396.000000;0.451297
5395.000000;0.451653
5394.000000;0.452012
5393.000000;0.452547
5392.000000;0.453316
5391.000000;0.454157
5390.000000;0.454855
5389.000000;0.455335
5388.000000;0.455661
5387.000000;0.455969
5386.000000;0.456402
5385.000000;0.456996
5384.000000;0.457641
5383.000000;0.458233
5382.000000;0.458804
5381.000000;0.459430
5380.000000;0.460014
5379.000000;0.460332
5378.000000;0.460393
5377.000000;0.460595
5376.000000;0.461312
5375.000000;0.462421
5374.000000;0.463491
5373.000000;0.464338
5372.000000;0.465164
5371.000000;0.466133
5370.000000;0.467093
5369.000000;0.467804
5368.000000;0.468256
5367.000000;0.468686
5366.000000;0.469365
5365.000000;0.470346
5364.000000;0.471371
5363.000000;0.472082
5362.000000;0.472406
5361.000000;0.472730
5360.000000;0.473575
5359.000000;0.475057
5358.000000;0.476711
5357.000000;0.477949
5356.000000;0.478637
5355.000000;0.479236
5354.000000;0.480352
5353.000000;0.482125
5352.000000;0.484101
5351.000000;0.485827
5350.000000;0.487455
5349.000000;0.489384
5348.000000;0.491341
5347.000000;0.492363
5346.000000;0.492024
5345.000000;0.491322
5344.000000;0.491789
5343.000000;0.493720
5342.000000;0.495831
5341.000000;0.497006
5340.000000;0.497729
5339.000000;0.499427
5338.000000;0.502674
5337.000000;0.506370
5336.000000;0.508786
5335.000000;0.509310
5334.000000;0.508890
5333.000000;0.508904
5332.000000;0.509911
5331.000000;0.511466
5330.000000;0.512891
5329.000000;0.514068
5328.000000;0.515446
5327.000000;0.517332
5326.000000;0.519394
5325.000000;0.520899
5324.000000;0.521325
5323.000000;0.520800
5322.000000;0.520107
5321.000000;0.520189
5320.000000;0.521447
5319.000000;0.523259
5318.000000;0.524170
5317.000000;0.522872
5316.000000;0.519224
5315.000000;0.514155
5314.000000;0.508406
5313.000000;0.501502
5312.000000;0.492455
5311.000000;0.481749
5310.000000;0.471962
5309.000000;0.465693
5308.000000;0.463017
5307.000000;0.461190
5306.000000;0.457205
5305.000000;0.450379
5304.000000;0.441167
5303.000000;0.427992
5302.000000;0.407709
5301.000000;0.380655
5300.000000;0.353989
5299.000000;0.338398
5298.000000;0.341805
5297.000000;0.365124
5296.000000;0.401257
5295.000000;0.440875
5294.000000;0.482312
5293.000000;0.529180
5292.000000;0.577288
5291.000000;0.614927
5290.000000;0.640296
5289.000000;0.666995
5288.000000;0.708278
5287.000000;0.764126
5286.000000;0.820233
5285.000000;0.857016
5284.000000;0.868453
5283.000000;0.870374
5282.000000;0.881251
5281.000000;0.898116
5280.000000;0.897503
5279.000000;0.869607
5278.000000;0.837487
5277.000000;0.827451
5276.000000;0.842518
5275.000000;0.864909
5274.000000;0.877143
5273.000000;0.882609
5272.000000;0.897802
5271.000000;0.929227
5270.000000;0.963640
5269.000000;0.976792
5268.000000;0.961176
5267.000000;0.938328
5266.000000;0.931792
5265.000000;0.942750
5264.000000;0.957045
5263.000000;0.965756
5262.000000;0.969642
5261.000000;0.978625
5260.000000;1.001406
5259.000000;1.030172
5258.000000;1.057680
5257.000000;1.084561
5256.000000;1.094349
5255.000000;1.070835
5254.000000;1.025481
5253.000000;0.982409
5252.000000;0.961627
5251.000000;0.963236
5250.000000;0.968550
5249.000000;0.964075
5248.000000;0.952020
5247.000000;0.949466
5246.000000;0.981375
5245.000000;1.053949
5244.000000;1.132380
5243.000000;1.162717
5242.000000;1.144311
5241.000000;1.123180
5240.000000;1.117371
5239.000000;1.103544
5238.000000;1.059125
5237.000000;0.999148
5236.000000;0.956256
5235.000000;0.951588
5234.000000;0.990952
5233.000000;1.065238
5232.000000;1.149238
5231.000000;1.215208
5230.000000;1.260663
5229.000000;1.287370
5228.000000;1.264573
5227.000000;1.180057
5226.000000;1.069503
5225.000000;0.975374
5224.000000;0.918545
5223.000000;0.897512
5222.000000;0.902036
5221.000000;0.919435
5220.000000;0.935001
5219.000000;0.939254
5218.000000;0.933561
5217.000000;0.925021
5216.000000;0.918389
5215.000000;0.916942
5214.000000;0.931605
5213.000000;0.976482
5212.000000;1.054786
5211.000000;1.154464
5210.000000;1.254631
5209.000000;1.304855
5208.000000;1.234533
5207.000000;1.097575
5206.000000;0.984006
5205.000000;0.920339
5204.000000;0.907291
5203.000000;0.934376
5202.000000;0.981364
5201.000000;1.022407
5200.000000;1.037810
5199.000000;1.026051
5198.000000;0.994618
5197.000000;0.949608
5196.000000;0.906179
5195.000000;0.889315
5194.000000;0.916546
5193.000000;0.980831
5192.000000;1.035735
5191.000000;1.033258
5190.000000;0.997858
5189.000000;0.984484
5188.000000;1.017086
5187.000000;1.078452
5186.000000;1.116015
5185.000000;1.094760
5184.000000;1.049663
5183.000000;1.027824
5182.000000;1.036292
5181.000000;1.044175
5180.000000;1.013710
5179.000000;0.960978
5178.000000;0.933576
5177.000000;0.949445
5176.000000;0.985898
5175.000000;0.994133
5174.000000;0.965174
5173.000000;0.940017
5172.000000;0.938490
5171.000000;0.951876
5170.000000;0.965852
5169.000000;0.969530
5168.000000;0.962255
5167.000000;0.952277
5166.000000;0.948148
5165.000000;0.959374
5164.000000;0.997005
5163.000000;1.064416
5162.000000;1.140467
5161.000000;1.168412
5160.000000;1.110922
5159.000000;1.016969
5158.000000;0.950920
5157.000000;0.933332
5156.000000;0.942728
5155.000000;0.932014
5154.000000;0.889781
5153.000000;0.856288
5152.000000;0.858340
5151.000000;0.887995
5150.000000;0.913796
5149.000000;0.915762
5148.000000;0.917007
5147.000000;0.949152
5146.000000;1.018002
5145.000000;1.093293
5144.000000;1.116110
5143.000000;1.069985
5142.000000;1.000545
5141.000000;0.949260
5140.000000;0.931501
5139.000000;0.933096
5138.000000;0.920308
5137.000000;0.887039
5136.000000;0.860648
5135.000000;0.859112
5134.000000;0.882615
5133.000000;0.921944
5132.000000;0.963695
5131.000000;0.994764
5130.000000;1.006510
5129.000000;0.999567
5128.000000;0.983580
5127.000000;0.971279
5126.000000;0.972679
5125.000000;0.993003
5124.000000;1.029742
5123.000000;1.065461
5122.000000;1.068629
5121.000000;1.023638
5120.000000;0.955187
5119.000000;0.903926
5118.000000;0.894157
5117.000000;0.925678
5116.000000;0.964263
5115.000000;0.959153
5114.000000;0.925918
5113.000000;0.920333
5112.000000;0.963593
5111.000000;1.040294
5110.000000;1.106125
5109.000000;1.125083
5108.000000;1.103992
5107.000000;1.062755
5106.000000;1.013919
5105.000000;0.962953
5104.000000;0.916161
5103.000000;0.886908
5102.000000;0.888154
5101.000000;0.924166
5100.000000;0.984714
5099.000000;1.049486
5098.000000;1.097027
5097.000000;1.079913
5096.000000;0.989177
5095.000000;0.898242
5094.000000;0.855506
5093.000000;0.871452
5092.000000;0.941056
5091.000000;1.045507
5090.000000;1.153514
5089.000000;1.234760
5088.000000;1.268747
5087.000000;1.228644
5086.000000;1.129080
5085.000000;1.030631
5084.000000;0.967630
5083.000000;0.940932
5082.000000;0.930916
5081.000000;0.913479
5080.000000;0.887680
5079.000000;0.872829
5078.000000;0.879399
5077.000000;0.890178
5076.000000;0.873985
5075.000000;0.836305
5074.000000;0.814418
5073.000000;0.831121
5072.000000;0.884664
5071.000000;0.950057
5070.000000;0.992403
5069.000000;1.004246
5068.000000;1.005112
5067.000000;1.006826
5066.000000;1.009022
5065.000000;1.009526
5064.000000;1.008366
5063.000000;1.006647
5062.000000;1.004858
5061.000000;1.003586
5060.000000;1.004054
5059.000000;1.001275
5058.000000;0.980891
5057.000000;0.941745
5056.000000;0.904174
5055.000000;0.886775
5054.000000;0.893574
5053.000000;0.911307
5052.000000;0.918860
5051.000000;0.909781
5050.000000;0.896872
5049.000000;0.894954
5048.000000;0.900961
5047.000000;0.893591
5046.000000;0.867645
5045.000000;0.845119
5044.000000;0.843243
5043.000000;0.863198
5042.000000;0.900301
5041.000000;0.948198
5040.000000;0.990040
5039.000000;1.000743
5038.000000;0.971461
5037.000000;0.920057
5036.000000;0.876823
5035.000000;0.863396
5034.000000;0.884990
5033.000000;0.925751
5032.000000;0.954535
5031.000000;0.961717
5030.000000;0.956308
5029.000000;0.940263
5028.000000;0.914501
5027.000000;0.873860
5026.000000;0.823114
5025.000000;0.789212
5024.000000;0.794667
5023.000000;0.843266
5022.000000;0.915042
5021.000000;0.963656
5020.000000;0.968699
5019.000000;0.951931
5018.000000;0.911680
5017.000000;0.847808
5016.000000;0.786611
5015.000000;0.745056
5014.000000;0.722576
5013.000000;0.711325
5012.000000;0.705381
5011.000000;0.706603
5010.000000;0.721211
5009.000000;0.750107
5008.000000;0.784728
5007.000000;0.815016
5006.000000;0.841168
5005.000000;0.871946
5004.000000;0.909399
5003.000000;0.937377
5002.000000;0.930138
5001.000000;0.882446
5000.000000;0.817383
4999.000000;0.758921
4998.000000;0.718161
4997.000000;0.695559
4996.000000;0.687283
4995.000000;0.696162
4994.000000;0.729787
4993.000000;0.782143
4992.000000;0.822769
4991.000000;0.819943
4990.000000;0.779721
4989.000000;0.730841
4988.000000;0.691934
4987.000000;0.671116
4986.000000;0.668284
4985.000000;0.671469
4984.000000;0.669754
4983.000000;0.667661
4982.000000;0.671293
4981.000000;0.676683
4980.000000;0.674244
4979.000000;0.655901
4978.000000;0.625159
4977.000000;0.595084
4976.000000;0.576678
4975.000000;0.573993
4974.000000;0.582711
4973.000000;0.592240
4972.000000;0.594716
4971.000000;0.593941
4970.000000;0.602751
4969.000000;0.628129
4968.000000;0.657038
4967.000000;0.663504
4966.000000;0.639713
4965.000000;0.602827
4964.000000;0.569721
4963.000000;0.544868
4962.000000;0.525076
4961.000000;0.507485
4960.000000;0.493498
4959.000000;0.487617
4958.000000;0.491867
4957.000000;0.500164
4956.000000;0.501586
4955.000000;0.491869
4954.000000;0.477413
4953.000000;0.465173
4952.000000;0.454334
4951.000000;0.440681
4950.000000;0.425532
4949.000000;0.416256
4948.000000;0.418523
4947.000000;0.429534
4946.000000;0.438453
4945.000000;0.435102
4944.000000;0.418239
4943.000000;0.394977
4942.000000;0.374139
4941.000000;0.359853
4940.000000;0.351424
4939.000000;0.347233
4938.000000;0.346188
4937.000000;0.346555
4936.000000;0.345452
4935.000000;0.341361
4934.000000;0.335584
4933.000000;0.329114
4932.000000;0.321794
4931.000000;0.315542
4930.000000;0.314282
4929.000000;0.318860
4928.000000;0.321818
4927.000000;0.311874
4926.000000;0.287404
4925.000000;0.259286
4924.000000;0.240290
4923.000000;0.234708
4922.000000;0.234667
4921.000000;0.228426
4920.000000;0.214374
4919.000000;0.200591
4918.000000;0.192644
4917.000000;0.186860
4916.000000;0.175577
4915.000000;0.159320
4914.000000;0.148111
4913.000000;0.149565
4912.000000;0.159852
4911.000000;0.166341
4910.000000;0.160803
4909.000000;0.147368
4908.000000;0.134131
4907.000000;0.123576
4906.000000;0.113261
4905.000000;0.101424
4904.000000;0.089451
4903.000000;0.079541
4902.000000;0.071782
4901.000000;0.064278
4900.000000;0.055902
4899.000000;0.047786
4898.000000;0.040995
4897.000000;0.033646
4896.000000;0.022681
4895.000000;0.008893
4894.000000;-0.002657
4893.000000;-0.008546
4892.000000;-0.011290
4891.000000;-0.015779
4890.000000;-0.021823
4889.000000;-0.023671
4888.000000;-0.017681
4887.000000;-0.008323
4886.000000;-0.005578
4885.000000;-0.015318
4884.000000;-0.033294
4883.000000;-0.050174
4882.000000;-0.060123
4881.000000;-0.063851
4880.000000;-0.065556
4879.000000;-0.067571
4878.000000;-0.068087
4877.000000;-0.064370
4876.000000;-0.057385
4875.000000;-0.051915
4874.000000;-0.051378
4873.000000;-0.053753
4872.000000;-0.054534
4871.000000;-0.052639
4870.000000;-0.051443
4869.000000;-0.054178
4868.000000;-0.060042
4867.000000;-0.065648
4866.000000;-0.068849
4865.000000;-0.070143
4864.000000;-0.071361
4863.000000;-0.073724
4862.000000;-0.076670
4861.000000;-0.078332
4860.000000;-0.077535
4859.000000;-0.075343
4858.000000;-0.074093
4857.000000;-0.074520
4856.000000;-0.074618
4855.000000;-0.072074
4854.000000;-0.067510
4853.000000;-0.064732
4852.000000;-0.066840
4851.000000;-0.072229
4850.000000;-0.075595
4849.000000;-0.073025
4848.000000;-0.066204
4847.000000;-0.061507
4846.000000;-0.063291
4845.000000;-0.068675
4844.000000;-0.070947
4843.000000;-0.066060
4842.000000;-0.054798
4841.000000;-0.041068
4840.000000;-0.029273
4839.000000;-0.022248
4838.000000;-0.020293
4837.000000;-0.021593
4836.000000;-0.023853
4835.000000;-0.025712
4834.000000;-0.026438
4833.000000;-0.024822
4832.000000;-0.019526
4831.000000;-0.010720
4830.000000;-0.000599
4829.000000;0.007902
4828.000000;0.012547
4827.000000;0.012675
4826.000000;0.009764
4825.000000;0.006946
4824.000000;0.006836
4823.000000;0.009272
4822.000000;0.012023
4821.000000;0.014100
4820.000000;0.016864
4819.000000;0.021333
4818.000000;0.026034
4817.000000;0.028799
4816.000000;0.029992
4815.000000;0.032250
4814.000000;0.037198
4813.000000;0.043724
4812.000000;0.049319
4811.000000;0.052491
4810.000000;0.053892
4809.000000;0.055471
4808.000000;0.058848
4807.000000;0.064190
4806.000000;0.070285
4805.000000;0.075707
4804.000000;0.079875
4803.000000;0.083028
4802.000000;0.085492
4801.000000;0.087321
4800.000000;0.088542
4799.000000;0.089424
4798.000000;0.090473
4797.000000;0.092335
4796.000000;0.095615
4795.000000;0.100444
4794.000000;0.106080
4793.000000;0.111047
4792.000000;0.114029
4791.000000;0.114920
4790.000000;0.114906
4789.000000;0.115316
4788.000000;0.116411
4787.000000;0.117493
4786.000000;0.118235
4785.000000;0.119359
4784.000000;0.121734
4783.000000;0.125266
4782.000000;0.129031
4781.000000;0.132274
4780.000000;0.134996
4779.000000;0.137639
4778.000000;0.140494
4777.000000;0.143429
4776.000000;0.145943
4775.000000;0.147603
4774.000000;0.148618
4773.000000;0.149860
4772.000000;0.152034
4771.000000;0.154860
4770.000000;0.157427
4769.000000;0.159489
4768.000000;0.161895
4767.000000;0.165419
4766.000000;0.169495
4765.000000;0.172449
4764.000000;0.173120
4763.000000;0.172172
4762.000000;0.171572
4761.000000;0.172693
4760.000000;0.174981
4759.000000;0.176596
4758.000000;0.176540
4757.000000;0.175855
4756.000000;0.176411
4755.000000;0.178956
4754.000000;0.182691
4753.000000;0.186407
4752.000000;0.189565
4751.000000;0.192316
4750.000000;0.194963
4749.000000;0.197712
4748.000000;0.200597
4747.000000;0.203360
4746.000000;0.205505
4745.000000;0.206644
4744.000000;0.206797
4743.000000;0.206401
4742.000000;0.206238
4741.000000;0.207168
4740.000000;0.209539
4739.000000;0.212737
4738.000000;0.215698
4737.000000;0.218053
4736.000000;0.220470
4735.000000;0.223648
4734.000000;0.227199
4733.000000;0.229626
4732.000000;0.229474
4731.000000;0.226717
4730.000000;0.223157
4729.000000;0.221334
4728.000000;0.222736
4727.000000;0.226706
4726.000000;0.231075
4725.000000;0.234078
4724.000000;0.235592
4723.000000;0.236466
4722.000000;0.237157
4721.000000;0.237474
4720.000000;0.237356
4719.000000;0.237318
4718.000000;0.237985
4717.000000;0.239511
4716.000000;0.241611
4715.000000;0.243950
4714.000000;0.246311
4713.000000;0.248452
4712.000000;0.250044
4711.000000;0.250933
4710.000000;0.251560
4709.000000;0.252892
4708.000000;0.255601
4707.000000;0.259118
4706.000000;0.261748
4705.000000;0.262117
4704.000000;0.260598
4703.000000;0.258992
4702.000000;0.258761
4701.000000;0.259808
4700.000000;0.260988
4699.000000;0.261577
4698.000000;0.262096
4697.000000;0.263650
4696.000000;0.266559
4695.000000;0.269807
4694.000000;0.271851
4693.000000;0.271956
4692.000000;0.270708
4691.000000;0.269298
4690.000000;0.268487
4689.000000;0.268247
4688.000000;0.268180
4687.000000;0.268254
4686.000000;0.269149
4685.000000;0.271747
4684.000000;0.276183
4683.000000;0.281394
4682.000000;0.285661
4681.000000;0.287778
4680.000000;0.287864
4679.000000;0.287017
4678.000000;0.286215
4677.000000;0.285613
4676.000000;0.284940
4675.000000;0.284411
4674.000000;0.284893
4673.000000;0.286953
4672.000000;0.289908
4671.000000;0.292150
4670.000000;0.292598
4669.000000;0.291703
4668.000000;0.290823
4667.000000;0.290807
4666.000000;0.291454
4665.000000;0.292199
4664.000000;0.292946
4663.000000;0.294005
4662.000000;0.295387
4661.000000;0.296498
4660.000000;0.296726
4659.000000;0.296286
4658.000000;0.296204
4657.000000;0.297302
4656.000000;0.299293
4655.000000;0.301093
4654.000000;0.301998
4653.000000;0.302270
4652.000000;0.302503
4651.000000;0.302817
4650.000000;0.302949
4649.000000;0.302860
4648.000000;0.302830
4647.000000;0.303008
4646.000000;0.303226
4645.000000;0.303357
4644.000000;0.303639
4643.000000;0.304460
4642.000000;0.305898
4641.000000;0.307553
4640.000000;0.308862
4639.000000;0.309618
4638.000000;0.310151
4637.000000;0.310830
4636.000000;0.311413
4635.000000;0.311163
4634.000000;0.309830
4633.000000;0.308283
4632.000000;0.307883
4631.000000;0.309273
4630.000000;0.311972
4629.000000;0.315023
4628.000000;0.317748
4627.000000;0.319871
4626.000000;0.321252
4625.000000;0.321750
4624.000000;0.321313
4623.000000;0.320108
4622.000000;0.318588
4621.000000;0.317434
4620.000000;0.317279
4619.000000;0.318366
4618.000000;0.320460
4617.000000;0.322947
4616.000000;0.324998
4615.000000;0.325874
4614.000000;0.325436
4613.000000;0.324359
4612.000000;0.323616
4611.000000;0.323714
4610.000000;0.324493
4609.000000;0.325527
4608.000000;0.326519
4607.000000;0.327389
4606.000000;0.328214
4605.000000;0.329032
4604.000000;0.329517
4603.000000;0.328977
4602.000000;0.327116
4601.000000;0.324777
4600.000000;0.323502
4599.000000;0.324138
4598.000000;0.326077
4597.000000;0.327921
4596.000000;0.328740
4595.000000;0.328643
4594.000000;0.328371
4593.000000;0.328521
4592.000000;0.329092
4591.000000;0.329679
4590.000000;0.330148
4589.000000;0.330991
4588.000000;0.332725
4587.000000;0.334990
4586.000000;0.336642
4585.000000;0.336870
4584.000000;0.335919
4583.000000;0.334588
4582.000000;0.333440
4581.000000;0.332763
4580.000000;0.332892
4579.000000;0.334113
4578.000000;0.336267
4577.000000;0.338689
4576.000000;0.340523
4575.000000;0.341105
4574.000000;0.340290
4573.000000;0.338618
4572.000000;0.337016
4571.000000;0.336153
4570.000000;0.336130
4569.000000;0.336799
4568.000000;0.338072
4567.000000;0.339752
4566.000000;0.341417
4565.000000;0.342823
4564.000000;0.344149
4563.000000;0.345412
4562.000000;0.345836
4561.000000;0.344457
4560.000000;0.341514
4559.000000;0.338722
4558.000000;0.337807
4557.000000;0.339006
4556.000000;0.341019
4555.000000;0.342257
4554.000000;0.342174
4553.000000;0.341581
4552.000000;0.341726
4551.000000;0.342993
4550.000000;0.344443
4549.000000;0.344787
4548.000000;0.343826
4547.000000;0.342714
4546.000000;0.342754
4545.000000;0.344186
4544.000000;0.346142
4543.000000;0.347472
4542.000000;0.347492
4541.000000;0.346219
4540.000000;0.344198
4539.000000;0.342092
4538.000000;0.340319
4537.000000;0.339065
4536.000000;0.338643
4535.000000;0.339620
4534.000000;0.342287
4533.000000;0.345964
4532.000000;0.349079
4531.000000;0.350189
4530.000000;0.349014
4529.000000;0.346507
4528.000000;0.344010
4527.000000;0.342353
4526.000000;0.341633
4525.000000;0.341661
4524.000000;0.342425
4523.000000;0.343984
4522.000000;0.345906
4521.000000;0.347170
4520.000000;0.346963
4519.000000;0.345576
4518.000000;0.344249
4517.000000;0.343969
4516.000000;0.344541
4515.000000;0.344918
4514.000000;0.344441
4513.000000;0.343618
4512.000000;0.343579
4511.000000;0.344855
4510.000000;0.346823
4509.000000;0.348356
4508.000000;0.348983
4507.000000;0.349250
4506.000000;0.349774
4505.000000;0.350150
4504.000000;0.349197
4503.000000;0.346484
4502.000000;0.343299
4501.000000;0.341601
4500.000000;0.342109
4499.000000;0.343710
4498.000000;0.344786
4497.000000;0.344911
4496.000000;0.344959
4495.000000;0.345623
4494.000000;0.346319
4493.000000;0.345726
4492.000000;0.343313
4491.000000;0.340125
4490.000000;0.338033
4489.000000;0.338279
4488.000000;0.340699
4487.000000;0.344030
4486.000000;0.346745
4485.000000;0.347795
4484.000000;0.347028
4483.000000;0.345229
4482.000000;0.343609
4481.000000;0.342895
4480.000000;0.342743
4479.000000;0.342338
4478.000000;0.341716
4477.000000;0.342150
4476.000000;0.344901
4475.000000;0.349728
4474.000000;0.354807
4473.000000;0.358186
4472.000000;0.359278
4471.000000;0.358914
4470.000000;0.358098
4469.000000;0.356903
4468.000000;0.354619
4467.000000;0.351001
4466.000000;0.347153
4465.000000;0.344793
4464.000000;0.344631
4463.000000;0.345811
4462.000000;0.347030
4461.000000;0.347836
4460.000000;0.348548
4459.000000;0.349196
4458.000000;0.349148
4457.000000;0.347853
4456.000000;0.345540
4455.000000;0.343025
4454.000000;0.341032
4453.000000;0.339789
4452.000000;0.339132
4451.000000;0.338864
4450.000000;0.339017
4449.000000;0.339793
4448.000000;0.341249
4447.000000;0.343178
4446.000000;0.345431
4445.000000;0.348096
4444.000000;0.350971
4443.000000;0.353008
4442.000000;0.352837
4441.000000;0.350059
4440.000000;0.345803
4439.000000;0.341947
4438.000000;0.339935
4437.000000;0.340113
4436.000000;0.341701
4435.000000;0.343434
4434.000000;0.344673
4433.000000;0.345972
4432.000000;0.348219
4431.000000;0.351283
4430.000000;0.353877
4429.000000;0.354708
4428.000000;0.353410
4427.000000;0.350562
4426.000000;0.347278
4425.000000;0.344719
4424.000000;0.343435
4423.000000;0.343024
4422.000000;0.342865
4421.000000;0.343281
4420.000000;0.345278
4419.000000;0.348916
4418.000000;0.352586
4417.000000;0.354408
4416.000000;0.354051
4415.000000;0.352617
4414.000000;0.350922
4413.000000;0.348567
4412.000000;0.344812
4411.000000;0.339985
4410.000000;0.335803
4409.000000;0.334191
4408.000000;0.335664
4407.000000;0.338868
4406.000000;0.341889
4405.000000;0.344073
4404.000000;0.346166
4403.000000;0.348713
4402.000000;0.351004
4401.000000;0.351734
4400.000000;0.350245
4399.000000;0.346962
4398.000000;0.343020
4397.000000;0.339883
4396.000000;0.338772
4395.000000;0.339696
4394.000000;0.341067
4393.000000;0.340853
4392.000000;0.338491
4391.000000;0.335571
4390.000000;0.334503
4389.000000;0.336469
4388.000000;0.340407
4387.000000;0.343756
4386.000000;0.344389
4385.000000;0.342233
4384.000000;0.339012
4383.000000;0.336330
4382.000000;0.334289
4381.000000;0.331984
4380.000000;0.328853
4379.000000;0.325448
4378.000000;0.323123
4377.000000;0.322971
4376.000000;0.324685
4375.000000;0.326152
4374.000000;0.324821
4373.000000;0.320521
4372.000000;0.316291
4371.000000;0.315580
4370.000000;0.318962
4369.000000;0.323641
4368.000000;0.326192
4367.000000;0.325829
4366.000000;0.324452
4365.000000;0.323557
4364.000000;0.321801
4363.000000;0.316296
4362.000000;0.306822
4361.000000;0.297626
4360.000000;0.293785
4359.000000;0.296305
4358.000000;0.301354
4357.000000;0.304845
4356.000000;0.307092
4355.000000;0.311040
4354.000000;0.316787
4353.000000;0.320129
4352.000000;0.317147
4351.000000;0.309045
4350.000000;0.300868
4349.000000;0.296322
4348.000000;0.295225
4347.000000;0.295688
4346.000000;0.297319
4345.000000;0.300937
4344.000000;0.305885
4343.000000;0.309326
4342.000000;0.309203
4341.000000;0.307112
4340.000000;0.306609
4339.000000;0.308719
4338.000000;0.309806
4337.000000;0.305306
4336.000000;0.295794
4335.000000;0.286397
4334.000000;0.280669
4333.000000;0.277180
4332.000000;0.271529
4331.000000;0.262376
4330.000000;0.254840
4329.000000;0.255462
4328.000000;0.265021
4327.000000;0.276992
4326.000000;0.283296
4325.000000;0.282263
4324.000000;0.278595
4323.000000;0.276636
4322.000000;0.276555
4321.000000;0.275342
4320.000000;0.270768
4319.000000;0.264342
4318.000000;0.259568
4317.000000;0.258665
4316.000000;0.261630
4315.000000;0.266332
4314.000000;0.268886
4313.000000;0.265646
4312.000000;0.255776
4311.000000;0.242031
4310.000000;0.229371
4309.000000;0.222068
4308.000000;0.220961
4307.000000;0.223667
4306.000000;0.228131
4305.000000;0.234897
4304.000000;0.244152
4303.000000;0.251825
4302.000000;0.252543
4301.000000;0.247105
4300.000000;0.242597
4299.000000;0.244603
4298.000000;0.251415
4297.000000;0.255560
4296.000000;0.251610
4295.000000;0.241855
4294.000000;0.232767
4293.000000;0.228217
4292.000000;0.227159
4291.000000;0.226777
4290.000000;0.227602
4289.000000;0.234178
4288.000000;0.249238
4287.000000;0.266509
4286.000000;0.272782
4285.000000;0.264839
4284.000000;0.255726
4283.000000;0.258565
4282.000000;0.274943
4281.000000;0.295120
4280.000000;0.305089
4279.000000;0.298499
4278.000000;0.281454
4277.000000;0.264818
4276.000000;0.255585
4275.000000;0.253011
4274.000000;0.250629
4273.000000;0.245186
4272.000000;0.242896
4271.000000;0.252977
4270.000000;0.276673
4269.000000;0.303159
4268.000000;0.316711
4267.000000;0.312043
4266.000000;0.300275
4265.000000;0.297023
4264.000000;0.308753
4263.000000;0.328226
4262.000000;0.340312
4261.000000;0.338729
4260.000000;0.334100
4259.000000;0.338855
4258.000000;0.354129
4257.000000;0.372163
4256.000000;0.385128
4255.000000;0.390753
4254.000000;0.391465
4253.000000;0.391613
4252.000000;0.396356
4251.000000;0.409316
4250.000000;0.428678
4249.000000;0.447026
4248.000000;0.457830
4247.000000;0.462113
4246.000000;0.466081
4245.000000;0.473613
4244.000000;0.482787
4243.000000;0.489363
4242.000000;0.493888
4241.000000;0.503650
4240.000000;0.525325
4239.000000;0.555128
4238.000000;0.577071
4237.000000;0.578105
4236.000000;0.565955
4235.000000;0.559667
4234.000000;0.568469
4233.000000;0.587194
4232.000000;0.604100
4231.000000;0.609761
4230.000000;0.601881
4229.000000;0.584870
4228.000000;0.567316
4227.000000;0.560050
4226.000000;0.570877
4225.000000;0.597929
4224.000000;0.630441
4223.000000;0.658906
4222.000000;0.682855
4221.000000;0.706097
4220.000000;0.726463
4219.000000;0.735888
4218.000000;0.733710
4217.000000;0.729221
4216.000000;0.732258
4215.000000;0.747364
4214.000000;0.769775
4213.000000;0.787664
4212.000000;0.791651
4211.000000;0.779834
4210.000000;0.755530
4209.000000;0.727609
4208.000000;0.711274
4207.000000;0.723097
4206.000000;0.775416
4205.000000;0.870815
4204.000000;0.988212
4203.000000;1.062205
4202.000000;1.038481
4201.000000;0.961352
4200.000000;0.903563
4199.000000;0.902196
4198.000000;0.956303
4197.000000;1.024770
4196.000000;1.050135
4195.000000;1.044187
4194.000000;1.062587
4193.000000;1.115227
4192.000000;1.142390
4191.000000;1.088181
4190.000000;1.003588
4189.000000;0.956216
4188.000000;0.962741
4187.000000;0.995453
4186.000000;1.006637
4185.000000;0.988209
4184.000000;0.986076
4183.000000;1.035123
4182.000000;1.118252
4181.000000;1.169179
4180.000000;1.165223
4179.000000;1.157083
4178.000000;1.180146
4177.000000;1.229991
4176.000000;1.270694
4175.000000;1.259285
4174.000000;1.211774
4173.000000;1.179173
4172.000000;1.189510
4171.000000;1.238742
4170.000000;1.270897
4169.000000;1.275170
4168.000000;1.326359
4167.000000;1.439436
4166.000000;1.530043
4165.000000;1.498896
4164.000000;1.378704
4163.000000;1.235455
4162.000000;1.106153
4161.000000;1.014495
4160.000000;0.973403
4159.000000;0.984754
4158.000000;1.035288
4157.000000;1.095251
4156.000000;1.142987
4155.000000;1.159017
4154.000000;1.136311
4153.000000;1.125970
4152.000000;1.160377
4151.000000;1.191272
4150.000000;1.181543
4149.000000;1.191878
4148.000000;1.253779
4147.000000;1.325601
4146.000000;1.340353
4145.000000;1.204328
4144.000000;1.049175
4143.000000;0.991127
4142.000000;1.051838
4141.000000;1.249530
4140.000000;1.665473
4139.000000;2.171302
4138.000000;1.819295
4137.000000;1.694410
4136.000000;1.471950
4135.000000;1.317453
4134.000000;1.261405
4133.000000;1.298125
4132.000000;1.495380
4131.000000;1.554943
4130.000000;1.266692
4129.000000;1.138865
4128.000000;1.151501
4127.000000;1.203159
4126.000000;1.141945
4125.000000;1.077845
4124.000000;1.134013
4123.000000;1.374674
4122.000000;1.765282
4121.000000;1.495038
4120.000000;1.401499
4119.000000;1.561466
4118.000000;1.570817
4117.000000;1.373276
4116.000000;1.273728
4115.000000;1.234661
4114.000000;1.247146
4113.000000;1.330378
4112.000000;1.456418
4111.000000;1.538177
4110.000000;1.657435
4109.000000;1.803065
4108.000000;1.619866
4107.000000;1.493347
4106.000000;1.558756
4105.000000;1.691426
4104.000000;1.548793
4103.000000;1.398797
4102.000000;1.406838
4101.000000;1.706026
4100.000000;2.108603
4099.000000;1.755315
4098.000000;1.712290
4097.000000;2.277264
4096.000000;1.996483
4095.000000;1.638741
4094.000000;1.573823
4093.000000;1.712399
4092.000000;1.810966
4091.000000;1.454822
4090.000000;1.291175
4089.000000;1.267488
4088.000000;1.270492
4087.000000;1.238792
4086.000000;1.240833
4085.000000;1.333037
4084.000000;1.477078
4083.000000;1.461527
4082.000000;1.376023
4081.000000;1.404425
4080.000000;1.561114
4079.000000;1.830827
4078.000000;1.788181
4077.000000;1.573682
4076.000000;1.518951
4075.000000;1.471638
4074.000000;1.344893
4073.000000;1.254444
4072.000000;1.274388
4071.000000;1.416691
4070.000000;1.459968
4069.000000;1.285358
4068.000000;1.186372
4067.000000;1.226354
4066.000000;1.420313
4065.000000;1.402284
4064.000000;1.217672
4063.000000;1.181547
4062.000000;1.279444
4061.000000;1.479398
4060.000000;1.716229
4059.000000;1.892004
4058.000000;2.060747
4057.000000;2.099527
4056.000000;1.834907
4055.000000;1.756933
4054.000000;1.929979
4053.000000;1.992124
4052.000000;1.747901
4051.000000;1.577855
4050.000000;1.335261
4049.000000;1.142535
4048.000000;1.063350
4047.000000;1.095061
4046.000000;1.184734
4045.000000;1.191987
4044.000000;1.163198
4043.000000;1.221491
4042.000000;1.378649
4041.000000;1.529308
4040.000000;1.523972
4039.000000;1.492983
4038.000000;1.590885
4037.000000;2.145691
4036.000000;1.572029
4035.000000;1.279652
4034.000000;1.222393
4033.000000;1.303455
4032.000000;1.609220
4031.000000;2.362076
4030.000000;1.536218
4029.000000;1.224863
4028.000000;1.035785
4027.000000;0.943529
4026.000000;0.944339
4025.000000;1.017047
4024.000000;1.065492
4023.000000;1.056094
4022.000000;1.098277
4021.000000;1.233355
4020.000000;1.425063
4019.000000;1.566522
4018.000000;1.644637
4017.000000;1.631156
4016.000000;1.492214
4015.000000;1.403372
4014.000000;1.422913
4013.000000;1.519136
4012.000000;1.491916
4011.000000;1.279633
4010.000000;1.124857
4009.000000;1.084580
4008.000000;1.148884
4007.000000;1.282945
4006.000000;1.434015
4005.000000;1.597106
4004.000000;1.591450
4003.000000;1.412164
4002.000000;1.344411
4001.000000;1.424208
4000.000000;1.464850
3999.000000;1.218405
3998.000000;1.009631
3997.000000;0.921300
3996.000000;0.942734
3995.000000;1.071190
3994.000000;1.245846
3993.000000;1.349993
3992.000000;1.393094
3991.000000;1.300026
3990.000000;1.166830
3989.000000;1.134688
3988.000000;1.175997
3987.000000;1.234893
3986.000000;1.307275
3985.000000;1.503045
3984.000000;2.361244
3983.000000;1.719572
3982.000000;1.512018
3981.000000;1.656873
3980.000000;2.223752
3979.000000;1.829416
3978.000000;1.566433
3977.000000;1.527840
3976.000000;1.532598
3975.000000;1.527361
3974.000000;1.536111
3973.000000;1.640001
3972.000000;1.770741
3971.000000;1.731340
3970.000000;1.804009
3969.000000;1.849036
3968.000000;1.587837
3967.000000;1.469102
3966.000000;1.800492
3965.000000;1.900027
3964.000000;1.401700
3963.000000;1.241528
3962.000000;1.226183
3961.000000;1.298505
3960.000000;1.423237
3959.000000;1.547705
3958.000000;1.667390
3957.000000;1.804035
3956.000000;1.791921
3955.000000;1.573321
3954.000000;1.384954
3953.000000;1.295177
3952.000000;1.331121
3951.000000;1.535594
3950.000000;1.723028
3949.000000;1.590568
3948.000000;1.688714
3947.000000;1.959786
3946.000000;1.649115
3945.000000;1.377962
3944.000000;1.257502
3943.000000;1.223341
3942.000000;1.256457
3941.000000;1.320935
3940.000000;1.407283
3939.000000;1.649439
3938.000000;2.100900
3937.000000;1.764719
3936.000000;1.615408
3935.000000;1.790470
3934.000000;1.638333
3933.000000;1.411956
3932.000000;1.343877
3931.000000;1.315232
3930.000000;1.241159
3929.000000;1.193711
3928.000000;1.265908
3927.000000;1.538279
3926.000000;1.659310
3925.000000;1.391307
3924.000000;1.370111
3923.000000;1.530194
3922.000000;1.588214
3921.000000;1.509499
3920.000000;1.581216
3919.000000;1.520291
3918.000000;1.272563
3917.000000;1.109277
3916.000000;1.027718
3915.000000;1.009436
3914.000000;1.039791
3913.000000;1.122622
3912.000000;1.283569
3911.000000;1.560287
3910.000000;1.942381
3909.000000;1.925329
3908.000000;1.635522
3907.000000;1.529746
3906.000000;1.708498
3905.000000;1.778517
3904.000000;1.449905
3903.000000;1.343682
3902.000000;1.437227
3901.000000;1.779874
3900.000000;2.042769
3899.000000;1.643441
3898.000000;1.502914
3897.000000;1.460985
3896.000000;1.473917
3895.000000;1.522827
3894.000000;1.545368
3893.000000;1.520207
3892.000000;1.476131
3891.000000;1.519351
3890.000000;1.753748
3889.000000;1.647571
3888.000000;1.357191
3887.000000;1.289403
3886.000000;1.313268
3885.000000;1.354071
3884.000000;1.391057
3883.000000;1.539637
3882.000000;1.994850
3881.000000;1.945147
3880.000000;1.679635
3879.000000;1.599445
3878.000000;1.608541
3877.000000;1.762184
3876.000000;1.895033
3875.000000;1.684454
3874.000000;1.499382
3873.000000;1.411164
3872.000000;1.412001
3871.000000;1.507666
3870.000000;1.589431
3869.000000;1.597439
3868.000000;1.717716
3867.000000;1.711650
3866.000000;1.521516
3865.000000;1.469093
3864.000000;1.427778
3863.000000;1.387678
3862.000000;1.392605
3861.000000;1.430333
3860.000000;1.457934
3859.000000;1.489515
3858.000000;1.658031
3857.000000;1.751275
3856.000000;1.533058
3855.000000;1.425531
3854.000000;1.438114
3853.000000;1.599070
3852.000000;1.747856
3851.000000;1.513541
3850.000000;1.433450
3849.000000;1.531518
3848.000000;1.680602
3847.000000;1.833123
3846.000000;1.924235
3845.000000;1.867239
3844.000000;1.791742
3843.000000;1.671360
3842.000000;1.558826
3841.000000;1.571736
3840.000000;1.742860
3839.000000;1.942220
3838.000000;1.915119
3837.000000;1.893044
3836.000000;1.884286
3835.000000;1.775878
3834.000000;1.633908
3833.000000;1.567426
3832.000000;1.592951
3831.000000;1.688793
3830.000000;1.924861
3829.000000;1.831079
3828.000000;1.484171
3827.000000;1.305014
3826.000000;1.224536
3825.000000;1.197137
3824.000000;1.224430
3823.000000;1.325554
3822.000000;1.506002
3821.000000;1.645019
3820.000000;1.595619
3819.000000;1.547875
3818.000000;1.633997
3817.000000;1.841196
3816.000000;1.874256
3815.000000;1.756406
3814.000000;1.900837
3813.000000;2.051322
3812.000000;1.777106
3811.000000;1.671759
3810.000000;1.549288
3809.000000;1.386971
3808.000000;1.290569
3807.000000;1.311363
3806.000000;1.436050
3805.000000;1.461668
3804.000000;1.392406
3803.000000;1.430107
3802.000000;1.573056
3801.000000;1.608310
3800.000000;1.430737
3799.000000;1.305787
3798.000000;1.328855
3797.000000;1.530251
3796.000000;1.752254
3795.000000;1.571230
3794.000000;1.461320
3793.000000;1.516284
3792.000000;1.591717
3791.000000;1.530810
3790.000000;1.469066
3789.000000;1.716831
3788.000000;1.725357
3787.000000;1.319995
3786.000000;1.236203
3785.000000;1.281379
3784.000000;1.375893
3783.000000;1.566596
3782.000000;2.123616
3781.000000;2.820306
3780.000000;2.417497
3779.000000;2.544508
3778.000000;2.216680
3777.000000;2.294204
3776.000000;2.542716
3775.000000;2.236450
3774.000000;1.743764
3773.000000;1.446807
3772.000000;1.299045
3771.000000;1.255919
3770.000000;1.281727
3769.000000;1.329419
3768.000000;1.357484
3767.000000;1.370868
3766.000000;1.409404
3765.000000;1.530049
3764.000000;1.618878
3763.000000;1.413453
3762.000000;1.288242
3761.000000;1.328343
3760.000000;1.711970
3759.000000;2.349572
3758.000000;1.610513
3757.000000;1.465321
3756.000000;1.380187
3755.000000;1.288194
3754.000000;1.221122
3753.000000;1.186543
3752.000000;1.230456
3751.000000;1.364877
3750.000000;1.702565
3749.000000;2.220408
3748.000000;1.956402
3747.000000;1.752256
3746.000000;1.738627
3745.000000;1.774314
3744.000000;1.612377
3743.000000;1.339771
3742.000000;1.203344
3741.000000;1.239982
3740.000000;1.432932
3739.000000;1.703850
3738.000000;1.681019
3737.000000;1.477894
3736.000000;1.360747
3735.000000;1.296168
3734.000000;1.293389
3733.000000;1.360669
3732.000000;1.425408
3731.000000;1.452632
3730.000000;1.459815
3729.000000;1.430592
3728.000000;1.394873
3727.000000;1.364288
3726.000000;1.351563
3725.000000;1.370140
3724.000000;1.400394
3723.000000;1.506159
3722.000000;1.668986
3721.000000;1.704223
3720.000000;1.556102
3719.000000;1.423877
3718.000000;1.416102
3717.000000;1.664358
3716.000000;2.042454
3715.000000;1.559053
3714.000000;1.340918
3713.000000;1.274752
3712.000000;1.208512
3711.000000;1.120255
3710.000000;1.041961
3709.000000;1.030219
3708.000000;1.080575
3707.000000;1.183556
3706.000000;1.313445
3705.000000;1.530263
3704.000000;1.688847
3703.000000;1.397799
3702.000000;1.245562
3701.000000;1.313981
3700.000000;1.299318
3699.000000;1.090565
3698.000000;0.992381
3697.000000;1.022684
3696.000000;1.165838
3695.000000;1.468336
3694.000000;1.438835
3693.000000;1.261346
3692.000000;1.323793
3691.000000;1.379030
3690.000000;1.278534
3689.000000;1.226886
3688.000000;1.270426
3687.000000;1.358982
3686.000000;1.371916
3685.000000;1.320042
3684.000000;1.356538
3683.000000;1.538838
3682.000000;1.733864
3681.000000;1.652464
3680.000000;1.554752
3679.000000;1.582152
3678.000000;1.692979
3677.000000;1.717220
3676.000000;1.584012
3675.000000;1.516491
3674.000000;1.756177
3673.000000;2.064328
3672.000000;1.640278
3671.000000;1.444864
3670.000000;1.367517
3669.000000;1.309361
3668.000000;1.292068
3667.000000;1.345044
3666.000000;1.461477
3665.000000;1.552523
3664.000000;1.573501
3663.000000;1.691944
3662.000000;1.801713
3661.000000;1.659454
3660.000000;1.533240
3659.000000;1.747387
3658.000000;2.386076
3657.000000;1.890981
3656.000000;1.849944
3655.000000;1.646177
3654.000000;1.430903
3653.000000;1.452608
3652.000000;1.662330
3651.000000;1.946613
3650.000000;1.784529
3649.000000;1.633798
3648.000000;1.666332
3647.000000;1.980739
3646.000000;2.216108
3645.000000;1.919544
3644.000000;1.968653
3643.000000;2.174911
3642.000000;2.240624
3641.000000;1.882721
3640.000000;1.834547
3639.000000;2.174362
3638.000000;1.867415
3637.000000;1.481032
3636.000000;1.564995
3635.000000;2.222207
3634.000000;1.490553
3633.000000;1.232861
3632.000000;1.259390
3631.000000;1.418886
3630.000000;1.753460
3629.000000;1.812424
3628.000000;1.729625
3627.000000;1.677843
3626.000000;1.560833
3625.000000;1.363654
3624.000000;1.206526
3623.000000;1.126666
3622.000000;1.169536
3621.000000;1.371566
3620.000000;1.428055
3619.000000;1.313689
3618.000000;1.384696
3617.000000;1.654998
3616.000000;1.722448
3615.000000;1.568484
3614.000000;1.509685
3613.000000;1.673684
3612.000000;2.045750
3611.000000;1.604055
3610.000000;1.394455
3609.000000;1.567660
3608.000000;1.909776
3607.000000;1.565027
3606.000000;1.395208
3605.000000;1.455017
3604.000000;1.647338
3603.000000;2.081152
3602.000000;1.831198
3601.000000;1.538956
3600.000000;1.459082
3599.000000;1.591872
3598.000000;1.888045
3597.000000;1.742969
3596.000000;1.525339
3595.000000;1.426121
3594.000000;1.342618
3593.000000;1.326381
3592.000000;1.546823
3591.000000;1.683802
3590.000000;1.340513
3589.000000;1.346382
3588.000000;1.484199
3587.000000;1.192646
3586.000000;0.997834
3585.000000;1.045256
3584.000000;1.242147
3583.000000;1.148858
3582.000000;0.977112
3581.000000;0.964012
3580.000000;1.089529
3579.000000;1.329415
3578.000000;1.603735
3577.000000;1.920664
3576.000000;1.634373
3575.000000;1.385495
3574.000000;1.337976
3573.000000;1.466672
3572.000000;1.628442
3571.000000;1.406266
3570.000000;1.244625
3569.000000;1.219387
3568.000000;1.266176
3567.000000;1.368422
3566.000000;1.674610
3565.000000;1.921626
3564.000000;1.430664
3563.000000;1.224397
3562.000000;1.179128
3561.000000;1.226888
3560.000000;1.575365
3559.000000;1.595705
3558.000000;1.182184
3557.000000;1.051787
3556.000000;1.122202
3555.000000;1.425381
3554.000000;1.380545
3553.000000;1.071224
3552.000000;0.957573
3551.000000;0.957677
3550.000000;1.029904
3549.000000;1.126078
3548.000000;1.232530
3547.000000;1.416319
3546.000000;1.838195
3545.000000;1.781979
3544.000000;1.417661
3543.000000;1.346828
3542.000000;1.330524
3541.000000;1.264937
3540.000000;1.193500
3539.000000;1.194212
3538.000000;1.320470
3537.000000;1.522940
3536.000000;1.609532
3535.000000;1.738383
3534.000000;2.020786
3533.000000;1.708177
3532.000000;1.401617
3531.000000;1.208712
3530.000000;1.080243
3529.000000;1.039228
3528.000000;1.095105
3527.000000;1.181260
3526.000000;1.130879
3525.000000;1.038322
3524.000000;1.021656
3523.000000;1.076697
3522.000000;1.151069
3521.000000;1.175512
3520.000000;1.252023
3519.000000;1.488546
3518.000000;1.505080
3517.000000;1.424707
3516.000000;1.647622
3515.000000;1.497761
3514.000000;1.224684
3513.000000;1.182962
3512.000000;1.232703
3511.000000;1.317093
3510.000000;1.358747
3509.000000;1.263724
3508.000000;1.120244
3507.000000;1.061114
3506.000000;1.121038
3505.000000;1.377022
3504.000000;1.551646
3503.000000;1.281777
3502.000000;1.162089
3501.000000;1.263765
3500.000000;1.547341
3499.000000;1.509681
3498.000000;1.379217
3497.000000;1.428535
3496.000000;1.485342
3495.000000;1.482345
3494.000000;1.482983
3493.000000;1.546403
3492.000000;1.535129
3491.000000;1.487184
3490.000000;1.609973
3489.000000;2.112192
3488.000000;2.432920
3487.000000;1.763249
3486.000000;1.425309
3485.000000;1.253614
3484.000000;1.218695
3483.000000;1.461347
3482.000000;1.732780
3481.000000;1.236710
3480.000000;0.998774
3479.000000;0.967905
3478.000000;1.018301
3477.000000;1.089976
3476.000000;1.132182
3475.000000;1.255013
3474.000000;1.440855
3473.000000;1.312864
3472.000000;1.166073
3471.000000;1.214423
3470.000000;1.353879
3469.000000;1.256648
3468.000000;1.111871
3467.000000;1.085278
3466.000000;1.142591
3465.000000;1.198946
3464.000000;1.438271
3463.000000;1.741860
3462.000000;1.296289
3461.000000;1.129187
3460.000000;1.149649
3459.000000;1.588915
3458.000000;1.716236
3457.000000;1.165544
3456.000000;1.089140
3455.000000;1.164658
3454.000000;1.573848
3453.000000;1.783682
3452.000000;1.362174
3451.000000;1.279649
3450.000000;1.291360
3449.000000;1.356900
3448.000000;1.477538
3447.000000;1.609713
3446.000000;1.905142
3445.000000;2.058218
3444.000000;1.435922
3443.000000;1.184152
3442.000000;1.117282
3441.000000;1.124903
3440.000000;1.160157
3439.000000;1.192519
3438.000000;1.294709
3437.000000;1.358206
3436.000000;1.252807
3435.000000;1.157823
3434.000000;1.187001
3433.000000;1.607846
3432.000000;1.696715
3431.000000;1.258738
3430.000000;1.269132
3429.000000;1.431512
3428.000000;1.660286
3427.000000;1.617279
3426.000000;1.430193
3425.000000;1.519691
3424.000000;2.011238
3423.000000;2.063348
3422.000000;1.764964
3421.000000;1.627297
3420.000000;1.471133
3419.000000;1.431453
3418.000000;1.443717
3417.000000;1.491885
3416.000000;1.548225
3415.000000;1.547845
3414.000000;1.545612
3413.000000;1.577331
3412.000000;1.560606
3411.000000;1.483881
3410.000000;1.407537
3409.000000;1.346034
3408.000000;1.299312
3407.000000;1.237078
3406.000000;1.178710
3405.000000;1.154366
3404.000000;1.168363
3403.000000;1.220600
3402.000000;1.408614
3401.000000;1.853937
3400.000000;1.731371
3399.000000;1.488376
3398.000000;1.428157
3397.000000;1.310844
3396.000000;1.168852
3395.000000;1.055820
3394.000000;1.028346
3393.000000;1.107657
3392.000000;1.307696
3391.000000;1.609724
3390.000000;1.701553
3389.000000;1.574712
3388.000000;1.526748
3387.000000;1.537864
3386.000000;1.431709
3385.000000;1.288619
3384.000000;1.270569
3383.000000;1.277935
3382.000000;1.172881
3381.000000;1.080838
3380.000000;1.083831
3379.000000;1.225814
3378.000000;1.470867
3377.000000;1.435063
3376.000000;1.338353
3375.000000;1.382929
3374.000000;1.464941
3373.000000;1.606624
3372.000000;1.648781
3371.000000;1.580595
3370.000000;1.600296
3369.000000;1.731621
3368.000000;1.835889
3367.000000;1.814329
3366.000000;1.547407
3365.000000;1.310638
3364.000000;1.176842
3363.000000;1.280063
3362.000000;1.754131
3361.000000;1.332057
3360.000000;1.013714
3359.000000;0.934221
3358.000000;0.974162
3357.000000;1.114133
3356.000000;1.180020
3355.000000;1.128946
3354.000000;1.109043
3353.000000;1.157088
3352.000000;1.212555
3351.000000;1.252790
3350.000000;1.277275
3349.000000;1.325863
3348.000000;1.408450
3347.000000;1.559696
3346.000000;2.177130
3345.000000;1.831981
3344.000000;1.353370
3343.000000;1.213551
3342.000000;1.213424
3341.000000;1.311290
3340.000000;1.294844
3339.000000;1.219974
3338.000000;1.263751
3337.000000;1.367093
3336.000000;1.468632
3335.000000;1.438495
3334.000000;1.619632
3333.000000;2.229971
3332.000000;1.439525
3331.000000;1.206876
3330.000000;1.131982
3329.000000;1.056520
3328.000000;1.021264
3327.000000;1.109897
3326.000000;1.227540
3325.000000;1.006644
3324.000000;0.823422
3323.000000;0.800081
3322.000000;0.904500
3321.000000;1.076582
3320.000000;1.118167
3319.000000;1.068849
3318.000000;1.107626
3317.000000;1.253453
3316.000000;1.332741
3315.000000;1.302792
3314.000000;1.303069
3313.000000;1.239651
3312.000000;1.112445
3311.000000;1.052891
3310.000000;1.118249
3309.000000;1.430693
3308.000000;2.016521
3307.000000;1.768367
3306.000000;1.971108
3305.000000;2.343291
3304.000000;1.757840
3303.000000;1.852828
3302.000000;1.658467
3301.000000;1.094844
3300.000000;0.886009
3299.000000;0.861983
3298.000000;0.979353
3297.000000;1.242827
3296.000000;1.522017
3295.000000;1.830846
3294.000000;1.959047
3293.000000;1.381553
3292.000000;1.110641
3291.000000;1.046959
3290.000000;1.073601
3289.000000;1.108448
3288.000000;1.131813
3287.000000;1.159469
3286.000000;1.266700
3285.000000;1.568474
3284.000000;1.532811
3283.000000;1.280096
3282.000000;1.351337
3281.000000;1.810510
3280.000000;1.493225
3279.000000;1.200691
3278.000000;1.238581
3277.000000;1.355198
3276.000000;1.203164
3275.000000;1.095767
3274.000000;1.256981
3273.000000;1.635900
3272.000000;1.405601
3271.000000;1.275242
3270.000000;1.454588
3269.000000;1.262786
3268.000000;1.008103
3267.000000;1.005932
3266.000000;1.064729
3265.000000;1.021962
3264.000000;0.998346
3263.000000;1.148667
3262.000000;1.897202
3261.000000;1.500818
3260.000000;1.124245
3259.000000;1.090613
3258.000000;1.232008
3257.000000;1.651912
3256.000000;1.445117
3255.000000;1.183122
3254.000000;1.068498
3253.000000;0.993699
3252.000000;0.952506
3251.000000;0.944995
3250.000000;1.000836
3249.000000;1.124241
3248.000000;1.285886
3247.000000;1.353543
3246.000000;1.276664
3245.000000;1.211000
3244.000000;1.148842
3243.000000;1.044781
3242.000000;0.966739
3241.000000;0.965915
3240.000000;1.044672
3239.000000;1.104627
3238.000000;1.025183
3237.000000;0.944514
3236.000000;0.964203
3235.000000;1.105662
3234.000000;1.435138
3233.000000;1.620710
3232.000000;1.360963
3231.000000;1.230825
3230.000000;1.188133
3229.000000;1.174786
3228.000000;1.181258
3227.000000;1.210348
3226.000000;1.230294
3225.000000;1.154227
3224.000000;1.074655
3223.000000;1.093676
3222.000000;1.169914
3221.000000;1.134443
3220.000000;1.004062
3219.000000;0.927649
3218.000000;0.941351
3217.000000;1.090028
3216.000000;1.210406
3215.000000;1.125682
3214.000000;1.115325
3213.000000;1.270887
3212.000000;1.899558
3211.000000;1.608324
3210.000000;1.201023
3209.000000;1.150107
3208.000000;1.239356
3207.000000;1.556997
3206.000000;1.766417
3205.000000;1.547893
3204.000000;1.453840
3203.000000;1.434345
3202.000000;1.601901
3201.000000;2.003265
3200.000000;1.639483
3199.000000;1.481051
3198.000000;1.441819
3197.000000;1.458431
3196.000000;1.520969
3195.000000;1.444852
3194.000000;1.349419
3193.000000;1.224182
3192.000000;1.078039
3191.000000;1.004298
3190.000000;0.966551
3189.000000;0.903072
3188.000000;0.852612
3187.000000;0.885161
3186.000000;1.025673
3185.000000;1.129187
3184.000000;1.087061
3183.000000;1.200399
3182.000000;1.525843
3181.000000;1.242772
3180.000000;1.091655
3179.000000;1.174740
3178.000000;1.236670
3177.000000;1.165405
3176.000000;1.217354
3175.000000;1.650572
3174.000000;1.358806
3173.000000;1.059829
3172.000000;1.024988
3171.000000;1.044911
3170.000000;1.030922
3169.000000;1.046961
3168.000000;1.300350
3167.000000;1.714004
3166.000000;1.260892
3165.000000;1.109393
3164.000000;1.215290
3163.000000;1.635941
3162.000000;1.749586
3161.000000;1.528743
3160.000000;1.459883
3159.000000;1.271205
3158.000000;1.230961
3157.000000;1.317560
3156.000000;1.330455
3155.000000;1.208882
3154.000000;1.102658
3153.000000;1.026529
3152.000000;0.987697
3151.000000;1.026685
3150.000000;1.166559
3149.000000;1.406568
3148.000000;1.643323
3147.000000;1.614793
3146.000000;1.429381
3145.000000;1.303965
3144.000000;1.240623
3143.000000;1.127119
3142.000000;0.996055
3141.000000;0.949809
3140.000000;1.019830
3139.000000;1.233360
3138.000000;1.241482
3137.000000;1.006474
3136.000000;0.941638
3135.000000;1.017259
3134.000000;1.092596
3133.000000;1.002528
3132.000000;0.912062
3131.000000;0.914593
3130.000000;1.001903
3129.000000;1.167445
3128.000000;1.343185
3127.000000;1.578487
3126.000000;2.093946
3125.000000;1.546310
3124.000000;1.400187
3123.000000;1.657541
3122.000000;1.548094
3121.000000;1.261879
3120.000000;1.208167
3119.000000;1.301006
3118.000000;1.411368
3117.000000;1.437593
3116.000000;1.478150
3115.000000;1.545398
3114.000000;1.575890
3113.000000;1.586554
3112.000000;1.607039
3111.000000;1.656771
3110.000000;1.776932
3109.000000;1.902282
3108.000000;1.800450
3107.000000;1.581739
3106.000000;1.640263
3105.000000;1.807751
3104.000000;1.287389
3103.000000;1.041401
3102.000000;1.050490
3101.000000;1.264982
3100.000000;1.898793
3099.000000;1.542424
3098.000000;1.339610
3097.000000;1.388495
3096.000000;1.350160
3095.000000;1.248223
3094.000000;1.230809
3093.000000;1.290395
3092.000000;1.328394
3091.000000;1.337733
3090.000000;1.361534
3089.000000;1.372356
3088.000000;1.372147
3087.000000;1.373749
3086.000000;1.280567
3085.000000;1.113357
3084.000000;0.999933
3083.000000;0.983457
3082.000000;1.068894
3081.000000;1.415038
3080.000000;1.847395
3079.000000;1.451586
3078.000000;1.423404
3077.000000;1.649215
3076.000000;1.453018
3075.000000;1.235889
3074.000000;1.182539
3073.000000;1.200630
3072.000000;1.282566
3071.000000;1.400360
3070.000000;1.424144
3069.000000;1.310329
3068.000000;1.229028
3067.000000;1.325533
3066.000000;1.772122
3065.000000;1.680122
3064.000000;1.469539
3063.000000;1.413563
3062.000000;1.272329
3061.000000;1.207797
3060.000000;1.247095
3059.000000;1.357814
3058.000000;1.509036
3057.000000;1.689011
3056.000000;1.776660
3055.000000;1.649698
3054.000000;1.511262
3053.000000;1.467983
3052.000000;1.527959
3051.000000;1.680578
3050.000000;1.933721
3049.000000;1.583945
3048.000000;1.259178
3047.000000;1.139303
3046.000000;1.136097
3045.000000;1.184032
3044.000000;1.192553
3043.000000;1.165675
3042.000000;1.117609
3041.000000;1.011208
3040.000000;0.894079
3039.000000;0.837919
3038.000000;0.864511
3037.000000;1.002492
3036.000000;1.306368
3035.000000;1.249196
3034.000000;0.993083
3033.000000;0.981414
3032.000000;1.235641
3031.000000;1.612457
3030.000000;1.251750
3029.000000;1.118343
3028.000000;1.139476
3027.000000;1.388864
3026.000000;1.467126
3025.000000;1.205174
3024.000000;1.130034
3023.000000;1.138945
3022.000000;1.210198
3021.000000;1.489701
3020.000000;1.263436
3019.000000;0.953937
3018.000000;0.838268
3017.000000;0.821103
3016.000000;0.854408
3015.000000;0.895405
3014.000000;0.949730
3013.000000;1.042520
3012.000000;1.069179
3011.000000;0.978698
3010.000000;0.965152
3009.000000;1.097299
3008.000000;1.278373
3007.000000;1.258079
3006.000000;1.238706
3005.000000;1.261095
3004.000000;1.252520
3003.000000;1.250409
3002.000000;1.259561
3001.000000;1.186746
3000.000000;1.074888
2999.000000;1.054966
2998.000000;1.172381
2997.000000;1.440029
2996.000000;1.755869
2995.000000;1.851688
2994.000000;1.762436
2993.000000;1.808582
2992.000000;1.740082
2991.000000;1.397947
2990.000000;1.199530
2989.000000;1.105033
2988.000000;1.037576
2987.000000;0.972325
2986.000000;0.930854
2985.000000;0.962588
2984.000000;1.149415
2983.000000;1.660693
2982.000000;1.402489
2981.000000;1.094988
2980.000000;1.043712
2979.000000;1.218517
2978.000000;1.671400
2977.000000;1.513740
2976.000000;1.353936
2975.000000;1.240069
2974.000000;1.009533
2973.000000;0.880957
2972.000000;0.885503
2971.000000;1.062540
2970.000000;1.448935
2969.000000;1.801511
2968.000000;1.743286
2967.000000;1.276485
2966.000000;1.056061
2965.000000;1.020721
2964.000000;1.095884
2963.000000;1.426439
2962.000000;1.498352
2961.000000;1.154137
2960.000000;1.091798
2959.000000;1.204833
2958.000000;1.362487
2957.000000;1.359065
2956.000000;1.373045
2955.000000;1.511458
2954.000000;1.441128
2953.000000;1.196803
2952.000000;1.126349
2951.000000;1.193903
2950.000000;1.339646
2949.000000;1.443976
2948.000000;1.537099
2947.000000;1.623292
2946.000000;1.562348
2945.000000;1.495522
2944.000000;1.634371
2943.000000;1.656798
2942.000000;1.428848
2941.000000;1.512634
2940.000000;1.658155
2939.000000;1.178051
2938.000000;0.930615
2937.000000;0.840820
2936.000000;0.830913
2935.000000;0.884122
2934.000000;0.973530
2933.000000;1.047443
2932.000000;1.069716
2931.000000;1.081871
2930.000000;1.096986
2929.000000;1.110686
2928.000000;1.166386
2927.000000;1.225294
2926.000000;1.160201
2925.000000;1.065943
2924.000000;1.014851
2923.000000;0.985948
2922.000000;0.979860
2921.000000;1.020651
2920.000000;1.076530
2919.000000;1.019002
2918.000000;0.912423
2917.000000;0.891527
2916.000000;0.972957
2915.000000;1.228831
2914.000000;1.495959
2913.000000;1.203228
2912.000000;1.068535
2911.000000;1.075377
2910.000000;1.052240
2909.000000;1.026778
2908.000000;1.091121
2907.000000;1.284791
2906.000000;1.620584
2905.000000;1.840333
2904.000000;2.265032
2903.000000;1.397284
2902.000000;1.079962
2901.000000;0.962861
2900.000000;0.983586
2899.000000;1.105652
2898.000000;1.250051
2897.000000;1.319523
2896.000000;1.421056
2895.000000;1.757260
2894.000000;1.801758
2893.000000;1.463616
2892.000000;1.375876
2891.000000;1.338081
2890.000000;1.319091
2889.000000;1.366571
2888.000000;1.316235
2887.000000;1.133353
2886.000000;1.056872
2885.000000;1.119777
2884.000000;1.285227
2883.000000;1.443847
2882.000000;1.321533
2881.000000;1.164446
2880.000000;1.139679
2879.000000;1.246435
2878.000000;1.423861
2877.000000;1.472684
2876.000000;1.488567
2875.000000;1.541448
2874.000000;1.310631
2873.000000;1.068266
2872.000000;0.941199
2871.000000;0.909819
2870.000000;0.971312
2869.000000;1.141001
2868.000000;1.425075
2867.000000;1.703660
2866.000000;1.563527
2865.000000;1.335869
2864.000000;1.274551
2863.000000;1.499012
2862.000000;1.422752
2861.000000;1.134259
2860.000000;1.061480
2859.000000;1.094307
2858.000000;1.086212
2857.000000;0.992088
2856.000000;0.942842
2855.000000;0.981602
2854.000000;1.032450
2853.000000;0.984016
2852.000000;0.967626
2851.000000;1.072845
2850.000000;1.220951
2849.000000;1.081684
2848.000000;0.882160
2847.000000;0.793591
2846.000000;0.831427
2845.000000;1.092979
2844.000000;1.634465
2843.000000;1.255115
2842.000000;1.108564
2841.000000;1.132947
2840.000000;1.236964
2839.000000;1.285064
2838.000000;1.148761
2837.000000;0.996609
2836.000000;0.951500
2835.000000;1.039139
2834.000000;1.298854
2833.000000;1.771251
2832.000000;1.496920
2831.000000;1.280289
2830.000000;1.257788
2829.000000;1.343330
2828.000000;1.565023
2827.000000;1.459549
2826.000000;1.244559
2825.000000;1.178482
2824.000000;1.250970
2823.000000;1.377528
2822.000000;1.246809
2821.000000;1.088149
2820.000000;1.026413
2819.000000;1.029192
2818.000000;1.057201
2817.000000;1.053242
2816.000000;0.976131
2815.000000;0.913576
2814.000000;0.945156
2813.000000;1.123167
2812.000000;1.382024
2811.000000;1.349696
2810.000000;1.297592
2809.000000;1.635324
2808.000000;1.732939
2807.000000;1.406034
2806.000000;1.350969
2805.000000;1.329642
2804.000000;1.207681
2803.000000;1.104404
2802.000000;1.137007
2801.000000;1.385232
2800.000000;1.838217
2799.000000;1.429704
2798.000000;1.320860
2797.000000;1.348717
2796.000000;1.414474
2795.000000;1.347193
2794.000000;1.219442
2793.000000;1.052307
2792.000000;0.858110
2791.000000;0.730531
2790.000000;0.693923
2789.000000;0.748637
2788.000000;0.876127
2787.000000;0.987285
2786.000000;1.040370
2785.000000;1.120581
2784.000000;1.121915
2783.000000;1.032909
2782.000000;0.987100
2781.000000;0.991711
2780.000000;1.036486
2779.000000;1.122898
2778.000000;1.151274
2777.000000;1.093578
2776.000000;1.109731
2775.000000;1.246084
2774.000000;1.341981
2773.000000;1.370753
2772.000000;1.542426
2771.000000;2.001433
2770.000000;1.430865
2769.000000;1.240864
2768.000000;1.292513
2767.000000;1.662209
2766.000000;1.782342
2765.000000;1.487151
2764.000000;1.407104
2763.000000;1.308590
2762.000000;1.362343
2761.000000;1.584340
2760.000000;1.696237
2759.000000;1.421653
2758.000000;1.212924
2757.000000;1.096836
2756.000000;1.024203
2755.000000;0.961116
2754.000000;0.920710
2753.000000;0.951988
2752.000000;1.092096
2751.000000;1.430094
2750.000000;1.625542
2749.000000;1.418658
2748.000000;1.357420
2747.000000;1.356639
2746.000000;1.371246
2745.000000;1.450990
2744.000000;1.535216
2743.000000;1.443958
2742.000000;1.390194
2741.000000;1.520911
2740.000000;1.800685
2739.000000;1.736861
2738.000000;1.969499
2737.000000;2.054950
2736.000000;1.388181
2735.000000;1.203427
2734.000000;1.104144
2733.000000;1.075650
2732.000000;1.105386
2731.000000;1.145806
2730.000000;1.160118
2729.000000;1.236013
2728.000000;1.799226
2727.000000;1.347291
2726.000000;1.013337
2725.000000;1.004243
2724.000000;1.117706
2723.000000;1.350014
2722.000000;1.464816
2721.000000;1.286022
2720.000000;1.088126
2719.000000;1.020960
2718.000000;1.111735
2717.000000;1.395008
2716.000000;2.039340
2715.000000;1.945154
2714.000000;1.563851
2713.000000;1.639939
2712.000000;2.186865
2711.000000;1.458286
2710.000000;1.324893
2709.000000;1.432019
2708.000000;1.441349
2707.000000;1.298113
2706.000000;1.398373
2705.000000;1.430022
2704.000000;1.167957
2703.000000;1.066921
2702.000000;1.145437
2701.000000;1.698532
2700.000000;1.508008
2699.000000;1.220298
2698.000000;1.324939
2697.000000;1.420003
2696.000000;1.482518
2695.000000;1.846814
2694.000000;1.534810
2693.000000;1.186494
2692.000000;1.017801
2691.000000;0.945513
2690.000000;0.970287
2689.000000;1.129148
2688.000000;1.534926
2687.000000;1.839223
2686.000000;1.462881
2685.000000;1.281451
2684.000000;1.163631
2683.000000;1.164663
2682.000000;1.243061
2681.000000;1.360314
2680.000000;1.363180
2679.000000;1.190419
2678.000000;1.097825
2677.000000;1.107399
2676.000000;1.020176
2675.000000;0.876624
2674.000000;0.836312
2673.000000;0.915704
2672.000000;1.163535
2671.000000;1.317192
2670.000000;1.078892
2669.000000;0.944866
2668.000000;0.942166
2667.000000;1.051406
2666.000000;1.312730
2665.000000;1.778587
2664.000000;1.649061
2663.000000;1.528290
2662.000000;1.409166
2661.000000;1.279540
2660.000000;1.200982
2659.000000;1.156629
2658.000000;1.137161
2657.000000;1.123931
2656.000000;1.065404
2655.000000;1.007173
2654.000000;1.035202
2653.000000;1.138088
2652.000000;1.296321
2651.000000;1.480732
2650.000000;1.209577
2649.000000;0.952603
2648.000000;0.888543
2647.000000;0.925929
2646.000000;1.016652
2645.000000;1.105187
2644.000000;1.060335
2643.000000;0.902068
2642.000000;0.796863
2641.000000;0.781023
2640.000000;0.836860
2639.000000;0.916919
2638.000000;0.954690
2637.000000;0.980017
2636.000000;1.055483
2635.000000;1.204583
2634.000000;1.455985
2633.000000;1.482754
2632.000000;1.278724
2631.000000;1.230160
2630.000000;1.303976
2629.000000;1.244618
2628.000000;1.010848
2627.000000;0.893164
2626.000000;0.895690
2625.000000;0.985943
2624.000000;1.042581
2623.000000;0.998310
2622.000000;0.969191
2621.000000;0.994419
2620.000000;1.056340
2619.000000;1.139342
2618.000000;1.243770
2617.000000;1.263282
2616.000000;1.087052
2615.000000;0.906388
2614.000000;0.799155
2613.000000;0.757217
2612.000000;0.768324
2611.000000;0.823309
2610.000000;0.909165
2609.000000;0.962422
2608.000000;0.903280
2607.000000;0.816525
2606.000000;0.816277
2605.000000;0.959387
2604.000000;1.360577
2603.000000;1.659346
2602.000000;1.205236
2601.000000;1.027534
2600.000000;0.933510
2599.000000;0.926551
2598.000000;0.988673
2597.000000;1.078882
2596.000000;1.166857
2595.000000;1.260832
2594.000000;1.149755
2593.000000;0.990486
2592.000000;0.941217
2591.000000;0.895726
2590.000000;0.793147
2589.000000;0.733362
2588.000000;0.793511
2587.000000;1.048516
2586.000000;1.741170
2585.000000;1.431740
2584.000000;1.482530
2583.000000;1.282106
2582.000000;1.054513
2581.000000;1.079504
2580.000000;1.244815
2579.000000;1.250695
2578.000000;1.177590
2577.000000;1.197204
2576.000000;1.123640
2575.000000;0.996627
2574.000000;0.968368
2573.000000;1.069235
2572.000000;1.178626
2571.000000;1.124434
2570.000000;1.107106
2569.000000;1.332717
2568.000000;1.775444
2567.000000;1.461704
2566.000000;1.318413
2565.000000;1.506394
2564.000000;1.517357
2563.000000;1.277261
2562.000000;1.134828
2561.000000;1.098921
2560.000000;1.145154
2559.000000;1.237685
2558.000000;1.340825
2557.000000;1.383152
2556.000000;1.329296
2555.000000;1.285986
2554.000000;1.401257
2553.000000;1.427021
2552.000000;1.036633
2551.000000;0.831447
2550.000000;0.770727
2549.000000;0.814890
2548.000000;0.905833
2547.000000;0.959571
2546.000000;0.999204
2545.000000;1.302628
2544.000000;1.599727
2543.000000;1.132462
2542.000000;1.000078
2541.000000;1.042746
2540.000000;1.260674
2539.000000;1.374724
2538.000000;1.158021
2537.000000;1.037469
2536.000000;1.011587
2535.000000;1.012018
2534.000000;0.996710
2533.000000;0.987812
2532.000000;1.028579
2531.000000;1.115393
2530.000000;1.158285
2529.000000;1.165616
2528.000000;1.210642
2527.000000;1.219290
2526.000000;1.178246
2525.000000;1.361372
2524.000000;1.836609
2523.000000;1.280490
2522.000000;1.035936
2521.000000;0.949157
2520.000000;0.962918
2519.000000;1.136137
2518.000000;1.393179
2517.000000;1.396883
2516.000000;1.610487
2515.000000;1.433868
2514.000000;1.069241
2513.000000;1.008694
2512.000000;1.151933
2511.000000;1.268861
2510.000000;1.039943
2509.000000;0.902614
2508.000000;0.903612
2507.000000;0.972827
2506.000000;1.051511
2505.000000;1.049341
2504.000000;0.990565
2503.000000;0.946366
2502.000000;0.925501
2501.000000;0.917262
2500.000000;0.937269
2499.000000;1.009722
2498.000000;1.092600
2497.000000;1.026978
2496.000000;0.883535
2495.000000;0.798731
2494.000000;0.790055
2493.000000;0.860165
2492.000000;1.010480
2491.000000;1.346094
2490.000000;1.494760
2489.000000;1.162269
2488.000000;1.047709
2487.000000;1.043541
2486.000000;1.044474
2485.000000;1.029463
2484.000000;1.051811
2483.000000;1.220598
2482.000000;1.358702
2481.000000;1.135849
2480.000000;1.002795
2479.000000;1.108343
2478.000000;1.692362
2477.000000;1.225780
2476.000000;0.895552
2475.000000;0.782296
2474.000000;0.743904
2473.000000;0.779438
2472.000000;0.844277
2471.000000;0.851624
2470.000000;0.834605
2469.000000;0.909621
2468.000000;1.086210
2467.000000;1.231846
2466.000000;1.274933
2465.000000;1.442171
2464.000000;1.420833
2463.000000;1.111951
2462.000000;0.949312
2461.000000;0.909543
2460.000000;0.938237
2459.000000;1.030032
2458.000000;1.218647
2457.000000;1.090592
2456.000000;0.867937
2455.000000;0.793059
2454.000000;0.784698
2453.000000;0.835256
2452.000000;1.025164
2451.000000;1.216396
2450.000000;1.024480
2449.000000;0.901704
2448.000000;0.874963
2447.000000;0.878980
2446.000000;0.843642
2445.000000;0.760445
2444.000000;0.755633
2443.000000;0.862789
2442.000000;1.270345
2441.000000;1.463315
2440.000000;0.899518
2439.000000;0.778764
2438.000000;0.797968
2437.000000;0.903305
2436.000000;0.995556
2435.000000;1.000985
2434.000000;1.005580
2433.000000;1.030681
2432.000000;1.121071
2431.000000;1.248928
2430.000000;1.291149
2429.000000;1.199222
2428.000000;1.094287
2427.000000;0.979137
2426.000000;0.865990
2425.000000;0.817634
2424.000000;0.877295
2423.000000;1.047453
2422.000000;1.270752
2421.000000;1.227798
2420.000000;1.349247
2419.000000;2.030735
2418.000000;1.243780
2417.000000;1.041993
2416.000000;1.092004
2415.000000;1.279295
2414.000000;1.415002
2413.000000;1.335471
2412.000000;1.253737
2411.000000;1.072040
2410.000000;0.930156
2409.000000;0.891527
2408.000000;0.965025
2407.000000;1.183924
2406.000000;1.569482
2405.000000;1.582472
2404.000000;1.317028
2403.000000;1.130893
2402.000000;0.969601
2401.000000;0.846027
2400.000000;0.775112
2399.000000;0.784968
2398.000000;0.901424
2397.000000;1.140102
2396.000000;1.448937
2395.000000;1.583229
2394.000000;1.537613
2393.000000;1.415104
2392.000000;1.247490
2391.000000;1.240561
2390.000000;1.578038
2389.000000;1.609954
2388.000000;1.248096
2387.000000;1.219091
2386.000000;1.266902
2385.000000;1.256699
2384.000000;1.368332
2383.000000;1.426474
2382.000000;1.155442
2381.000000;0.898553
2380.000000;0.798300
2379.000000;1.256486
2378.000000;0.819941
2377.000000;0.375145
2376.000000;0.308790
2375.000000;0.457254
2374.000000;1.103185
2373.000000;1.078123
2372.000000;0.784911
2371.000000;0.883119
2370.000000;1.074052
2369.000000;1.099459
2368.000000;0.936373
2367.000000;1.126710
2366.000000;1.297670
2365.000000;1.183976
2364.000000;1.475287
2363.000000;1.223775
2362.000000;1.172068
2361.000000;1.174552
2360.000000;1.304672
2359.000000;1.395145
2358.000000;1.374668
2357.000000;1.347151
2356.000000;1.584054
2355.000000;1.607747
2354.000000;1.181528
2353.000000;1.041763
2352.000000;1.061830
2351.000000;1.159444
2350.000000;1.083513
2349.000000;0.991176
2348.000000;0.991338
2347.000000;1.155968
2346.000000;1.907731
2345.000000;1.231181
2344.000000;0.925626
2343.000000;0.884614
2342.000000;0.812515
2341.000000;0.727071
2340.000000;0.692548
2339.000000;0.775338
2338.000000;0.931136
2337.000000;0.850865
2336.000000;0.800794
2335.000000;0.824175
2334.000000;1.224772
2333.000000;0.633980
2332.000000;0.291579
2331.000000;0.431596
2330.000000;0.735387
2329.000000;1.424629
2328.000000;0.985931
2327.000000;0.664112
2326.000000;0.518611
2325.000000;0.523209
2324.000000;0.524784
2323.000000;0.392139
2322.000000;0.318167
2321.000000;0.406713
2320.000000;0.626469
2319.000000;0.577942
2318.000000;0.437202
2317.000000;0.441833
2316.000000;0.560319
2315.000000;0.731091
2314.000000;0.688113
2313.000000;0.608072
2312.000000;0.722059
2311.000000;0.861706
2310.000000;0.801144
2309.000000;0.859608
2308.000000;1.311985
2307.000000;1.564923
2306.000000;0.937623
2305.000000;0.756854
2304.000000;0.709877
2303.000000;0.745131
2302.000000;0.924650
2301.000000;1.041680
2300.000000;0.866564
2299.000000;0.830440
2298.000000;1.036987
2297.000000;0.970437
2296.000000;0.774697
2295.000000;0.714255
2294.000000;0.667541
2293.000000;0.608625
2292.000000;0.570435
2291.000000;0.559511
2290.000000;0.568953
2289.000000;0.616339
2288.000000;0.749397
2287.000000;1.017824
2286.000000;1.127558
2285.000000;0.907566
2284.000000;0.798648
2283.000000;0.797383
2282.000000;0.870001
2281.000000;0.913548
2280.000000;0.849146
2279.000000;0.802596
2278.000000;0.806288
2277.000000;0.836573
2276.000000;0.891491
2275.000000;0.955705
2274.000000;0.979120
2273.000000;0.975321
2272.000000;1.029646
2271.000000;1.188418
2270.000000;1.399674
2269.000000;1.761059
2268.000000;1.830833
2267.000000;1.311419
2266.000000;1.140332
2265.000000;1.135052
2264.000000;1.099486
2263.000000;1.036948
2262.000000;0.904293
2261.000000;0.736871
2260.000000;0.647161
2259.000000;0.667227
2258.000000;0.778711
2257.000000;0.802086
2256.000000;0.708412
2255.000000;0.715407
2254.000000;0.879341
2253.000000;1.297587
2252.000000;2.075317
2251.000000;2.194305
2250.000000;1.855384
2249.000000;1.635796
2248.000000;1.852277
2247.000000;1.643459
2246.000000;1.325926
2245.000000;1.254251
2244.000000;1.244236
2243.000000;1.332447
2242.000000;1.652168
2241.000000;1.527159
2240.000000;1.235566
2239.000000;1.215817
2238.000000;1.304506
2237.000000;1.388104
2236.000000;1.583713
2235.000000;1.803421
2234.000000;1.658623
2233.000000;1.474820
2232.000000;1.237418
2231.000000;1.083344
2230.000000;1.061265
2229.000000;1.201331
2228.000000;1.382030
2227.000000;1.265964
2226.000000;1.152727
2225.000000;1.121739
2224.000000;1.151294
2223.000000;1.370932
2222.000000;1.635750
2221.000000;1.524432
2220.000000;1.575062
2219.000000;1.333567
2218.000000;0.993012
2217.000000;0.840990
2216.000000;0.794511
2215.000000;0.803527
2214.000000;0.788527
2213.000000;0.792090
2212.000000;0.883132
2211.000000;1.123667
2210.000000;1.467506
2209.000000;1.248047
2208.000000;1.052809
2207.000000;1.031258
2206.000000;1.094755
2205.000000;1.089339
2204.000000;0.926326
2203.000000;0.846318
2202.000000;0.861764
2201.000000;1.102531
2200.000000;1.345028
2199.000000;0.918856
2198.000000;0.737819
2197.000000;0.721923
2196.000000;0.802053
2195.000000;0.967587
2194.000000;1.054274
2193.000000;1.039957
2192.000000;1.041495
2191.000000;1.223872
2190.000000;1.666904
2189.000000;1.316151
2188.000000;1.092556
2187.000000;1.314216
2186.000000;1.467095
2185.000000;1.162252
2184.000000;1.059703
2183.000000;1.109890
2182.000000;1.144157
2181.000000;1.107606
2180.000000;1.026498
2179.000000;0.904646
2178.000000;0.755725
2177.000000;0.625060
2176.000000;0.551190
2175.000000;0.549357
2174.000000;0.628346
2173.000000;0.715372
2172.000000;0.677816
2171.000000;0.627108
2170.000000;0.677920
2169.000000;0.905155
2168.000000;1.150671
2167.000000;0.970522
2166.000000;0.863004
2165.000000;0.899519
2164.000000;1.015106
2163.000000;1.203424
2162.000000;1.358390
2161.000000;1.363700
2160.000000;1.314589
2159.000000;1.285892
2158.000000;1.180701
2157.000000;1.076809
2156.000000;1.069696
2155.000000;1.226315
2154.000000;1.359222
2153.000000;1.192340
2152.000000;1.113680
2151.000000;1.178232
2150.000000;1.322185
2149.000000;1.410221
2148.000000;1.442952
2147.000000;1.279808
2146.000000;0.986615
2145.000000;0.829973
2144.000000;0.756215
2143.000000;0.731883
2142.000000;0.766687
2141.000000;0.843685
2140.000000;0.887744
2139.000000;0.865420
2138.000000;0.868926
2137.000000;1.012595
2136.000000;1.342284
2135.000000;1.314407
2134.000000;1.294101
2133.000000;1.614146
2132.000000;1.382006
2131.000000;1.111709
2130.000000;1.022225
2129.000000;0.999166
2128.000000;1.220506
2127.000000;1.386605
2126.000000;1.330884
2125.000000;1.605425
2124.000000;1.081433
2123.000000;0.811591
2122.000000;0.806062
2121.000000;0.910779
2120.000000;0.955857
2119.000000;0.881428
2118.000000;0.882403
2117.000000;0.893309
2116.000000;0.869562
2115.000000;0.900922
2114.000000;1.149751
2113.000000;1.344242
2112.000000;1.104439
2111.000000;1.046404
2110.000000;1.185086
2109.000000;1.376784
2108.000000;1.666641
2107.000000;1.794682
2106.000000;1.518193
2105.000000;1.573233
2104.000000;1.248522
2103.000000;0.927693
2102.000000;0.856741
2101.000000;0.951639
2100.000000;1.165333
2099.000000;1.117400
2098.000000;0.867097
2097.000000;0.740233
2096.000000;0.743185
2095.000000;0.791534
2094.000000;0.789228
2093.000000;0.809871
2092.000000;0.912431
2091.000000;0.913243
2090.000000;0.766519
2089.000000;0.680269
2088.000000;0.699295
2087.000000;0.827818
2086.000000;1.102297
2085.000000;1.312560
2084.000000;1.095751
2083.000000;0.913323
2082.000000;0.840493
2081.000000;0.823243
2080.000000;0.874521
2079.000000;1.032094
2078.000000;1.427030
2077.000000;1.666422
2076.000000;1.255210
2075.000000;1.093947
2074.000000;1.231180
2073.000000;1.448373
2072.000000;1.199311
2071.000000;1.069774
2070.000000;1.041523
2069.000000;1.055524
2068.000000;1.219232
2067.000000;1.494036
2066.000000;1.374169
2065.000000;1.012349
2064.000000;0.828377
2063.000000;0.799223
2062.000000;0.877675
2061.000000;0.959837
2060.000000;0.979920
2059.000000;0.960414
2058.000000;0.919468
2057.000000;0.925510
2056.000000;1.007963
2055.000000;1.225295
2054.000000;1.346135
2053.000000;1.027867
2052.000000;0.783544
2051.000000;0.660754
2050.000000;0.634975
2049.000000;0.719076
2048.000000;0.831744
2047.000000;0.877687
2046.000000;0.917246
2045.000000;1.106342
2044.000000;1.374491
2043.000000;1.076563
2042.000000;0.864304
2041.000000;0.812687
2040.000000;0.823662
2039.000000;0.872728
2038.000000;0.960701
2037.000000;1.249155
2036.000000;1.351104
2035.000000;0.929900
2034.000000;0.707606
2033.000000;0.601437
2032.000000;0.590657
2031.000000;0.677780
2030.000000;0.802601
2029.000000;1.111267
2028.000000;1.275350
2027.000000;0.796307
2026.000000;0.618636
2025.000000;0.656690
2024.000000;0.847578
2023.000000;1.026720
2022.000000;0.886877
2021.000000;0.783738
2020.000000;0.871673
2019.000000;1.184626
2018.000000;1.212646
2017.000000;0.973002
2016.000000;0.927785
2015.000000;1.021714
2014.000000;1.145594
2013.000000;1.041950
2012.000000;0.845183
2011.000000;0.730214
2010.000000;0.733775
2009.000000;0.880003
2008.000000;1.011672
2007.000000;0.989841
2006.000000;1.075344
2005.000000;1.081891
2004.000000;0.900652
2003.000000;0.839958
2002.000000;1.051089
2001.000000;1.285557
2000.000000;0.844687
1999.000000;0.607449
1998.000000;0.545752
1997.000000;0.603012
1996.000000;0.775407
1995.000000;0.847703
1994.000000;0.763588
1993.000000;0.832765
1992.000000;1.165412
1991.000000;0.994856
1990.000000;0.774289
1989.000000;0.786974
1988.000000;1.030399
1987.000000;1.640339
1986.000000;1.290216
1985.000000;1.164406
1984.000000;1.199000
1983.000000;1.055251
1982.000000;0.948603
1981.000000;0.959585
1980.000000;1.313088
1979.000000;1.452089
1978.000000;1.010088
1977.000000;0.936494
1976.000000;0.974675
1975.000000;0.869477
1974.000000;0.711455
1973.000000;0.660431
1972.000000;0.731262
1971.000000;0.879456
1970.000000;1.021375
1969.000000;1.126056
1968.000000;1.218208
1967.000000;1.240744
1966.000000;1.190563
1965.000000;1.392766
1964.000000;1.442962
1963.000000;0.956369
1962.000000;0.812935
1961.000000;0.889890
1960.000000;1.122349
1959.000000;1.306008
1958.000000;1.271589
1957.000000;1.246538
1956.000000;1.270561
1955.000000;1.272981
1954.000000;1.058941
1953.000000;0.913928
1952.000000;0.992248
1951.000000;1.200307
1950.000000;0.961155
1949.000000;0.745262
1948.000000;0.728589
1947.000000;0.868266
1946.000000;1.269751
1945.000000;1.293309
1944.000000;1.125173
1943.000000;1.226273
1942.000000;1.142237
1941.000000;0.977897
1940.000000;0.927006
1939.000000;1.008155
1938.000000;1.245832
1937.000000;1.641240
1936.000000;1.740651
1935.000000;1.379297
1934.000000;1.177423
1933.000000;1.161759
1932.000000;1.144763
1931.000000;1.028888
1930.000000;1.032068
1929.000000;1.224300
1928.000000;1.285916
1927.000000;1.110761
1926.000000;1.018803
1925.000000;0.951836
1924.000000;0.904805
1923.000000;0.909934
1922.000000;1.095065
1921.000000;1.550531
1920.000000;1.290043
1919.000000;1.150730
1918.000000;1.343140
1917.000000;1.272785
1916.000000;1.087825
1915.000000;0.984827
1914.000000;0.919535
1913.000000;0.922923
1912.000000;0.968139
1911.000000;0.998470
1910.000000;0.961972
1909.000000;1.056978
1908.000000;1.303611
1907.000000;1.031335
1906.000000;0.820453
1905.000000;0.918386
1904.000000;1.312683
1903.000000;1.070238
1902.000000;0.784316
1901.000000;0.716273
1900.000000;0.659216
1899.000000;0.636976
1898.000000;0.689742
1897.000000;0.805277
1896.000000;0.911864
1895.000000;0.956251
1894.000000;0.946751
1893.000000;0.914509
1892.000000;0.929130
1891.000000;1.008720
1890.000000;1.275822
1889.000000;1.388083
1888.000000;0.965334
1887.000000;0.800316
1886.000000;0.829705
1885.000000;0.984533
1884.000000;1.097572
1883.000000;0.976395
1882.000000;0.916759
1881.000000;1.008183
1880.000000;1.302692
1879.000000;1.630427
1878.000000;1.355388
1877.000000;1.086414
1876.000000;0.926596
1875.000000;0.882220
1874.000000;0.917132
1873.000000;1.046313
1872.000000;1.281622
1871.000000;1.539758
1870.000000;1.755810
1869.000000;1.253858
1868.000000;0.956949
1867.000000;0.924868
1866.000000;0.908785
1865.000000;0.789242
1864.000000;0.649899
1863.000000;0.553364
1862.000000;0.511129
1861.000000;0.521912
1860.000000;0.586096
1859.000000;0.711044
1858.000000;0.843956
1857.000000;0.832894
1856.000000;0.743649
1855.000000;0.677734
1854.000000;0.638061
1853.000000;0.627579
1852.000000;0.657391
1851.000000;0.733172
1850.000000;0.792428
1849.000000;0.744639
1848.000000;0.682998
1847.000000;0.726889
1846.000000;0.931052
1845.000000;1.279570
1844.000000;1.309033
1843.000000;1.022422
1842.000000;0.869612
1841.000000;0.871054
1840.000000;1.066913
1839.000000;1.310131
1838.000000;1.062231
1837.000000;0.868763
1836.000000;0.906547
1835.000000;0.954149
1834.000000;0.769219
1833.000000;0.665913
1832.000000;0.769199
1831.000000;1.042802
1830.000000;1.082069
1829.000000;0.886844
1828.000000;0.632355
1827.000000;0.475676
1826.000000;0.461739
1825.000000;0.572334
1824.000000;0.609894
1823.000000;0.468684
1822.000000;0.428635
1821.000000;0.510430
1820.000000;0.620862
1819.000000;0.614391
1818.000000;0.562433
1817.000000;0.594416
1816.000000;0.746735
1815.000000;1.182239
1814.000000;1.318751
1813.000000;1.012438
1812.000000;0.963338
1811.000000;0.990508
1810.000000;1.012868
1809.000000;1.023315
1808.000000;1.017190
1807.000000;1.138212
1806.000000;2.013293
1805.000000;1.182557
1804.000000;0.846183
1803.000000;0.797461
1802.000000;0.878217
1801.000000;1.165852
1800.000000;1.527724
1799.000000;1.268345
1798.000000;1.048448
1797.000000;0.895594
1796.000000;0.748049
1795.000000;0.638386
1794.000000;0.601821
1793.000000;0.672764
1792.000000;0.789366
1791.000000;0.760879
1790.000000;0.687493
1789.000000;0.778327
1788.000000;1.006161
1787.000000;0.893992
1786.000000;0.708929
1785.000000;0.672749
1784.000000;0.634160
1783.000000;0.568801
1782.000000;0.547203
1781.000000;0.553991
1780.000000;0.523142
1779.000000;0.514791
1778.000000;0.625942
1777.000000;0.685422
1776.000000;0.542484
1775.000000;0.481014
1774.000000;0.577392
1773.000000;0.755220
1772.000000;0.744546
1771.000000;0.644106
1770.000000;0.604874
1769.000000;0.596487
1768.000000;0.641990
1767.000000;0.932780
1766.000000;1.099544
1765.000000;0.826583
1764.000000;0.853802
1763.000000;0.857278
1762.000000;0.815517
1761.000000;1.080170
1760.000000;1.387201
1759.000000;1.020542
1758.000000;0.903262
1757.000000;0.931420
1756.000000;0.905100
1755.000000;0.789454
1754.000000;0.704657
1753.000000;0.686550
1752.000000;0.689164
1751.000000;0.693620
1750.000000;0.713662
1749.000000;0.780100
1748.000000;0.888887
1747.000000;1.219214
1746.000000;1.283920
1745.000000;0.694912
1744.000000;0.502677
1743.000000;0.487026
1742.000000;0.646701
1741.000000;0.816935
1740.000000;0.722640
1739.000000;0.674816
1738.000000;0.840900
1737.000000;1.208509
1736.000000;0.770723
1735.000000;0.493032
1734.000000;0.480632
1733.000000;0.661401
1732.000000;1.094585
1731.000000;0.820121
1730.000000;0.482368
1729.000000;0.358643
1728.000000;0.347948
1727.000000;0.412601
1726.000000;0.509027
1725.000000;0.657497
1724.000000;0.918995
1723.000000;1.425671
1722.000000;1.188715
1721.000000;0.931192
1720.000000;1.012733
1719.000000;1.144307
1718.000000;0.786266
1717.000000;0.654084
1716.000000;0.714074
1715.000000;0.856353
1714.000000;0.842119
1713.000000;0.743446
1712.000000;0.832411
1711.000000;0.828749
1710.000000;0.635812
1709.000000;0.578302
1708.000000;0.688615
1707.000000;0.816479
1706.000000;0.664126
1705.000000;0.522938
1704.000000;0.531457
1703.000000;0.688810
1702.000000;0.805007
1701.000000;0.691930
1700.000000;0.646507
1699.000000;0.727073
1698.000000;0.844800
1697.000000;0.927207
1696.000000;1.014801
1695.000000;1.110883
1694.000000;1.154741
1693.000000;1.199122
1692.000000;1.410398
1691.000000;1.297238
1690.000000;0.897629
1689.000000;0.784973
1688.000000;0.814034
1687.000000;0.841410
1686.000000;0.745549
1685.000000;0.663578
1684.000000;0.655687
1683.000000;0.779632
1682.000000;1.188501
1681.000000;0.933335
1680.000000;0.634068
1679.000000;0.682256
1678.000000;0.773178
1677.000000;0.722313
1676.000000;0.649575
1675.000000;0.637566
1674.000000;0.651954
1673.000000;0.653123
1672.000000;0.643480
1671.000000;0.665789
1670.000000;0.733229
1669.000000;0.791478
1668.000000;0.770630
1667.000000;0.726501
1666.000000;0.703275
1665.000000;0.698670
1664.000000;0.754492
1663.000000;0.898063
1662.000000;1.152504
1661.000000;1.331945
1660.000000;1.026267
1659.000000;0.788023
1658.000000;0.687738
1657.000000;0.694861
1656.000000;0.807147
1655.000000;1.111454
1654.000000;0.975558
1653.000000;0.702794
1652.000000;0.655149
1651.000000;0.667411
1650.000000;0.641090
1649.000000;0.603858
1648.000000;0.739861
1647.000000;1.050644
1646.000000;0.907222
1645.000000;0.919436
1644.000000;1.145944
1643.000000;1.206047
1642.000000;1.027601
1641.000000;0.867943
1640.000000;0.840215
1639.000000;0.966991
1638.000000;1.286184
1637.000000;1.340036
1636.000000;1.077864
1635.000000;1.133476
1634.000000;1.361800
1633.000000;1.162251
1632.000000;0.960229
1631.000000;0.929173
1630.000000;0.910649
1629.000000;0.758411
1628.000000;0.566409
1627.000000;0.494454
1626.000000;0.581693
1625.000000;1.047633
1624.000000;1.180437
1623.000000;0.814672
1622.000000;0.718818
1621.000000;0.710531
1620.000000;0.841867
1619.000000;0.989933
1618.000000;1.073147
1617.000000;1.193322
1616.000000;1.386104
1615.000000;1.680940
1614.000000;1.185880
1613.000000;0.844111
1612.000000;0.626417
1611.000000;0.535593
1610.000000;0.602026
1609.000000;0.919968
1608.000000;1.064724
1607.000000;0.722886
1606.000000;0.714513
1605.000000;0.837010
1604.000000;0.837952
1603.000000;0.656048
1602.000000;0.552008
1601.000000;0.513961
1600.000000;0.526759
1599.000000;0.603122
1598.000000;0.799119
1597.000000;1.061005
1596.000000;1.132477
1595.000000;1.537695
1594.000000;1.203275
1593.000000;1.042538
1592.000000;1.001711
1591.000000;0.751550
1590.000000;0.651592
1589.000000;0.668791
1588.000000;0.645204
1587.000000;0.506448
1586.000000;0.408751
1585.000000;0.455870
1584.000000;0.800428
1583.000000;1.197829
1582.000000;0.650780
1581.000000;0.675031
1580.000000;0.867569
1579.000000;1.277357
1578.000000;1.853496
1577.000000;1.559090
1576.000000;1.092475
1575.000000;0.918579
1574.000000;0.917572
1573.000000;0.844356
1572.000000;0.576887
1571.000000;0.381528
1570.000000;0.289948
1569.000000;0.257813
1568.000000;0.282912
1567.000000;0.375878
1566.000000;0.532247
1565.000000;0.668791
1564.000000;0.689092
1563.000000;0.694619
1562.000000;0.730385
1561.000000;0.742729
1560.000000;0.711836
1559.000000;0.706987
1558.000000;0.846061
1557.000000;1.074866
1556.000000;1.022677
1555.000000;0.980592
1554.000000;1.094351
1553.000000;1.073086
1552.000000;0.857271
1551.000000;0.734602
1550.000000;0.744029
1549.000000;0.783568
1548.000000;0.614720
1547.000000;0.526972
1546.000000;0.682883
1545.000000;1.108935
1544.000000;0.667890
1543.000000;0.454943
1542.000000;0.528946
1541.000000;1.142397
1540.000000;0.874335
1539.000000;0.573757
1538.000000;0.560388
1537.000000;0.642068
1536.000000;0.827477
1535.000000;1.041191
1534.000000;0.976409
1533.000000;0.815526
1532.000000;0.810359
1531.000000;0.782391
1530.000000;0.636078
1529.000000;0.614102
1528.000000;0.646733
1527.000000;0.637847
1526.000000;0.665379
1525.000000;0.927898
1524.000000;1.349607
1523.000000;0.976969
1522.000000;0.874095
1521.000000;0.656641
1520.000000;0.391291
1519.000000;0.244726
1518.000000;0.167422
1517.000000;0.142015
1516.000000;0.177960
1515.000000;0.301239
1514.000000;0.544868
1513.000000;0.890219
1512.000000;0.901544
1511.000000;0.709821
1510.000000;0.552715
1509.000000;0.457055
1508.000000;0.428502
1507.000000;0.427477
1506.000000;0.421262
1505.000000;0.427445
1504.000000;0.432532
1503.000000;0.402167
1502.000000;0.372478
1501.000000;0.391072
1500.000000;0.543468
1499.000000;0.911474
1498.000000;0.550546
1497.000000;0.270923
1496.000000;0.244209
1495.000000;0.327476
1494.000000;0.457011
1493.000000;0.587868
1492.000000;0.744631
1491.000000;0.896112
1490.000000;0.752879
1489.000000;0.493630
1488.000000;0.352519
1487.000000;0.312716
1486.000000;0.333060
1485.000000;0.391425
1484.000000;0.503316
1483.000000;0.683511
1482.000000;0.890787
1481.000000;0.933721
1480.000000;0.808887
1479.000000;0.680989
1478.000000;0.557689
1477.000000;0.465829
1476.000000;0.450344
1475.000000;0.501778
1474.000000;0.533555
1473.000000;0.509841
1472.000000;0.458947
1471.000000;0.444076
1470.000000;0.505426
1469.000000;0.569469
1468.000000;0.503038
1467.000000;0.388795
1466.000000;0.374765
1465.000000;0.489401
1464.000000;0.901249
1463.000000;1.111063
1462.000000;0.796955
1461.000000;0.661569
1460.000000;0.563643
1459.000000;0.561006
1458.000000;0.680122
1457.000000;0.734587
1456.000000;0.606565
1455.000000;0.531984
1454.000000;0.517566
1453.000000;0.570049
1452.000000;0.713302
1451.000000;0.782041
1450.000000;0.852027
1449.000000;1.256526
1448.000000;1.213221
1447.000000;0.773048
1446.000000;0.629598
1445.000000;0.627418
1444.000000;0.610365
1443.000000;0.453256
1442.000000;0.355234
1441.000000;0.333822
1440.000000;0.319784
1439.000000;0.272095
1438.000000;0.245262
1437.000000;0.297141
1436.000000;0.504943
1435.000000;0.715067
1434.000000;0.644065
1433.000000;0.661951
1432.000000;0.842828
1431.000000;1.164938
1430.000000;1.242269
1429.000000;0.913119
1428.000000;0.685403
1427.000000;0.639976
1426.000000;0.795177
1425.000000;1.261474
1424.000000;0.867165
1423.000000;0.818127
1422.000000;1.209558
1421.000000;1.362362
1420.000000;1.251373
1419.000000;1.845132
1418.000000;0.858183
1417.000000;0.700501
1416.000000;0.674233
1415.000000;0.675622
1414.000000;0.612637
1413.000000;0.574873
1412.000000;0.569277
1411.000000;0.595422
1410.000000;0.615129
1409.000000;0.535900
1408.000000;0.441989
1407.000000;0.405689
1406.000000;0.440438
1405.000000;0.574698
1404.000000;0.864564
1403.000000;0.748123
1402.000000;0.625457
1401.000000;0.671997
1400.000000;0.631492
1399.000000;0.472495
1398.000000;0.437997
1397.000000;0.643135
1396.000000;0.925131
1395.000000;0.439041
1394.000000;0.281437
1393.000000;0.255728
1392.000000;0.310270
1391.000000;0.374788
1390.000000;0.421888
1389.000000;0.431551
1388.000000;0.411752
1387.000000;0.406150
1386.000000;0.490827
1385.000000;0.620549
1384.000000;0.664101
1383.000000;0.673708
1382.000000;1.263205
1381.000000;0.894090
1380.000000;0.506836
1379.000000;0.469893
1378.000000;0.560938
1377.000000;0.574313
1376.000000;0.430376
1375.000000;0.367408
1374.000000;0.419513
1373.000000;0.587440
1372.000000;0.848159
1371.000000;0.948214
1370.000000;0.910967
1369.000000;1.026191
1368.000000;1.153912
1367.000000;1.000734
1366.000000;1.017300
1365.000000;1.176699
1364.000000;1.195771
1363.000000;1.255401
1362.000000;1.517699
1361.000000;1.238964
1360.000000;1.033515
1359.000000;0.887632
1358.000000;0.745414
1357.000000;0.656491
1356.000000;0.633722
1355.000000;0.659145
1354.000000;0.666903
1353.000000;0.611470
1352.000000;0.579005
1351.000000;0.649160
1350.000000;0.888654
1349.000000;0.923790
1348.000000;0.683329
1347.000000;0.556920
1346.000000;0.562372
1345.000000;0.767539
1344.000000;0.929669
1343.000000;0.584979
1342.000000;0.495547
1341.000000;0.577761
1340.000000;0.910397
1339.000000;1.757467
1338.000000;1.402159
1337.000000;1.141887
1336.000000;1.022171
1335.000000;1.165364
1334.000000;1.211521
1333.000000;1.019099
1332.000000;0.874817
1331.000000;0.883886
1330.000000;0.800557
1329.000000;0.638450
1328.000000;0.581238
1327.000000;0.525123
1326.000000;0.458385
1325.000000;0.497220
1324.000000;0.689080
1323.000000;1.149871
1322.000000;0.855027
1321.000000;0.606959
1320.000000;0.518249
1319.000000;0.481991
1318.000000;0.509426
1317.000000;0.540482
1316.000000;0.437774
1315.000000;0.394153
1314.000000;0.606054
1313.000000;0.963021
1312.000000;0.447509
1311.000000;0.309267
1310.000000;0.291716
1309.000000;0.339712
1308.000000;0.409759
1307.000000;0.526072
1306.000000;0.658059
1305.000000;0.681109
1304.000000;0.627242
1303.000000;0.579818
1302.000000;0.549803
1301.000000;0.574609
1300.000000;0.686075
1299.000000;0.920511
1298.000000;1.049076
1297.000000;1.230734
1296.000000;1.099544
1295.000000;0.640941
1294.000000;0.457520
1293.000000;0.455137
1292.000000;0.581278
1291.000000;0.662586
1290.000000;0.646006
1289.000000;0.787528
1288.000000;1.275967
1287.000000;1.631035
1286.000000;1.282424
1285.000000;0.949564
1284.000000;0.832249
1283.000000;0.882118
1282.000000;0.713221
1281.000000;0.516487
1280.000000;0.471929
1279.000000;0.535185
1278.000000;0.651684
1277.000000;0.697992
1276.000000;0.608075
1275.000000;0.522571
1274.000000;0.543876
1273.000000;0.776010
1272.000000;0.696081
1271.000000;0.466590
1270.000000;0.445178
1269.000000;0.592762
1268.000000;0.796414
1267.000000;0.732517
1266.000000;0.642139
1265.000000;0.589175
1264.000000;0.535178
1263.000000;0.463885
1262.000000;0.375263
1261.000000;0.325655
1260.000000;0.359539
1259.000000;0.499947
1258.000000;0.709850
1257.000000;0.783222
1256.000000;0.780932
1255.000000;0.763031
1254.000000;0.661982
1253.000000;0.619307
1252.000000;0.826595
1251.000000;1.077147
1250.000000;0.666510
1249.000000;0.473951
1248.000000;0.477366
1247.000000;0.789435
1246.000000;0.811088
1245.000000;0.493673
1244.000000;0.440684
1243.000000;0.541254
1242.000000;0.675340
1241.000000;0.644853
1240.000000;0.539098
1239.000000;0.486703
1238.000000;0.494466
1237.000000;0.547273
1236.000000;0.662434
1235.000000;0.873330
1234.000000;0.862721
1233.000000;0.632760
1232.000000;0.548123
1231.000000;0.559723
1230.000000;0.592469
1229.000000;0.593622
1228.000000;0.600760
1227.000000;0.623378
1226.000000;0.590663
1225.000000;0.528312
1224.000000;0.517288
1223.000000;0.464482
1222.000000;0.363509
1221.000000;0.340219
1220.000000;0.411792
1219.000000;0.535067
1218.000000;0.592522
1217.000000;0.461629
1216.000000;0.331134
1215.000000;0.290034
1214.000000;0.308514
1213.000000;0.333772
1212.000000;0.336247
1211.000000;0.348805
1210.000000;0.413293
1209.000000;0.541151
1208.000000;0.603770
1207.000000;0.443835
1206.000000;0.287588
1205.000000;0.217831
1204.000000;0.234010
1203.000000;0.333166
1202.000000;0.480080
1201.000000;0.519431
1200.000000;0.444359
