Criado como novo conjunto de dados;"2706_e01_daniel.spp","103147.4 Secs"
cm-1;Abs
10000.000000;0.871573
9999.000000;0.870894
9998.000000;0.870215
9997.000000;0.869538
9996.000000;0.868861
9995.000000;0.868187
9994.000000;0.867510
9993.000000;0.866842
9992.000000;0.866153
9991.000000;0.866079
9990.000000;0.866450
9989.000000;0.866630
9988.000000;0.866147
9987.000000;0.865181
9986.000000;0.864371
9985.000000;0.864117
9984.000000;0.864289
9983.000000;0.864608
9982.000000;0.865052
9981.000000;0.865668
9980.000000;0.866204
9979.000000;0.866260
9978.000000;0.865803
9977.000000;0.865215
9976.000000;0.864803
9975.000000;0.864522
9974.000000;0.864263
9973.000000;0.864141
9972.000000;0.864302
9971.000000;0.864674
9970.000000;0.865103
9969.000000;0.865574
9968.000000;0.866076
9967.000000;0.866363
9966.000000;0.866150
9965.000000;0.865503
9964.000000;0.864805
9963.000000;0.864354
9962.000000;0.864174
9961.000000;0.864180
9960.000000;0.864283
9959.000000;0.864266
9958.000000;0.863843
9957.000000;0.863016
9956.000000;0.862236
9955.000000;0.862010
9954.000000;0.862413
9953.000000;0.863094
9952.000000;0.863714
9951.000000;0.864228
9950.000000;0.864713
9949.000000;0.865065
9948.000000;0.864990
9947.000000;0.864347
9946.000000;0.863408
9945.000000;0.862676
9944.000000;0.862407
9943.000000;0.862401
9942.000000;0.862306
9941.000000;0.861998
9940.000000;0.861568
9939.000000;0.861080
9938.000000;0.860581
9937.000000;0.860311
9936.000000;0.860584
9935.000000;0.861334
9934.000000;0.861981
9933.000000;0.861978
9932.000000;0.861423
9931.000000;0.860945
9930.000000;0.861014
9929.000000;0.861537
9928.000000;0.862133
9927.000000;0.862581
9926.000000;0.862885
9925.000000;0.863028
9924.000000;0.862889
9923.000000;0.862428
9922.000000;0.861798
9921.000000;0.861198
9920.000000;0.860685
9919.000000;0.860234
9918.000000;0.859912
9917.000000;0.859838
9916.000000;0.859983
9915.000000;0.860158
9914.000000;0.860229
9913.000000;0.860199
9912.000000;0.860084
9911.000000;0.859887
9910.000000;0.859764
9909.000000;0.859987
9908.000000;0.860548
9907.000000;0.860955
9906.000000;0.860688
9905.000000;0.859820
9904.000000;0.858950
9903.000000;0.858511
9902.000000;0.858385
9901.000000;0.858251
9900.000000;0.858100
9899.000000;0.858237
9898.000000;0.858849
9897.000000;0.859698
9896.000000;0.860251
9895.000000;0.860126
9894.000000;0.859442
9893.000000;0.858707
9892.000000;0.858291
9891.000000;0.858089
9890.000000;0.857794
9889.000000;0.857388
9888.000000;0.857149
9887.000000;0.857226
9886.000000;0.857471
9885.000000;0.857717
9884.000000;0.857955
9883.000000;0.858138
9882.000000;0.858058
9881.000000;0.857636
9880.000000;0.857142
9879.000000;0.856903
9878.000000;0.856885
9877.000000;0.856785
9876.000000;0.856495
9875.000000;0.856285
9874.000000;0.856493
9873.000000;0.857153
9872.000000;0.857943
9871.000000;0.858408
9870.000000;0.858266
9869.000000;0.857626
9868.000000;0.856925
9867.000000;0.856594
9866.000000;0.856749
9865.000000;0.857193
9864.000000;0.857615
9863.000000;0.857764
9862.000000;0.857536
9861.000000;0.857064
9860.000000;0.856689
9859.000000;0.856677
9858.000000;0.856935
9857.000000;0.857105
9856.000000;0.856976
9855.000000;0.856746
9854.000000;0.856793
9853.000000;0.857220
9852.000000;0.857682
9851.000000;0.857694
9850.000000;0.857144
9849.000000;0.856464
9848.000000;0.856221
9847.000000;0.856526
9846.000000;0.856926
9845.000000;0.856935
9844.000000;0.856568
9843.000000;0.856239
9842.000000;0.856205
9841.000000;0.856269
9840.000000;0.856045
9839.000000;0.855397
9838.000000;0.854544
9837.000000;0.853823
9836.000000;0.853429
9835.000000;0.853357
9834.000000;0.853496
9833.000000;0.853722
9832.000000;0.853919
9831.000000;0.853991
9830.000000;0.853925
9829.000000;0.853818
9828.000000;0.853749
9827.000000;0.853621
9826.000000;0.853240
9825.000000;0.852612
9824.000000;0.852098
9823.000000;0.852158
9822.000000;0.852933
9821.000000;0.854102
9820.000000;0.855110
9819.000000;0.855514
9818.000000;0.855224
9817.000000;0.854531
9816.000000;0.853887
9815.000000;0.853552
9814.000000;0.853437
9813.000000;0.853318
9812.000000;0.853160
9811.000000;0.853121
9810.000000;0.853273
9809.000000;0.853459
9808.000000;0.853482
9807.000000;0.853335
9806.000000;0.853166
9805.000000;0.853068
9804.000000;0.852988
9803.000000;0.852820
9802.000000;0.852564
9801.000000;0.852341
9800.000000;0.852272
9799.000000;0.852361
9798.000000;0.852508
9797.000000;0.852621
9796.000000;0.852629
9795.000000;0.852420
9794.000000;0.851903
9793.000000;0.851217
9792.000000;0.850745
9791.000000;0.850758
9790.000000;0.851075
9789.000000;0.851235
9788.000000;0.851029
9787.000000;0.850691
9786.000000;0.850548
9785.000000;0.850645
9784.000000;0.850828
9783.000000;0.851009
9782.000000;0.851163
9781.000000;0.851186
9780.000000;0.850960
9779.000000;0.850560
9778.000000;0.850192
9777.000000;0.849917
9776.000000;0.849614
9775.000000;0.849294
9774.000000;0.849273
9773.000000;0.849821
9772.000000;0.850698
9771.000000;0.851235
9770.000000;0.850985
9769.000000;0.850210
9768.000000;0.849598
9767.000000;0.849542
9766.000000;0.849818
9765.000000;0.849955
9764.000000;0.849781
9763.000000;0.849473
9762.000000;0.849161
9761.000000;0.848735
9760.000000;0.848121
9759.000000;0.847565
9758.000000;0.847448
9757.000000;0.847849
9756.000000;0.848445
9755.000000;0.848873
9754.000000;0.849091
9753.000000;0.849308
9752.000000;0.849665
9751.000000;0.850031
9750.000000;0.850099
9749.000000;0.849641
9748.000000;0.848731
9747.000000;0.847754
9746.000000;0.847150
9745.000000;0.847092
9744.000000;0.847411
9743.000000;0.847811
9742.000000;0.848118
9741.000000;0.848353
9740.000000;0.848613
9739.000000;0.848890
9738.000000;0.848956
9737.000000;0.848508
9736.000000;0.847566
9735.000000;0.846682
9734.000000;0.846490
9733.000000;0.846966
9732.000000;0.847393
9731.000000;0.847243
9730.000000;0.846831
9729.000000;0.846806
9728.000000;0.847181
9727.000000;0.847325
9726.000000;0.846888
9725.000000;0.846280
9724.000000;0.846075
9723.000000;0.846336
9722.000000;0.846771
9721.000000;0.847256
9720.000000;0.847825
9719.000000;0.848312
9718.000000;0.848385
9717.000000;0.847966
9716.000000;0.847325
9715.000000;0.846729
9714.000000;0.846199
9713.000000;0.845688
9712.000000;0.845297
9711.000000;0.845208
9710.000000;0.845474
9709.000000;0.845952
9708.000000;0.846397
9707.000000;0.846590
9706.000000;0.846448
9705.000000;0.846027
9704.000000;0.845444
9703.000000;0.844806
9702.000000;0.844257
9701.000000;0.843967
9700.000000;0.843980
9699.000000;0.844126
9698.000000;0.844205
9697.000000;0.844211
9696.000000;0.844241
9695.000000;0.844249
9694.000000;0.844065
9693.000000;0.843680
9692.000000;0.843329
9691.000000;0.843231
9690.000000;0.843378
9689.000000;0.843617
9688.000000;0.843821
9687.000000;0.843921
9686.000000;0.843880
9685.000000;0.843724
9684.000000;0.843544
9683.000000;0.843437
9682.000000;0.843497
9681.000000;0.843852
9680.000000;0.844560
9679.000000;0.845427
9678.000000;0.846053
9677.000000;0.846151
9676.000000;0.845771
9675.000000;0.845159
9674.000000;0.844518
9673.000000;0.843965
9672.000000;0.843582
9671.000000;0.843375
9670.000000;0.843225
9669.000000;0.843010
9668.000000;0.842760
9667.000000;0.842600
9666.000000;0.842573
9665.000000;0.842586
9664.000000;0.842521
9663.000000;0.842339
9662.000000;0.842089
9661.000000;0.841864
9660.000000;0.841726
9659.000000;0.841644
9658.000000;0.841518
9657.000000;0.841290
9656.000000;0.841023
9655.000000;0.840853
9654.000000;0.840916
9653.000000;0.841295
9652.000000;0.841931
9651.000000;0.842509
9650.000000;0.842595
9649.000000;0.842030
9648.000000;0.841161
9647.000000;0.840552
9646.000000;0.840475
9645.000000;0.840754
9644.000000;0.841077
9643.000000;0.841327
9642.000000;0.841569
9641.000000;0.841836
9640.000000;0.842037
9639.000000;0.842053
9638.000000;0.841867
9637.000000;0.841583
9636.000000;0.841342
9635.000000;0.841198
9634.000000;0.841076
9633.000000;0.840836
9632.000000;0.840398
9631.000000;0.839836
9630.000000;0.839354
9629.000000;0.839152
9628.000000;0.839243
9627.000000;0.839422
9626.000000;0.839465
9625.000000;0.839373
9624.000000;0.839360
9623.000000;0.839594
9622.000000;0.840016
9621.000000;0.840439
9620.000000;0.840722
9619.000000;0.840782
9618.000000;0.840572
9617.000000;0.840148
9616.000000;0.839735
9615.000000;0.839566
9614.000000;0.839643
9613.000000;0.839745
9612.000000;0.839693
9611.000000;0.839492
9610.000000;0.839197
9609.000000;0.838772
9608.000000;0.838176
9607.000000;0.837568
9606.000000;0.837278
9605.000000;0.837500
9604.000000;0.838055
9603.000000;0.838503
9602.000000;0.838531
9601.000000;0.838236
9600.000000;0.837992
9599.000000;0.838050
9598.000000;0.838309
9597.000000;0.838497
9596.000000;0.838515
9595.000000;0.838524
9594.000000;0.838666
9593.000000;0.838791
9592.000000;0.838573
9591.000000;0.837913
9590.000000;0.837132
9589.000000;0.836662
9588.000000;0.836597
9587.000000;0.836644
9586.000000;0.836529
9585.000000;0.836320
9584.000000;0.836271
9583.000000;0.836465
9582.000000;0.836739
9581.000000;0.836918
9580.000000;0.836984
9579.000000;0.837010
9578.000000;0.837056
9577.000000;0.837153
9576.000000;0.837281
9575.000000;0.837344
9574.000000;0.837266
9573.000000;0.837150
9572.000000;0.837201
9571.000000;0.837432
9570.000000;0.837595
9569.000000;0.837481
9568.000000;0.837194
9567.000000;0.836980
9566.000000;0.836892
9565.000000;0.836767
9564.000000;0.836514
9563.000000;0.836251
9562.000000;0.836126
9561.000000;0.836127
9560.000000;0.836103
9559.000000;0.835924
9558.000000;0.835602
9557.000000;0.835307
9556.000000;0.835256
9555.000000;0.835502
9554.000000;0.835835
9553.000000;0.835952
9552.000000;0.835760
9551.000000;0.835449
9550.000000;0.835254
9549.000000;0.835228
9548.000000;0.835271
9547.000000;0.835302
9546.000000;0.835309
9545.000000;0.835259
9544.000000;0.835052
9543.000000;0.834639
9542.000000;0.834146
9541.000000;0.833810
9540.000000;0.833732
9539.000000;0.833761
9538.000000;0.833687
9537.000000;0.833562
9536.000000;0.833665
9535.000000;0.834089
9534.000000;0.834483
9533.000000;0.834350
9532.000000;0.833594
9531.000000;0.832646
9530.000000;0.832042
9529.000000;0.831985
9528.000000;0.832308
9527.000000;0.832693
9526.000000;0.832864
9525.000000;0.832713
9524.000000;0.832377
9523.000000;0.832170
9522.000000;0.832291
9521.000000;0.832597
9520.000000;0.832718
9519.000000;0.832433
9518.000000;0.831864
9517.000000;0.831299
9516.000000;0.830926
9515.000000;0.830783
9514.000000;0.830878
9513.000000;0.831214
9512.000000;0.831702
9511.000000;0.832133
9510.000000;0.832345
9509.000000;0.832348
9508.000000;0.832248
9507.000000;0.832075
9506.000000;0.831786
9505.000000;0.831421
9504.000000;0.831157
9503.000000;0.831161
9502.000000;0.831446
9501.000000;0.831886
9500.000000;0.832319
9499.000000;0.832573
9498.000000;0.832472
9497.000000;0.831958
9496.000000;0.831224
9495.000000;0.830639
9494.000000;0.830452
9493.000000;0.830572
9492.000000;0.830681
9491.000000;0.830580
9490.000000;0.830382
9489.000000;0.830316
9488.000000;0.830403
9487.000000;0.830434
9486.000000;0.830292
9485.000000;0.830170
9484.000000;0.830317
9483.000000;0.830661
9482.000000;0.830845
9481.000000;0.830667
9480.000000;0.830340
9479.000000;0.830221
9478.000000;0.830427
9477.000000;0.830784
9476.000000;0.831042
9475.000000;0.831027
9474.000000;0.830700
9473.000000;0.830216
9472.000000;0.829874
9471.000000;0.829850
9470.000000;0.829988
9469.000000;0.829988
9468.000000;0.829794
9467.000000;0.829622
9466.000000;0.829609
9465.000000;0.829614
9464.000000;0.829456
9463.000000;0.829163
9462.000000;0.828855
9461.000000;0.828531
9460.000000;0.828150
9459.000000;0.827850
9458.000000;0.827849
9457.000000;0.828111
9456.000000;0.828289
9455.000000;0.828108
9454.000000;0.827690
9453.000000;0.827369
9452.000000;0.827267
9451.000000;0.827195
9450.000000;0.826981
9449.000000;0.826750
9448.000000;0.826794
9447.000000;0.827235
9446.000000;0.827887
9445.000000;0.828421
9444.000000;0.828600
9443.000000;0.828396
9442.000000;0.827971
9441.000000;0.827586
9440.000000;0.827465
9439.000000;0.827660
9438.000000;0.828020
9437.000000;0.828259
9436.000000;0.828115
9435.000000;0.827560
9434.000000;0.826901
9433.000000;0.826565
9432.000000;0.826686
9431.000000;0.826950
9430.000000;0.826976
9429.000000;0.826795
9428.000000;0.826780
9427.000000;0.827100
9426.000000;0.827467
9425.000000;0.827530
9424.000000;0.827311
9423.000000;0.827097
9422.000000;0.827041
9421.000000;0.827062
9420.000000;0.827023
9419.000000;0.826831
9418.000000;0.826416
9417.000000;0.825831
9416.000000;0.825327
9415.000000;0.825103
9414.000000;0.825017
9413.000000;0.824763
9412.000000;0.824353
9411.000000;0.824165
9410.000000;0.824426
9409.000000;0.824887
9408.000000;0.825137
9407.000000;0.825077
9406.000000;0.824909
9405.000000;0.824817
9404.000000;0.824848
9403.000000;0.824998
9402.000000;0.825194
9401.000000;0.825235
9400.000000;0.824979
9399.000000;0.824580
9398.000000;0.824377
9397.000000;0.824516
9396.000000;0.824823
9395.000000;0.825036
9394.000000;0.825043
9393.000000;0.824829
9392.000000;0.824377
9391.000000;0.823764
9390.000000;0.823251
9389.000000;0.823133
9388.000000;0.823455
9387.000000;0.823950
9386.000000;0.824271
9385.000000;0.824260
9384.000000;0.824004
9383.000000;0.823684
9382.000000;0.823407
9381.000000;0.823155
9380.000000;0.822894
9379.000000;0.822679
9378.000000;0.822637
9377.000000;0.822836
9376.000000;0.823188
9375.000000;0.823479
9374.000000;0.823526
9373.000000;0.823354
9372.000000;0.823219
9371.000000;0.823408
9370.000000;0.823942
9369.000000;0.824512
9368.000000;0.824743
9367.000000;0.824524
9366.000000;0.824043
9365.000000;0.823548
9364.000000;0.823152
9363.000000;0.822860
9362.000000;0.822654
9361.000000;0.822496
9360.000000;0.822329
9359.000000;0.822159
9358.000000;0.822080
9357.000000;0.822159
9356.000000;0.822294
9355.000000;0.822272
9354.000000;0.821978
9353.000000;0.821530
9352.000000;0.821178
9351.000000;0.821073
9350.000000;0.821153
9349.000000;0.821232
9348.000000;0.821212
9347.000000;0.821170
9346.000000;0.821223
9345.000000;0.821336
9344.000000;0.821336
9343.000000;0.821115
9342.000000;0.820786
9341.000000;0.820576
9340.000000;0.820602
9339.000000;0.820763
9338.000000;0.820855
9337.000000;0.820763
9336.000000;0.820549
9335.000000;0.820358
9334.000000;0.820266
9333.000000;0.820233
9332.000000;0.820213
9331.000000;0.820253
9330.000000;0.820430
9329.000000;0.820713
9328.000000;0.820959
9327.000000;0.821047
9326.000000;0.820941
9325.000000;0.820662
9324.000000;0.820296
9323.000000;0.820061
9322.000000;0.820201
9321.000000;0.820691
9320.000000;0.821160
9319.000000;0.821231
9318.000000;0.820926
9317.000000;0.820605
9316.000000;0.820519
9315.000000;0.820549
9314.000000;0.820401
9313.000000;0.819968
9312.000000;0.819467
9311.000000;0.819257
9310.000000;0.819542
9309.000000;0.820170
9308.000000;0.820716
9307.000000;0.820826
9306.000000;0.820498
9305.000000;0.819998
9304.000000;0.819534
9303.000000;0.819131
9302.000000;0.818788
9301.000000;0.818585
9300.000000;0.818574
9299.000000;0.818661
9298.000000;0.818725
9297.000000;0.818768
9296.000000;0.818841
9295.000000;0.818883
9294.000000;0.818746
9293.000000;0.818403
9292.000000;0.818036
9291.000000;0.817875
9290.000000;0.817943
9289.000000;0.818009
9288.000000;0.817794
9287.000000;0.817271
9286.000000;0.816748
9285.000000;0.816588
9284.000000;0.816843
9283.000000;0.817211
9282.000000;0.817368
9281.000000;0.817265
9280.000000;0.817071
9279.000000;0.816917
9278.000000;0.816799
9277.000000;0.816698
9276.000000;0.816649
9275.000000;0.816695
9274.000000;0.816819
9273.000000;0.816945
9272.000000;0.816974
9271.000000;0.816838
9270.000000;0.816549
9269.000000;0.816177
9268.000000;0.815786
9267.000000;0.815413
9266.000000;0.815123
9265.000000;0.815004
9264.000000;0.815040
9263.000000;0.815077
9262.000000;0.814995
9261.000000;0.814885
9260.000000;0.814946
9259.000000;0.815226
9258.000000;0.815554
9257.000000;0.815733
9256.000000;0.815684
9255.000000;0.815433
9254.000000;0.815074
9253.000000;0.814788
9252.000000;0.814763
9251.000000;0.815004
9250.000000;0.815281
9249.000000;0.815332
9248.000000;0.815100
9247.000000;0.814740
9246.000000;0.814454
9245.000000;0.814352
9244.000000;0.814419
9243.000000;0.814555
9242.000000;0.814641
9241.000000;0.814634
9240.000000;0.814573
9239.000000;0.814496
9238.000000;0.814381
9237.000000;0.814213
9236.000000;0.814087
9235.000000;0.814136
9234.000000;0.814337
9233.000000;0.814439
9232.000000;0.814205
9231.000000;0.813740
9230.000000;0.813478
9229.000000;0.813747
9228.000000;0.814373
9227.000000;0.814819
9226.000000;0.814721
9225.000000;0.814199
9224.000000;0.813632
9223.000000;0.813254
9222.000000;0.813067
9221.000000;0.813011
9220.000000;0.813046
9219.000000;0.813095
9218.000000;0.813074
9217.000000;0.812991
9216.000000;0.812936
9215.000000;0.812944
9214.000000;0.812963
9213.000000;0.812946
9212.000000;0.812887
9211.000000;0.812772
9210.000000;0.812605
9209.000000;0.812477
9208.000000;0.812493
9207.000000;0.812603
9206.000000;0.812634
9205.000000;0.812537
9204.000000;0.812467
9203.000000;0.812555
9202.000000;0.812721
9201.000000;0.812778
9200.000000;0.812642
9199.000000;0.812342
9198.000000;0.811940
9197.000000;0.811539
9196.000000;0.811292
9195.000000;0.811277
9194.000000;0.811392
9193.000000;0.811477
9192.000000;0.811492
9191.000000;0.811497
9190.000000;0.811528
9189.000000;0.811589
9188.000000;0.811725
9187.000000;0.811943
9186.000000;0.812107
9185.000000;0.812040
9184.000000;0.811749
9183.000000;0.811415
9182.000000;0.811172
9181.000000;0.811003
9180.000000;0.810883
9179.000000;0.810846
9178.000000;0.810851
9177.000000;0.810736
9176.000000;0.810431
9175.000000;0.810160
9174.000000;0.810254
9173.000000;0.810782
9172.000000;0.811452
9171.000000;0.811876
9170.000000;0.811870
9169.000000;0.811502
9168.000000;0.810973
9167.000000;0.810502
9166.000000;0.810239
9165.000000;0.810180
9164.000000;0.810168
9163.000000;0.810028
9162.000000;0.809739
9161.000000;0.809428
9160.000000;0.809199
9159.000000;0.809018
9158.000000;0.808798
9157.000000;0.808566
9156.000000;0.808479
9155.000000;0.808650
9154.000000;0.808997
9153.000000;0.809288
9152.000000;0.809350
9151.000000;0.809220
9150.000000;0.809086
9149.000000;0.809093
9148.000000;0.809222
9147.000000;0.809341
9146.000000;0.809341
9145.000000;0.809210
9144.000000;0.808993
9143.000000;0.808739
9142.000000;0.808476
9141.000000;0.808211
9140.000000;0.807932
9139.000000;0.807626
9138.000000;0.807319
9137.000000;0.807066
9136.000000;0.806908
9135.000000;0.806870
9134.000000;0.807003
9133.000000;0.807348
9132.000000;0.807806
9131.000000;0.808116
9130.000000;0.808064
9129.000000;0.807720
9128.000000;0.807398
9127.000000;0.807330
9126.000000;0.807456
9125.000000;0.807540
9124.000000;0.807452
9123.000000;0.807290
9122.000000;0.807245
9121.000000;0.807380
9120.000000;0.807569
9119.000000;0.807626
9118.000000;0.807491
9117.000000;0.807285
9116.000000;0.807166
9115.000000;0.807178
9114.000000;0.807250
9113.000000;0.807311
9112.000000;0.807348
9111.000000;0.807361
9110.000000;0.807317
9109.000000;0.807170
9108.000000;0.806921
9107.000000;0.806645
9106.000000;0.806469
9105.000000;0.806492
9104.000000;0.806673
9103.000000;0.806827
9102.000000;0.806788
9101.000000;0.806566
9100.000000;0.806289
9099.000000;0.806046
9098.000000;0.805832
9097.000000;0.805634
9096.000000;0.805471
9095.000000;0.805330
9094.000000;0.805166
9093.000000;0.804985
9092.000000;0.804859
9091.000000;0.804815
9090.000000;0.804795
9089.000000;0.804765
9088.000000;0.804802
9087.000000;0.805006
9086.000000;0.805329
9085.000000;0.805570
9084.000000;0.805534
9083.000000;0.805231
9082.000000;0.804904
9081.000000;0.804840
9080.000000;0.805068
9079.000000;0.805274
9078.000000;0.805106
9077.000000;0.804565
9076.000000;0.804032
9075.000000;0.803878
9074.000000;0.804139
9073.000000;0.804577
9072.000000;0.804930
9071.000000;0.805031
9070.000000;0.804812
9069.000000;0.804327
9068.000000;0.803766
9067.000000;0.803345
9066.000000;0.803160
9065.000000;0.803183
9064.000000;0.803340
9063.000000;0.803537
9062.000000;0.803661
9061.000000;0.803645
9060.000000;0.803537
9059.000000;0.803474
9058.000000;0.803574
9057.000000;0.803849
9056.000000;0.804206
9055.000000;0.804480
9054.000000;0.804520
9053.000000;0.804298
9052.000000;0.803920
9051.000000;0.803528
9050.000000;0.803212
9049.000000;0.803026
9048.000000;0.803009
9047.000000;0.803134
9046.000000;0.803284
9045.000000;0.803333
9044.000000;0.803256
9043.000000;0.803125
9042.000000;0.803016
9041.000000;0.802926
9040.000000;0.802779
9039.000000;0.802486
9038.000000;0.802074
9037.000000;0.801723
9036.000000;0.801620
9035.000000;0.801731
9034.000000;0.801808
9033.000000;0.801674
9032.000000;0.801418
9031.000000;0.801257
9030.000000;0.801309
9029.000000;0.801559
9028.000000;0.801938
9027.000000;0.802314
9026.000000;0.802490
9025.000000;0.802359
9024.000000;0.802065
9023.000000;0.801884
9022.000000;0.801921
9021.000000;0.802018
9020.000000;0.801947
9019.000000;0.801638
9018.000000;0.801194
9017.000000;0.800791
9016.000000;0.800571
9015.000000;0.800571
9014.000000;0.800716
9013.000000;0.800900
9012.000000;0.801054
9011.000000;0.801124
9010.000000;0.801015
9009.000000;0.800656
9008.000000;0.800120
9007.000000;0.799614
9006.000000;0.799319
9005.000000;0.799276
9004.000000;0.799397
9003.000000;0.799534
9002.000000;0.799575
9001.000000;0.799533
9000.000000;0.799548
8999.000000;0.799724
8998.000000;0.799991
8997.000000;0.800171
8996.000000;0.800176
8995.000000;0.800068
8994.000000;0.799933
8993.000000;0.799789
8992.000000;0.799627
8991.000000;0.799460
8990.000000;0.799299
8989.000000;0.799128
8988.000000;0.798932
8987.000000;0.798736
8986.000000;0.798598
8985.000000;0.798588
8984.000000;0.798726
8983.000000;0.798919
8982.000000;0.798991
8981.000000;0.798873
8980.000000;0.798699
8979.000000;0.798660
8978.000000;0.798763
8977.000000;0.798842
8976.000000;0.798792
8975.000000;0.798685
8974.000000;0.798630
8973.000000;0.798638
8972.000000;0.798663
8971.000000;0.798676
8970.000000;0.798647
8969.000000;0.798514
8968.000000;0.798266
8967.000000;0.798016
8966.000000;0.797923
8965.000000;0.798009
8964.000000;0.798100
8963.000000;0.797976
8962.000000;0.797631
8961.000000;0.797354
8960.000000;0.797465
8959.000000;0.797934
8958.000000;0.798327
8957.000000;0.798243
8956.000000;0.797749
8955.000000;0.797284
8954.000000;0.797139
8953.000000;0.797202
8952.000000;0.797202
8951.000000;0.797053
8950.000000;0.796862
8949.000000;0.796720
8948.000000;0.796624
8947.000000;0.796558
8946.000000;0.796544
8945.000000;0.796589
8944.000000;0.796634
8943.000000;0.796592
8942.000000;0.796436
8941.000000;0.796244
8940.000000;0.796144
8939.000000;0.796165
8938.000000;0.796182
8937.000000;0.796058
8936.000000;0.795845
8935.000000;0.795738
8934.000000;0.795847
8933.000000;0.796077
8932.000000;0.796254
8931.000000;0.796269
8930.000000;0.796086
8929.000000;0.795725
8928.000000;0.795320
8927.000000;0.795081
8926.000000;0.795110
8925.000000;0.795276
8924.000000;0.795380
8923.000000;0.795378
8922.000000;0.795369
8921.000000;0.795408
8920.000000;0.795448
8919.000000;0.795465
8918.000000;0.795498
8917.000000;0.795527
8916.000000;0.795413
8915.000000;0.795044
8914.000000;0.794551
8913.000000;0.794258
8912.000000;0.794393
8911.000000;0.794841
8910.000000;0.795219
8909.000000;0.795240
8908.000000;0.794967
8907.000000;0.794698
8906.000000;0.794630
8905.000000;0.794696
8904.000000;0.794719
8903.000000;0.794626
8902.000000;0.794474
8901.000000;0.794358
8900.000000;0.794334
8899.000000;0.794397
8898.000000;0.794461
8897.000000;0.794393
8896.000000;0.794137
8895.000000;0.793798
8894.000000;0.793568
8893.000000;0.793551
8892.000000;0.793691
8891.000000;0.793824
8890.000000;0.793798
8889.000000;0.793549
8888.000000;0.793145
8887.000000;0.792767
8886.000000;0.792598
8885.000000;0.792705
8884.000000;0.792984
8883.000000;0.793247
8882.000000;0.793348
8881.000000;0.793271
8880.000000;0.793084
8879.000000;0.792829
8878.000000;0.792494
8877.000000;0.792134
8876.000000;0.791936
8875.000000;0.792060
8874.000000;0.792399
8873.000000;0.792614
8872.000000;0.792492
8871.000000;0.792166
8870.000000;0.791915
8869.000000;0.791829
8868.000000;0.791794
8867.000000;0.791753
8866.000000;0.791803
8865.000000;0.791976
8864.000000;0.792084
8863.000000;0.791900
8862.000000;0.791473
8861.000000;0.791130
8860.000000;0.791143
8859.000000;0.791447
8858.000000;0.791734
8857.000000;0.791782
8856.000000;0.791653
8855.000000;0.791545
8854.000000;0.791543
8853.000000;0.791568
8852.000000;0.791537
8851.000000;0.791476
8850.000000;0.791425
8849.000000;0.791331
8848.000000;0.791111
8847.000000;0.790803
8846.000000;0.790564
8845.000000;0.790506
8844.000000;0.790579
8843.000000;0.790629
8842.000000;0.790545
8841.000000;0.790322
8840.000000;0.790034
8839.000000;0.789782
8838.000000;0.789655
8837.000000;0.789696
8836.000000;0.789873
8835.000000;0.790095
8834.000000;0.790265
8833.000000;0.790323
8832.000000;0.790255
8831.000000;0.790097
8830.000000;0.789943
8829.000000;0.789912
8828.000000;0.790025
8827.000000;0.790123
8826.000000;0.789995
8825.000000;0.789624
8824.000000;0.789253
8823.000000;0.789124
8822.000000;0.789227
8821.000000;0.789366
8820.000000;0.789421
8819.000000;0.789422
8818.000000;0.789405
8817.000000;0.789351
8816.000000;0.789296
8815.000000;0.789357
8814.000000;0.789566
8813.000000;0.789786
8812.000000;0.789857
8811.000000;0.789752
8810.000000;0.789505
8809.000000;0.789089
8808.000000;0.788510
8807.000000;0.787946
8806.000000;0.787641
8805.000000;0.787646
8804.000000;0.787769
8803.000000;0.787806
8802.000000;0.787739
8801.000000;0.787684
8800.000000;0.787731
8799.000000;0.787874
8798.000000;0.788035
8797.000000;0.788108
8796.000000;0.788008
8795.000000;0.787736
8794.000000;0.787396
8793.000000;0.787133
8792.000000;0.787049
8791.000000;0.787129
8790.000000;0.787234
8789.000000;0.787207
8788.000000;0.787047
8787.000000;0.786953
8786.000000;0.787107
8785.000000;0.787435
8784.000000;0.787649
8783.000000;0.787562
8782.000000;0.787290
8781.000000;0.787101
8780.000000;0.787100
8779.000000;0.787129
8778.000000;0.786950
8777.000000;0.786507
8776.000000;0.785982
8775.000000;0.785635
8774.000000;0.785576
8773.000000;0.785722
8772.000000;0.785932
8771.000000;0.786140
8770.000000;0.786329
8769.000000;0.786457
8768.000000;0.786480
8767.000000;0.786428
8766.000000;0.786371
8765.000000;0.786334
8764.000000;0.786285
8763.000000;0.786225
8762.000000;0.786189
8761.000000;0.786158
8760.000000;0.786049
8759.000000;0.785824
8758.000000;0.785559
8757.000000;0.785365
8756.000000;0.785274
8755.000000;0.785222
8754.000000;0.785114
8753.000000;0.784899
8752.000000;0.784643
8751.000000;0.784527
8750.000000;0.784680
8749.000000;0.784995
8748.000000;0.785195
8747.000000;0.785159
8746.000000;0.785076
8745.000000;0.785195
8744.000000;0.785511
8743.000000;0.785787
8742.000000;0.785842
8741.000000;0.785679
8740.000000;0.785369
8739.000000;0.784972
8738.000000;0.784614
8737.000000;0.784467
8736.000000;0.784560
8735.000000;0.784677
8734.000000;0.784561
8733.000000;0.784189
8732.000000;0.783798
8731.000000;0.783642
8730.000000;0.783797
8729.000000;0.784149
8728.000000;0.784512
8727.000000;0.784737
8726.000000;0.784763
8725.000000;0.784586
8724.000000;0.784192
8723.000000;0.783604
8722.000000;0.782988
8721.000000;0.782634
8720.000000;0.782697
8719.000000;0.782983
8718.000000;0.783108
8717.000000;0.782907
8716.000000;0.782583
8715.000000;0.782425
8714.000000;0.782498
8713.000000;0.782658
8712.000000;0.782784
8711.000000;0.782849
8710.000000;0.782832
8709.000000;0.782720
8708.000000;0.782588
8707.000000;0.782572
8706.000000;0.782703
8705.000000;0.782852
8704.000000;0.782882
8703.000000;0.782770
8702.000000;0.782554
8701.000000;0.782269
8700.000000;0.782004
8699.000000;0.781918
8698.000000;0.782097
8697.000000;0.782413
8696.000000;0.782643
8695.000000;0.782698
8694.000000;0.782668
8693.000000;0.782661
8692.000000;0.782685
8691.000000;0.782674
8690.000000;0.782543
8689.000000;0.782220
8688.000000;0.781730
8687.000000;0.781264
8686.000000;0.781076
8685.000000;0.781242
8684.000000;0.781587
8683.000000;0.781874
8682.000000;0.782000
8681.000000;0.781981
8680.000000;0.781858
8679.000000;0.781698
8678.000000;0.781603
8677.000000;0.781629
8676.000000;0.781698
8675.000000;0.781673
8674.000000;0.781500
8673.000000;0.781232
8672.000000;0.780962
8671.000000;0.780789
8670.000000;0.780775
8669.000000;0.780867
8668.000000;0.780879
8667.000000;0.780679
8666.000000;0.780376
8665.000000;0.780208
8664.000000;0.780232
8663.000000;0.780268
8662.000000;0.780169
8661.000000;0.780043
8660.000000;0.780083
8659.000000;0.780263
8658.000000;0.780342
8657.000000;0.780161
8656.000000;0.779847
8655.000000;0.779671
8654.000000;0.779747
8653.000000;0.779926
8652.000000;0.779963
8651.000000;0.779777
8650.000000;0.779509
8649.000000;0.779330
8648.000000;0.779253
8647.000000;0.779158
8646.000000;0.778989
8645.000000;0.778831
8644.000000;0.778772
8643.000000;0.778790
8642.000000;0.778804
8641.000000;0.778777
8640.000000;0.778688
8639.000000;0.778492
8638.000000;0.778173
8637.000000;0.777836
8636.000000;0.777641
8635.000000;0.777637
8634.000000;0.777729
8633.000000;0.777803
8632.000000;0.777829
8631.000000;0.777808
8630.000000;0.777723
8629.000000;0.777574
8628.000000;0.777432
8627.000000;0.777391
8626.000000;0.777478
8625.000000;0.777619
8624.000000;0.777698
8623.000000;0.777638
8622.000000;0.777453
8621.000000;0.777225
8620.000000;0.777026
8619.000000;0.776853
8618.000000;0.776671
8617.000000;0.776497
8616.000000;0.776408
8615.000000;0.776429
8614.000000;0.776467
8613.000000;0.776408
8612.000000;0.776259
8611.000000;0.776161
8610.000000;0.776235
8609.000000;0.776445
8608.000000;0.776608
8607.000000;0.776549
8606.000000;0.776258
8605.000000;0.775904
8604.000000;0.775671
8603.000000;0.775588
8602.000000;0.775555
8601.000000;0.775515
8600.000000;0.775535
8599.000000;0.775654
8598.000000;0.775739
8597.000000;0.775594
8596.000000;0.775216
8595.000000;0.774833
8594.000000;0.774666
8593.000000;0.774716
8592.000000;0.774830
8591.000000;0.774920
8590.000000;0.775014
8589.000000;0.775129
8588.000000;0.775171
8587.000000;0.775018
8586.000000;0.774665
8585.000000;0.774257
8584.000000;0.773977
8583.000000;0.773899
8582.000000;0.773945
8581.000000;0.773968
8580.000000;0.773891
8579.000000;0.773762
8578.000000;0.773674
8577.000000;0.773661
8576.000000;0.773676
8575.000000;0.773662
8574.000000;0.773615
8573.000000;0.773562
8572.000000;0.773523
8571.000000;0.773504
8570.000000;0.773502
8569.000000;0.773490
8568.000000;0.773432
8567.000000;0.773325
8566.000000;0.773206
8565.000000;0.773108
8564.000000;0.773026
8563.000000;0.772943
8562.000000;0.772871
8561.000000;0.772830
8560.000000;0.772809
8559.000000;0.772789
8558.000000;0.772774
8557.000000;0.772754
8556.000000;0.772665
8555.000000;0.772457
8554.000000;0.772201
8553.000000;0.772033
8552.000000;0.771989
8551.000000;0.771959
8550.000000;0.771850
8549.000000;0.771717
8548.000000;0.771661
8547.000000;0.771669
8546.000000;0.771624
8545.000000;0.771470
8544.000000;0.771268
8543.000000;0.771104
8542.000000;0.771004
8541.000000;0.770929
8540.000000;0.770831
8539.000000;0.770699
8538.000000;0.770579
8537.000000;0.770527
8536.000000;0.770502
8535.000000;0.770369
8534.000000;0.770070
8533.000000;0.769766
8532.000000;0.769703
8531.000000;0.769937
8530.000000;0.770248
8529.000000;0.770364
8528.000000;0.770194
8527.000000;0.769848
8526.000000;0.769527
8525.000000;0.769401
8524.000000;0.769509
8523.000000;0.769724
8522.000000;0.769864
8521.000000;0.769887
8520.000000;0.769897
8519.000000;0.769939
8518.000000;0.769892
8517.000000;0.769631
8516.000000;0.769232
8515.000000;0.768917
8514.000000;0.768828
8513.000000;0.768930
8512.000000;0.769087
8511.000000;0.769157
8510.000000;0.769057
8509.000000;0.768827
8508.000000;0.768621
8507.000000;0.768549
8506.000000;0.768537
8505.000000;0.768423
8504.000000;0.768177
8503.000000;0.767963
8502.000000;0.767949
8501.000000;0.768130
8500.000000;0.768347
8499.000000;0.768422
8498.000000;0.768267
8497.000000;0.767929
8496.000000;0.767554
8495.000000;0.767295
8494.000000;0.767214
8493.000000;0.767294
8492.000000;0.767479
8491.000000;0.767658
8490.000000;0.767645
8489.000000;0.767314
8488.000000;0.766787
8487.000000;0.766376
8486.000000;0.766276
8485.000000;0.766368
8484.000000;0.766388
8483.000000;0.766233
8482.000000;0.766020
8481.000000;0.765897
8480.000000;0.765897
8479.000000;0.765961
8478.000000;0.766035
8477.000000;0.766084
8476.000000;0.766069
8475.000000;0.765971
8474.000000;0.765816
8473.000000;0.765656
8472.000000;0.765524
8471.000000;0.765413
8470.000000;0.765314
8469.000000;0.765244
8468.000000;0.765248
8467.000000;0.765345
8466.000000;0.765495
8465.000000;0.765613
8464.000000;0.765631
8463.000000;0.765547
8462.000000;0.765406
8461.000000;0.765248
8460.000000;0.765093
8459.000000;0.764949
8458.000000;0.764829
8457.000000;0.764731
8456.000000;0.764614
8455.000000;0.764418
8454.000000;0.764134
8453.000000;0.763840
8452.000000;0.763640
8451.000000;0.763554
8450.000000;0.763517
8449.000000;0.763484
8448.000000;0.763481
8447.000000;0.763524
8446.000000;0.763537
8445.000000;0.763443
8444.000000;0.763300
8443.000000;0.763258
8442.000000;0.763349
8441.000000;0.763423
8440.000000;0.763323
8439.000000;0.763071
8438.000000;0.762820
8437.000000;0.762666
8436.000000;0.762584
8435.000000;0.762525
8434.000000;0.762481
8433.000000;0.762452
8432.000000;0.762399
8431.000000;0.762297
8430.000000;0.762172
8429.000000;0.762062
8428.000000;0.761954
8427.000000;0.761801
8426.000000;0.761612
8425.000000;0.761472
8424.000000;0.761458
8423.000000;0.761556
8422.000000;0.761692
8421.000000;0.761808
8420.000000;0.761869
8419.000000;0.761825
8418.000000;0.761633
8417.000000;0.761361
8416.000000;0.761167
8415.000000;0.761140
8414.000000;0.761176
8413.000000;0.761101
8412.000000;0.760896
8411.000000;0.760720
8410.000000;0.760712
8409.000000;0.760836
8408.000000;0.760958
8407.000000;0.760995
8406.000000;0.760939
8405.000000;0.760788
8404.000000;0.760544
8403.000000;0.760284
8402.000000;0.760142
8401.000000;0.760201
8400.000000;0.760400
8399.000000;0.760574
8398.000000;0.760570
8397.000000;0.760339
8396.000000;0.759955
8395.000000;0.759575
8394.000000;0.759350
8393.000000;0.759337
8392.000000;0.759461
8391.000000;0.759569
8390.000000;0.759520
8389.000000;0.759265
8388.000000;0.758862
8387.000000;0.758454
8386.000000;0.758197
8385.000000;0.758173
8384.000000;0.758316
8383.000000;0.758452
8382.000000;0.758432
8381.000000;0.758261
8380.000000;0.758071
8379.000000;0.757976
8378.000000;0.757990
8377.000000;0.758059
8376.000000;0.758132
8375.000000;0.758158
8374.000000;0.758094
8373.000000;0.757973
8372.000000;0.757914
8371.000000;0.757999
8370.000000;0.758159
8369.000000;0.758234
8368.000000;0.758144
8367.000000;0.757931
8366.000000;0.757682
8365.000000;0.757474
8364.000000;0.757394
8363.000000;0.757466
8362.000000;0.757545
8361.000000;0.757392
8360.000000;0.756938
8359.000000;0.756399
8358.000000;0.756062
8357.000000;0.756009
8356.000000;0.756130
8355.000000;0.756315
8354.000000;0.756523
8353.000000;0.756691
8352.000000;0.756721
8351.000000;0.756585
8350.000000;0.756359
8349.000000;0.756128
8348.000000;0.755918
8347.000000;0.755738
8346.000000;0.755621
8345.000000;0.755581
8344.000000;0.755580
8343.000000;0.755574
8342.000000;0.755552
8341.000000;0.755519
8340.000000;0.755458
8339.000000;0.755364
8338.000000;0.755274
8337.000000;0.755225
8336.000000;0.755199
8335.000000;0.755135
8334.000000;0.754993
8333.000000;0.754789
8332.000000;0.754601
8331.000000;0.754527
8330.000000;0.754626
8329.000000;0.754848
8328.000000;0.755048
8327.000000;0.755092
8326.000000;0.754957
8325.000000;0.754717
8324.000000;0.754463
8323.000000;0.754238
8322.000000;0.754053
8321.000000;0.753913
8320.000000;0.753827
8319.000000;0.753813
8318.000000;0.753890
8317.000000;0.754030
8316.000000;0.754127
8315.000000;0.754056
8314.000000;0.753789
8313.000000;0.753442
8312.000000;0.753173
8311.000000;0.753030
8310.000000;0.752946
8309.000000;0.752851
8308.000000;0.752761
8307.000000;0.752735
8306.000000;0.752765
8305.000000;0.752774
8304.000000;0.752713
8303.000000;0.752614
8302.000000;0.752536
8301.000000;0.752479
8300.000000;0.752415
8299.000000;0.752360
8298.000000;0.752380
8297.000000;0.752486
8296.000000;0.752581
8295.000000;0.752541
8294.000000;0.752361
8293.000000;0.752157
8292.000000;0.752044
8291.000000;0.752013
8290.000000;0.751962
8289.000000;0.751826
8288.000000;0.751638
8287.000000;0.751474
8286.000000;0.751361
8285.000000;0.751273
8284.000000;0.751190
8283.000000;0.751127
8282.000000;0.751109
8281.000000;0.751138
8280.000000;0.751190
8279.000000;0.751222
8278.000000;0.751193
8277.000000;0.751072
8276.000000;0.750871
8275.000000;0.750634
8274.000000;0.750418
8273.000000;0.750281
8272.000000;0.750265
8271.000000;0.750367
8270.000000;0.750501
8269.000000;0.750543
8268.000000;0.750436
8267.000000;0.750243
8266.000000;0.750068
8265.000000;0.749946
8264.000000;0.749839
8263.000000;0.749706
8262.000000;0.749548
8261.000000;0.749381
8260.000000;0.749218
8259.000000;0.749105
8258.000000;0.749122
8257.000000;0.749310
8256.000000;0.749589
8255.000000;0.749785
8254.000000;0.749763
8253.000000;0.749532
8252.000000;0.749223
8251.000000;0.748954
8250.000000;0.748743
8249.000000;0.748553
8248.000000;0.748398
8247.000000;0.748371
8246.000000;0.748527
8245.000000;0.748782
8244.000000;0.748962
8243.000000;0.748963
8242.000000;0.748829
8241.000000;0.748651
8240.000000;0.748446
8239.000000;0.748160
8238.000000;0.747787
8237.000000;0.747417
8236.000000;0.747168
8235.000000;0.747079
8234.000000;0.747104
8233.000000;0.747184
8232.000000;0.747302
8231.000000;0.747448
8230.000000;0.747583
8229.000000;0.747638
8228.000000;0.747564
8227.000000;0.747375
8226.000000;0.747137
8225.000000;0.746924
8224.000000;0.746779
8223.000000;0.746690
8222.000000;0.746610
8221.000000;0.746513
8220.000000;0.746432
8219.000000;0.746427
8218.000000;0.746511
8217.000000;0.746619
8216.000000;0.746670
8215.000000;0.746648
8214.000000;0.746602
8213.000000;0.746575
8212.000000;0.746544
8211.000000;0.746449
8210.000000;0.746277
8209.000000;0.746099
8208.000000;0.746002
8207.000000;0.745983
8206.000000;0.745943
8205.000000;0.745795
8204.000000;0.745577
8203.000000;0.745410
8202.000000;0.745367
8201.000000;0.745390
8200.000000;0.745377
8199.000000;0.745298
8198.000000;0.745202
8197.000000;0.745127
8196.000000;0.745045
8195.000000;0.744923
8194.000000;0.744788
8193.000000;0.744717
8192.000000;0.744750
8191.000000;0.744840
8190.000000;0.744902
8189.000000;0.744891
8188.000000;0.744819
8187.000000;0.744699
8186.000000;0.744518
8185.000000;0.744265
8184.000000;0.743978
8183.000000;0.743732
8182.000000;0.743594
8181.000000;0.743581
8180.000000;0.743658
8179.000000;0.743750
8178.000000;0.743773
8177.000000;0.743692
8176.000000;0.743560
8175.000000;0.743466
8174.000000;0.743448
8173.000000;0.743461
8172.000000;0.743445
8171.000000;0.743375
8170.000000;0.743263
8169.000000;0.743133
8168.000000;0.743021
8167.000000;0.742958
8166.000000;0.742933
8165.000000;0.742885
8164.000000;0.742776
8163.000000;0.742625
8162.000000;0.742476
8161.000000;0.742357
8160.000000;0.742298
8159.000000;0.742322
8158.000000;0.742391
8157.000000;0.742393
8156.000000;0.742249
8155.000000;0.742011
8154.000000;0.741805
8153.000000;0.741679
8152.000000;0.741585
8151.000000;0.741480
8150.000000;0.741390
8149.000000;0.741343
8148.000000;0.741312
8147.000000;0.741244
8146.000000;0.741128
8145.000000;0.740998
8144.000000;0.740906
8143.000000;0.740896
8142.000000;0.740965
8141.000000;0.741036
8140.000000;0.740999
8139.000000;0.740826
8138.000000;0.740601
8137.000000;0.740442
8136.000000;0.740386
8135.000000;0.740386
8134.000000;0.740382
8133.000000;0.740349
8132.000000;0.740298
8131.000000;0.740268
8130.000000;0.740295
8129.000000;0.740383
8128.000000;0.740483
8127.000000;0.740546
8126.000000;0.740548
8125.000000;0.740478
8124.000000;0.740316
8123.000000;0.740064
8122.000000;0.739787
8121.000000;0.739579
8120.000000;0.739478
8119.000000;0.739445
8118.000000;0.739420
8117.000000;0.739386
8116.000000;0.739370
8115.000000;0.739398
8114.000000;0.739447
8113.000000;0.739450
8112.000000;0.739341
8111.000000;0.739118
8110.000000;0.738854
8109.000000;0.738646
8108.000000;0.738550
8107.000000;0.738569
8106.000000;0.738675
8105.000000;0.738813
8104.000000;0.738914
8103.000000;0.738929
8102.000000;0.738863
8101.000000;0.738776
8100.000000;0.738726
8099.000000;0.738731
8098.000000;0.738775
8097.000000;0.738812
8096.000000;0.738786
8095.000000;0.738644
8094.000000;0.738390
8093.000000;0.738099
8092.000000;0.737881
8091.000000;0.737803
8090.000000;0.737855
8089.000000;0.737962
8088.000000;0.738034
8087.000000;0.738022
8086.000000;0.737927
8085.000000;0.737781
8084.000000;0.737617
8083.000000;0.737473
8082.000000;0.737404
8081.000000;0.737450
8080.000000;0.737565
8079.000000;0.737616
8078.000000;0.737498
8077.000000;0.737244
8076.000000;0.737008
8075.000000;0.736903
8074.000000;0.736897
8073.000000;0.736864
8072.000000;0.736738
8071.000000;0.736562
8070.000000;0.736409
8069.000000;0.736288
8068.000000;0.736169
8067.000000;0.736047
8066.000000;0.735963
8065.000000;0.735961
8064.000000;0.736045
8063.000000;0.736176
8062.000000;0.736290
8061.000000;0.736326
8060.000000;0.736262
8059.000000;0.736139
8058.000000;0.736013
8057.000000;0.735892
8056.000000;0.735736
8055.000000;0.735532
8054.000000;0.735324
8053.000000;0.735166
8052.000000;0.735077
8051.000000;0.735046
8050.000000;0.735054
8049.000000;0.735067
8048.000000;0.735049
8047.000000;0.735017
8046.000000;0.735051
8045.000000;0.735195
8044.000000;0.735351
8043.000000;0.735347
8042.000000;0.735121
8041.000000;0.734801
8040.000000;0.734576
8039.000000;0.734527
8038.000000;0.734584
8037.000000;0.734627
8036.000000;0.734589
8035.000000;0.734477
8034.000000;0.734333
8033.000000;0.734187
8032.000000;0.734035
8031.000000;0.733865
8030.000000;0.733696
8029.000000;0.733555
8028.000000;0.733440
8027.000000;0.733324
8026.000000;0.733234
8025.000000;0.733249
8024.000000;0.733386
8023.000000;0.733513
8022.000000;0.733441
8021.000000;0.733131
8020.000000;0.732763
8019.000000;0.732568
8018.000000;0.732624
8017.000000;0.732814
8016.000000;0.732942
8015.000000;0.732895
8014.000000;0.732715
8013.000000;0.732555
8012.000000;0.732539
8011.000000;0.732645
8010.000000;0.732735
8009.000000;0.732688
8008.000000;0.732503
8007.000000;0.732267
8006.000000;0.732070
8005.000000;0.731969
8004.000000;0.731987
8003.000000;0.732085
8002.000000;0.732175
8001.000000;0.732206
8000.000000;0.732234
7999.000000;0.732339
7998.000000;0.732488
7997.000000;0.732543
7996.000000;0.732441
7995.000000;0.732274
7994.000000;0.732163
7993.000000;0.732108
7992.000000;0.732013
7991.000000;0.731822
7990.000000;0.731558
7989.000000;0.731273
7988.000000;0.731015
7987.000000;0.730850
7986.000000;0.730832
7985.000000;0.730930
7984.000000;0.731034
7983.000000;0.731052
7982.000000;0.730986
7981.000000;0.730885
7980.000000;0.730771
7979.000000;0.730638
7978.000000;0.730491
7977.000000;0.730365
7976.000000;0.730298
7975.000000;0.730297
7974.000000;0.730324
7973.000000;0.730311
7972.000000;0.730221
7971.000000;0.730098
7970.000000;0.730050
7969.000000;0.730137
7968.000000;0.730295
7967.000000;0.730387
7966.000000;0.730332
7965.000000;0.730164
7964.000000;0.729963
7963.000000;0.729761
7962.000000;0.729532
7961.000000;0.729264
7960.000000;0.729028
7959.000000;0.728938
7958.000000;0.729042
7957.000000;0.729257
7956.000000;0.729421
7955.000000;0.729426
7954.000000;0.729288
7953.000000;0.729105
7952.000000;0.728951
7951.000000;0.728831
7950.000000;0.728717
7949.000000;0.728606
7948.000000;0.728514
7947.000000;0.728432
7946.000000;0.728331
7945.000000;0.728206
7944.000000;0.728108
7943.000000;0.728099
7942.000000;0.728179
7941.000000;0.728291
7940.000000;0.728383
7939.000000;0.728435
7938.000000;0.728440
7937.000000;0.728391
7936.000000;0.728297
7935.000000;0.728190
7934.000000;0.728066
7933.000000;0.727890
7932.000000;0.727668
7931.000000;0.727480
7930.000000;0.727378
7929.000000;0.727309
7928.000000;0.727198
7927.000000;0.727076
7926.000000;0.727031
7925.000000;0.727062
7924.000000;0.727071
7923.000000;0.727018
7922.000000;0.726976
7921.000000;0.727011
7920.000000;0.727068
7919.000000;0.727055
7918.000000;0.726949
7917.000000;0.726794
7916.000000;0.726628
7915.000000;0.726493
7914.000000;0.726448
7913.000000;0.726499
7912.000000;0.726551
7911.000000;0.726497
7910.000000;0.726341
7909.000000;0.726171
7908.000000;0.726041
7907.000000;0.725953
7906.000000;0.725926
7905.000000;0.725986
7904.000000;0.726104
7903.000000;0.726198
7902.000000;0.726207
7901.000000;0.726125
7900.000000;0.725951
7899.000000;0.725696
7898.000000;0.725429
7897.000000;0.725250
7896.000000;0.725195
7895.000000;0.725204
7894.000000;0.725211
7893.000000;0.725198
7892.000000;0.725158
7891.000000;0.725060
7890.000000;0.724903
7889.000000;0.724755
7888.000000;0.724692
7887.000000;0.724727
7886.000000;0.724825
7885.000000;0.724940
7884.000000;0.725016
7883.000000;0.724986
7882.000000;0.724822
7881.000000;0.724584
7880.000000;0.724374
7879.000000;0.724268
7878.000000;0.724268
7877.000000;0.724315
7876.000000;0.724326
7875.000000;0.724260
7874.000000;0.724166
7873.000000;0.724135
7872.000000;0.724182
7871.000000;0.724205
7870.000000;0.724093
7869.000000;0.723845
7868.000000;0.723556
7867.000000;0.723314
7866.000000;0.723152
7865.000000;0.723064
7864.000000;0.723025
7863.000000;0.723003
7862.000000;0.722981
7861.000000;0.722974
7860.000000;0.722985
7859.000000;0.722980
7858.000000;0.722923
7857.000000;0.722823
7856.000000;0.722719
7855.000000;0.722623
7854.000000;0.722520
7853.000000;0.722415
7852.000000;0.722352
7851.000000;0.722358
7850.000000;0.722402
7849.000000;0.722414
7848.000000;0.722351
7847.000000;0.722228
7846.000000;0.722091
7845.000000;0.721979
7844.000000;0.721897
7843.000000;0.721839
7842.000000;0.721824
7841.000000;0.721872
7840.000000;0.721968
7839.000000;0.722057
7838.000000;0.722095
7837.000000;0.722065
7836.000000;0.721951
7835.000000;0.721747
7834.000000;0.721504
7833.000000;0.721325
7832.000000;0.721262
7831.000000;0.721244
7830.000000;0.721151
7829.000000;0.720950
7828.000000;0.720728
7827.000000;0.720589
7826.000000;0.720577
7825.000000;0.720668
7824.000000;0.720793
7823.000000;0.720871
7822.000000;0.720848
7821.000000;0.720736
7820.000000;0.720588
7819.000000;0.720440
7818.000000;0.720287
7817.000000;0.720125
7816.000000;0.719974
7815.000000;0.719857
7814.000000;0.719773
7813.000000;0.719709
7812.000000;0.719664
7811.000000;0.719660
7810.000000;0.719726
7809.000000;0.719861
7808.000000;0.719996
7807.000000;0.720022
7806.000000;0.719894
7805.000000;0.719688
7804.000000;0.719537
7803.000000;0.719502
7802.000000;0.719530
7801.000000;0.719517
7800.000000;0.719405
7799.000000;0.719216
7798.000000;0.719033
7797.000000;0.718942
7796.000000;0.718961
7795.000000;0.719010
7794.000000;0.718986
7793.000000;0.718863
7792.000000;0.718703
7791.000000;0.718568
7790.000000;0.718462
7789.000000;0.718342
7788.000000;0.718180
7787.000000;0.717988
7786.000000;0.717822
7785.000000;0.717743
7784.000000;0.717768
7783.000000;0.717830
7782.000000;0.717842
7781.000000;0.717778
7780.000000;0.717692
7779.000000;0.717631
7778.000000;0.717577
7777.000000;0.717486
7776.000000;0.717340
7775.000000;0.717170
7774.000000;0.717032
7773.000000;0.716987
7772.000000;0.717062
7771.000000;0.717211
7770.000000;0.717337
7769.000000;0.717366
7768.000000;0.717294
7767.000000;0.717148
7766.000000;0.716955
7765.000000;0.716759
7764.000000;0.716628
7763.000000;0.716600
7762.000000;0.716628
7761.000000;0.716615
7760.000000;0.716513
7759.000000;0.716363
7758.000000;0.716247
7757.000000;0.716206
7756.000000;0.716192
7755.000000;0.716116
7754.000000;0.715948
7753.000000;0.715754
7752.000000;0.715642
7751.000000;0.715640
7750.000000;0.715669
7749.000000;0.715642
7748.000000;0.715563
7747.000000;0.715500
7746.000000;0.715488
7745.000000;0.715481
7744.000000;0.715403
7743.000000;0.715237
7742.000000;0.715056
7741.000000;0.714966
7740.000000;0.714997
7739.000000;0.715065
7738.000000;0.715049
7737.000000;0.714924
7736.000000;0.714785
7735.000000;0.714733
7734.000000;0.714777
7733.000000;0.714844
7732.000000;0.714872
7731.000000;0.714836
7730.000000;0.714738
7729.000000;0.714581
7728.000000;0.714392
7727.000000;0.714220
7726.000000;0.714130
7725.000000;0.714161
7724.000000;0.714274
7723.000000;0.714349
7722.000000;0.714255
7721.000000;0.713988
7720.000000;0.713695
7719.000000;0.713542
7718.000000;0.713554
7717.000000;0.713607
7716.000000;0.713563
7715.000000;0.713397
7714.000000;0.713201
7713.000000;0.713079
7712.000000;0.713055
7711.000000;0.713064
7710.000000;0.713034
7709.000000;0.712964
7708.000000;0.712909
7707.000000;0.712892
7706.000000;0.712879
7705.000000;0.712837
7704.000000;0.712771
7703.000000;0.712684
7702.000000;0.712551
7701.000000;0.712378
7700.000000;0.712234
7699.000000;0.712178
7698.000000;0.712181
7697.000000;0.712155
7696.000000;0.712070
7695.000000;0.711974
7694.000000;0.711914
7693.000000;0.711890
7692.000000;0.711883
7691.000000;0.711871
7690.000000;0.711821
7689.000000;0.711702
7688.000000;0.711542
7687.000000;0.711424
7686.000000;0.711406
7685.000000;0.711468
7684.000000;0.711538
7683.000000;0.711550
7682.000000;0.711461
7681.000000;0.711265
7680.000000;0.710996
7679.000000;0.710729
7678.000000;0.710541
7677.000000;0.710477
7676.000000;0.710554
7675.000000;0.710739
7674.000000;0.710930
7673.000000;0.711003
7672.000000;0.710912
7671.000000;0.710737
7670.000000;0.710590
7669.000000;0.710512
7668.000000;0.710452
7667.000000;0.710358
7666.000000;0.710226
7665.000000;0.710088
7664.000000;0.709968
7663.000000;0.709865
7662.000000;0.709772
7661.000000;0.709689
7660.000000;0.709628
7659.000000;0.709591
7658.000000;0.709565
7657.000000;0.709520
7656.000000;0.709432
7655.000000;0.709285
7654.000000;0.709086
7653.000000;0.708871
7652.000000;0.708697
7651.000000;0.708603
7650.000000;0.708576
7649.000000;0.708569
7648.000000;0.708547
7647.000000;0.708510
7646.000000;0.708467
7645.000000;0.708419
7644.000000;0.708367
7643.000000;0.708322
7642.000000;0.708300
7641.000000;0.708315
7640.000000;0.708360
7639.000000;0.708388
7638.000000;0.708329
7637.000000;0.708154
7636.000000;0.707930
7635.000000;0.707775
7634.000000;0.707732
7633.000000;0.707729
7632.000000;0.707678
7631.000000;0.707579
7630.000000;0.707495
7629.000000;0.707458
7628.000000;0.707434
7627.000000;0.707371
7626.000000;0.707253
7625.000000;0.707103
7624.000000;0.706952
7623.000000;0.706822
7622.000000;0.706724
7621.000000;0.706666
7620.000000;0.706664
7619.000000;0.706731
7618.000000;0.706834
7617.000000;0.706892
7616.000000;0.706843
7615.000000;0.706710
7614.000000;0.706583
7613.000000;0.706521
7612.000000;0.706502
7611.000000;0.706461
7610.000000;0.706355
7609.000000;0.706182
7608.000000;0.705960
7607.000000;0.705728
7606.000000;0.705559
7605.000000;0.705518
7604.000000;0.705585
7603.000000;0.705642
7602.000000;0.705572
7601.000000;0.705362
7600.000000;0.705108
7599.000000;0.704910
7598.000000;0.704791
7597.000000;0.704729
7596.000000;0.704708
7595.000000;0.704727
7594.000000;0.704758
7593.000000;0.704752
7592.000000;0.704688
7591.000000;0.704595
7590.000000;0.704512
7589.000000;0.704455
7588.000000;0.704419
7587.000000;0.704392
7586.000000;0.704367
7585.000000;0.704343
7584.000000;0.704329
7583.000000;0.704330
7582.000000;0.704323
7581.000000;0.704272
7580.000000;0.704169
7579.000000;0.704043
7578.000000;0.703923
7577.000000;0.703817
7576.000000;0.703739
7575.000000;0.703712
7574.000000;0.703737
7573.000000;0.703771
7572.000000;0.703756
7571.000000;0.703661
7570.000000;0.703493
7569.000000;0.703290
7568.000000;0.703124
7567.000000;0.703067
7566.000000;0.703122
7565.000000;0.703207
7564.000000;0.703235
7563.000000;0.703181
7562.000000;0.703067
7561.000000;0.702900
7560.000000;0.702687
7559.000000;0.702471
7558.000000;0.702310
7557.000000;0.702216
7556.000000;0.702163
7555.000000;0.702141
7554.000000;0.702159
7553.000000;0.702201
7552.000000;0.702229
7551.000000;0.702241
7550.000000;0.702264
7549.000000;0.702286
7548.000000;0.702249
7547.000000;0.702131
7546.000000;0.701995
7545.000000;0.701909
7544.000000;0.701856
7543.000000;0.701777
7542.000000;0.701661
7541.000000;0.701540
7540.000000;0.701437
7539.000000;0.701350
7538.000000;0.701288
7537.000000;0.701260
7536.000000;0.701225
7535.000000;0.701122
7534.000000;0.700948
7533.000000;0.700775
7532.000000;0.700675
7531.000000;0.700654
7530.000000;0.700686
7529.000000;0.700755
7528.000000;0.700843
7527.000000;0.700893
7526.000000;0.700839
7525.000000;0.700680
7524.000000;0.700487
7523.000000;0.700347
7522.000000;0.700282
7521.000000;0.700257
7520.000000;0.700234
7519.000000;0.700214
7518.000000;0.700216
7517.000000;0.700235
7516.000000;0.700235
7515.000000;0.700195
7514.000000;0.700116
7513.000000;0.700002
7512.000000;0.699833
7511.000000;0.699604
7510.000000;0.699369
7509.000000;0.699214
7508.000000;0.699181
7507.000000;0.699222
7506.000000;0.699245
7505.000000;0.699189
7504.000000;0.699058
7503.000000;0.698917
7502.000000;0.698845
7501.000000;0.698878
7500.000000;0.698955
7499.000000;0.698973
7498.000000;0.698884
7497.000000;0.698746
7496.000000;0.698640
7495.000000;0.698588
7494.000000;0.698550
7493.000000;0.698494
7492.000000;0.698411
7491.000000;0.698315
7490.000000;0.698210
7489.000000;0.698111
7488.000000;0.698036
7487.000000;0.697971
7486.000000;0.697887
7485.000000;0.697798
7484.000000;0.697772
7483.000000;0.697850
7482.000000;0.697979
7481.000000;0.698047
7480.000000;0.697978
7479.000000;0.697779
7478.000000;0.697520
7477.000000;0.697284
7476.000000;0.697133
7475.000000;0.697077
7474.000000;0.697075
7473.000000;0.697076
7472.000000;0.697073
7471.000000;0.697102
7470.000000;0.697173
7469.000000;0.697227
7468.000000;0.697183
7467.000000;0.697031
7466.000000;0.696841
7465.000000;0.696696
7464.000000;0.696627
7463.000000;0.696620
7462.000000;0.696656
7461.000000;0.696704
7460.000000;0.696698
7459.000000;0.696587
7458.000000;0.696400
7457.000000;0.696237
7456.000000;0.696159
7455.000000;0.696128
7454.000000;0.696076
7453.000000;0.696006
7452.000000;0.695974
7451.000000;0.695999
7450.000000;0.696027
7449.000000;0.696006
7448.000000;0.695935
7447.000000;0.695839
7446.000000;0.695723
7445.000000;0.695579
7444.000000;0.695430
7443.000000;0.695323
7442.000000;0.695293
7441.000000;0.695328
7440.000000;0.695372
7439.000000;0.695368
7438.000000;0.695308
7437.000000;0.695239
7436.000000;0.695225
7435.000000;0.695280
7434.000000;0.695355
7433.000000;0.695390
7432.000000;0.695350
7431.000000;0.695221
7430.000000;0.695007
7429.000000;0.694762
7428.000000;0.694582
7427.000000;0.694538
7426.000000;0.694596
7425.000000;0.694643
7424.000000;0.694599
7423.000000;0.694487
7422.000000;0.694390
7421.000000;0.694363
7420.000000;0.694389
7419.000000;0.694401
7418.000000;0.694344
7417.000000;0.694211
7416.000000;0.694044
7415.000000;0.693907
7414.000000;0.693849
7413.000000;0.693863
7412.000000;0.693889
7411.000000;0.693863
7410.000000;0.693775
7409.000000;0.693662
7408.000000;0.693551
7407.000000;0.693424
7406.000000;0.693271
7405.000000;0.693131
7404.000000;0.693045
7403.000000;0.692993
7402.000000;0.692911
7401.000000;0.692781
7400.000000;0.692656
7399.000000;0.692595
7398.000000;0.692612
7397.000000;0.692672
7396.000000;0.692719
7395.000000;0.692707
7394.000000;0.692622
7393.000000;0.692497
7392.000000;0.692389
7391.000000;0.692329
7390.000000;0.692291
7389.000000;0.692229
7388.000000;0.692120
7387.000000;0.691978
7386.000000;0.691837
7385.000000;0.691736
7384.000000;0.691695
7383.000000;0.691691
7382.000000;0.691683
7381.000000;0.691662
7380.000000;0.691631
7379.000000;0.691531
7378.000000;0.691274
7377.000000;0.690895
7376.000000;0.690601
7375.000000;0.690585
7374.000000;0.690821
7373.000000;0.691088
7372.000000;0.691197
7371.000000;0.691125
7370.000000;0.690994
7369.000000;0.690967
7368.000000;0.691124
7367.000000;0.691387
7366.000000;0.691570
7365.000000;0.691533
7364.000000;0.691292
7363.000000;0.690973
7362.000000;0.690703
7361.000000;0.690582
7360.000000;0.690650
7359.000000;0.690804
7358.000000;0.690819
7357.000000;0.690583
7356.000000;0.690276
7355.000000;0.690190
7354.000000;0.690392
7353.000000;0.690645
7352.000000;0.690665
7351.000000;0.690382
7350.000000;0.689972
7349.000000;0.689719
7348.000000;0.689798
7347.000000;0.690111
7346.000000;0.690355
7345.000000;0.690313
7344.000000;0.690039
7343.000000;0.689711
7342.000000;0.689422
7341.000000;0.689208
7340.000000;0.689176
7339.000000;0.689408
7338.000000;0.689762
7337.000000;0.689960
7336.000000;0.689915
7335.000000;0.689820
7334.000000;0.689886
7333.000000;0.690125
7332.000000;0.690384
7331.000000;0.690454
7330.000000;0.690194
7329.000000;0.689695
7328.000000;0.689287
7327.000000;0.689234
7326.000000;0.689398
7325.000000;0.689402
7324.000000;0.689123
7323.000000;0.688834
7322.000000;0.688850
7321.000000;0.689187
7320.000000;0.689616
7319.000000;0.689928
7318.000000;0.690045
7317.000000;0.689985
7316.000000;0.689820
7315.000000;0.689636
7314.000000;0.689457
7313.000000;0.689249
7312.000000;0.689061
7311.000000;0.689009
7310.000000;0.689076
7309.000000;0.689064
7308.000000;0.688883
7307.000000;0.688731
7306.000000;0.688861
7305.000000;0.689229
7304.000000;0.689530
7303.000000;0.689532
7302.000000;0.689269
7301.000000;0.688959
7300.000000;0.688828
7299.000000;0.688985
7298.000000;0.689308
7297.000000;0.689468
7296.000000;0.689236
7295.000000;0.688789
7294.000000;0.688580
7293.000000;0.688828
7292.000000;0.689281
7291.000000;0.689507
7290.000000;0.689335
7289.000000;0.688947
7288.000000;0.688648
7287.000000;0.688621
7286.000000;0.688818
7285.000000;0.689025
7284.000000;0.689052
7283.000000;0.688888
7282.000000;0.688692
7281.000000;0.688617
7280.000000;0.688662
7279.000000;0.688713
7278.000000;0.688686
7277.000000;0.688582
7276.000000;0.688444
7275.000000;0.688316
7274.000000;0.688232
7273.000000;0.688200
7272.000000;0.688193
7271.000000;0.688183
7270.000000;0.688172
7269.000000;0.688191
7268.000000;0.688260
7267.000000;0.688363
7266.000000;0.688456
7265.000000;0.688487
7264.000000;0.688434
7263.000000;0.688346
7262.000000;0.688316
7261.000000;0.688400
7260.000000;0.688558
7259.000000;0.688689
7258.000000;0.688720
7257.000000;0.688633
7256.000000;0.688456
7255.000000;0.688254
7254.000000;0.688103
7253.000000;0.688047
7252.000000;0.688073
7251.000000;0.688137
7250.000000;0.688192
7249.000000;0.688189
7248.000000;0.688094
7247.000000;0.687917
7246.000000;0.687670
7245.000000;0.687350
7244.000000;0.687016
7243.000000;0.686844
7242.000000;0.686998
7241.000000;0.687397
7240.000000;0.687709
7239.000000;0.687679
7238.000000;0.687412
7237.000000;0.687222
7236.000000;0.687255
7235.000000;0.687340
7234.000000;0.687249
7233.000000;0.687006
7232.000000;0.686858
7231.000000;0.686949
7230.000000;0.687102
7229.000000;0.686999
7228.000000;0.686569
7227.000000;0.686124
7226.000000;0.686053
7225.000000;0.686450
7224.000000;0.687043
7223.000000;0.687456
7222.000000;0.687526
7221.000000;0.687399
7220.000000;0.687328
7219.000000;0.687424
7218.000000;0.687578
7217.000000;0.687579
7216.000000;0.687297
7215.000000;0.686793
7214.000000;0.686313
7213.000000;0.686114
7212.000000;0.686251
7211.000000;0.686530
7210.000000;0.686692
7209.000000;0.686607
7208.000000;0.686304
7207.000000;0.685905
7206.000000;0.685560
7205.000000;0.685406
7204.000000;0.685499
7203.000000;0.685763
7202.000000;0.686019
7201.000000;0.686123
7200.000000;0.686054
7199.000000;0.685889
7198.000000;0.685729
7197.000000;0.685643
7196.000000;0.685654
7195.000000;0.685736
7194.000000;0.685835
7193.000000;0.685900
7192.000000;0.685907
7191.000000;0.685844
7190.000000;0.685682
7189.000000;0.685376
7188.000000;0.684961
7187.000000;0.684600
7186.000000;0.684447
7185.000000;0.684430
7184.000000;0.684292
7183.000000;0.683942
7182.000000;0.683627
7181.000000;0.683644
7180.000000;0.683917
7179.000000;0.684054
7178.000000;0.683820
7177.000000;0.683381
7176.000000;0.683046
7175.000000;0.682922
7174.000000;0.682893
7173.000000;0.682813
7172.000000;0.682601
7171.000000;0.682225
7170.000000;0.681732
7169.000000;0.681267
7168.000000;0.680994
7167.000000;0.680965
7166.000000;0.681078
7165.000000;0.681127
7164.000000;0.680911
7163.000000;0.680399
7162.000000;0.679827
7161.000000;0.679549
7160.000000;0.679717
7159.000000;0.680119
7158.000000;0.680357
7157.000000;0.680195
7156.000000;0.679742
7155.000000;0.679337
7154.000000;0.679265
7153.000000;0.679527
7152.000000;0.679849
7151.000000;0.679960
7150.000000;0.679822
7149.000000;0.679555
7148.000000;0.679205
7147.000000;0.678698
7146.000000;0.678018
7145.000000;0.677287
7144.000000;0.676657
7143.000000;0.676175
7142.000000;0.675793
7141.000000;0.675477
7140.000000;0.675242
7139.000000;0.675101
7138.000000;0.674984
7137.000000;0.674760
7136.000000;0.674359
7135.000000;0.673899
7134.000000;0.673626
7133.000000;0.673655
7132.000000;0.673809
7131.000000;0.673787
7130.000000;0.673500
7129.000000;0.673111
7128.000000;0.672765
7127.000000;0.672417
7126.000000;0.671975
7125.000000;0.671492
7124.000000;0.671114
7123.000000;0.670893
7122.000000;0.670738
7121.000000;0.670501
7120.000000;0.670066
7119.000000;0.669409
7118.000000;0.668634
7117.000000;0.667916
7116.000000;0.667311
7115.000000;0.666669
7114.000000;0.665835
7113.000000;0.664913
7112.000000;0.664218
7111.000000;0.663920
7110.000000;0.663819
7109.000000;0.663503
7108.000000;0.662720
7107.000000;0.661592
7106.000000;0.660472
7105.000000;0.659636
7104.000000;0.659096
7103.000000;0.658665
7102.000000;0.658159
7101.000000;0.657504
7100.000000;0.656722
7099.000000;0.655870
7098.000000;0.654993
7097.000000;0.654110
7096.000000;0.653244
7095.000000;0.652410
7094.000000;0.651574
7093.000000;0.650669
7092.000000;0.649734
7091.000000;0.648968
7090.000000;0.648512
7089.000000;0.648196
7088.000000;0.647672
7087.000000;0.646860
7086.000000;0.646092
7085.000000;0.645658
7084.000000;0.645356
7083.000000;0.644697
7082.000000;0.643515
7081.000000;0.642138
7080.000000;0.640948
7079.000000;0.639976
7078.000000;0.639016
7077.000000;0.637971
7076.000000;0.636934
7075.000000;0.635985
7074.000000;0.635034
7073.000000;0.633882
7072.000000;0.632425
7071.000000;0.630817
7070.000000;0.629407
7069.000000;0.628426
7068.000000;0.627716
7067.000000;0.626868
7066.000000;0.625642
7065.000000;0.624182
7064.000000;0.622772
7063.000000;0.621500
7062.000000;0.620246
7061.000000;0.618926
7060.000000;0.617678
7059.000000;0.616811
7058.000000;0.616479
7057.000000;0.616373
7056.000000;0.615809
7055.000000;0.614301
7054.000000;0.612043
7053.000000;0.609696
7052.000000;0.607699
7051.000000;0.605998
7050.000000;0.604459
7049.000000;0.603191
7048.000000;0.602252
7047.000000;0.601301
7046.000000;0.599914
7045.000000;0.598178
7044.000000;0.596624
7043.000000;0.595525
7042.000000;0.594549
7041.000000;0.593224
7040.000000;0.591492
7039.000000;0.589593
7038.000000;0.587591
7037.000000;0.585357
7036.000000;0.583027
7035.000000;0.581165
7034.000000;0.580248
7033.000000;0.580074
7032.000000;0.579854
7031.000000;0.578897
7030.000000;0.577111
7029.000000;0.574896
7028.000000;0.572709
7027.000000;0.570812
7026.000000;0.569298
7025.000000;0.568153
7024.000000;0.567235
7023.000000;0.566238
7022.000000;0.564809
7021.000000;0.562846
7020.000000;0.560708
7019.000000;0.558937
7018.000000;0.557631
7017.000000;0.556241
7016.000000;0.554234
7015.000000;0.551853
7014.000000;0.549884
7013.000000;0.548678
7012.000000;0.547781
7011.000000;0.546619
7010.000000;0.545177
7009.000000;0.543763
7008.000000;0.542453
7007.000000;0.541115
7006.000000;0.539686
7005.000000;0.538056
7004.000000;0.535875
7003.000000;0.532950
7002.000000;0.529758
7001.000000;0.527089
7000.000000;0.525126
6999.000000;0.523273
6998.000000;0.521037
6997.000000;0.518762
6996.000000;0.517260
6995.000000;0.516849
6994.000000;0.516911
6993.000000;0.516315
6992.000000;0.514336
6991.000000;0.511280
6990.000000;0.508222
6989.000000;0.506050
6988.000000;0.504825
6987.000000;0.504062
6986.000000;0.503333
6985.000000;0.502334
6984.000000;0.500583
6983.000000;0.497629
6982.000000;0.493699
6981.000000;0.489789
6980.000000;0.486936
6979.000000;0.485552
6978.000000;0.485383
6977.000000;0.485733
6976.000000;0.485730
6975.000000;0.484836
6974.000000;0.483321
6973.000000;0.481901
6972.000000;0.480709
6971.000000;0.479015
6970.000000;0.476275
6969.000000;0.473102
6968.000000;0.470694
6967.000000;0.469486
6966.000000;0.468861
6965.000000;0.468037
6964.000000;0.466757
6963.000000;0.465022
6962.000000;0.462770
6961.000000;0.460162
6960.000000;0.457818
6959.000000;0.456283
6958.000000;0.455338
6957.000000;0.454190
6956.000000;0.452357
6955.000000;0.450052
6954.000000;0.447728
6953.000000;0.445639
6952.000000;0.443942
6951.000000;0.442868
6950.000000;0.442459
6949.000000;0.442282
6948.000000;0.441683
6947.000000;0.440294
6946.000000;0.438190
6945.000000;0.435738
6944.000000;0.433408
6943.000000;0.431507
6942.000000;0.429859
6941.000000;0.427958
6940.000000;0.425697
6939.000000;0.423704
6938.000000;0.422595
6937.000000;0.422087
6936.000000;0.421339
6935.000000;0.420072
6934.000000;0.418794
6933.000000;0.417905
6932.000000;0.417121
6931.000000;0.416038
6930.000000;0.414761
6929.000000;0.413566
6928.000000;0.412264
6927.000000;0.410382
6926.000000;0.407881
6925.000000;0.405368
6924.000000;0.403537
6923.000000;0.402552
6922.000000;0.402023
6921.000000;0.401494
6920.000000;0.400900
6919.000000;0.400472
6918.000000;0.400215
6917.000000;0.399706
6916.000000;0.398612
6915.000000;0.397194
6914.000000;0.395996
6913.000000;0.395158
6912.000000;0.394390
6911.000000;0.393495
6910.000000;0.392561
6909.000000;0.391673
6908.000000;0.390798
6907.000000;0.389909
6906.000000;0.388907
6905.000000;0.387538
6904.000000;0.385823
6903.000000;0.384423
6902.000000;0.383994
6901.000000;0.384173
6900.000000;0.383812
6899.000000;0.382340
6898.000000;0.380328
6897.000000;0.378583
6896.000000;0.377273
6895.000000;0.376207
6894.000000;0.375389
6893.000000;0.374878
6892.000000;0.374508
6891.000000;0.374122
6890.000000;0.373832
6889.000000;0.373743
6888.000000;0.373679
6887.000000;0.373412
6886.000000;0.373011
6885.000000;0.372778
6884.000000;0.372958
6883.000000;0.373518
6882.000000;0.373939
6881.000000;0.373322
6880.000000;0.371210
6879.000000;0.368389
6878.000000;0.366402
6877.000000;0.366105
6876.000000;0.367045
6875.000000;0.368214
6874.000000;0.368892
6873.000000;0.368757
6872.000000;0.367839
6871.000000;0.366610
6870.000000;0.365591
6869.000000;0.364684
6868.000000;0.363433
6867.000000;0.362038
6866.000000;0.361443
6865.000000;0.362126
6864.000000;0.363470
6863.000000;0.364674
6862.000000;0.365589
6861.000000;0.366290
6860.000000;0.366468
6859.000000;0.365802
6858.000000;0.364473
6857.000000;0.362902
6856.000000;0.361392
6855.000000;0.360301
6854.000000;0.360008
6853.000000;0.360380
6852.000000;0.360788
6851.000000;0.361001
6850.000000;0.361474
6849.000000;0.362437
6848.000000;0.363390
6847.000000;0.363975
6846.000000;0.364584
6845.000000;0.365484
6844.000000;0.366074
6843.000000;0.365806
6842.000000;0.365285
6841.000000;0.365600
6840.000000;0.366884
6839.000000;0.368300
6838.000000;0.369168
6837.000000;0.369377
6836.000000;0.369013
6835.000000;0.368360
6834.000000;0.368061
6833.000000;0.368534
6832.000000;0.369340
6831.000000;0.369730
6830.000000;0.369666
6829.000000;0.369717
6828.000000;0.370169
6827.000000;0.370880
6826.000000;0.371835
6825.000000;0.373079
6824.000000;0.374153
6823.000000;0.374305
6822.000000;0.373416
6821.000000;0.372264
6820.000000;0.371846
6819.000000;0.372728
6818.000000;0.374873
6817.000000;0.377578
6816.000000;0.379775
6815.000000;0.380960
6814.000000;0.381731
6813.000000;0.382921
6812.000000;0.384369
6811.000000;0.385156
6810.000000;0.384940
6809.000000;0.384403
6808.000000;0.384330
6807.000000;0.384893
6806.000000;0.385913
6805.000000;0.387220
6804.000000;0.388536
6803.000000;0.389514
6802.000000;0.390124
6801.000000;0.390649
6800.000000;0.391262
6799.000000;0.392007
6798.000000;0.393173
6797.000000;0.395079
6796.000000;0.397348
6795.000000;0.398966
6794.000000;0.399370
6793.000000;0.399079
6792.000000;0.399007
6791.000000;0.399598
6790.000000;0.400883
6789.000000;0.402854
6788.000000;0.405240
6787.000000;0.407220
6786.000000;0.407985
6785.000000;0.407634
6784.000000;0.407154
6783.000000;0.407484
6782.000000;0.408846
6781.000000;0.410868
6780.000000;0.412952
6779.000000;0.414448
6778.000000;0.414903
6777.000000;0.414444
6776.000000;0.413819
6775.000000;0.413824
6774.000000;0.414680
6773.000000;0.416002
6772.000000;0.417298
6771.000000;0.418368
6770.000000;0.419233
6769.000000;0.419905
6768.000000;0.420413
6767.000000;0.420967
6766.000000;0.421851
6765.000000;0.423103
6764.000000;0.424470
6763.000000;0.425765
6762.000000;0.427104
6761.000000;0.428672
6760.000000;0.430395
6759.000000;0.432002
6758.000000;0.433318
6757.000000;0.434309
6756.000000;0.434919
6755.000000;0.435110
6754.000000;0.435136
6753.000000;0.435528
6752.000000;0.436634
6751.000000;0.438223
6750.000000;0.439665
6749.000000;0.440496
6748.000000;0.440794
6747.000000;0.441013
6746.000000;0.441545
6745.000000;0.442428
6744.000000;0.443427
6743.000000;0.444318
6742.000000;0.445054
6741.000000;0.445714
6740.000000;0.446370
6739.000000;0.447043
6738.000000;0.447740
6737.000000;0.448492
6736.000000;0.449357
6735.000000;0.450383
6734.000000;0.451513
6733.000000;0.452557
6732.000000;0.453361
6731.000000;0.454045
6730.000000;0.454952
6729.000000;0.456281
6728.000000;0.457796
6727.000000;0.459003
6726.000000;0.459591
6725.000000;0.459667
6724.000000;0.459628
6723.000000;0.459853
6722.000000;0.460492
6721.000000;0.461435
6720.000000;0.462447
6719.000000;0.463351
6718.000000;0.464118
6717.000000;0.464831
6716.000000;0.465591
6715.000000;0.466458
6714.000000;0.467409
6713.000000;0.468337
6712.000000;0.469140
6711.000000;0.469801
6710.000000;0.470365
6709.000000;0.470839
6708.000000;0.471222
6707.000000;0.471611
6706.000000;0.472168
6705.000000;0.472921
6704.000000;0.473720
6703.000000;0.474460
6702.000000;0.475216
6701.000000;0.476110
6700.000000;0.477071
6699.000000;0.477911
6698.000000;0.478477
6697.000000;0.478730
6696.000000;0.478845
6695.000000;0.479013
6694.000000;0.479444
6693.000000;0.480247
6692.000000;0.481366
6691.000000;0.482607
6690.000000;0.483740
6689.000000;0.484614
6688.000000;0.485224
6687.000000;0.485713
6686.000000;0.486238
6685.000000;0.486838
6684.000000;0.487461
6683.000000;0.488092
6682.000000;0.488763
6681.000000;0.489422
6680.000000;0.489932
6679.000000;0.490270
6678.000000;0.490620
6677.000000;0.491192
6676.000000;0.492006
6675.000000;0.492927
6674.000000;0.493819
6673.000000;0.494590
6672.000000;0.495185
6671.000000;0.495630
6670.000000;0.496055
6669.000000;0.496583
6668.000000;0.497210
6667.000000;0.497857
6666.000000;0.498480
6665.000000;0.499065
6664.000000;0.499586
6663.000000;0.500037
6662.000000;0.500470
6661.000000;0.500919
6660.000000;0.501335
6659.000000;0.501680
6658.000000;0.502024
6657.000000;0.502467
6656.000000;0.503015
6655.000000;0.503595
6654.000000;0.504178
6653.000000;0.504788
6652.000000;0.505423
6651.000000;0.506055
6650.000000;0.506670
6649.000000;0.507240
6648.000000;0.507710
6647.000000;0.508089
6646.000000;0.508512
6645.000000;0.509104
6644.000000;0.509803
6643.000000;0.510421
6642.000000;0.510862
6641.000000;0.511186
6640.000000;0.511482
6639.000000;0.511799
6638.000000;0.512172
6637.000000;0.512622
6636.000000;0.513088
6635.000000;0.513471
6634.000000;0.513770
6633.000000;0.514080
6632.000000;0.514446
6631.000000;0.514834
6630.000000;0.515250
6629.000000;0.515769
6628.000000;0.516376
6627.000000;0.516885
6626.000000;0.517140
6625.000000;0.517224
6624.000000;0.517388
6623.000000;0.517782
6622.000000;0.518340
6621.000000;0.518908
6620.000000;0.519414
6619.000000;0.519900
6618.000000;0.520456
6617.000000;0.521132
6616.000000;0.521889
6615.000000;0.522611
6614.000000;0.523154
6613.000000;0.523422
6612.000000;0.523441
6611.000000;0.523386
6610.000000;0.523504
6609.000000;0.523924
6608.000000;0.524536
6607.000000;0.525105
6606.000000;0.525513
6605.000000;0.525846
6604.000000;0.526216
6603.000000;0.526601
6602.000000;0.526909
6601.000000;0.527166
6600.000000;0.527516
6599.000000;0.528024
6598.000000;0.528577
6597.000000;0.529008
6596.000000;0.529279
6595.000000;0.529505
6594.000000;0.529812
6593.000000;0.530205
6592.000000;0.530584
6591.000000;0.530856
6590.000000;0.531036
6589.000000;0.531248
6588.000000;0.531619
6587.000000;0.532155
6586.000000;0.532747
6585.000000;0.533278
6584.000000;0.533730
6583.000000;0.534159
6582.000000;0.534584
6581.000000;0.534961
6580.000000;0.535245
6579.000000;0.535451
6578.000000;0.535633
6577.000000;0.535846
6576.000000;0.536127
6575.000000;0.536476
6574.000000;0.536836
6573.000000;0.537127
6572.000000;0.537344
6571.000000;0.537576
6570.000000;0.537905
6569.000000;0.538297
6568.000000;0.538654
6567.000000;0.538936
6566.000000;0.539187
6565.000000;0.539452
6564.000000;0.539726
6563.000000;0.540002
6562.000000;0.540312
6561.000000;0.540701
6560.000000;0.541191
6559.000000;0.541760
6558.000000;0.542331
6557.000000;0.542791
6556.000000;0.543078
6555.000000;0.543267
6554.000000;0.543488
6553.000000;0.543771
6552.000000;0.544019
6551.000000;0.544150
6550.000000;0.544205
6549.000000;0.544282
6548.000000;0.544445
6547.000000;0.544722
6546.000000;0.545126
6545.000000;0.545596
6544.000000;0.545989
6543.000000;0.546216
6542.000000;0.546373
6541.000000;0.546655
6540.000000;0.547127
6539.000000;0.547646
6538.000000;0.548031
6537.000000;0.548241
6536.000000;0.548377
6535.000000;0.548542
6534.000000;0.548747
6533.000000;0.548951
6532.000000;0.549138
6531.000000;0.549342
6530.000000;0.549576
6529.000000;0.549801
6528.000000;0.549985
6527.000000;0.550176
6526.000000;0.550458
6525.000000;0.550827
6524.000000;0.551166
6523.000000;0.551369
6522.000000;0.551441
6521.000000;0.551466
6520.000000;0.551521
6519.000000;0.551661
6518.000000;0.551921
6517.000000;0.552265
6516.000000;0.552587
6515.000000;0.552808
6514.000000;0.552982
6513.000000;0.553236
6512.000000;0.553605
6511.000000;0.553995
6510.000000;0.554295
6509.000000;0.554486
6508.000000;0.554621
6507.000000;0.554764
6506.000000;0.554948
6505.000000;0.555194
6504.000000;0.555507
6503.000000;0.555864
6502.000000;0.556204
6501.000000;0.556444
6500.000000;0.556542
6499.000000;0.556562
6498.000000;0.556641
6497.000000;0.556856
6496.000000;0.557154
6495.000000;0.557429
6494.000000;0.557645
6493.000000;0.557850
6492.000000;0.558084
6491.000000;0.558328
6490.000000;0.558534
6489.000000;0.558676
6488.000000;0.558778
6487.000000;0.558900
6486.000000;0.559096
6485.000000;0.559365
6484.000000;0.559653
6483.000000;0.559899
6482.000000;0.560082
6481.000000;0.560196
6480.000000;0.560245
6479.000000;0.560281
6478.000000;0.560413
6477.000000;0.560704
6476.000000;0.561085
6475.000000;0.561418
6474.000000;0.561633
6473.000000;0.561758
6472.000000;0.561836
6471.000000;0.561892
6470.000000;0.561966
6469.000000;0.562103
6468.000000;0.562299
6467.000000;0.562498
6466.000000;0.562674
6465.000000;0.562862
6464.000000;0.563087
6463.000000;0.563329
6462.000000;0.563567
6461.000000;0.563830
6460.000000;0.564137
6459.000000;0.564434
6458.000000;0.564622
6457.000000;0.564659
6456.000000;0.564607
6455.000000;0.564583
6454.000000;0.564661
6453.000000;0.564827
6452.000000;0.565032
6451.000000;0.565254
6450.000000;0.565510
6449.000000;0.565778
6448.000000;0.565982
6447.000000;0.566068
6446.000000;0.566087
6445.000000;0.566139
6444.000000;0.566262
6443.000000;0.566422
6442.000000;0.566591
6441.000000;0.566778
6440.000000;0.566972
6439.000000;0.567127
6438.000000;0.567233
6437.000000;0.567341
6436.000000;0.567498
6435.000000;0.567687
6434.000000;0.567854
6433.000000;0.567977
6432.000000;0.568081
6431.000000;0.568213
6430.000000;0.568407
6429.000000;0.568655
6428.000000;0.568886
6427.000000;0.569018
6426.000000;0.569042
6425.000000;0.569026
6424.000000;0.569035
6423.000000;0.569073
6422.000000;0.569110
6421.000000;0.569143
6420.000000;0.569191
6419.000000;0.569269
6418.000000;0.569391
6417.000000;0.569551
6416.000000;0.569708
6415.000000;0.569807
6414.000000;0.569861
6413.000000;0.569964
6412.000000;0.570179
6411.000000;0.570445
6410.000000;0.570642
6409.000000;0.570728
6408.000000;0.570777
6407.000000;0.570875
6406.000000;0.571034
6405.000000;0.571198
6404.000000;0.571313
6403.000000;0.571380
6402.000000;0.571459
6401.000000;0.571613
6400.000000;0.571837
6399.000000;0.572057
6398.000000;0.572204
6397.000000;0.572281
6396.000000;0.572343
6395.000000;0.572417
6394.000000;0.572477
6393.000000;0.572489
6392.000000;0.572457
6391.000000;0.572421
6390.000000;0.572438
6389.000000;0.572543
6388.000000;0.572720
6387.000000;0.572900
6386.000000;0.573015
6385.000000;0.573054
6384.000000;0.573066
6383.000000;0.573104
6382.000000;0.573182
6381.000000;0.573282
6380.000000;0.573388
6379.000000;0.573509
6378.000000;0.573662
6377.000000;0.573838
6376.000000;0.573997
6375.000000;0.574103
6374.000000;0.574162
6373.000000;0.574201
6372.000000;0.574213
6371.000000;0.574172
6370.000000;0.574093
6369.000000;0.574047
6368.000000;0.574085
6367.000000;0.574178
6366.000000;0.574268
6365.000000;0.574347
6364.000000;0.574447
6363.000000;0.574581
6362.000000;0.574725
6361.000000;0.574851
6360.000000;0.574936
6359.000000;0.574952
6358.000000;0.574893
6357.000000;0.574810
6356.000000;0.574779
6355.000000;0.574822
6354.000000;0.574891
6353.000000;0.574955
6352.000000;0.575041
6351.000000;0.575192
6350.000000;0.575390
6349.000000;0.575569
6348.000000;0.575679
6347.000000;0.575726
6346.000000;0.575744
6345.000000;0.575763
6344.000000;0.575788
6343.000000;0.575807
6342.000000;0.575816
6341.000000;0.575825
6340.000000;0.575856
6339.000000;0.575907
6338.000000;0.575954
6337.000000;0.575978
6336.000000;0.575999
6335.000000;0.576047
6334.000000;0.576128
6333.000000;0.576217
6332.000000;0.576284
6331.000000;0.576319
6330.000000;0.576329
6329.000000;0.576321
6328.000000;0.576304
6327.000000;0.576286
6326.000000;0.576275
6325.000000;0.576273
6324.000000;0.576279
6323.000000;0.576300
6322.000000;0.576346
6321.000000;0.576418
6320.000000;0.576505
6319.000000;0.576582
6318.000000;0.576634
6317.000000;0.576660
6316.000000;0.576677
6315.000000;0.576696
6314.000000;0.576720
6313.000000;0.576740
6312.000000;0.576749
6311.000000;0.576743
6310.000000;0.576727
6309.000000;0.576701
6308.000000;0.576672
6307.000000;0.576658
6306.000000;0.576692
6305.000000;0.576794
6304.000000;0.576940
6303.000000;0.577073
6302.000000;0.577150
6301.000000;0.577169
6300.000000;0.577148
6299.000000;0.577099
6298.000000;0.577033
6297.000000;0.576970
6296.000000;0.576933
6295.000000;0.576932
6294.000000;0.576970
6293.000000;0.577041
6292.000000;0.577128
6291.000000;0.577185
6290.000000;0.577178
6289.000000;0.577120
6288.000000;0.577066
6287.000000;0.577065
6286.000000;0.577123
6285.000000;0.577224
6284.000000;0.577341
6283.000000;0.577426
6282.000000;0.577426
6281.000000;0.577330
6280.000000;0.577201
6279.000000;0.577124
6278.000000;0.577130
6277.000000;0.577184
6276.000000;0.577243
6275.000000;0.577296
6274.000000;0.577339
6273.000000;0.577360
6272.000000;0.577355
6271.000000;0.577358
6270.000000;0.577397
6269.000000;0.577453
6268.000000;0.577471
6267.000000;0.577423
6266.000000;0.577345
6265.000000;0.577297
6264.000000;0.577303
6263.000000;0.577350
6262.000000;0.577410
6261.000000;0.577453
6260.000000;0.577452
6259.000000;0.577399
6258.000000;0.577319
6257.000000;0.577246
6256.000000;0.577193
6255.000000;0.577162
6254.000000;0.577163
6253.000000;0.577206
6252.000000;0.577256
6251.000000;0.577250
6250.000000;0.577173
6249.000000;0.577087
6248.000000;0.577055
6247.000000;0.577065
6246.000000;0.577048
6245.000000;0.576981
6244.000000;0.576906
6243.000000;0.576875
6242.000000;0.576900
6241.000000;0.576964
6240.000000;0.577038
6239.000000;0.577083
6238.000000;0.577058
6237.000000;0.576968
6236.000000;0.576876
6235.000000;0.576848
6234.000000;0.576894
6233.000000;0.576971
6232.000000;0.577035
6231.000000;0.577066
6230.000000;0.577050
6229.000000;0.576994
6228.000000;0.576933
6227.000000;0.576923
6226.000000;0.576984
6225.000000;0.577067
6224.000000;0.577086
6223.000000;0.576982
6222.000000;0.576781
6221.000000;0.576588
6220.000000;0.576503
6219.000000;0.576542
6218.000000;0.576619
6217.000000;0.576642
6216.000000;0.576598
6215.000000;0.576542
6214.000000;0.576505
6213.000000;0.576465
6212.000000;0.576401
6211.000000;0.576342
6210.000000;0.576334
6209.000000;0.576378
6208.000000;0.576428
6207.000000;0.576432
6206.000000;0.576371
6205.000000;0.576265
6204.000000;0.576165
6203.000000;0.576118
6202.000000;0.576118
6201.000000;0.576115
6200.000000;0.576078
6199.000000;0.576034
6198.000000;0.576024
6197.000000;0.576045
6196.000000;0.576060
6195.000000;0.576049
6194.000000;0.576020
6193.000000;0.575967
6192.000000;0.575879
6191.000000;0.575779
6190.000000;0.575721
6189.000000;0.575715
6188.000000;0.575698
6187.000000;0.575608
6186.000000;0.575461
6185.000000;0.575330
6184.000000;0.575265
6183.000000;0.575263
6182.000000;0.575289
6181.000000;0.575306
6180.000000;0.575288
6179.000000;0.575226
6178.000000;0.575143
6177.000000;0.575077
6176.000000;0.575051
6175.000000;0.575064
6174.000000;0.575097
6173.000000;0.575130
6172.000000;0.575147
6171.000000;0.575145
6170.000000;0.575123
6169.000000;0.575072
6168.000000;0.574977
6167.000000;0.574846
6166.000000;0.574724
6165.000000;0.574663
6164.000000;0.574679
6163.000000;0.574735
6162.000000;0.574768
6161.000000;0.574739
6160.000000;0.574658
6159.000000;0.574575
6158.000000;0.574534
6157.000000;0.574537
6156.000000;0.574539
6155.000000;0.574509
6154.000000;0.574459
6153.000000;0.574414
6152.000000;0.574372
6151.000000;0.574315
6150.000000;0.574238
6149.000000;0.574161
6148.000000;0.574106
6147.000000;0.574069
6146.000000;0.574030
6145.000000;0.573972
6144.000000;0.573900
6143.000000;0.573847
6142.000000;0.573839
6141.000000;0.573859
6140.000000;0.573860
6139.000000;0.573816
6138.000000;0.573753
6137.000000;0.573707
6136.000000;0.573679
6135.000000;0.573645
6134.000000;0.573600
6133.000000;0.573550
6132.000000;0.573493
6131.000000;0.573421
6130.000000;0.573351
6129.000000;0.573308
6128.000000;0.573279
6127.000000;0.573232
6126.000000;0.573160
6125.000000;0.573087
6124.000000;0.573021
6123.000000;0.572946
6122.000000;0.572868
6121.000000;0.572832
6120.000000;0.572861
6119.000000;0.572914
6118.000000;0.572925
6117.000000;0.572876
6116.000000;0.572805
6115.000000;0.572750
6114.000000;0.572718
6113.000000;0.572690
6112.000000;0.572640
6111.000000;0.572558
6110.000000;0.572460
6109.000000;0.572377
6108.000000;0.572317
6107.000000;0.572259
6106.000000;0.572186
6105.000000;0.572112
6104.000000;0.572059
6103.000000;0.572022
6102.000000;0.571981
6101.000000;0.571937
6100.000000;0.571914
6099.000000;0.571920
6098.000000;0.571934
6097.000000;0.571932
6096.000000;0.571914
6095.000000;0.571877
6094.000000;0.571809
6093.000000;0.571707
6092.000000;0.571599
6091.000000;0.571519
6090.000000;0.571482
6089.000000;0.571475
6088.000000;0.571483
6087.000000;0.571503
6086.000000;0.571525
6085.000000;0.571527
6084.000000;0.571491
6083.000000;0.571426
6082.000000;0.571347
6081.000000;0.571263
6080.000000;0.571182
6079.000000;0.571115
6078.000000;0.571072
6077.000000;0.571036
6076.000000;0.570981
6075.000000;0.570908
6074.000000;0.570850
6073.000000;0.570832
6072.000000;0.570829
6071.000000;0.570795
6070.000000;0.570712
6069.000000;0.570596
6068.000000;0.570480
6067.000000;0.570385
6066.000000;0.570321
6065.000000;0.570294
6064.000000;0.570294
6063.000000;0.570302
6062.000000;0.570297
6061.000000;0.570266
6060.000000;0.570207
6059.000000;0.570135
6058.000000;0.570078
6057.000000;0.570049
6056.000000;0.570033
6055.000000;0.569999
6054.000000;0.569942
6053.000000;0.569883
6052.000000;0.569847
6051.000000;0.569840
6050.000000;0.569853
6049.000000;0.569872
6048.000000;0.569877
6047.000000;0.569854
6046.000000;0.569801
6045.000000;0.569724
6044.000000;0.569626
6043.000000;0.569514
6042.000000;0.569412
6041.000000;0.569350
6040.000000;0.569339
6039.000000;0.569357
6038.000000;0.569368
6037.000000;0.569350
6036.000000;0.569297
6035.000000;0.569220
6034.000000;0.569143
6033.000000;0.569089
6032.000000;0.569061
6031.000000;0.569041
6030.000000;0.569009
6029.000000;0.568965
6028.000000;0.568921
6027.000000;0.568887
6026.000000;0.568855
6025.000000;0.568802
6024.000000;0.568708
6023.000000;0.568586
6022.000000;0.568481
6021.000000;0.568423
6020.000000;0.568399
6019.000000;0.568373
6018.000000;0.568340
6017.000000;0.568325
6016.000000;0.568340
6015.000000;0.568362
6014.000000;0.568371
6013.000000;0.568371
6012.000000;0.568374
6011.000000;0.568376
6010.000000;0.568365
6009.000000;0.568339
6008.000000;0.568309
6007.000000;0.568282
6006.000000;0.568255
6005.000000;0.568211
6004.000000;0.568122
6003.000000;0.567973
6002.000000;0.567801
6001.000000;0.567680
6000.000000;0.567660
5999.000000;0.567725
5998.000000;0.567815
5997.000000;0.567866
5996.000000;0.567850
5995.000000;0.567771
5994.000000;0.567664
5993.000000;0.567571
5992.000000;0.567511
5991.000000;0.567470
5990.000000;0.567426
5989.000000;0.567361
5988.000000;0.567271
5987.000000;0.567163
5986.000000;0.567068
5985.000000;0.567030
5984.000000;0.567058
5983.000000;0.567111
5982.000000;0.567139
5981.000000;0.567129
5980.000000;0.567110
5979.000000;0.567107
5978.000000;0.567120
5977.000000;0.567129
5976.000000;0.567122
5975.000000;0.567096
5974.000000;0.567063
5973.000000;0.567045
5972.000000;0.567048
5971.000000;0.567060
5970.000000;0.567062
5969.000000;0.567043
5968.000000;0.566997
5967.000000;0.566924
5966.000000;0.566830
5965.000000;0.566733
5964.000000;0.566645
5963.000000;0.566570
5962.000000;0.566520
5961.000000;0.566512
5960.000000;0.566534
5959.000000;0.566538
5958.000000;0.566496
5957.000000;0.566432
5956.000000;0.566390
5955.000000;0.566372
5954.000000;0.566345
5953.000000;0.566289
5952.000000;0.566226
5951.000000;0.566182
5950.000000;0.566168
5949.000000;0.566176
5948.000000;0.566192
5947.000000;0.566190
5946.000000;0.566165
5945.000000;0.566145
5944.000000;0.566166
5943.000000;0.566217
5942.000000;0.566232
5941.000000;0.566171
5940.000000;0.566066
5939.000000;0.565991
5938.000000;0.565979
5937.000000;0.566003
5936.000000;0.566015
5935.000000;0.565996
5934.000000;0.565967
5933.000000;0.565965
5932.000000;0.566004
5931.000000;0.566058
5930.000000;0.566075
5929.000000;0.566024
5928.000000;0.565921
5927.000000;0.565812
5926.000000;0.565723
5925.000000;0.565649
5924.000000;0.565587
5923.000000;0.565549
5922.000000;0.565549
5921.000000;0.565572
5920.000000;0.565577
5919.000000;0.565540
5918.000000;0.565464
5917.000000;0.565368
5916.000000;0.565261
5915.000000;0.565148
5914.000000;0.565050
5913.000000;0.564996
5912.000000;0.564987
5911.000000;0.564998
5910.000000;0.565001
5909.000000;0.564990
5908.000000;0.564970
5907.000000;0.564943
5906.000000;0.564907
5905.000000;0.564866
5904.000000;0.564834
5903.000000;0.564817
5902.000000;0.564809
5901.000000;0.564791
5900.000000;0.564737
5899.000000;0.564635
5898.000000;0.564510
5897.000000;0.564410
5896.000000;0.564363
5895.000000;0.564343
5894.000000;0.564295
5893.000000;0.564202
5892.000000;0.564095
5891.000000;0.564009
5890.000000;0.563948
5889.000000;0.563893
5888.000000;0.563835
5887.000000;0.563781
5886.000000;0.563733
5885.000000;0.563679
5884.000000;0.563609
5883.000000;0.563531
5882.000000;0.563468
5881.000000;0.563440
5880.000000;0.563450
5879.000000;0.563482
5878.000000;0.563516
5877.000000;0.563535
5876.000000;0.563528
5875.000000;0.563494
5874.000000;0.563446
5873.000000;0.563397
5872.000000;0.563355
5871.000000;0.563317
5870.000000;0.563278
5869.000000;0.563233
5868.000000;0.563183
5867.000000;0.563134
5866.000000;0.563096
5865.000000;0.563070
5864.000000;0.563042
5863.000000;0.562997
5862.000000;0.562945
5861.000000;0.562916
5860.000000;0.562916
5859.000000;0.562912
5858.000000;0.562866
5857.000000;0.562776
5856.000000;0.562670
5855.000000;0.562573
5854.000000;0.562495
5853.000000;0.562442
5852.000000;0.562430
5851.000000;0.562456
5850.000000;0.562487
5849.000000;0.562487
5848.000000;0.562443
5847.000000;0.562375
5846.000000;0.562307
5845.000000;0.562252
5844.000000;0.562217
5843.000000;0.562203
5842.000000;0.562204
5841.000000;0.562195
5840.000000;0.562146
5839.000000;0.562057
5838.000000;0.561959
5837.000000;0.561888
5836.000000;0.561850
5835.000000;0.561824
5834.000000;0.561794
5833.000000;0.561767
5832.000000;0.561752
5831.000000;0.561747
5830.000000;0.561744
5829.000000;0.561737
5828.000000;0.561728
5827.000000;0.561715
5826.000000;0.561698
5825.000000;0.561673
5824.000000;0.561637
5823.000000;0.561589
5822.000000;0.561540
5821.000000;0.561509
5820.000000;0.561499
5819.000000;0.561493
5818.000000;0.561474
5817.000000;0.561446
5816.000000;0.561419
5815.000000;0.561391
5814.000000;0.561357
5813.000000;0.561321
5812.000000;0.561291
5811.000000;0.561260
5810.000000;0.561210
5809.000000;0.561142
5808.000000;0.561073
5807.000000;0.561025
5806.000000;0.561002
5805.000000;0.560989
5804.000000;0.560961
5803.000000;0.560892
5802.000000;0.560781
5801.000000;0.560671
5800.000000;0.560614
5799.000000;0.560613
5798.000000;0.560622
5797.000000;0.560600
5796.000000;0.560558
5795.000000;0.560537
5794.000000;0.560551
5793.000000;0.560575
5792.000000;0.560569
5791.000000;0.560516
5790.000000;0.560433
5789.000000;0.560359
5788.000000;0.560320
5787.000000;0.560315
5786.000000;0.560325
5785.000000;0.560334
5784.000000;0.560339
5783.000000;0.560336
5782.000000;0.560308
5781.000000;0.560234
5780.000000;0.560120
5779.000000;0.559998
5778.000000;0.559893
5777.000000;0.559808
5776.000000;0.559728
5775.000000;0.559644
5774.000000;0.559557
5773.000000;0.559470
5772.000000;0.559376
5771.000000;0.559277
5770.000000;0.559191
5769.000000;0.559139
5768.000000;0.559121
5767.000000;0.559112
5766.000000;0.559088
5765.000000;0.559047
5764.000000;0.558989
5763.000000;0.558906
5762.000000;0.558790
5761.000000;0.558663
5760.000000;0.558557
5759.000000;0.558485
5758.000000;0.558420
5757.000000;0.558336
5756.000000;0.558238
5755.000000;0.558159
5754.000000;0.558124
5753.000000;0.558127
5752.000000;0.558138
5751.000000;0.558121
5750.000000;0.558061
5749.000000;0.557966
5748.000000;0.557859
5747.000000;0.557757
5746.000000;0.557657
5745.000000;0.557550
5744.000000;0.557425
5743.000000;0.557283
5742.000000;0.557139
5741.000000;0.557015
5740.000000;0.556930
5739.000000;0.556887
5738.000000;0.556872
5737.000000;0.556868
5736.000000;0.556869
5735.000000;0.556867
5734.000000;0.556854
5733.000000;0.556816
5732.000000;0.556751
5731.000000;0.556663
5730.000000;0.556557
5729.000000;0.556443
5728.000000;0.556330
5727.000000;0.556231
5726.000000;0.556152
5725.000000;0.556087
5724.000000;0.556019
5723.000000;0.555936
5722.000000;0.555840
5721.000000;0.555742
5720.000000;0.555652
5719.000000;0.555560
5718.000000;0.555455
5717.000000;0.555342
5716.000000;0.555245
5715.000000;0.555173
5714.000000;0.555112
5713.000000;0.555040
5712.000000;0.554951
5711.000000;0.554855
5710.000000;0.554761
5709.000000;0.554667
5708.000000;0.554575
5707.000000;0.554495
5706.000000;0.554434
5705.000000;0.554388
5704.000000;0.554353
5703.000000;0.554328
5702.000000;0.554314
5701.000000;0.554291
5700.000000;0.554227
5699.000000;0.554118
5698.000000;0.554004
5697.000000;0.553930
5696.000000;0.553896
5695.000000;0.553852
5694.000000;0.553743
5693.000000;0.553595
5692.000000;0.553450
5691.000000;0.553333
5690.000000;0.553225
5689.000000;0.553097
5688.000000;0.552956
5687.000000;0.552837
5686.000000;0.552755
5685.000000;0.552699
5684.000000;0.552651
5683.000000;0.552605
5682.000000;0.552556
5681.000000;0.552480
5680.000000;0.552361
5679.000000;0.552213
5678.000000;0.552077
5677.000000;0.551979
5676.000000;0.551914
5675.000000;0.551871
5674.000000;0.551864
5673.000000;0.551899
5672.000000;0.551948
5671.000000;0.551951
5670.000000;0.551875
5669.000000;0.551745
5668.000000;0.551633
5667.000000;0.551596
5666.000000;0.551631
5665.000000;0.551679
5664.000000;0.551665
5663.000000;0.551554
5662.000000;0.551376
5661.000000;0.551192
5660.000000;0.551041
5659.000000;0.550933
5658.000000;0.550863
5657.000000;0.550827
5656.000000;0.550810
5655.000000;0.550790
5654.000000;0.550756
5653.000000;0.550703
5652.000000;0.550620
5651.000000;0.550499
5650.000000;0.550369
5649.000000;0.550293
5648.000000;0.550306
5647.000000;0.550360
5646.000000;0.550367
5645.000000;0.550278
5644.000000;0.550126
5643.000000;0.549981
5642.000000;0.549895
5641.000000;0.549878
5640.000000;0.549912
5639.000000;0.549964
5638.000000;0.549994
5637.000000;0.549975
5636.000000;0.549903
5635.000000;0.549797
5634.000000;0.549690
5633.000000;0.549616
5632.000000;0.549601
5631.000000;0.549637
5630.000000;0.549683
5629.000000;0.549688
5628.000000;0.549636
5627.000000;0.549560
5626.000000;0.549506
5625.000000;0.549493
5624.000000;0.549509
5623.000000;0.549534
5622.000000;0.549559
5621.000000;0.549579
5620.000000;0.549574
5619.000000;0.549527
5618.000000;0.549452
5617.000000;0.549382
5616.000000;0.549336
5615.000000;0.549305
5614.000000;0.549276
5613.000000;0.549247
5612.000000;0.549219
5611.000000;0.549188
5610.000000;0.549168
5609.000000;0.549189
5608.000000;0.549265
5607.000000;0.549354
5606.000000;0.549392
5605.000000;0.549357
5604.000000;0.549286
5603.000000;0.549225
5602.000000;0.549187
5601.000000;0.549159
5600.000000;0.549134
5599.000000;0.549118
5598.000000;0.549115
5597.000000;0.549122
5596.000000;0.549136
5595.000000;0.549158
5594.000000;0.549188
5593.000000;0.549221
5592.000000;0.549261
5591.000000;0.549313
5590.000000;0.549375
5589.000000;0.549431
5588.000000;0.549462
5587.000000;0.549459
5586.000000;0.549438
5585.000000;0.549416
5584.000000;0.549404
5583.000000;0.549398
5582.000000;0.549392
5581.000000;0.549381
5580.000000;0.549353
5579.000000;0.549291
5578.000000;0.549194
5577.000000;0.549095
5576.000000;0.549036
5575.000000;0.549027
5574.000000;0.549033
5573.000000;0.549013
5572.000000;0.548965
5571.000000;0.548926
5570.000000;0.548928
5569.000000;0.548970
5568.000000;0.549023
5567.000000;0.549062
5566.000000;0.549084
5565.000000;0.549093
5564.000000;0.549098
5563.000000;0.549106
5562.000000;0.549118
5561.000000;0.549122
5560.000000;0.549104
5559.000000;0.549061
5558.000000;0.549009
5557.000000;0.548974
5556.000000;0.548965
5555.000000;0.548968
5554.000000;0.548960
5553.000000;0.548921
5552.000000;0.548848
5551.000000;0.548762
5550.000000;0.548689
5549.000000;0.548639
5548.000000;0.548602
5547.000000;0.548561
5546.000000;0.548512
5545.000000;0.548464
5544.000000;0.548428
5543.000000;0.548424
5542.000000;0.548474
5541.000000;0.548564
5540.000000;0.548633
5539.000000;0.548624
5538.000000;0.548549
5537.000000;0.548469
5536.000000;0.548410
5535.000000;0.548336
5534.000000;0.548220
5533.000000;0.548100
5532.000000;0.548041
5531.000000;0.548068
5530.000000;0.548143
5529.000000;0.548212
5528.000000;0.548249
5527.000000;0.548262
5526.000000;0.548272
5525.000000;0.548282
5524.000000;0.548271
5523.000000;0.548206
5522.000000;0.548081
5521.000000;0.547923
5520.000000;0.547763
5519.000000;0.547616
5518.000000;0.547497
5517.000000;0.547441
5516.000000;0.547468
5515.000000;0.547547
5514.000000;0.547613
5513.000000;0.547638
5512.000000;0.547650
5511.000000;0.547689
5510.000000;0.547746
5509.000000;0.547771
5508.000000;0.547724
5507.000000;0.547591
5506.000000;0.547395
5505.000000;0.547188
5504.000000;0.547052
5503.000000;0.547059
5502.000000;0.547210
5501.000000;0.547427
5500.000000;0.547605
5499.000000;0.547692
5498.000000;0.547692
5497.000000;0.547609
5496.000000;0.547432
5495.000000;0.547200
5494.000000;0.547014
5493.000000;0.546943
5492.000000;0.546911
5491.000000;0.546743
5490.000000;0.546397
5489.000000;0.546053
5488.000000;0.545931
5487.000000;0.546047
5486.000000;0.546233
5485.000000;0.546374
5484.000000;0.546522
5483.000000;0.546769
5482.000000;0.547085
5481.000000;0.547353
5480.000000;0.547480
5479.000000;0.547420
5478.000000;0.547182
5477.000000;0.546852
5476.000000;0.546599
5475.000000;0.546540
5474.000000;0.546564
5473.000000;0.546427
5472.000000;0.546076
5471.000000;0.545755
5470.000000;0.545733
5469.000000;0.546003
5468.000000;0.546320
5467.000000;0.546472
5466.000000;0.546442
5465.000000;0.546317
5464.000000;0.546157
5463.000000;0.545995
5462.000000;0.545874
5461.000000;0.545840
5460.000000;0.545866
5459.000000;0.545851
5458.000000;0.545747
5457.000000;0.545645
5456.000000;0.545683
5455.000000;0.545885
5454.000000;0.546107
5453.000000;0.546164
5452.000000;0.546016
5451.000000;0.545825
5450.000000;0.545761
5449.000000;0.545792
5448.000000;0.545712
5447.000000;0.545419
5446.000000;0.545082
5445.000000;0.544912
5444.000000;0.544868
5443.000000;0.544762
5442.000000;0.544587
5441.000000;0.544583
5440.000000;0.544887
5439.000000;0.545262
5438.000000;0.545355
5437.000000;0.545149
5436.000000;0.544975
5435.000000;0.545106
5434.000000;0.545437
5433.000000;0.545575
5432.000000;0.545277
5431.000000;0.544740
5430.000000;0.544394
5429.000000;0.544471
5428.000000;0.544801
5427.000000;0.545015
5426.000000;0.544945
5425.000000;0.544782
5424.000000;0.544841
5423.000000;0.545195
5422.000000;0.545614
5421.000000;0.545819
5420.000000;0.545749
5419.000000;0.545545
5418.000000;0.545314
5417.000000;0.545008
5416.000000;0.544570
5415.000000;0.544126
5414.000000;0.543906
5413.000000;0.543949
5412.000000;0.544042
5411.000000;0.544035
5410.000000;0.544069
5409.000000;0.544357
5408.000000;0.544834
5407.000000;0.545232
5406.000000;0.545421
5405.000000;0.545512
5404.000000;0.545619
5403.000000;0.545702
5402.000000;0.545679
5401.000000;0.545543
5400.000000;0.545355
5399.000000;0.545187
5398.000000;0.545067
5397.000000;0.544964
5396.000000;0.544833
5395.000000;0.544665
5394.000000;0.544552
5393.000000;0.544593
5392.000000;0.544744
5391.000000;0.544860
5390.000000;0.544878
5389.000000;0.544847
5388.000000;0.544809
5387.000000;0.544745
5386.000000;0.544665
5385.000000;0.544626
5384.000000;0.544620
5383.000000;0.544599
5382.000000;0.544601
5381.000000;0.544699
5380.000000;0.544825
5379.000000;0.544810
5378.000000;0.544630
5377.000000;0.544482
5376.000000;0.544509
5375.000000;0.544584
5374.000000;0.544515
5373.000000;0.544358
5372.000000;0.544335
5371.000000;0.544511
5370.000000;0.544730
5369.000000;0.544842
5368.000000;0.544811
5367.000000;0.544634
5366.000000;0.544326
5365.000000;0.543991
5364.000000;0.543773
5363.000000;0.543691
5362.000000;0.543622
5361.000000;0.543483
5360.000000;0.543369
5359.000000;0.543428
5358.000000;0.543627
5357.000000;0.543740
5356.000000;0.543545
5355.000000;0.543048
5354.000000;0.542491
5353.000000;0.542117
5352.000000;0.541890
5351.000000;0.541559
5350.000000;0.541070
5349.000000;0.540684
5348.000000;0.540571
5347.000000;0.540509
5346.000000;0.540155
5345.000000;0.539554
5344.000000;0.539121
5343.000000;0.539002
5342.000000;0.538789
5341.000000;0.538105
5340.000000;0.537142
5339.000000;0.536372
5338.000000;0.535990
5337.000000;0.535789
5336.000000;0.535464
5335.000000;0.534911
5334.000000;0.534232
5333.000000;0.533557
5332.000000;0.532891
5331.000000;0.532022
5330.000000;0.530613
5329.000000;0.528504
5328.000000;0.526003
5327.000000;0.523679
5326.000000;0.521790
5325.000000;0.520061
5324.000000;0.518072
5323.000000;0.515629
5322.000000;0.512673
5321.000000;0.509098
5320.000000;0.504779
5319.000000;0.499700
5318.000000;0.493970
5317.000000;0.487829
5316.000000;0.481599
5315.000000;0.475368
5314.000000;0.468672
5313.000000;0.460837
5312.000000;0.451689
5311.000000;0.441539
5310.000000;0.430343
5309.000000;0.417347
5308.000000;0.401940
5307.000000;0.384497
5306.000000;0.365955
5305.000000;0.346952
5304.000000;0.327813
5303.000000;0.308798
5302.000000;0.290055
5301.000000;0.272197
5300.000000;0.257202
5299.000000;0.247970
5298.000000;0.247449
5297.000000;0.258372
5296.000000;0.281225
5295.000000;0.312932
5294.000000;0.350487
5293.000000;0.392767
5292.000000;0.436968
5291.000000;0.478836
5290.000000;0.517391
5289.000000;0.554117
5288.000000;0.588722
5287.000000;0.620640
5286.000000;0.651993
5285.000000;0.683720
5284.000000;0.711915
5283.000000;0.733828
5282.000000;0.753956
5281.000000;0.777445
5280.000000;0.801357
5279.000000;0.819254
5278.000000;0.831328
5277.000000;0.842564
5276.000000;0.854071
5275.000000;0.863728
5274.000000;0.872257
5273.000000;0.881304
5272.000000;0.888278
5271.000000;0.890306
5270.000000;0.890904
5269.000000;0.895893
5268.000000;0.905353
5267.000000;0.915147
5266.000000;0.923474
5265.000000;0.930539
5264.000000;0.934554
5263.000000;0.934035
5262.000000;0.931558
5261.000000;0.929808
5260.000000;0.927479
5259.000000;0.924126
5258.000000;0.924561
5257.000000;0.932436
5256.000000;0.943175
5255.000000;0.949075
5254.000000;0.948950
5253.000000;0.946721
5252.000000;0.943930
5251.000000;0.940467
5250.000000;0.939181
5249.000000;0.942799
5248.000000;0.948795
5247.000000;0.952576
5246.000000;0.953730
5245.000000;0.954595
5244.000000;0.954909
5243.000000;0.952867
5242.000000;0.948974
5241.000000;0.944260
5240.000000;0.937819
5239.000000;0.930542
5238.000000;0.927774
5237.000000;0.933220
5236.000000;0.942571
5235.000000;0.947774
5234.000000;0.946350
5233.000000;0.941581
5232.000000;0.935848
5231.000000;0.929815
5230.000000;0.925708
5229.000000;0.925757
5228.000000;0.928610
5227.000000;0.931388
5226.000000;0.933713
5225.000000;0.936020
5224.000000;0.936530
5223.000000;0.934428
5222.000000;0.933353
5221.000000;0.936889
5220.000000;0.942763
5219.000000;0.945623
5218.000000;0.943886
5217.000000;0.939646
5216.000000;0.933990
5215.000000;0.927033
5214.000000;0.920579
5213.000000;0.916650
5212.000000;0.915093
5211.000000;0.915621
5210.000000;0.919865
5209.000000;0.928375
5208.000000;0.937744
5207.000000;0.944010
5206.000000;0.947012
5205.000000;0.947929
5204.000000;0.945614
5203.000000;0.939551
5202.000000;0.933503
5201.000000;0.931951
5200.000000;0.934957
5199.000000;0.939163
5198.000000;0.941838
5197.000000;0.941631
5196.000000;0.937903
5195.000000;0.932779
5194.000000;0.931527
5193.000000;0.936974
5192.000000;0.944769
5191.000000;0.947594
5190.000000;0.943837
5189.000000;0.938858
5188.000000;0.938354
5187.000000;0.943214
5186.000000;0.949277
5185.000000;0.950540
5184.000000;0.944818
5183.000000;0.936993
5182.000000;0.934049
5181.000000;0.936969
5180.000000;0.940611
5179.000000;0.942107
5178.000000;0.944593
5177.000000;0.950037
5176.000000;0.953991
5175.000000;0.951953
5174.000000;0.946926
5173.000000;0.944673
5172.000000;0.945052
5171.000000;0.943584
5170.000000;0.938789
5169.000000;0.933022
5168.000000;0.928308
5167.000000;0.925940
5166.000000;0.927936
5165.000000;0.934455
5164.000000;0.940835
5163.000000;0.941376
5162.000000;0.936192
5161.000000;0.930708
5160.000000;0.929240
5159.000000;0.932372
5158.000000;0.938989
5157.000000;0.947192
5156.000000;0.953609
5155.000000;0.955215
5154.000000;0.952541
5153.000000;0.948897
5152.000000;0.946404
5151.000000;0.944590
5150.000000;0.942385
5149.000000;0.939885
5148.000000;0.938403
5147.000000;0.939615
5146.000000;0.943858
5145.000000;0.948673
5144.000000;0.950480
5143.000000;0.948271
5142.000000;0.943787
5141.000000;0.938364
5140.000000;0.932267
5139.000000;0.927259
5138.000000;0.926851
5137.000000;0.932238
5136.000000;0.940097
5135.000000;0.946095
5134.000000;0.948631
5133.000000;0.947997
5132.000000;0.944812
5131.000000;0.941039
5130.000000;0.939560
5129.000000;0.941052
5128.000000;0.943849
5127.000000;0.947810
5126.000000;0.955022
5125.000000;0.965021
5124.000000;0.972459
5123.000000;0.972501
5122.000000;0.966462
5121.000000;0.959128
5120.000000;0.953121
5119.000000;0.948280
5118.000000;0.944039
5117.000000;0.940334
5116.000000;0.937394
5115.000000;0.935762
5114.000000;0.935438
5113.000000;0.934727
5112.000000;0.932394
5111.000000;0.930793
5110.000000;0.932849
5109.000000;0.936071
5108.000000;0.934581
5107.000000;0.928328
5106.000000;0.924528
5105.000000;0.928103
5104.000000;0.936061
5103.000000;0.942891
5102.000000;0.946911
5101.000000;0.948269
5100.000000;0.945607
5099.000000;0.939249
5098.000000;0.933711
5097.000000;0.932641
5096.000000;0.934253
5095.000000;0.934812
5094.000000;0.933710
5093.000000;0.932278
5092.000000;0.931068
5091.000000;0.930990
5090.000000;0.933919
5089.000000;0.939239
5088.000000;0.942452
5087.000000;0.940765
5086.000000;0.937315
5085.000000;0.936098
5084.000000;0.936295
5083.000000;0.935108
5082.000000;0.932956
5081.000000;0.932049
5080.000000;0.932450
5079.000000;0.933171
5078.000000;0.934964
5077.000000;0.938485
5076.000000;0.941583
5075.000000;0.941877
5074.000000;0.940309
5073.000000;0.938983
5072.000000;0.937783
5071.000000;0.936360
5070.000000;0.936809
5069.000000;0.940326
5068.000000;0.943415
5067.000000;0.941875
5066.000000;0.936871
5065.000000;0.932597
5064.000000;0.930150
5063.000000;0.927992
5062.000000;0.926420
5061.000000;0.926932
5060.000000;0.928164
5059.000000;0.926921
5058.000000;0.923093
5057.000000;0.919688
5056.000000;0.918354
5055.000000;0.918466
5054.000000;0.920171
5053.000000;0.924818
5052.000000;0.931919
5051.000000;0.938297
5050.000000;0.940702
5049.000000;0.938062
5048.000000;0.931831
5047.000000;0.925652
5046.000000;0.923587
5045.000000;0.926468
5044.000000;0.930475
5043.000000;0.931382
5042.000000;0.929557
5041.000000;0.928222
5040.000000;0.928071
5039.000000;0.926834
5038.000000;0.923515
5037.000000;0.920003
5036.000000;0.918272
5035.000000;0.918429
5034.000000;0.919516
5033.000000;0.919967
5032.000000;0.917391
5031.000000;0.910349
5030.000000;0.900738
5029.000000;0.892899
5028.000000;0.890075
5027.000000;0.892463
5026.000000;0.898157
5025.000000;0.904645
5024.000000;0.909874
5023.000000;0.913136
5022.000000;0.914486
5021.000000;0.913098
5020.000000;0.907882
5019.000000;0.900023
5018.000000;0.892800
5017.000000;0.888176
5016.000000;0.885302
5015.000000;0.882739
5014.000000;0.880218
5013.000000;0.877341
5012.000000;0.872635
5011.000000;0.865980
5010.000000;0.859937
5009.000000;0.856397
5008.000000;0.854079
5007.000000;0.851027
5006.000000;0.847958
5005.000000;0.847205
5004.000000;0.849539
5003.000000;0.853943
5002.000000;0.858901
5001.000000;0.861671
5000.000000;0.858119
4999.000000;0.846922
4998.000000;0.833111
4997.000000;0.823757
4996.000000;0.820659
4995.000000;0.819658
4994.000000;0.816649
4993.000000;0.812147
4992.000000;0.809282
4991.000000;0.809260
4990.000000;0.810178
4989.000000;0.809311
4988.000000;0.805826
4987.000000;0.801250
4986.000000;0.797485
4985.000000;0.795050
4984.000000;0.793354
4983.000000;0.791899
4982.000000;0.790399
4981.000000;0.787809
4980.000000;0.782437
4979.000000;0.773994
4978.000000;0.764723
4977.000000;0.757355
4976.000000;0.752670
4975.000000;0.749736
4974.000000;0.747406
4973.000000;0.744853
4972.000000;0.741603
4971.000000;0.737804
4970.000000;0.733888
4969.000000;0.729694
4968.000000;0.724857
4967.000000;0.720039
4966.000000;0.715996
4965.000000;0.711179
4964.000000;0.702634
4963.000000;0.690241
4962.000000;0.677822
4961.000000;0.669024
4960.000000;0.664100
4959.000000;0.661414
4958.000000;0.659834
4957.000000;0.658026
4956.000000;0.653499
4955.000000;0.644924
4954.000000;0.634376
4953.000000;0.625141
4952.000000;0.618084
4951.000000;0.611736
4950.000000;0.605042
4949.000000;0.598634
4948.000000;0.593828
4947.000000;0.591457
4946.000000;0.591140
4945.000000;0.590531
4944.000000;0.586150
4943.000000;0.576667
4942.000000;0.564908
4941.000000;0.555232
4940.000000;0.549381
4939.000000;0.545730
4938.000000;0.541752
4937.000000;0.536141
4936.000000;0.529036
4935.000000;0.521302
4934.000000;0.513549
4933.000000;0.505299
4932.000000;0.495446
4931.000000;0.484100
4930.000000;0.473410
4929.000000;0.465685
4928.000000;0.461134
4927.000000;0.457877
4926.000000;0.453580
4925.000000;0.446906
4924.000000;0.438264
4923.000000;0.429604
4922.000000;0.422706
4921.000000;0.417185
4920.000000;0.410974
4919.000000;0.403118
4918.000000;0.395140
4917.000000;0.388993
4916.000000;0.384471
4915.000000;0.379532
4914.000000;0.372596
4913.000000;0.363718
4912.000000;0.354011
4911.000000;0.344794
4910.000000;0.337100
4909.000000;0.331188
4908.000000;0.326413
4907.000000;0.321798
4906.000000;0.316455
4905.000000;0.309418
4904.000000;0.300098
4903.000000;0.289389
4902.000000;0.279339
4901.000000;0.271092
4900.000000;0.263802
4899.000000;0.256045
4898.000000;0.247706
4897.000000;0.239795
4896.000000;0.232913
4895.000000;0.226724
4894.000000;0.220706
4893.000000;0.214655
4892.000000;0.208542
4891.000000;0.202426
4890.000000;0.196536
4889.000000;0.191151
4888.000000;0.186420
4887.000000;0.182399
4886.000000;0.179074
4885.000000;0.176168
4884.000000;0.173129
4883.000000;0.169518
4882.000000;0.165341
4881.000000;0.160896
4880.000000;0.156388
4879.000000;0.151813
4878.000000;0.147130
4877.000000;0.142421
4876.000000;0.137844
4875.000000;0.133525
4874.000000;0.129624
4873.000000;0.126523
4872.000000;0.124691
4871.000000;0.124115
4870.000000;0.124101
4869.000000;0.124008
4868.000000;0.123999
4867.000000;0.124519
4866.000000;0.125202
4865.000000;0.124980
4864.000000;0.123355
4863.000000;0.121074
4862.000000;0.119242
4861.000000;0.118281
4860.000000;0.118165
4859.000000;0.119086
4858.000000;0.121192
4857.000000;0.123968
4856.000000;0.126517
4855.000000;0.128538
4854.000000;0.130465
4853.000000;0.132465
4852.000000;0.133962
4851.000000;0.134677
4850.000000;0.135596
4849.000000;0.138065
4848.000000;0.141977
4847.000000;0.145661
4846.000000;0.147805
4845.000000;0.148869
4844.000000;0.150236
4843.000000;0.152563
4842.000000;0.155492
4841.000000;0.158571
4840.000000;0.161729
4839.000000;0.165016
4838.000000;0.168422
4837.000000;0.171881
4836.000000;0.175090
4835.000000;0.177600
4834.000000;0.179493
4833.000000;0.181636
4832.000000;0.184692
4831.000000;0.188138
4830.000000;0.190919
4829.000000;0.192899
4828.000000;0.194920
4827.000000;0.197530
4826.000000;0.200488
4825.000000;0.203559
4824.000000;0.206870
4823.000000;0.210166
4822.000000;0.212613
4821.000000;0.213945
4820.000000;0.215251
4819.000000;0.217906
4818.000000;0.221980
4817.000000;0.226254
4816.000000;0.229626
4815.000000;0.232024
4814.000000;0.234079
4813.000000;0.236356
4812.000000;0.239018
4811.000000;0.241921
4810.000000;0.244842
4809.000000;0.247667
4808.000000;0.250403
4807.000000;0.253047
4806.000000;0.255546
4805.000000;0.257946
4804.000000;0.260474
4803.000000;0.263326
4802.000000;0.266411
4801.000000;0.269391
4800.000000;0.271965
4799.000000;0.274102
4798.000000;0.275978
4797.000000;0.277698
4796.000000;0.279188
4795.000000;0.280472
4794.000000;0.282008
4793.000000;0.284441
4792.000000;0.287836
4791.000000;0.291372
4790.000000;0.294077
4789.000000;0.295758
4788.000000;0.296970
4787.000000;0.298225
4786.000000;0.299593
4785.000000;0.301025
4784.000000;0.302642
4783.000000;0.304564
4782.000000;0.306716
4781.000000;0.308959
4780.000000;0.311227
4779.000000;0.313452
4778.000000;0.315548
4777.000000;0.317552
4776.000000;0.319597
4775.000000;0.321677
4774.000000;0.323638
4773.000000;0.325463
4772.000000;0.327339
4771.000000;0.329322
4770.000000;0.331155
4769.000000;0.332589
4768.000000;0.333705
4767.000000;0.334727
4766.000000;0.335668
4765.000000;0.336407
4764.000000;0.337066
4763.000000;0.338050
4762.000000;0.339638
4761.000000;0.341688
4760.000000;0.343800
4759.000000;0.345703
4758.000000;0.347362
4757.000000;0.348824
4756.000000;0.350103
4755.000000;0.351294
4754.000000;0.352646
4753.000000;0.354374
4752.000000;0.356378
4751.000000;0.358273
4750.000000;0.359758
4749.000000;0.360856
4748.000000;0.361784
4747.000000;0.362725
4746.000000;0.363798
4745.000000;0.365091
4744.000000;0.366552
4743.000000;0.367963
4742.000000;0.369160
4741.000000;0.370226
4740.000000;0.371312
4739.000000;0.372388
4738.000000;0.373346
4737.000000;0.374292
4736.000000;0.375486
4735.000000;0.376997
4734.000000;0.378585
4733.000000;0.379939
4732.000000;0.380885
4731.000000;0.381423
4730.000000;0.381754
4729.000000;0.382277
4728.000000;0.383310
4727.000000;0.384758
4726.000000;0.386217
4725.000000;0.387431
4724.000000;0.388468
4723.000000;0.389427
4722.000000;0.390233
4721.000000;0.390858
4720.000000;0.391499
4719.000000;0.392324
4718.000000;0.393190
4717.000000;0.393817
4716.000000;0.394176
4715.000000;0.394564
4714.000000;0.395300
4713.000000;0.396470
4712.000000;0.397875
4711.000000;0.399143
4710.000000;0.399961
4709.000000;0.400347
4708.000000;0.400678
4707.000000;0.401347
4706.000000;0.402401
4705.000000;0.403567
4704.000000;0.404572
4703.000000;0.405366
4702.000000;0.406068
4701.000000;0.406834
4700.000000;0.407734
4699.000000;0.408670
4698.000000;0.409413
4697.000000;0.409809
4696.000000;0.409973
4695.000000;0.410207
4694.000000;0.410732
4693.000000;0.411537
4692.000000;0.412466
4691.000000;0.413354
4690.000000;0.414092
4689.000000;0.414658
4688.000000;0.415138
4687.000000;0.415687
4686.000000;0.416399
4685.000000;0.417214
4684.000000;0.417960
4683.000000;0.418500
4682.000000;0.418818
4681.000000;0.418982
4680.000000;0.419057
4679.000000;0.419105
4678.000000;0.419242
4677.000000;0.419618
4676.000000;0.420285
4675.000000;0.421142
4674.000000;0.422059
4673.000000;0.423017
4672.000000;0.424035
4671.000000;0.425011
4670.000000;0.425750
4669.000000;0.426155
4668.000000;0.426285
4667.000000;0.426242
4666.000000;0.426120
4665.000000;0.426102
4664.000000;0.426428
4663.000000;0.427165
4662.000000;0.428067
4661.000000;0.428764
4660.000000;0.429078
4659.000000;0.429130
4658.000000;0.429190
4657.000000;0.429480
4656.000000;0.430023
4655.000000;0.430622
4654.000000;0.431044
4653.000000;0.431290
4652.000000;0.431623
4651.000000;0.432261
4650.000000;0.433108
4649.000000;0.433851
4648.000000;0.434258
4647.000000;0.434321
4646.000000;0.434186
4645.000000;0.434081
4644.000000;0.434231
4643.000000;0.434700
4642.000000;0.435307
4641.000000;0.435810
4640.000000;0.436167
4639.000000;0.436517
4638.000000;0.436932
4637.000000;0.437316
4636.000000;0.437588
4635.000000;0.437823
4634.000000;0.438150
4633.000000;0.438586
4632.000000;0.439039
4631.000000;0.439419
4630.000000;0.439701
4629.000000;0.439902
4628.000000;0.440061
4627.000000;0.440204
4626.000000;0.440306
4625.000000;0.440325
4624.000000;0.440290
4623.000000;0.440318
4622.000000;0.440503
4621.000000;0.440822
4620.000000;0.441181
4619.000000;0.441508
4618.000000;0.441763
4617.000000;0.441898
4616.000000;0.441898
4615.000000;0.441888
4614.000000;0.442103
4613.000000;0.442674
4612.000000;0.443436
4611.000000;0.444017
4610.000000;0.444160
4609.000000;0.443947
4608.000000;0.443684
4607.000000;0.443592
4606.000000;0.443677
4605.000000;0.443852
4604.000000;0.444097
4603.000000;0.444432
4602.000000;0.444801
4601.000000;0.445093
4600.000000;0.445260
4599.000000;0.445370
4598.000000;0.445518
4597.000000;0.445722
4596.000000;0.445929
4595.000000;0.446086
4594.000000;0.446206
4593.000000;0.446364
4592.000000;0.446611
4591.000000;0.446880
4590.000000;0.447004
4589.000000;0.446891
4588.000000;0.446640
4587.000000;0.446443
4586.000000;0.446388
4585.000000;0.446430
4584.000000;0.446528
4583.000000;0.446710
4582.000000;0.446986
4581.000000;0.447289
4580.000000;0.447553
4579.000000;0.447779
4578.000000;0.447956
4577.000000;0.448002
4576.000000;0.447863
4575.000000;0.447657
4574.000000;0.447583
4573.000000;0.447690
4572.000000;0.447812
4571.000000;0.447775
4570.000000;0.447602
4569.000000;0.447445
4568.000000;0.447388
4567.000000;0.447406
4566.000000;0.447491
4565.000000;0.447698
4564.000000;0.448020
4563.000000;0.448324
4562.000000;0.448475
4561.000000;0.448499
4560.000000;0.448524
4559.000000;0.448594
4558.000000;0.448615
4557.000000;0.448503
4556.000000;0.448299
4555.000000;0.448098
4554.000000;0.447922
4553.000000;0.447742
4552.000000;0.447597
4551.000000;0.447591
4550.000000;0.447765
4549.000000;0.448009
4548.000000;0.448137
4547.000000;0.448048
4546.000000;0.447795
4545.000000;0.447534
4544.000000;0.447392
4543.000000;0.447384
4542.000000;0.447434
4541.000000;0.447466
4540.000000;0.447453
4539.000000;0.447389
4538.000000;0.447273
4537.000000;0.447143
4536.000000;0.447070
4535.000000;0.447071
4534.000000;0.447058
4533.000000;0.446928
4532.000000;0.446727
4531.000000;0.446616
4530.000000;0.446683
4529.000000;0.446833
4528.000000;0.446925
4527.000000;0.446941
4526.000000;0.446949
4525.000000;0.446928
4524.000000;0.446741
4523.000000;0.446316
4522.000000;0.445780
4521.000000;0.445350
4520.000000;0.445130
4519.000000;0.445071
4518.000000;0.445116
4517.000000;0.445301
4516.000000;0.445661
4515.000000;0.446085
4514.000000;0.446338
4513.000000;0.446257
4512.000000;0.445896
4511.000000;0.445471
4510.000000;0.445184
4509.000000;0.445105
4508.000000;0.445174
4507.000000;0.445261
4506.000000;0.445231
4505.000000;0.445029
4504.000000;0.444731
4503.000000;0.444493
4502.000000;0.444398
4501.000000;0.444346
4500.000000;0.444158
4499.000000;0.443812
4498.000000;0.443528
4497.000000;0.443547
4496.000000;0.443854
4495.000000;0.444178
4494.000000;0.444265
4493.000000;0.444081
4492.000000;0.443741
4491.000000;0.443357
4490.000000;0.443021
4489.000000;0.442840
4488.000000;0.442841
4487.000000;0.442879
4486.000000;0.442765
4485.000000;0.442509
4484.000000;0.442306
4483.000000;0.442273
4482.000000;0.442299
4481.000000;0.442233
4480.000000;0.442100
4479.000000;0.442017
4478.000000;0.441995
4477.000000;0.441927
4476.000000;0.441758
4475.000000;0.441544
4474.000000;0.441355
4473.000000;0.441203
4472.000000;0.441073
4471.000000;0.440957
4470.000000;0.440854
4469.000000;0.440784
4468.000000;0.440799
4467.000000;0.440906
4466.000000;0.440980
4465.000000;0.440825
4464.000000;0.440383
4463.000000;0.439809
4462.000000;0.439339
4461.000000;0.439089
4460.000000;0.439015
4459.000000;0.439005
4458.000000;0.438969
4457.000000;0.438864
4456.000000;0.438690
4455.000000;0.438457
4454.000000;0.438170
4453.000000;0.437862
4452.000000;0.437619
4451.000000;0.437544
4450.000000;0.437635
4449.000000;0.437768
4448.000000;0.437799
4447.000000;0.437697
4446.000000;0.437550
4445.000000;0.437475
4444.000000;0.437550
4443.000000;0.437776
4442.000000;0.438061
4441.000000;0.438223
4440.000000;0.438082
4439.000000;0.437588
4438.000000;0.436886
4437.000000;0.436238
4436.000000;0.435848
4435.000000;0.435719
4434.000000;0.435688
4433.000000;0.435604
4432.000000;0.435461
4431.000000;0.435362
4430.000000;0.435355
4429.000000;0.435376
4428.000000;0.435342
4427.000000;0.435270
4426.000000;0.435252
4425.000000;0.435295
4424.000000;0.435216
4423.000000;0.434767
4422.000000;0.433909
4421.000000;0.432942
4420.000000;0.432279
4419.000000;0.432103
4418.000000;0.432278
4417.000000;0.432581
4416.000000;0.432904
4415.000000;0.433175
4414.000000;0.433240
4413.000000;0.432989
4412.000000;0.432534
4411.000000;0.432080
4410.000000;0.431633
4409.000000;0.431002
4408.000000;0.430124
4407.000000;0.429213
4406.000000;0.428533
4405.000000;0.428160
4404.000000;0.428052
4403.000000;0.428204
4402.000000;0.428571
4401.000000;0.428926
4400.000000;0.428945
4399.000000;0.428441
4398.000000;0.427436
4397.000000;0.426096
4396.000000;0.424689
4395.000000;0.423517
4394.000000;0.422723
4393.000000;0.422164
4392.000000;0.421620
4391.000000;0.421101
4390.000000;0.420794
4389.000000;0.420707
4388.000000;0.420543
4387.000000;0.420002
4386.000000;0.419037
4385.000000;0.417786
4384.000000;0.416415
4383.000000;0.415132
4382.000000;0.414168
4381.000000;0.413550
4380.000000;0.412997
4379.000000;0.412239
4378.000000;0.411363
4377.000000;0.410659
4376.000000;0.410165
4375.000000;0.409590
4374.000000;0.408720
4373.000000;0.407657
4372.000000;0.406564
4371.000000;0.405383
4370.000000;0.403979
4369.000000;0.402442
4368.000000;0.401055
4367.000000;0.400001
4366.000000;0.399247
4365.000000;0.398663
4364.000000;0.398114
4363.000000;0.397419
4362.000000;0.396403
4361.000000;0.395031
4360.000000;0.393411
4359.000000;0.391650
4358.000000;0.389834
4357.000000;0.388166
4356.000000;0.386962
4355.000000;0.386375
4354.000000;0.386205
4353.000000;0.386065
4352.000000;0.385641
4351.000000;0.384739
4350.000000;0.383266
4349.000000;0.381370
4348.000000;0.379519
4347.000000;0.378143
4346.000000;0.377150
4345.000000;0.375983
4344.000000;0.374270
4343.000000;0.372302
4342.000000;0.370722
4341.000000;0.369825
4340.000000;0.369273
4339.000000;0.368488
4338.000000;0.367228
4337.000000;0.365788
4336.000000;0.364654
4335.000000;0.363972
4334.000000;0.363314
4333.000000;0.362012
4332.000000;0.359743
4331.000000;0.356814
4330.000000;0.353918
4329.000000;0.351699
4328.000000;0.350472
4327.000000;0.350173
4326.000000;0.350425
4325.000000;0.350710
4324.000000;0.350575
4323.000000;0.349723
4322.000000;0.348027
4321.000000;0.345628
4320.000000;0.343062
4319.000000;0.340985
4318.000000;0.339544
4317.000000;0.338147
4316.000000;0.336117
4315.000000;0.333578
4314.000000;0.331457
4313.000000;0.330565
4312.000000;0.330852
4311.000000;0.331535
4310.000000;0.331714
4309.000000;0.330788
4308.000000;0.328654
4307.000000;0.325858
4306.000000;0.323451
4305.000000;0.322315
4304.000000;0.322484
4303.000000;0.323143
4302.000000;0.323214
4301.000000;0.321976
4300.000000;0.319421
4299.000000;0.316351
4298.000000;0.314003
4297.000000;0.313121
4296.000000;0.313222
4295.000000;0.313091
4294.000000;0.312260
4293.000000;0.311714
4292.000000;0.312791
4291.000000;0.315411
4290.000000;0.317784
4289.000000;0.318014
4288.000000;0.315838
4287.000000;0.312837
4286.000000;0.311083
4285.000000;0.311586
4284.000000;0.313734
4283.000000;0.316004
4282.000000;0.317468
4281.000000;0.318841
4280.000000;0.321899
4279.000000;0.327511
4278.000000;0.334293
4277.000000;0.339606
4276.000000;0.342028
4275.000000;0.342551
4274.000000;0.343237
4273.000000;0.345227
4272.000000;0.348535
4271.000000;0.353035
4270.000000;0.358711
4269.000000;0.365035
4268.000000;0.370902
4267.000000;0.375601
4266.000000;0.379411
4265.000000;0.383093
4264.000000;0.387436
4263.000000;0.393303
4262.000000;0.401094
4261.000000;0.409725
4260.000000;0.417152
4259.000000;0.422735
4258.000000;0.428249
4257.000000;0.435767
4256.000000;0.445305
4255.000000;0.455297
4254.000000;0.464659
4253.000000;0.473256
4252.000000;0.480877
4251.000000;0.487205
4250.000000;0.492892
4249.000000;0.499520
4248.000000;0.508149
4247.000000;0.518216
4246.000000;0.527921
4245.000000;0.535591
4244.000000;0.541307
4243.000000;0.547308
4242.000000;0.556609
4241.000000;0.569960
4240.000000;0.584627
4239.000000;0.597028
4238.000000;0.606312
4237.000000;0.614442
4236.000000;0.623337
4235.000000;0.633314
4234.000000;0.643889
4233.000000;0.654576
4232.000000;0.664824
4231.000000;0.674309
4230.000000;0.683656
4229.000000;0.693988
4228.000000;0.705555
4227.000000;0.717376
4226.000000;0.728245
4225.000000;0.737749
4224.000000;0.746472
4223.000000;0.755482
4222.000000;0.765221
4221.000000;0.774800
4220.000000;0.783302
4219.000000;0.791909
4218.000000;0.803179
4217.000000;0.817551
4216.000000;0.832143
4215.000000;0.844257
4214.000000;0.854514
4213.000000;0.864579
4212.000000;0.873698
4211.000000;0.880526
4210.000000;0.887102
4209.000000;0.897096
4208.000000;0.910494
4207.000000;0.923384
4206.000000;0.933102
4205.000000;0.940863
4204.000000;0.948796
4203.000000;0.957376
4202.000000;0.966666
4201.000000;0.977138
4200.000000;0.987945
4199.000000;0.996532
4198.000000;1.001451
4197.000000;1.004654
4196.000000;1.009934
4195.000000;1.019638
4194.000000;1.033308
4193.000000;1.048124
4192.000000;1.060408
4191.000000;1.068582
4190.000000;1.075032
4189.000000;1.083236
4188.000000;1.093290
4187.000000;1.103239
4186.000000;1.114404
4185.000000;1.130459
4184.000000;1.150965
4183.000000;1.170009
4182.000000;1.183201
4181.000000;1.193428
4180.000000;1.206269
4179.000000;1.221438
4178.000000;1.232785
4177.000000;1.236736
4176.000000;1.236796
4175.000000;1.239579
4174.000000;1.248866
4173.000000;1.264257
4172.000000;1.283480
4171.000000;1.304314
4170.000000;1.325883
4169.000000;1.348161
4168.000000;1.368963
4167.000000;1.382544
4166.000000;1.383491
4165.000000;1.373351
4164.000000;1.361266
4163.000000;1.356778
4162.000000;1.363208
4161.000000;1.375456
4160.000000;1.384028
4159.000000;1.385645
4158.000000;1.388440
4157.000000;1.402360
4156.000000;1.427614
4155.000000;1.455274
4154.000000;1.477979
4153.000000;1.495589
4152.000000;1.508740
4151.000000;1.514785
4150.000000;1.513734
4149.000000;1.511613
4148.000000;1.512611
4147.000000;1.513656
4146.000000;1.511782
4145.000000;1.511376
4144.000000;1.520815
4143.000000;1.544671
4142.000000;1.577622
4141.000000;1.606892
4140.000000;1.622996
4139.000000;1.622977
4138.000000;1.610742
4137.000000;1.596745
4136.000000;1.589315
4135.000000;1.588470
4134.000000;1.586494
4133.000000;1.574376
4132.000000;1.554590
4131.000000;1.544335
4130.000000;1.559715
4129.000000;1.603813
4128.000000;1.665611
4127.000000;1.722802
4126.000000;1.754636
4125.000000;1.759562
4124.000000;1.748677
4123.000000;1.729643
4122.000000;1.708243
4121.000000;1.691258
4120.000000;1.680399
4119.000000;1.669282
4118.000000;1.651320
4117.000000;1.635049
4116.000000;1.640890
4115.000000;1.680184
4114.000000;1.742894
4113.000000;1.796068
4112.000000;1.805440
4111.000000;1.777654
4110.000000;1.752780
4109.000000;1.756654
4108.000000;1.785269
4107.000000;1.814209
4106.000000;1.822322
4105.000000;1.813072
4104.000000;1.802647
4103.000000;1.800017
4102.000000;1.808234
4101.000000;1.835686
4100.000000;1.897490
4099.000000;1.998449
4098.000000;2.100386
4097.000000;2.120674
4096.000000;2.052530
4095.000000;1.982932
4094.000000;1.964789
4093.000000;1.999132
4092.000000;2.065378
4091.000000;2.141621
4090.000000;2.190156
4089.000000;2.167158
4088.000000;2.089646
4087.000000;2.009784
4086.000000;1.966253
4085.000000;1.963107
4084.000000;1.963449
4083.000000;1.926027
4082.000000;1.867823
4081.000000;1.840503
4080.000000;1.872576
4079.000000;1.955640
4078.000000;2.045540
4077.000000;2.095065
4076.000000;2.104728
4075.000000;2.093552
4074.000000;2.058198
4073.000000;1.993928
4072.000000;1.925813
4071.000000;1.892235
4070.000000;1.915799
4069.000000;1.995069
4068.000000;2.103694
4067.000000;2.193858
4066.000000;2.228807
4065.000000;2.233769
4064.000000;2.238225
4063.000000;2.204742
4062.000000;2.102618
4061.000000;1.991003
4060.000000;1.922254
4059.000000;1.904241
4058.000000;1.916224
4057.000000;1.932894
4056.000000;1.955671
4055.000000;1.992706
4054.000000;2.032020
4053.000000;2.072520
4052.000000;2.137764
4051.000000;2.244669
4050.000000;2.375860
4049.000000;2.436160
4048.000000;2.361045
4047.000000;2.232290
4046.000000;2.135540
4045.000000;2.101465
4044.000000;2.106390
4043.000000;2.114169
4042.000000;2.130369
4041.000000;2.179929
4040.000000;2.263550
4039.000000;2.351183
4038.000000;2.400581
4037.000000;2.390459
4036.000000;2.335842
4035.000000;2.269981
4034.000000;2.222452
4033.000000;2.205961
4032.000000;2.215353
4031.000000;2.224416
4030.000000;2.202235
4029.000000;2.151674
4028.000000;2.096460
4027.000000;2.053012
4026.000000;2.032847
4025.000000;2.032408
4024.000000;2.031545
4023.000000;2.026927
4022.000000;2.045694
4021.000000;2.110455
4020.000000;2.197551
4019.000000;2.224349
4018.000000;2.150978
4017.000000;2.050774
4016.000000;1.986438
4015.000000;1.970337
4014.000000;1.999090
4013.000000;2.070236
4012.000000;2.157610
4011.000000;2.194461
4010.000000;2.182154
4009.000000;2.188335
4008.000000;2.249397
4007.000000;2.356795
4006.000000;2.464264
4005.000000;2.546206
4004.000000;2.616725
4003.000000;2.604777
4002.000000;2.398022
4001.000000;2.198787
4000.000000;2.098543
3999.000000;2.077502
3998.000000;2.094187
3997.000000;2.107583
3996.000000;2.107055
3995.000000;2.097480
3994.000000;2.091442
3993.000000;2.110127
3992.000000;2.165155
3991.000000;2.253237
3990.000000;2.375894
3989.000000;2.559552
3988.000000;2.783746
3987.000000;2.721752
3986.000000;2.506652
3985.000000;2.382409
3984.000000;2.368167
3983.000000;2.441636
3982.000000;2.509913
3981.000000;2.479078
3980.000000;2.398169
3979.000000;2.327560
3978.000000;2.300850
3977.000000;2.353809
3976.000000;2.534097
3975.000000;2.772828
3974.000000;2.730276
3973.000000;2.565540
3972.000000;2.417017
3971.000000;2.324076
3970.000000;2.308148
3969.000000;2.343160
3968.000000;2.374979
3967.000000;2.371738
3966.000000;2.356120
3965.000000;2.360358
3964.000000;2.386556
3963.000000;2.396531
3962.000000;2.407076
3961.000000;2.491002
3960.000000;2.659891
3959.000000;2.813448
3958.000000;2.788645
3957.000000;2.668765
3956.000000;2.610043
3955.000000;2.625471
3954.000000;2.633044
3953.000000;2.677648
3952.000000;2.912410
3951.000000;2.738603
3950.000000;2.384083
3949.000000;2.291841
3948.000000;2.362528
3947.000000;2.511937
3946.000000;2.605341
3945.000000;2.618082
3944.000000;2.624085
3943.000000;2.699647
3942.000000;2.933660
3941.000000;3.073255
3940.000000;2.791788
3939.000000;2.552041
3938.000000;2.434979
3937.000000;2.446910
3936.000000;2.548848
3935.000000;2.538852
3934.000000;2.387972
3933.000000;2.270627
3932.000000;2.249855
3931.000000;2.334353
3930.000000;2.500883
3929.000000;2.671454
3928.000000;2.671075
3927.000000;2.516161
3926.000000;2.401027
3925.000000;2.412026
3924.000000;2.588213
3923.000000;3.052037
3922.000000;3.067818
3921.000000;2.583453
3920.000000;2.388457
3919.000000;2.288651
3918.000000;2.283218
3917.000000;2.359940
3916.000000;2.462624
3915.000000;2.540466
3914.000000;2.597136
3913.000000;2.659346
3912.000000;2.707296
3911.000000;2.642077
3910.000000;2.492953
3909.000000;2.409677
3908.000000;2.457583
3907.000000;2.629971
3906.000000;2.984772
3905.000000;3.399258
3904.000000;2.843725
3903.000000;2.609728
3902.000000;2.603234
3901.000000;2.726789
3900.000000;2.878715
3899.000000;2.909779
3898.000000;2.851604
3897.000000;2.874736
3896.000000;3.045450
3895.000000;3.020950
3894.000000;2.815510
3893.000000;2.703675
3892.000000;2.820557
3891.000000;3.006971
3890.000000;2.543773
3889.000000;2.263253
3888.000000;2.186660
3887.000000;2.220440
3886.000000;2.322715
3885.000000;2.523644
3884.000000;2.880780
3883.000000;2.790538
3882.000000;2.814529
3881.000000;3.174036
3880.000000;2.731693
3879.000000;2.475312
3878.000000;2.441409
3877.000000;2.665265
3876.000000;3.069508
3875.000000;2.542235
3874.000000;2.274870
3873.000000;2.161683
3872.000000;2.175138
3871.000000;2.320725
3870.000000;2.522251
3869.000000;2.514979
3868.000000;2.323339
3867.000000;2.207446
3866.000000;2.211458
3865.000000;2.353329
3864.000000;2.526273
3863.000000;2.599414
3862.000000;2.618407
3861.000000;2.548684
3860.000000;2.332864
3859.000000;2.297389
3858.000000;2.386654
3857.000000;2.267502
3856.000000;2.284050
3855.000000;2.371643
3854.000000;2.603540
3853.000000;2.972728
3852.000000;3.549455
3851.000000;3.300345
3850.000000;2.906291
3849.000000;2.725188
3848.000000;2.596668
3847.000000;2.577321
3846.000000;2.661683
3845.000000;2.607740
3844.000000;2.493793
3843.000000;2.454156
3842.000000;2.421248
3841.000000;2.404779
3840.000000;2.437911
3839.000000;2.468014
3838.000000;2.464669
3837.000000;2.486336
3836.000000;2.604718
3835.000000;2.885698
3834.000000;3.193723
3833.000000;3.054471
3832.000000;2.748367
3831.000000;2.523602
3830.000000;2.459384
3829.000000;2.546386
3828.000000;2.834636
3827.000000;3.565999
3826.000000;3.091188
3825.000000;2.690024
3824.000000;2.527475
3823.000000;2.489105
3822.000000;2.506875
3821.000000;2.495647
3820.000000;2.582897
3819.000000;2.966456
3818.000000;3.154292
3817.000000;2.786369
3816.000000;2.674528
3815.000000;2.570091
3814.000000;2.479117
3813.000000;2.481577
3812.000000;2.638548
3811.000000;3.001625
3810.000000;3.079594
3809.000000;2.877385
3808.000000;2.851480
3807.000000;2.901290
3806.000000;3.009309
3805.000000;3.160815
3804.000000;3.130913
3803.000000;2.921470
3802.000000;2.729837
3801.000000;2.727150
3800.000000;2.818460
3799.000000;3.090024
3798.000000;2.695598
3797.000000;2.892057
3796.000000;2.222917
3795.000000;1.817903
3794.000000;1.874043
3793.000000;2.021238
3792.000000;2.565044
3791.000000;2.964808
3790.000000;2.616577
3789.000000;2.606533
3788.000000;2.543456
3787.000000;2.373576
3786.000000;2.267992
3785.000000;2.216010
3784.000000;2.189588
3783.000000;2.188778
3782.000000;2.319507
3781.000000;2.708124
3780.000000;2.780818
3779.000000;2.604962
3778.000000;3.012519
3777.000000;3.292403
3776.000000;2.811683
3775.000000;2.702699
3774.000000;2.621432
3773.000000;2.572200
3772.000000;2.493054
3771.000000;2.364766
3770.000000;2.230131
3769.000000;2.152174
3768.000000;2.153194
3767.000000;2.231410
3766.000000;2.344816
3765.000000;2.400818
3764.000000;2.311313
3763.000000;2.173924
3762.000000;2.120338
3761.000000;2.184442
3760.000000;2.369484
3759.000000;2.612143
3758.000000;3.121286
3757.000000;3.247842
3756.000000;2.586896
3755.000000;2.396725
3754.000000;2.347316
3753.000000;2.430608
3752.000000;2.653843
3751.000000;3.058448
3750.000000;3.453341
3749.000000;3.285492
3748.000000;3.155056
3747.000000;3.039005
3746.000000;3.081618
3745.000000;3.272452
3744.000000;3.739058
3743.000000;3.135279
3742.000000;2.647156
3741.000000;2.443472
3740.000000;2.416830
3739.000000;2.458882
3738.000000;2.388548
3737.000000;2.274833
3736.000000;2.188193
3735.000000;2.189066
3734.000000;2.220227
3733.000000;2.407630
3732.000000;2.315650
3731.000000;2.102614
3730.000000;2.190698
3729.000000;2.369373
3728.000000;2.685523
3727.000000;2.567178
3726.000000;2.527412
3725.000000;2.572534
3724.000000;2.666732
3723.000000;2.753776
3722.000000;2.814864
3721.000000;3.217448
3720.000000;2.862297
3719.000000;2.460318
3718.000000;2.467418
3717.000000;2.843548
3716.000000;3.297122
3715.000000;2.873711
3714.000000;2.797533
3713.000000;2.783867
3712.000000;2.803782
3711.000000;2.745518
3710.000000;2.583478
3709.000000;2.533138
3708.000000;2.564493
3707.000000;2.589348
3706.000000;2.587265
3705.000000;2.701940
3704.000000;2.842126
3703.000000;2.671995
3702.000000;2.569281
3701.000000;2.653637
3700.000000;2.780882
3699.000000;2.773743
3698.000000;2.727689
3697.000000;2.722156
3696.000000;2.818431
3695.000000;2.823480
3694.000000;2.882469
3693.000000;3.092230
3692.000000;2.790552
3691.000000;2.608289
3690.000000;2.726407
3689.000000;3.344417
3688.000000;3.176657
3687.000000;3.084174
3686.000000;3.393650
3685.000000;2.752882
3684.000000;2.491839
3683.000000;2.379735
3682.000000;2.358334
3681.000000;2.425267
3680.000000;2.510372
3679.000000;2.581695
3678.000000;2.665706
3677.000000;2.730334
3676.000000;2.718686
3675.000000;2.879866
3674.000000;3.136145
3673.000000;2.864385
3672.000000;2.671542
3671.000000;2.517782
3670.000000;2.357453
3669.000000;2.260395
3668.000000;2.276368
3667.000000;2.411975
3666.000000;2.660686
3665.000000;3.279329
3664.000000;3.002653
3663.000000;2.542625
3662.000000;2.407893
3661.000000;2.416030
3660.000000;2.562635
3659.000000;2.791648
3658.000000;3.068052
3657.000000;3.125398
3656.000000;2.836738
3655.000000;2.746452
3654.000000;2.906149
3653.000000;2.812441
3652.000000;2.537590
3651.000000;2.472029
3650.000000;2.587726
3649.000000;2.669645
3648.000000;2.611818
3647.000000;2.947678
3646.000000;3.191519
3645.000000;2.583393
3644.000000;2.430853
3643.000000;2.402179
3642.000000;2.498355
3641.000000;2.833218
3640.000000;2.826656
3639.000000;2.589620
3638.000000;2.595387
3637.000000;2.733573
3636.000000;3.074153
3635.000000;3.277948
3634.000000;2.743128
3633.000000;2.471887
3632.000000;2.321969
3631.000000;2.263215
3630.000000;2.299609
3629.000000;2.396304
3628.000000;2.409439
3627.000000;2.313689
3626.000000;2.357092
3625.000000;2.544392
3624.000000;2.657450
3623.000000;2.614592
3622.000000;2.520044
3621.000000;2.455974
3620.000000;2.363272
3619.000000;2.270716
3618.000000;2.273890
3617.000000;2.354255
3616.000000;2.559536
3615.000000;2.843442
3614.000000;2.795392
3613.000000;2.733259
3612.000000;2.597053
3611.000000;2.414382
3610.000000;2.351497
3609.000000;2.423072
3608.000000;2.587544
3607.000000;2.690201
3606.000000;2.726242
3605.000000;2.715791
3604.000000;2.594412
3603.000000;2.488480
3602.000000;2.441933
3601.000000;2.433561
3600.000000;2.442216
3599.000000;2.464753
3598.000000;2.456461
3597.000000;2.368478
3596.000000;2.321500
3595.000000;2.393848
3594.000000;2.609994
3593.000000;3.076781
3592.000000;3.405616
3591.000000;3.270955
3590.000000;3.627006
3589.000000;3.193418
3588.000000;3.043226
3587.000000;3.610438
3586.000000;3.562712
3585.000000;3.153730
3584.000000;3.024221
3583.000000;2.951323
3582.000000;2.924238
3581.000000;2.852511
3580.000000;2.758735
3579.000000;2.624293
3578.000000;2.476558
3577.000000;2.405948
3576.000000;2.437926
3575.000000;2.541149
3574.000000;2.600809
3573.000000;2.644136
3572.000000;2.716825
3571.000000;2.577444
3570.000000;2.377552
3569.000000;2.307961
3568.000000;2.359382
3567.000000;2.521976
3566.000000;2.807965
3565.000000;3.234894
3564.000000;3.852861
3563.000000;4.129755
3562.000000;3.709138
3561.000000;3.176253
3560.000000;2.847764
3559.000000;2.757779
3558.000000;2.836300
3557.000000;3.003477
3556.000000;3.047015
3555.000000;3.014500
3554.000000;3.124371
3553.000000;3.070606
3552.000000;2.756417
3551.000000;2.490240
3550.000000;2.339596
3549.000000;2.314864
3548.000000;2.418065
3547.000000;2.640185
3546.000000;3.004870
3545.000000;3.429718
3544.000000;3.318054
3543.000000;3.096732
3542.000000;2.967899
3541.000000;2.922930
3540.000000;3.034737
3539.000000;3.116297
3538.000000;3.115302
3537.000000;3.606790
3536.000000;3.511757
3535.000000;2.989105
3534.000000;2.830959
3533.000000;2.765930
3532.000000;2.747969
3531.000000;2.693610
3530.000000;2.602725
3529.000000;2.520600
3528.000000;2.530221
3527.000000;2.688935
3526.000000;3.027164
3525.000000;3.049688
3524.000000;2.706022
3523.000000;2.561226
3522.000000;2.544781
3521.000000;2.606607
3520.000000;2.744329
3519.000000;2.910822
3518.000000;2.959318
3517.000000;2.976452
3516.000000;2.886172
3515.000000;2.836604
3514.000000;3.033652
3513.000000;2.797977
3512.000000;2.521996
3511.000000;2.497303
3510.000000;2.579742
3509.000000;2.586081
3508.000000;2.501749
3507.000000;2.409084
3506.000000;2.383097
3505.000000;2.415935
3504.000000;2.616176
3503.000000;3.133243
3502.000000;2.753290
3501.000000;2.544265
3500.000000;2.601096
3499.000000;2.698305
3498.000000;2.844061
3497.000000;2.915465
3496.000000;2.879849
3495.000000;2.788316
3494.000000;2.762447
3493.000000;2.862837
3492.000000;3.257647
3491.000000;3.014829
3490.000000;2.539051
3489.000000;2.398692
3488.000000;2.432190
3487.000000;2.678857
3486.000000;3.190440
3485.000000;2.839741
3484.000000;2.503549
3483.000000;2.438252
3482.000000;2.516851
3481.000000;2.738527
3480.000000;3.242983
3479.000000;3.265543
3478.000000;2.993827
3477.000000;2.945575
3476.000000;2.691373
3475.000000;2.454511
3474.000000;2.324896
3473.000000;2.271151
3472.000000;2.264913
3471.000000;2.253957
3470.000000;2.250194
3469.000000;2.296325
3468.000000;2.370913
3467.000000;2.403172
3466.000000;2.407563
3465.000000;2.488741
3464.000000;2.663122
3463.000000;2.715761
3462.000000;2.685798
3461.000000;2.791970
3460.000000;2.807185
3459.000000;2.664424
3458.000000;2.605136
3457.000000;2.618700
3456.000000;2.627332
3455.000000;2.570242
3454.000000;2.501013
3453.000000;2.499193
3452.000000;2.583341
3451.000000;2.614381
3450.000000;2.515644
3449.000000;2.450985
3448.000000;2.532468
3447.000000;2.816199
3446.000000;3.173138
3445.000000;3.378193
3444.000000;3.332130
3443.000000;3.208922
3442.000000;2.946483
3441.000000;2.658099
3440.000000;2.552733
3439.000000;2.539240
3438.000000;2.533597
3437.000000;2.539348
3436.000000;2.594086
3435.000000;2.714251
3434.000000;2.898886
3433.000000;3.064791
3432.000000;3.052149
3431.000000;3.051098
3430.000000;3.269854
3429.000000;3.738367
3428.000000;3.283209
3427.000000;2.931944
3426.000000;2.878120
3425.000000;2.756989
3424.000000;2.570304
3423.000000;2.443712
3422.000000;2.450431
3421.000000;2.742231
3420.000000;2.705806
3419.000000;2.345835
3418.000000;2.240489
3417.000000;2.299497
3416.000000;2.447715
3415.000000;2.447686
3414.000000;2.331911
3413.000000;2.297434
3412.000000;2.332055
3411.000000;2.402010
3410.000000;2.478149
3409.000000;2.549727
3408.000000;2.557643
3407.000000;2.491110
3406.000000;2.496672
3405.000000;2.721747
3404.000000;2.779871
3403.000000;2.519446
3402.000000;2.470000
3401.000000;2.610393
3400.000000;2.977805
3399.000000;3.146197
3398.000000;2.997056
3397.000000;3.069971
3396.000000;2.875615
3395.000000;2.705417
3394.000000;2.671366
3393.000000;2.622799
3392.000000;2.536282
3391.000000;2.491190
3390.000000;2.557380
3389.000000;2.756023
3388.000000;2.883235
3387.000000;3.057711
3386.000000;3.229700
3385.000000;2.775602
3384.000000;2.623900
3383.000000;2.729577
3382.000000;2.850507
3381.000000;2.691131
3380.000000;2.643670
3379.000000;2.824542
3378.000000;2.718805
3377.000000;2.476775
3376.000000;2.420244
3375.000000;2.533906
3374.000000;2.651673
3373.000000;2.540785
3372.000000;2.442956
3371.000000;2.446036
3370.000000;2.491541
3369.000000;2.601867
3368.000000;2.911286
3367.000000;2.942132
3366.000000;2.563294
3365.000000;2.401234
3364.000000;2.362178
3363.000000;2.380931
3362.000000;2.455392
3361.000000;2.594911
3360.000000;2.853305
3359.000000;3.066375
3358.000000;2.875203
3357.000000;2.678853
3356.000000;2.835228
3355.000000;3.212707
3354.000000;2.673031
3353.000000;2.458375
3352.000000;2.500721
3351.000000;2.675279
3350.000000;2.833083
3349.000000;2.841882
3348.000000;2.732973
3347.000000;2.493456
3346.000000;2.360707
3345.000000;2.339089
3344.000000;2.450706
3343.000000;2.801097
3342.000000;2.730641
3341.000000;2.467846
3340.000000;2.401853
3339.000000;2.414033
3338.000000;2.486878
3337.000000;2.674579
3336.000000;3.064650
3335.000000;3.052860
3334.000000;2.913689
3333.000000;2.869276
3332.000000;2.665031
3331.000000;2.507593
3330.000000;2.435640
3329.000000;2.401746
3328.000000;2.360039
3327.000000;2.330510
3326.000000;2.378785
3325.000000;2.559237
3324.000000;2.902008
3323.000000;3.043449
3322.000000;2.892876
3321.000000;3.025157
3320.000000;3.331075
3319.000000;2.921108
3318.000000;2.673396
3317.000000;2.583197
3316.000000;2.530528
3315.000000;2.505051
3314.000000;2.606391
3313.000000;3.051898
3312.000000;2.927214
3311.000000;2.821740
3310.000000;3.224397
3309.000000;3.345072
3308.000000;3.188366
3307.000000;3.148805
3306.000000;3.266715
3305.000000;2.911674
3304.000000;2.606216
3303.000000;2.538599
3302.000000;2.577082
3301.000000;2.602116
3300.000000;2.575917
3299.000000;2.609446
3298.000000;2.892604
3297.000000;3.082094
3296.000000;2.715027
3295.000000;2.652937
3294.000000;2.740796
3293.000000;2.914678
3292.000000;3.624713
3291.000000;3.254863
3290.000000;2.720370
3289.000000;2.655279
3288.000000;2.772464
3287.000000;3.000859
3286.000000;3.543441
3285.000000;2.734198
3284.000000;2.472197
3283.000000;2.561972
3282.000000;2.984335
3281.000000;3.028036
3280.000000;2.681580
3279.000000;2.600290
3278.000000;2.559451
3277.000000;2.514159
3276.000000;2.461635
3275.000000;2.425007
3274.000000;2.424674
3273.000000;2.451821
3272.000000;2.476033
3271.000000;2.463312
3270.000000;2.451547
3269.000000;2.477437
3268.000000;2.496671
3267.000000;2.501136
3266.000000;2.536494
3265.000000;2.576450
3264.000000;2.575964
3263.000000;2.587886
3262.000000;2.678273
3261.000000;2.732439
3260.000000;2.610915
3259.000000;2.506429
3258.000000;2.500313
3257.000000;2.512804
3256.000000;2.452836
3255.000000;2.364162
3254.000000;2.278567
3253.000000;2.233805
3252.000000;2.295409
3251.000000;2.558291
3250.000000;2.681234
3249.000000;2.381692
3248.000000;2.266153
3247.000000;2.249359
3246.000000;2.285871
3245.000000;2.366725
3244.000000;2.527739
3243.000000;2.896969
3242.000000;2.915554
3241.000000;2.785650
3240.000000;3.245707
3239.000000;3.499643
3238.000000;3.005136
3237.000000;2.757579
3236.000000;2.628976
3235.000000;2.666138
3234.000000;2.674356
3233.000000;2.548015
3232.000000;2.443334
3231.000000;2.410406
3230.000000;2.502451
3229.000000;2.816695
3228.000000;2.776626
3227.000000;2.488246
3226.000000;2.389476
3225.000000;2.387778
3224.000000;2.462890
3223.000000;2.615381
3222.000000;2.807446
3221.000000;2.727713
3220.000000;2.530647
3219.000000;2.464161
3218.000000;2.482436
3217.000000;2.513760
3216.000000;2.617455
3215.000000;3.039348
3214.000000;2.913440
3213.000000;2.614974
3212.000000;2.666720
3211.000000;2.773635
3210.000000;2.835976
3209.000000;2.835772
3208.000000;2.881770
3207.000000;2.988284
3206.000000;2.827669
3205.000000;2.616693
3204.000000;2.529543
3203.000000;2.574712
3202.000000;2.627987
3201.000000;2.498567
3200.000000;2.380485
3199.000000;2.330807
3198.000000;2.330757
3197.000000;2.398203
3196.000000;2.673525
3195.000000;3.025131
3194.000000;2.613419
3193.000000;2.440984
3192.000000;2.410447
3191.000000;2.531886
3190.000000;2.830767
3189.000000;2.797937
3188.000000;2.652739
3187.000000;2.668604
3186.000000;2.821171
3185.000000;2.735352
3184.000000;2.434980
3183.000000;2.323163
3182.000000;2.341874
3181.000000;2.434395
3180.000000;2.561216
3179.000000;2.652982
3178.000000;2.681570
3177.000000;2.778314
3176.000000;3.071116
3175.000000;2.729402
3174.000000;2.501374
3173.000000;2.503043
3172.000000;2.631433
3171.000000;2.793120
3170.000000;2.888856
3169.000000;3.013204
3168.000000;3.227915
3167.000000;3.183363
3166.000000;2.859396
3165.000000;2.658634
3164.000000;2.578921
3163.000000;2.593626
3162.000000;2.638199
3161.000000;2.632975
3160.000000;2.589344
3159.000000;2.556168
3158.000000;2.496133
3157.000000;2.391129
3156.000000;2.331486
3155.000000;2.376374
3154.000000;2.390124
3153.000000;2.253560
3152.000000;2.163765
3151.000000;2.185107
3150.000000;2.273365
3149.000000;2.325966
3148.000000;2.287083
3147.000000;2.246084
3146.000000;2.280489
3145.000000;2.442163
3144.000000;2.712250
3143.000000;2.731368
3142.000000;2.614694
3141.000000;2.593949
3140.000000;2.602420
3139.000000;2.683206
3138.000000;2.937894
3137.000000;2.904329
3136.000000;2.651200
3135.000000;2.633768
3134.000000;2.792737
3133.000000;2.903563
3132.000000;2.767078
3131.000000;2.741916
3130.000000;2.766604
3129.000000;2.613465
3128.000000;2.497142
3127.000000;2.499529
3126.000000;2.597363
3125.000000;2.753242
3124.000000;2.549890
3123.000000;2.276049
3122.000000;2.150589
3121.000000;2.155686
3120.000000;2.273006
3119.000000;2.411093
3118.000000;2.438115
3117.000000;2.467285
3116.000000;2.566231
3115.000000;2.650255
3114.000000;2.643608
3113.000000;2.616735
3112.000000;2.634024
3111.000000;2.762715
3110.000000;2.865926
3109.000000;2.628255
3108.000000;2.429712
3107.000000;2.380999
3106.000000;2.444781
3105.000000;2.636979
3104.000000;2.999123
3103.000000;2.683189
3102.000000;2.402887
3101.000000;2.362376
3100.000000;2.441732
3099.000000;2.537810
3098.000000;2.494871
3097.000000;2.395858
3096.000000;2.360669
3095.000000;2.400381
3094.000000;2.462758
3093.000000;2.455588
3092.000000;2.370278
3091.000000;2.313109
3090.000000;2.383027
3089.000000;2.731741
3088.000000;2.867492
3087.000000;2.492593
3086.000000;2.550113
3085.000000;2.912183
3084.000000;3.145944
3083.000000;2.990575
3082.000000;2.752777
3081.000000;2.459126
3080.000000;2.384506
3079.000000;2.431988
3078.000000;2.569233
3077.000000;2.789243
3076.000000;3.247453
3075.000000;3.023450
3074.000000;2.722396
3073.000000;2.703049
3072.000000;3.228350
3071.000000;2.856228
3070.000000;2.435723
3069.000000;2.287541
3068.000000;2.251637
3067.000000;2.283704
3066.000000;2.339263
3065.000000;2.405379
3064.000000;2.486579
3063.000000;2.610669
3062.000000;2.856566
3061.000000;2.730223
3060.000000;2.414594
3059.000000;2.305241
3058.000000;2.290983
3057.000000;2.344223
3056.000000;2.458075
3055.000000;2.922047
3054.000000;3.263432
3053.000000;2.753086
3052.000000;2.660019
3051.000000;2.563592
3050.000000;2.709606
3049.000000;2.818566
3048.000000;2.568978
3047.000000;2.476608
3046.000000;2.480012
3045.000000;2.488915
3044.000000;2.581247
3043.000000;2.935486
3042.000000;3.375190
3041.000000;3.503772
3040.000000;2.862007
3039.000000;2.463749
3038.000000;2.377919
3037.000000;2.443812
3036.000000;2.468877
3035.000000;2.395361
3034.000000;2.360748
3033.000000;2.408837
3032.000000;2.561935
3031.000000;2.702178
3030.000000;2.679623
3029.000000;2.781736
3028.000000;2.922329
3027.000000;2.807229
3026.000000;2.781219
3025.000000;2.859043
3024.000000;2.870504
3023.000000;2.979808
3022.000000;3.071941
3021.000000;2.736869
3020.000000;2.571236
3019.000000;2.619418
3018.000000;2.984166
3017.000000;3.007982
3016.000000;2.715420
3015.000000;2.669361
3014.000000;2.752073
3013.000000;2.922623
3012.000000;3.296298
3011.000000;3.121268
3010.000000;2.791233
3009.000000;2.803492
3008.000000;2.986719
3007.000000;2.844399
3006.000000;2.722713
3005.000000;2.819881
3004.000000;2.882790
3003.000000;2.716044
3002.000000;2.590860
3001.000000;2.543250
3000.000000;2.565751
2999.000000;2.639695
2998.000000;2.645811
2997.000000;2.496172
2996.000000;2.356824
2995.000000;2.331536
2994.000000;2.452213
2993.000000;2.675985
2992.000000;2.638951
2991.000000;2.530133
2990.000000;2.506663
2989.000000;2.551439
2988.000000;2.736728
2987.000000;3.231210
2986.000000;3.356165
2985.000000;2.921478
2984.000000;2.523252
2983.000000;2.325531
2982.000000;2.252185
2981.000000;2.277093
2980.000000;2.443821
2979.000000;2.703460
2978.000000;2.670164
2977.000000;2.728999
2976.000000;3.234381
2975.000000;3.214452
2974.000000;3.333998
2973.000000;3.131140
2972.000000;2.613593
2971.000000;2.507188
2970.000000;2.507099
2969.000000;2.541015
2968.000000;2.539814
2967.000000;2.594460
2966.000000;2.737341
2965.000000;2.893517
2964.000000;2.917476
2963.000000;2.806086
2962.000000;2.685577
2961.000000;2.627381
2960.000000;2.663046
2959.000000;2.774430
2958.000000;2.852842
2957.000000;3.031072
2956.000000;3.089157
2955.000000;2.694001
2954.000000;2.620777
2953.000000;2.817731
2952.000000;3.227676
2951.000000;2.768308
2950.000000;2.482172
2949.000000;2.348082
2948.000000;2.300137
2947.000000;2.321015
2946.000000;2.408219
2945.000000;2.624700
2944.000000;2.722922
2943.000000;2.542567
2942.000000;2.499655
2941.000000;2.820037
2940.000000;2.810311
2939.000000;2.521702
2938.000000;2.505690
2937.000000;2.983478
2936.000000;2.777090
2935.000000;2.432962
2934.000000;2.387286
2933.000000;2.499828
2932.000000;2.745992
2931.000000;3.010680
2930.000000;2.788241
2929.000000;2.636862
2928.000000;2.637365
2927.000000;2.735235
2926.000000;2.955460
2925.000000;3.311380
2924.000000;2.885431
2923.000000;2.575881
2922.000000;2.458067
2921.000000;2.455347
2920.000000;2.562493
2919.000000;2.699938
2918.000000;2.614514
2917.000000;2.463345
2916.000000;2.422973
2915.000000;2.505223
2914.000000;2.684587
2913.000000;2.902225
2912.000000;2.833641
2911.000000;2.647590
2910.000000;2.625810
2909.000000;2.705499
2908.000000;2.671306
2907.000000;2.485830
2906.000000;2.354541
2905.000000;2.376856
2904.000000;2.623753
2903.000000;2.684511
2902.000000;2.474981
2901.000000;2.648212
2900.000000;2.837233
2899.000000;2.451925
2898.000000;2.424137
2897.000000;2.498386
2896.000000;2.519571
2895.000000;2.483843
2894.000000;2.524653
2893.000000;2.731476
2892.000000;2.852382
2891.000000;2.760982
2890.000000;2.785405
2889.000000;2.788401
2888.000000;2.910050
2887.000000;3.075272
2886.000000;2.856599
2885.000000;2.733852
2884.000000;2.766465
2883.000000;2.795770
2882.000000;2.670390
2881.000000;2.540424
2880.000000;2.490314
2879.000000;2.487029
2878.000000;2.482385
2877.000000;2.475346
2876.000000;2.497046
2875.000000;2.589445
2874.000000;2.774133
2873.000000;2.980985
2872.000000;3.043858
2871.000000;2.984034
2870.000000;2.900236
2869.000000;2.757586
2868.000000;2.557176
2867.000000;2.408666
2866.000000;2.369957
2865.000000;2.470906
2864.000000;2.736442
2863.000000;3.295370
2862.000000;2.825912
2861.000000;2.525475
2860.000000;2.494097
2859.000000;2.967589
2858.000000;2.835645
2857.000000;2.476982
2856.000000;2.448100
2855.000000;2.489027
2854.000000;2.481723
2853.000000;2.545171
2852.000000;2.920405
2851.000000;3.018448
2850.000000;2.563289
2849.000000;2.399442
2848.000000;2.312054
2847.000000;2.301793
2846.000000;2.363732
2845.000000;2.479997
2844.000000;2.564188
2843.000000;2.562132
2842.000000;2.564537
2841.000000;2.725809
2840.000000;2.862427
2839.000000;2.629343
2838.000000;2.536444
2837.000000;2.736414
2836.000000;3.036615
2835.000000;2.755595
2834.000000;2.641678
2833.000000;2.696799
2832.000000;2.894742
2831.000000;3.049602
2830.000000;2.674058
2829.000000;2.469588
2828.000000;2.408823
2827.000000;2.450423
2826.000000;2.595214
2825.000000;2.763970
2824.000000;2.758343
2823.000000;2.691837
2822.000000;2.685627
2821.000000;2.710183
2820.000000;2.681916
2819.000000;2.632378
2818.000000;2.635761
2817.000000;2.818010
2816.000000;2.881315
2815.000000;2.521866
2814.000000;2.372595
2813.000000;2.382090
2812.000000;2.553380
2811.000000;2.957886
2810.000000;2.924335
2809.000000;2.646070
2808.000000;2.536315
2807.000000;2.447799
2806.000000;2.410966
2805.000000;2.424698
2804.000000;2.470475
2803.000000;2.515878
2802.000000;2.569625
2801.000000;2.656621
2800.000000;2.724118
2799.000000;2.723012
2798.000000;2.818952
2797.000000;3.401714
2796.000000;2.801588
2795.000000;2.515990
2794.000000;2.428909
2793.000000;2.444952
2792.000000;2.511331
2791.000000;2.607625
2790.000000;2.690380
2789.000000;2.661809
2788.000000;2.576960
2787.000000;2.568950
2786.000000;2.788318
2785.000000;3.297683
2784.000000;2.996873
2783.000000;2.882887
2782.000000;3.090019
2781.000000;3.638919
2780.000000;3.320413
2779.000000;2.882219
2778.000000;2.683082
2777.000000;2.590628
2776.000000;2.588402
2775.000000;2.632621
2774.000000;2.709678
2773.000000;2.763879
2772.000000;2.644466
2771.000000;2.536998
2770.000000;2.549406
2769.000000;2.668467
2768.000000;2.796656
2767.000000;2.849884
2766.000000;3.127850
2765.000000;3.072419
2764.000000;2.493000
2763.000000;2.313557
2762.000000;2.307786
2761.000000;2.477808
2760.000000;3.045030
2759.000000;3.189792
2758.000000;2.749528
2757.000000;2.852575
2756.000000;3.301891
2755.000000;3.072288
2754.000000;2.655784
2753.000000;2.590162
2752.000000;2.615751
2751.000000;3.114072
2750.000000;2.928519
2749.000000;2.551252
2748.000000;2.587422
2747.000000;2.680274
2746.000000;2.384929
2745.000000;2.272146
2744.000000;2.336556
2743.000000;2.549468
2742.000000;2.857089
2741.000000;2.760290
2740.000000;2.618422
2739.000000;2.624690
2738.000000;2.790032
2737.000000;2.985385
2736.000000;2.872559
2735.000000;2.743414
2734.000000;2.670243
2733.000000;2.635235
2732.000000;3.020276
2731.000000;3.279049
2730.000000;2.708137
2729.000000;2.594379
2728.000000;2.647583
2727.000000;2.862666
2726.000000;2.695713
2725.000000;2.669631
2724.000000;3.043668
2723.000000;3.148154
2722.000000;2.938912
2721.000000;2.611003
2720.000000;2.426617
2719.000000;2.369171
2718.000000;2.434946
2717.000000;2.688587
2716.000000;3.102927
2715.000000;2.754101
2714.000000;2.562759
2713.000000;2.519453
2712.000000;2.669389
2711.000000;3.087541
2710.000000;2.963979
2709.000000;2.720230
2708.000000;2.759420
2707.000000;3.122524
2706.000000;3.086441
2705.000000;2.668177
2704.000000;2.622949
2703.000000;2.706402
2702.000000;2.860533
2701.000000;2.861031
2700.000000;2.730312
2699.000000;2.661123
2698.000000;2.673257
2697.000000;2.716615
2696.000000;2.763176
2695.000000;2.730662
2694.000000;2.666894
2693.000000;2.644763
2692.000000;2.650354
2691.000000;2.660957
2690.000000;2.692230
2689.000000;2.705938
2688.000000;2.629501
2687.000000;2.574664
2686.000000;2.587195
2685.000000;2.620838
2684.000000;2.645654
2683.000000;2.689726
2682.000000;2.756966
2681.000000;2.858088
2680.000000;2.927498
2679.000000;2.881368
2678.000000;2.925745
2677.000000;3.398060
2676.000000;3.102722
2675.000000;2.719851
2674.000000;2.668093
2673.000000;2.726878
2672.000000;2.844159
2671.000000;2.902581
2670.000000;2.995574
2669.000000;3.058985
2668.000000;2.818941
2667.000000;2.612706
2666.000000;2.565154
2665.000000;2.748481
2664.000000;3.001138
2663.000000;2.633455
2662.000000;2.502244
2661.000000;2.455987
2660.000000;2.440599
2659.000000;2.489858
2658.000000;2.664665
2657.000000;2.923293
2656.000000;2.763036
2655.000000;2.517873
2654.000000;2.356904
2653.000000;2.271138
2652.000000;2.273909
2651.000000;2.344237
2650.000000;2.404660
2649.000000;2.371074
2648.000000;2.330300
2647.000000;2.381660
2646.000000;2.521025
2645.000000;2.689768
2644.000000;2.864682
2643.000000;3.183179
2642.000000;2.859536
2641.000000;2.537018
2640.000000;2.464331
2639.000000;2.536794
2638.000000;2.455413
2637.000000;2.289272
2636.000000;2.235198
2635.000000;2.307880
2634.000000;2.525957
2633.000000;2.787300
2632.000000;2.778292
2631.000000;2.683346
2630.000000;2.545987
2629.000000;2.527981
2628.000000;2.704828
2627.000000;3.103109
2626.000000;2.986056
2625.000000;2.702477
2624.000000;2.623181
2623.000000;2.623935
2622.000000;2.720534
2621.000000;2.869532
2620.000000;2.612019
2619.000000;2.355189
2618.000000;2.296976
2617.000000;2.393042
2616.000000;2.623443
2615.000000;2.804741
2614.000000;2.697031
2613.000000;2.522484
2612.000000;2.440541
2611.000000;2.530051
2610.000000;2.898985
2609.000000;3.136439
2608.000000;2.995765
2607.000000;2.753240
2606.000000;2.562122
2605.000000;2.565877
2604.000000;2.851747
2603.000000;3.342340
2602.000000;2.764381
2601.000000;2.654592
2600.000000;2.449101
2599.000000;2.162809
2598.000000;2.043798
2597.000000;2.092576
2596.000000;2.432114
2595.000000;2.684185
2594.000000;2.410047
2593.000000;2.398425
2592.000000;2.472642
2591.000000;2.538506
2590.000000;2.602591
2589.000000;2.787535
2588.000000;2.828063
2587.000000;2.614643
2586.000000;2.536007
2585.000000;2.573246
2584.000000;2.692551
2583.000000;2.758507
2582.000000;2.534284
2581.000000;2.353527
2580.000000;2.319004
2579.000000;2.434973
2578.000000;2.670289
2577.000000;2.731759
2576.000000;2.512674
2575.000000;2.366325
2574.000000;2.391641
2573.000000;2.603952
2572.000000;2.950163
2571.000000;3.066484
2570.000000;2.824684
2569.000000;2.668842
2568.000000;2.645265
2567.000000;2.664963
2566.000000;2.645316
2565.000000;2.615433
2564.000000;2.636573
2563.000000;2.718286
2562.000000;2.920013
2561.000000;2.782721
2560.000000;2.538680
2559.000000;2.445863
2558.000000;2.432654
2557.000000;2.469173
2556.000000;2.579540
2555.000000;2.853991
2554.000000;3.449946
2553.000000;3.423171
2552.000000;3.057542
2551.000000;2.705511
2550.000000;2.520205
2549.000000;2.497250
2548.000000;2.573194
2547.000000;2.635624
2546.000000;2.607150
2545.000000;2.539815
2544.000000;2.542894
2543.000000;2.650703
2542.000000;2.709706
2541.000000;2.721457
2540.000000;2.748793
2539.000000;2.635884
2538.000000;2.532614
2537.000000;2.496296
2536.000000;2.455846
2535.000000;2.397219
2534.000000;2.358729
2533.000000;2.373203
2532.000000;2.454471
2531.000000;2.602972
2530.000000;2.795953
2529.000000;2.858747
2528.000000;2.693626
2527.000000;2.607935
2526.000000;2.643017
2525.000000;2.694205
2524.000000;2.695978
2523.000000;2.738830
2522.000000;2.873519
2521.000000;2.879296
2520.000000;2.665495
2519.000000;2.555994
2518.000000;2.734241
2517.000000;3.092190
2516.000000;2.731179
2515.000000;2.554571
2514.000000;2.600506
2513.000000;2.782289
2512.000000;3.498602
2511.000000;3.149693
2510.000000;2.800196
2509.000000;2.751050
2508.000000;2.642767
2507.000000;2.576298
2506.000000;2.609161
2505.000000;2.764829
2504.000000;3.072218
2503.000000;3.194915
2502.000000;2.883740
2501.000000;2.633493
2500.000000;2.475167
2499.000000;2.433794
2498.000000;2.510398
2497.000000;2.873997
2496.000000;3.628368
2495.000000;2.879021
2494.000000;2.775025
2493.000000;2.982008
2492.000000;3.159164
2491.000000;2.679827
2490.000000;2.490875
2489.000000;2.504757
2488.000000;2.868145
2487.000000;2.851647
2486.000000;2.409814
2485.000000;2.256641
2484.000000;2.196226
2483.000000;2.200340
2482.000000;2.247756
2481.000000;2.346737
2480.000000;2.492161
2479.000000;2.670521
2478.000000;2.796294
2477.000000;2.589355
2476.000000;2.479932
2475.000000;2.538356
2474.000000;2.671966
2473.000000;2.747282
2472.000000;2.635835
2471.000000;2.491306
2470.000000;2.390332
2469.000000;2.335072
2468.000000;2.343241
2467.000000;2.420611
2466.000000;2.512639
2465.000000;2.586351
2464.000000;2.865867
2463.000000;3.239842
2462.000000;2.971993
2461.000000;2.966740
2460.000000;2.931722
2459.000000;2.738276
2458.000000;2.651324
2457.000000;2.707417
2456.000000;2.806236
2455.000000;2.732206
2454.000000;2.629760
2453.000000;2.528254
2452.000000;2.403483
2451.000000;2.303008
2450.000000;2.269282
2449.000000;2.322417
2448.000000;2.520812
2447.000000;3.030646
2446.000000;3.023896
2445.000000;2.743439
2444.000000;2.903672
2443.000000;3.132181
2442.000000;2.800958
2441.000000;2.646946
2440.000000;2.565155
2439.000000;2.514523
2438.000000;2.599304
2437.000000;2.750539
2436.000000;2.585977
2435.000000;2.452500
2434.000000;2.662317
2433.000000;2.989742
2432.000000;2.729729
2431.000000;2.691464
2430.000000;3.035568
2429.000000;3.409352
2428.000000;3.153373
2427.000000;2.958784
2426.000000;2.785222
2425.000000;2.710496
2424.000000;2.757567
2423.000000;2.724442
2422.000000;2.635039
2421.000000;2.684128
2420.000000;2.845251
2419.000000;2.953467
2418.000000;2.883395
2417.000000;2.681767
2416.000000;2.583439
2415.000000;2.598895
2414.000000;2.813251
2413.000000;2.959080
2412.000000;2.617895
2411.000000;2.483196
2410.000000;2.545858
2409.000000;2.854469
2408.000000;2.869574
2407.000000;2.537724
2406.000000;2.409016
2405.000000;2.382509
2404.000000;2.456527
2403.000000;2.686341
2402.000000;2.968407
2401.000000;2.731952
2400.000000;2.635004
2399.000000;2.765716
2398.000000;2.708773
2397.000000;2.719704
2396.000000;2.751664
2395.000000;2.512327
2394.000000;2.409522
2393.000000;2.450039
2392.000000;2.522353
2391.000000;2.440023
2390.000000;2.262778
2389.000000;2.173928
2388.000000;2.191569
2387.000000;2.297378
2386.000000;2.414904
2385.000000;2.461547
2384.000000;2.485574
2383.000000;2.557122
2382.000000;2.779668
2381.000000;2.980159
2380.000000;2.794106
2379.000000;2.692886
2378.000000;2.619336
2377.000000;2.532102
2376.000000;2.540109
2375.000000;2.689488
2374.000000;2.953840
2373.000000;2.902346
2372.000000;2.714689
2371.000000;2.630588
2370.000000;2.640561
2369.000000;2.768835
2368.000000;3.064459
2367.000000;3.422552
2366.000000;3.208551
2365.000000;3.264108
2364.000000;3.667478
2363.000000;3.065133
2362.000000;2.824807
2361.000000;2.848751
2360.000000;3.097381
2359.000000;3.611378
2358.000000;3.169831
2357.000000;2.797089
2356.000000;2.651166
2355.000000;2.610233
2354.000000;2.637729
2353.000000;2.694625
2352.000000;2.759465
2351.000000;2.837166
2350.000000;2.935217
2349.000000;2.962038
2348.000000;2.869203
2347.000000;2.834403
2346.000000;2.973684
2345.000000;3.375585
2344.000000;3.649706
2343.000000;3.386574
2342.000000;3.315527
2341.000000;3.272582
2340.000000;3.147549
2339.000000;3.003760
2338.000000;2.902039
2337.000000;2.874093
2336.000000;3.095430
2335.000000;3.250027
2334.000000;2.862210
2333.000000;2.774705
2332.000000;2.861322
2331.000000;2.877208
2330.000000;2.717226
2329.000000;2.588352
2328.000000;2.565227
2327.000000;2.647825
2326.000000;2.861481
2325.000000;2.901786
2324.000000;2.825786
2323.000000;2.964264
2322.000000;2.991348
2321.000000;2.769103
2320.000000;2.682729
2319.000000;2.728714
2318.000000;2.955770
2317.000000;3.511068
2316.000000;3.240880
2315.000000;3.005297
2314.000000;2.939898
2313.000000;2.871134
2312.000000;2.926061
2311.000000;3.280103
2310.000000;3.192560
2309.000000;2.759723
2308.000000;2.676585
2307.000000;2.790904
2306.000000;2.961220
2305.000000;3.313759
2304.000000;3.143289
2303.000000;2.692296
2302.000000;2.600200
2301.000000;2.698989
2300.000000;3.226243
2299.000000;3.268824
2298.000000;2.778800
2297.000000;2.724729
2296.000000;2.918298
2295.000000;3.465940
2294.000000;3.359378
2293.000000;3.236572
2292.000000;2.743342
2291.000000;2.462381
2290.000000;2.392054
2289.000000;2.378681
2288.000000;2.395638
2287.000000;2.419588
2286.000000;2.456052
2285.000000;2.488725
2284.000000;2.458639
2283.000000;2.392715
2282.000000;2.413102
2281.000000;2.570772
2280.000000;2.730042
2279.000000;2.700276
2278.000000;2.721485
2277.000000;2.811487
2276.000000;2.698955
2275.000000;2.562314
2274.000000;2.544271
2273.000000;2.594928
2272.000000;2.686151
2271.000000;2.766698
2270.000000;2.680008
2269.000000;2.461745
2268.000000;2.286938
2267.000000;2.221252
2266.000000;2.268366
2265.000000;2.410857
2264.000000;2.564015
2263.000000;2.576378
2262.000000;2.489018
2261.000000;2.422747
2260.000000;2.422229
2259.000000;2.492285
2258.000000;2.539336
2257.000000;2.464692
2256.000000;2.343717
2255.000000;2.270773
2254.000000;2.271058
2253.000000;2.398879
2252.000000;2.847997
2251.000000;2.884938
2250.000000;2.553587
2249.000000;2.545210
2248.000000;2.474887
2247.000000;2.442754
2246.000000;2.524679
2245.000000;2.655733
2244.000000;2.805100
2243.000000;2.888628
2242.000000;2.979144
2241.000000;2.936966
2240.000000;2.729332
2239.000000;2.585188
2238.000000;2.589961
2237.000000;2.735192
2236.000000;2.882228
2235.000000;2.933507
2234.000000;3.082612
2233.000000;3.225671
2232.000000;3.152944
2231.000000;3.067122
2230.000000;2.880790
2229.000000;2.680612
2228.000000;2.593920
2227.000000;2.624274
2226.000000;2.641058
2225.000000;2.572627
2224.000000;2.790489
2223.000000;3.193346
2222.000000;2.725193
2221.000000;2.610982
2220.000000;2.713726
2219.000000;2.763661
2218.000000;2.832912
2217.000000;2.988622
2216.000000;3.042566
2215.000000;2.757085
2214.000000;2.518593
2213.000000;2.408622
2212.000000;2.575687
2211.000000;2.817199
2210.000000;2.494564
2209.000000;2.364064
2208.000000;2.525867
2207.000000;3.011401
2206.000000;2.823809
2205.000000;2.565845
2204.000000;2.579002
2203.000000;2.684317
2202.000000;2.822245
2201.000000;2.797402
2200.000000;2.940255
2199.000000;3.087165
2198.000000;2.823939
2197.000000;2.815135
2196.000000;2.956382
2195.000000;2.844719
2194.000000;2.768826
2193.000000;3.024266
2192.000000;3.058540
2191.000000;2.956846
2190.000000;3.418357
2189.000000;3.220739
2188.000000;2.991200
2187.000000;2.724272
2186.000000;2.460918
2185.000000;2.405913
2184.000000;2.458872
2183.000000;2.548506
2182.000000;2.620085
2181.000000;2.711658
2180.000000;2.888410
2179.000000;2.792591
2178.000000;2.523216
2177.000000;2.377651
2176.000000;2.324183
2175.000000;2.333655
2174.000000;2.456595
2173.000000;2.609003
2172.000000;2.454973
2171.000000;2.271092
2170.000000;2.204694
2169.000000;2.227718
2168.000000;2.340566
2167.000000;2.522338
2166.000000;2.663511
2165.000000;2.588375
2164.000000;2.489817
2163.000000;2.493454
2162.000000;2.686172
2161.000000;3.092671
2160.000000;2.861454
2159.000000;2.627976
2158.000000;2.593681
2157.000000;2.638630
2156.000000;2.811023
2155.000000;3.015793
2154.000000;3.036737
2153.000000;2.962668
2152.000000;2.775585
2151.000000;2.573555
2150.000000;2.476579
2149.000000;2.474280
2148.000000;2.547553
2147.000000;2.672789
2146.000000;2.658462
2145.000000;2.624742
2144.000000;2.730862
2143.000000;2.622600
2142.000000;2.454401
2141.000000;2.420820
2140.000000;2.391015
2139.000000;2.311239
2138.000000;2.202147
2137.000000;2.148581
2136.000000;2.189900
2135.000000;2.417081
2134.000000;2.828325
2133.000000;2.557902
2132.000000;2.368917
2131.000000;2.391550
2130.000000;2.451791
2129.000000;2.515853
2128.000000;2.523290
2127.000000;2.519544
2126.000000;2.542081
2125.000000;2.668620
2124.000000;2.852604
2123.000000;2.913887
2122.000000;2.889226
2121.000000;2.692451
2120.000000;2.527175
2119.000000;2.471423
2118.000000;2.471798
2117.000000;2.462267
2116.000000;2.406117
2115.000000;2.355322
2114.000000;2.349703
2113.000000;2.339229
2112.000000;2.279063
2111.000000;2.255025
2110.000000;2.344855
2109.000000;2.690285
2108.000000;3.227819
2107.000000;3.213886
2106.000000;3.378693
2105.000000;2.897547
2104.000000;2.662805
2103.000000;2.632264
2102.000000;2.668159
2101.000000;2.823909
2100.000000;2.863532
2099.000000;2.802146
2098.000000;2.940569
2097.000000;3.039250
2096.000000;2.709746
2095.000000;2.504771
2094.000000;2.437047
2093.000000;2.425901
2092.000000;2.423337
2091.000000;2.425856
2090.000000;2.582323
2089.000000;2.988034
2088.000000;2.825916
2087.000000;2.599441
2086.000000;2.780387
2085.000000;3.004051
2084.000000;2.626901
2083.000000;2.370799
2082.000000;2.288878
2081.000000;2.315753
2080.000000;2.391438
2079.000000;2.400141
2078.000000;2.354064
2077.000000;2.315471
2076.000000;2.297374
2075.000000;2.343102
2074.000000;2.481064
2073.000000;2.744017
2072.000000;3.229750
2071.000000;3.324630
2070.000000;3.090805
2069.000000;3.052439
2068.000000;2.869725
2067.000000;2.686780
2066.000000;2.629706
2065.000000;2.654085
2064.000000;2.679208
2063.000000;2.812114
2062.000000;2.890378
2061.000000;2.644836
2060.000000;2.534695
2059.000000;2.627314
2058.000000;2.805990
2057.000000;2.701986
2056.000000;2.507257
2055.000000;2.402118
2054.000000;2.339096
2053.000000;2.337553
2052.000000;2.444360
2051.000000;2.723438
2050.000000;2.871663
2049.000000;2.613135
2048.000000;2.410370
2047.000000;2.357838
2046.000000;2.407285
2045.000000;2.473022
2044.000000;2.493498
2043.000000;2.721123
2042.000000;3.301970
2041.000000;2.736959
2040.000000;2.514217
2039.000000;2.510565
2038.000000;2.598297
2037.000000;2.715106
2036.000000;2.679143
2035.000000;2.611808
2034.000000;2.597113
2033.000000;2.692484
2032.000000;2.766076
2031.000000;2.651747
2030.000000;2.519728
2029.000000;2.466055
2028.000000;2.448625
2027.000000;2.408475
2026.000000;2.344648
2025.000000;2.338673
2024.000000;2.430358
2023.000000;2.470795
2022.000000;2.403296
2021.000000;2.406221
2020.000000;2.511478
2019.000000;2.709210
2018.000000;2.727457
2017.000000;2.509778
2016.000000;2.412026
2015.000000;2.503201
2014.000000;2.732551
2013.000000;2.700860
2012.000000;2.655033
2011.000000;3.022092
2010.000000;3.225084
2009.000000;3.131552
2008.000000;3.217323
2007.000000;2.782633
2006.000000;2.594533
2005.000000;2.700596
2004.000000;3.084859
2003.000000;2.650148
2002.000000;2.330202
2001.000000;2.289957
2000.000000;2.352806
1999.000000;2.491652
1998.000000;2.623744
1997.000000;2.690506
1996.000000;2.691510
1995.000000;2.656688
1994.000000;2.670933
1993.000000;2.655786
1992.000000;2.486954
1991.000000;2.386545
1990.000000;2.424580
1989.000000;2.654993
1988.000000;3.202332
1987.000000;2.941341
1986.000000;2.600143
1985.000000;2.447708
1984.000000;2.379173
1983.000000;2.419173
1982.000000;2.564027
1981.000000;2.885786
1980.000000;3.106420
1979.000000;2.916835
1978.000000;2.887392
1977.000000;2.986927
1976.000000;3.354893
1975.000000;3.647121
1974.000000;3.136331
1973.000000;2.725937
1972.000000;2.446416
1971.000000;2.333705
1970.000000;2.330315
1969.000000;2.418777
1968.000000;2.611624
1967.000000;3.005206
1966.000000;3.620623
1965.000000;3.472084
1964.000000;3.156832
1963.000000;2.705665
1962.000000;2.498909
1961.000000;2.492046
1960.000000;2.601666
1959.000000;2.712818
1958.000000;2.679751
1957.000000;2.650733
1956.000000;2.694724
1955.000000;2.591384
1954.000000;2.385912
1953.000000;2.250900
1952.000000;2.194128
1951.000000;2.235299
1950.000000;2.388773
1949.000000;2.596143
1948.000000;2.801607
1947.000000;2.877160
1946.000000;2.670265
1945.000000;2.550275
1944.000000;2.525012
1943.000000;2.458098
1942.000000;2.401131
1941.000000;2.421234
1940.000000;2.490994
1939.000000;2.501552
1938.000000;2.453437
1937.000000;2.458924
1936.000000;2.543690
1935.000000;2.733685
1934.000000;3.107666
1933.000000;3.167618
1932.000000;2.959039
1931.000000;2.854018
1930.000000;2.729965
1929.000000;2.712242
1928.000000;3.073957
1927.000000;3.359607
1926.000000;2.744757
1925.000000;2.550859
1924.000000;2.554594
1923.000000;2.693308
1922.000000;2.748002
1921.000000;2.843574
1920.000000;2.830341
1919.000000;2.606507
1918.000000;2.623417
1917.000000;2.913480
1916.000000;3.413015
1915.000000;3.155954
1914.000000;2.989203
1913.000000;2.883951
1912.000000;2.651094
1911.000000;2.504266
1910.000000;2.403870
1909.000000;2.310829
1908.000000;2.294227
1907.000000;2.404345
1906.000000;2.690487
1905.000000;3.103542
1904.000000;2.943478
1903.000000;2.673097
1902.000000;2.535865
1901.000000;2.507013
1900.000000;2.617818
1899.000000;2.789946
1898.000000;2.740706
1897.000000;2.633599
1896.000000;2.631428
1895.000000;2.669650
1894.000000;2.693793
1893.000000;2.711501
1892.000000;2.748059
1891.000000;2.693742
1890.000000;2.545092
1889.000000;2.440220
1888.000000;2.405175
1887.000000;2.457759
1886.000000;2.551571
1885.000000;2.459699
1884.000000;2.334288
1883.000000;2.341225
1882.000000;2.509784
1881.000000;2.934684
1880.000000;3.371030
1879.000000;3.410136
1878.000000;3.213173
1877.000000;2.821381
1876.000000;2.745888
1875.000000;2.790727
1874.000000;2.686077
1873.000000;2.496953
1872.000000;2.421513
1871.000000;2.423536
1870.000000;2.394226
1869.000000;2.369545
1868.000000;2.399826
1867.000000;2.473575
1866.000000;2.596720
1865.000000;2.869861
1864.000000;3.187002
1863.000000;2.871958
1862.000000;2.649205
1861.000000;2.577745
1860.000000;2.550877
1859.000000;2.531495
1858.000000;2.525580
1857.000000;2.596880
1856.000000;2.780077
1855.000000;2.986469
1854.000000;2.894278
1853.000000;2.655342
1852.000000;2.540882
1851.000000;2.540503
1850.000000;2.553245
1849.000000;2.509647
1848.000000;2.560902
1847.000000;2.683315
1846.000000;2.511923
1845.000000;2.388140
1844.000000;2.486803
1843.000000;2.757685
1842.000000;3.019040
1841.000000;2.975816
1840.000000;2.879612
1839.000000;2.889026
1838.000000;2.948925
1837.000000;2.873669
1836.000000;2.737117
1835.000000;2.643918
1834.000000;2.562542
1833.000000;2.582264
1832.000000;2.744834
1831.000000;2.569215
1830.000000;2.378350
1829.000000;2.371212
1828.000000;2.440546
1827.000000;2.475289
1826.000000;2.425888
1825.000000;2.379300
1824.000000;2.388840
1823.000000;2.453324
1822.000000;2.529555
1821.000000;2.789957
1820.000000;3.079554
1819.000000;2.577178
1818.000000;2.368575
1817.000000;2.361482
1816.000000;2.494754
1815.000000;2.633938
1814.000000;2.588436
1813.000000;2.555418
1812.000000;2.613659
1811.000000;2.674637
1810.000000;2.737573
1809.000000;2.929363
1808.000000;3.088301
1807.000000;2.836399
1806.000000;2.511248
1805.000000;2.335468
1804.000000;2.293154
1803.000000;2.336116
1802.000000;2.443528
1801.000000;2.487426
1800.000000;2.396963
1799.000000;2.392146
1798.000000;2.626906
1797.000000;2.911522
1796.000000;2.603847
1795.000000;2.489851
1794.000000;2.495868
1793.000000;2.559363
1792.000000;2.761104
1791.000000;3.152716
1790.000000;2.964627
1789.000000;2.643453
1788.000000;2.565248
1787.000000;2.607778
1786.000000;2.805171
1785.000000;3.118699
1784.000000;3.122419
1783.000000;2.840200
1782.000000;2.736671
1781.000000;2.908444
1780.000000;2.851928
1779.000000;2.515636
1778.000000;2.346480
1777.000000;2.322692
1776.000000;2.460841
1775.000000;2.833988
1774.000000;3.041096
1773.000000;2.790565
1772.000000;2.632139
1771.000000;2.554870
1770.000000;2.538528
1769.000000;2.565529
1768.000000;2.693922
1767.000000;2.797314
1766.000000;2.673372
1765.000000;2.585545
1764.000000;2.459652
1763.000000;2.311702
1762.000000;2.282761
1761.000000;2.407403
1760.000000;2.749371
1759.000000;3.135740
1758.000000;2.767894
1757.000000;2.503638
1756.000000;2.371890
1755.000000;2.323276
1754.000000;2.356694
1753.000000;2.436887
1752.000000;2.497192
1751.000000;2.555699
1750.000000;2.663509
1749.000000;2.699477
1748.000000;2.678895
1747.000000;2.750243
1746.000000;2.975534
1745.000000;3.142015
1744.000000;2.955495
1743.000000;3.055665
1742.000000;3.344336
1741.000000;3.014506
1740.000000;2.825260
1739.000000;2.756976
1738.000000;2.667034
1737.000000;2.535394
1736.000000;2.400495
1735.000000;2.301101
1734.000000;2.261605
1733.000000;2.284989
1732.000000;2.339599
1731.000000;2.436897
1730.000000;2.579373
1729.000000;2.496499
1728.000000;2.315950
1727.000000;2.230099
1726.000000;2.238570
1725.000000;2.332973
1724.000000;2.456443
1723.000000;2.533001
1722.000000;2.575452
1721.000000;2.582593
1720.000000;2.525293
1719.000000;2.452517
1718.000000;2.416128
1717.000000;2.411311
1716.000000;2.395354
1715.000000;2.327549
1714.000000;2.235428
1713.000000;2.174781
1712.000000;2.178005
1711.000000;2.270752
1710.000000;2.485847
1709.000000;2.808547
1708.000000;2.971830
1707.000000;3.099178
1706.000000;3.102425
1705.000000;2.811519
1704.000000;2.663195
1703.000000;2.637000
1702.000000;2.701500
1701.000000;2.819327
1700.000000;2.922117
1699.000000;3.006693
1698.000000;3.080651
1697.000000;3.123625
1696.000000;2.920157
1695.000000;2.739972
1694.000000;2.694983
1693.000000;2.732329
1692.000000;2.791630
1691.000000;2.803823
1690.000000;2.751173
1689.000000;2.634547
1688.000000;2.550686
1687.000000;2.552992
1686.000000;2.596259
1685.000000;2.589335
1684.000000;2.592894
1683.000000;2.641496
1682.000000;2.667570
1681.000000;2.722000
1680.000000;3.028578
1679.000000;2.972644
1678.000000;2.845165
1677.000000;2.605014
1676.000000;2.299273
1675.000000;2.203206
1674.000000;2.244898
1673.000000;2.368866
1672.000000;2.578071
1671.000000;2.751894
1670.000000;2.693079
1669.000000;2.606734
1668.000000;2.539587
1667.000000;2.521741
1666.000000;2.629999
1665.000000;2.919074
1664.000000;3.168237
1663.000000;3.052964
1662.000000;2.913852
1661.000000;3.208546
1660.000000;3.508996
1659.000000;2.860457
1658.000000;3.157122
1657.000000;3.196995
1656.000000;2.665827
1655.000000;2.535600
1654.000000;2.507215
1653.000000;2.628948
1652.000000;2.914860
1651.000000;3.595911
1650.000000;3.202642
1649.000000;2.905287
1648.000000;3.103512
1647.000000;3.004581
1646.000000;2.941990
1645.000000;3.299152
1644.000000;3.026830
1643.000000;2.635237
1642.000000;2.481998
1641.000000;2.428373
1640.000000;2.441532
1639.000000;2.606780
1638.000000;2.973321
1637.000000;3.256255
1636.000000;3.520925
1635.000000;3.033532
1634.000000;2.818449
1633.000000;2.720896
1632.000000;2.647439
1631.000000;2.639385
1630.000000;2.732301
1629.000000;2.640452
1628.000000;2.457151
1627.000000;2.413551
1626.000000;2.449941
1625.000000;2.541362
1624.000000;2.667841
1623.000000;2.750406
1622.000000;2.779308
1621.000000;2.854169
1620.000000;2.992657
1619.000000;2.972206
1618.000000;2.956587
1617.000000;3.146587
1616.000000;3.362411
1615.000000;3.262166
1614.000000;2.944695
1613.000000;2.697781
1612.000000;2.642677
1611.000000;2.783425
1610.000000;3.040142
1609.000000;2.896788
1608.000000;2.691691
1607.000000;2.697459
1606.000000;2.773572
1605.000000;2.573866
1604.000000;2.330560
1603.000000;2.223785
1602.000000;2.256109
1601.000000;2.414097
1600.000000;2.980138
1599.000000;3.052432
1598.000000;2.593925
1597.000000;2.541909
1596.000000;2.535309
1595.000000;2.603799
1594.000000;2.729476
1593.000000;2.848532
1592.000000;2.944685
1591.000000;3.043478
1590.000000;2.938230
1589.000000;2.675304
1588.000000;2.508318
1587.000000;2.449033
1586.000000;2.452414
1585.000000;2.471297
1584.000000;2.500779
1583.000000;2.552194
1582.000000;2.539094
1581.000000;2.476311
1580.000000;2.543433
1579.000000;2.686173
1578.000000;2.607765
1577.000000;2.546932
1576.000000;2.841617
1575.000000;3.272937
1574.000000;2.819880
1573.000000;2.657141
1572.000000;2.743607
1571.000000;3.287779
1570.000000;3.094193
1569.000000;2.931806
1568.000000;3.606069
1567.000000;2.999039
1566.000000;2.637018
1565.000000;2.548249
1564.000000;2.561323
1563.000000;2.644416
1562.000000;2.787723
1561.000000;3.268409
1560.000000;2.988117
1559.000000;2.735177
1558.000000;2.744523
1557.000000;2.757355
1556.000000;2.720429
1555.000000;2.739283
1554.000000;2.836960
1553.000000;2.895285
1552.000000;3.018701
1551.000000;3.197253
1550.000000;3.325962
1549.000000;3.300486
1548.000000;3.057377
1547.000000;2.965127
1546.000000;3.046499
1545.000000;3.085238
1544.000000;2.750365
1543.000000;2.654219
1542.000000;2.901472
1541.000000;3.303128
1540.000000;2.820915
1539.000000;2.619502
1538.000000;2.557226
1537.000000;2.548715
1536.000000;2.624062
1535.000000;2.658986
1534.000000;2.685129
1533.000000;2.847432
1532.000000;3.174043
1531.000000;3.576256
1530.000000;2.959007
1529.000000;2.606024
1528.000000;2.474650
1527.000000;2.560734
1526.000000;2.968564
1525.000000;2.896925
1524.000000;2.478607
1523.000000;2.372726
1522.000000;2.420379
1521.000000;2.593613
1520.000000;2.681174
1519.000000;2.763514
1518.000000;3.022066
1517.000000;3.047994
1516.000000;3.200586
1515.000000;3.369031
1514.000000;2.848348
1513.000000;2.591785
1512.000000;2.496691
1511.000000;2.529218
1510.000000;2.729776
1509.000000;3.025966
1508.000000;2.707505
1507.000000;2.627178
1506.000000;2.754911
1505.000000;2.931868
1504.000000;2.965675
1503.000000;2.837809
1502.000000;2.695419
1501.000000;2.921464
1500.000000;3.305349
1499.000000;2.473690
1498.000000;2.394159
1497.000000;2.540703
1496.000000;2.838360
1495.000000;2.674873
1494.000000;2.552012
1493.000000;2.575657
1492.000000;2.584474
1491.000000;2.497510
1490.000000;2.392829
1489.000000;2.358924
1488.000000;2.405471
1487.000000;2.499652
1486.000000;2.551615
1485.000000;2.497887
1484.000000;2.420796
1483.000000;2.372636
1482.000000;2.363991
1481.000000;2.415892
1480.000000;2.530075
1479.000000;2.572063
1478.000000;2.519918
1477.000000;2.529178
1476.000000;2.582943
1475.000000;2.652717
1474.000000;2.638574
1473.000000;2.515664
1472.000000;2.480385
1471.000000;2.555787
1470.000000;2.733444
1469.000000;3.026185
1468.000000;3.556562
1467.000000;3.638989
1466.000000;3.084642
1465.000000;2.773095
1464.000000;2.569093
1463.000000;2.442985
1462.000000;2.361555
1461.000000;2.329182
1460.000000;2.352612
1459.000000;2.420884
1458.000000;2.478487
1457.000000;2.470610
1456.000000;2.423999
1455.000000;2.384513
1454.000000;2.400957
1453.000000;2.521144
1452.000000;2.794367
1451.000000;2.703728
1450.000000;2.433844
1449.000000;2.360626
1448.000000;2.407425
1447.000000;2.481969
1446.000000;2.500127
1445.000000;2.545924
1444.000000;2.697827
1443.000000;2.965081
1442.000000;3.153212
1441.000000;2.854449
1440.000000;2.550181
1439.000000;2.380661
1438.000000;2.329256
1437.000000;2.397089
1436.000000;2.694021
1435.000000;3.048685
1434.000000;2.675176
1433.000000;2.499975
1432.000000;2.477627
1431.000000;2.480271
1430.000000;2.507394
1429.000000;2.578075
1428.000000;2.698323
1427.000000;2.843986
1426.000000;2.860478
1425.000000;2.829284
1424.000000;2.935395
1423.000000;2.966305
1422.000000;2.768750
1421.000000;2.749064
1420.000000;3.076682
1419.000000;3.075379
1418.000000;2.654795
1417.000000;2.599973
1416.000000;2.646392
1415.000000;2.776229
1414.000000;2.792565
1413.000000;2.723576
1412.000000;2.689155
1411.000000;2.692752
1410.000000;2.773626
1409.000000;2.943099
1408.000000;2.939002
1407.000000;3.019451
1406.000000;3.006620
1405.000000;2.652337
1404.000000;2.497469
1403.000000;2.530000
1402.000000;2.706752
1401.000000;3.258367
1400.000000;2.888219
1399.000000;2.687784
1398.000000;2.892257
1397.000000;3.074327
1396.000000;2.553110
1395.000000;2.532025
1394.000000;2.845422
1393.000000;3.282269
1392.000000;2.720666
1391.000000;2.554130
1390.000000;2.455275
1389.000000;2.540638
1388.000000;2.768732
1387.000000;2.656294
1386.000000;2.444661
1385.000000;2.392106
1384.000000;2.416263
1383.000000;2.487862
1382.000000;2.439599
1381.000000;2.306600
1380.000000;2.231836
1379.000000;2.229883
1378.000000;2.295906
1377.000000;2.433499
1376.000000;2.617738
1375.000000;2.643661
1374.000000;2.538389
1373.000000;2.497792
1372.000000;2.558243
1371.000000;2.800959
1370.000000;3.300459
1369.000000;2.584499
1368.000000;2.511898
1367.000000;2.758835
1366.000000;3.292858
1365.000000;2.979020
1364.000000;2.945591
1363.000000;2.581173
1362.000000;2.474325
1361.000000;2.588757
1360.000000;3.071327
1359.000000;3.220417
1358.000000;3.118661
1357.000000;3.096432
1356.000000;2.812793
1355.000000;2.737847
1354.000000;2.683008
1353.000000;2.601078
1352.000000;2.548463
1351.000000;2.576518
1350.000000;2.663087
1349.000000;2.771107
1348.000000;2.903684
1347.000000;2.703949
1346.000000;2.558696
1345.000000;2.614173
1344.000000;2.779250
1343.000000;2.561953
1342.000000;2.356783
1341.000000;2.240868
1340.000000;2.203625
1339.000000;2.284077
1338.000000;2.520813
1337.000000;3.058535
1336.000000;8.000000
1335.000000;3.145997
1334.000000;2.664200
1333.000000;2.428099
1332.000000;2.340285
1331.000000;2.341165
1330.000000;2.377089
1329.000000;2.355221
1328.000000;2.297439
1327.000000;2.262257
1326.000000;2.251350
1325.000000;2.269919
1324.000000;2.342296
1323.000000;2.486495
1322.000000;2.604177
1321.000000;2.559027
1320.000000;2.460813
1319.000000;2.458426
1318.000000;2.629036
1317.000000;2.992126
1316.000000;3.071325
1315.000000;2.528886
1314.000000;2.310339
1313.000000;2.264392
1312.000000;2.326709
1311.000000;2.403880
1310.000000;2.464703
1309.000000;2.575354
1308.000000;2.736175
1307.000000;2.740125
1306.000000;2.606210
1305.000000;2.570788
1304.000000;2.769692
1303.000000;2.728624
1302.000000;2.524430
1301.000000;2.547087
1300.000000;2.576693
1299.000000;2.580869
1298.000000;2.745947
1297.000000;3.252686
1296.000000;3.357643
1295.000000;2.769134
1294.000000;2.426575
1293.000000;2.263538
1292.000000;2.237522
1291.000000;2.354549
1290.000000;2.621254
1289.000000;2.568405
1288.000000;2.397124
1287.000000;2.387920
1286.000000;2.485210
1285.000000;2.629060
1284.000000;2.683155
1283.000000;2.546596
1282.000000;2.381182
1281.000000;2.288627
1280.000000;2.276986
1279.000000;2.333626
1278.000000;2.407137
1277.000000;2.439903
1276.000000;2.428828
1275.000000;2.395537
1274.000000;2.421511
1273.000000;2.547492
1272.000000;3.008158
1271.000000;3.057041
1270.000000;2.665177
1269.000000;2.543324
1268.000000;2.495402
1267.000000;2.511797
1266.000000;2.659922
1265.000000;3.070022
1264.000000;3.353822
1263.000000;3.144344
1262.000000;2.775697
1261.000000;2.505817
1260.000000;2.431519
1259.000000;2.576396
1258.000000;2.956938
1257.000000;2.817948
1256.000000;2.592719
1255.000000;2.516111
1254.000000;2.516306
1253.000000;2.559012
1252.000000;2.509886
1251.000000;2.404773
1250.000000;2.319274
1249.000000;2.253933
1248.000000;2.185349
1247.000000;2.106572
1246.000000;2.045286
1245.000000;2.029413
1244.000000;2.078132
1243.000000;2.209112
1242.000000;2.439465
1241.000000;2.761754
1240.000000;2.748595
1239.000000;2.568868
1238.000000;2.511789
1237.000000;2.526118
1236.000000;2.520223
1235.000000;2.575173
1234.000000;2.912459
1233.000000;3.445357
1232.000000;2.828859
1231.000000;2.675939
1230.000000;2.595209
1229.000000;2.917410
1228.000000;3.293454
1227.000000;2.552363
1226.000000;2.371909
1225.000000;2.295618
1224.000000;2.314806
1223.000000;2.463952
1222.000000;2.668661
1221.000000;2.569773
1220.000000;2.503654
1219.000000;2.701399
1218.000000;3.026759
1217.000000;2.786770
1216.000000;2.715521
1215.000000;2.954594
1214.000000;3.335397
1213.000000;3.113959
1212.000000;2.922188
1211.000000;2.719772
1210.000000;2.513622
1209.000000;2.396156
1208.000000;2.420141
1207.000000;2.695782
1206.000000;2.806835
1205.000000;2.423420
1204.000000;2.375883
1203.000000;2.557688
1202.000000;2.951173
1201.000000;2.948319
1200.000000;2.910521
