Criado como novo conjunto de dados;"2706_e01_daniel.spp","43564.3 Secs"
cm-1;Abs
10000.000000;0.897273
9999.000000;0.895921
9998.000000;0.894572
9997.000000;0.893228
9996.000000;0.891888
9995.000000;0.890553
9994.000000;0.889221
9993.000000;0.887894
9992.000000;0.886566
9991.000000;0.885422
9990.000000;0.884639
9989.000000;0.884304
9988.000000;0.884582
9987.000000;0.885511
9986.000000;0.886730
9985.000000;0.887676
9984.000000;0.888034
9983.000000;0.887864
9982.000000;0.887365
9981.000000;0.886709
9980.000000;0.886109
9979.000000;0.885788
9978.000000;0.885802
9977.000000;0.886013
9976.000000;0.886325
9975.000000;0.886830
9974.000000;0.887605
9973.000000;0.888451
9972.000000;0.888947
9971.000000;0.888798
9970.000000;0.888087
9969.000000;0.887172
9968.000000;0.886333
9967.000000;0.885573
9966.000000;0.884829
9965.000000;0.884298
9964.000000;0.884335
9963.000000;0.884931
9962.000000;0.885515
9961.000000;0.885555
9960.000000;0.885227
9959.000000;0.885180
9958.000000;0.885638
9957.000000;0.886121
9956.000000;0.886154
9955.000000;0.885937
9954.000000;0.886024
9953.000000;0.886521
9952.000000;0.886938
9951.000000;0.886820
9950.000000;0.886267
9949.000000;0.885735
9948.000000;0.885466
9947.000000;0.885251
9946.000000;0.884731
9945.000000;0.883864
9944.000000;0.883057
9943.000000;0.882827
9942.000000;0.883299
9941.000000;0.884041
9940.000000;0.884411
9939.000000;0.884132
9938.000000;0.883541
9937.000000;0.883270
9936.000000;0.883628
9935.000000;0.884279
9934.000000;0.884550
9933.000000;0.884115
9932.000000;0.883328
9931.000000;0.882846
9930.000000;0.882950
9929.000000;0.883307
9928.000000;0.883358
9927.000000;0.882886
9926.000000;0.882212
9925.000000;0.881898
9924.000000;0.882213
9923.000000;0.882825
9922.000000;0.883062
9921.000000;0.882578
9920.000000;0.881698
9919.000000;0.881024
9918.000000;0.880763
9917.000000;0.880614
9916.000000;0.880261
9915.000000;0.879801
9914.000000;0.879625
9913.000000;0.879996
9912.000000;0.880784
9911.000000;0.881546
9910.000000;0.881922
9909.000000;0.882004
9908.000000;0.882217
9907.000000;0.882674
9906.000000;0.882834
9905.000000;0.882125
9904.000000;0.880830
9903.000000;0.879913
9902.000000;0.879903
9901.000000;0.880367
9900.000000;0.880617
9899.000000;0.880514
9898.000000;0.880274
9897.000000;0.879860
9896.000000;0.879088
9895.000000;0.878176
9894.000000;0.877680
9893.000000;0.877820
9892.000000;0.878225
9891.000000;0.878439
9890.000000;0.878402
9889.000000;0.878341
9888.000000;0.878394
9887.000000;0.878520
9886.000000;0.878602
9885.000000;0.878536
9884.000000;0.878291
9883.000000;0.877969
9882.000000;0.877750
9881.000000;0.877725
9880.000000;0.877857
9879.000000;0.878087
9878.000000;0.878373
9877.000000;0.878593
9876.000000;0.878531
9875.000000;0.878076
9874.000000;0.877369
9873.000000;0.876695
9872.000000;0.876220
9871.000000;0.875901
9870.000000;0.875643
9869.000000;0.875468
9868.000000;0.875476
9867.000000;0.875678
9866.000000;0.875960
9865.000000;0.876267
9864.000000;0.876751
9863.000000;0.877575
9862.000000;0.878558
9861.000000;0.879148
9860.000000;0.878910
9859.000000;0.878006
9858.000000;0.877070
9857.000000;0.876617
9856.000000;0.876617
9855.000000;0.876641
9854.000000;0.876395
9853.000000;0.876111
9852.000000;0.876317
9851.000000;0.877157
9850.000000;0.878005
9849.000000;0.878009
9848.000000;0.877046
9847.000000;0.875920
9846.000000;0.875489
9845.000000;0.875822
9844.000000;0.876317
9843.000000;0.876441
9842.000000;0.876128
9841.000000;0.875600
9840.000000;0.875078
9839.000000;0.874657
9838.000000;0.874264
9837.000000;0.873760
9836.000000;0.873220
9835.000000;0.873038
9834.000000;0.873519
9833.000000;0.874356
9832.000000;0.874770
9831.000000;0.874281
9830.000000;0.873203
9829.000000;0.872290
9828.000000;0.872009
9827.000000;0.872239
9826.000000;0.872585
9825.000000;0.872857
9824.000000;0.873197
9823.000000;0.873748
9822.000000;0.874301
9821.000000;0.874467
9820.000000;0.874201
9819.000000;0.873892
9818.000000;0.873802
9817.000000;0.873669
9816.000000;0.873181
9815.000000;0.872609
9814.000000;0.872522
9813.000000;0.872944
9812.000000;0.873280
9811.000000;0.873169
9810.000000;0.872977
9809.000000;0.873205
9808.000000;0.873791
9807.000000;0.874298
9806.000000;0.874518
9805.000000;0.874536
9804.000000;0.874392
9803.000000;0.874030
9802.000000;0.873552
9801.000000;0.873186
9800.000000;0.872998
9799.000000;0.872845
9798.000000;0.872625
9797.000000;0.872341
9796.000000;0.871935
9795.000000;0.871309
9794.000000;0.870576
9793.000000;0.870074
9792.000000;0.869986
9791.000000;0.870101
9790.000000;0.870053
9789.000000;0.869736
9788.000000;0.869380
9787.000000;0.869273
9786.000000;0.869497
9785.000000;0.869889
9784.000000;0.870174
9783.000000;0.870154
9782.000000;0.869838
9781.000000;0.869379
9780.000000;0.868935
9779.000000;0.868611
9778.000000;0.868537
9777.000000;0.868840
9776.000000;0.869452
9775.000000;0.869995
9774.000000;0.870034
9773.000000;0.869519
9772.000000;0.868872
9771.000000;0.868578
9770.000000;0.868735
9769.000000;0.869055
9768.000000;0.869258
9767.000000;0.869326
9766.000000;0.869379
9765.000000;0.869459
9764.000000;0.869536
9763.000000;0.869629
9762.000000;0.869764
9761.000000;0.869836
9760.000000;0.869658
9759.000000;0.869202
9758.000000;0.868689
9757.000000;0.868366
9756.000000;0.868249
9755.000000;0.868140
9754.000000;0.867864
9753.000000;0.867399
9752.000000;0.866832
9751.000000;0.866284
9750.000000;0.865922
9749.000000;0.865923
9748.000000;0.866320
9747.000000;0.866853
9746.000000;0.867084
9745.000000;0.866749
9744.000000;0.866022
9743.000000;0.865403
9742.000000;0.865328
9741.000000;0.865843
9740.000000;0.866596
9739.000000;0.867117
9738.000000;0.867172
9737.000000;0.866948
9736.000000;0.866891
9735.000000;0.867295
9734.000000;0.867993
9733.000000;0.868498
9732.000000;0.868440
9731.000000;0.867812
9730.000000;0.866851
9729.000000;0.865865
9728.000000;0.865180
9727.000000;0.865028
9726.000000;0.865276
9725.000000;0.865415
9724.000000;0.865051
9723.000000;0.864420
9722.000000;0.864211
9721.000000;0.864823
9720.000000;0.865892
9719.000000;0.866603
9718.000000;0.866421
9717.000000;0.865541
9716.000000;0.864707
9715.000000;0.864569
9714.000000;0.865108
9713.000000;0.865636
9712.000000;0.865439
9711.000000;0.864473
9710.000000;0.863385
9709.000000;0.862880
9708.000000;0.863144
9707.000000;0.863825
9706.000000;0.864413
9705.000000;0.864616
9704.000000;0.864481
9703.000000;0.864238
9702.000000;0.864018
9701.000000;0.863788
9700.000000;0.863592
9699.000000;0.863696
9698.000000;0.864261
9697.000000;0.864939
9696.000000;0.865090
9695.000000;0.864475
9694.000000;0.863504
9693.000000;0.862717
9692.000000;0.862278
9691.000000;0.862099
9690.000000;0.862156
9689.000000;0.862425
9688.000000;0.862668
9687.000000;0.862613
9686.000000;0.862329
9685.000000;0.862162
9684.000000;0.862276
9683.000000;0.862445
9682.000000;0.862330
9681.000000;0.861806
9680.000000;0.861029
9679.000000;0.860342
9678.000000;0.860093
9677.000000;0.860351
9676.000000;0.860762
9675.000000;0.860854
9674.000000;0.860534
9673.000000;0.860139
9672.000000;0.859994
9671.000000;0.860109
9670.000000;0.860363
9669.000000;0.860732
9668.000000;0.861164
9667.000000;0.861409
9666.000000;0.861229
9665.000000;0.860730
9664.000000;0.860286
9663.000000;0.860115
9662.000000;0.860052
9661.000000;0.859791
9660.000000;0.859266
9659.000000;0.858734
9658.000000;0.858522
9657.000000;0.858726
9656.000000;0.859138
9655.000000;0.859456
9654.000000;0.859562
9653.000000;0.859580
9652.000000;0.859653
9651.000000;0.859749
9650.000000;0.859719
9649.000000;0.859490
9648.000000;0.859125
9647.000000;0.858720
9646.000000;0.858351
9645.000000;0.858112
9644.000000;0.858115
9643.000000;0.858376
9642.000000;0.858769
9641.000000;0.859097
9640.000000;0.859226
9639.000000;0.859143
9638.000000;0.858949
9637.000000;0.858808
9636.000000;0.858834
9635.000000;0.858993
9634.000000;0.859147
9633.000000;0.859208
9632.000000;0.859165
9631.000000;0.858958
9630.000000;0.858422
9629.000000;0.857529
9628.000000;0.856624
9627.000000;0.856263
9626.000000;0.856714
9625.000000;0.857703
9624.000000;0.858698
9623.000000;0.859347
9622.000000;0.859576
9621.000000;0.859384
9620.000000;0.858792
9619.000000;0.858005
9618.000000;0.857400
9617.000000;0.857195
9616.000000;0.857231
9615.000000;0.857198
9614.000000;0.857002
9613.000000;0.856763
9612.000000;0.856523
9611.000000;0.856186
9610.000000;0.855768
9609.000000;0.855511
9608.000000;0.855609
9607.000000;0.855911
9606.000000;0.856073
9605.000000;0.855948
9604.000000;0.855724
9603.000000;0.855672
9602.000000;0.855869
9601.000000;0.856153
9600.000000;0.856259
9599.000000;0.856001
9598.000000;0.855441
9597.000000;0.854916
9596.000000;0.854819
9595.000000;0.855247
9594.000000;0.855887
9593.000000;0.856268
9592.000000;0.856137
9591.000000;0.855603
9590.000000;0.855024
9589.000000;0.854755
9588.000000;0.854917
9587.000000;0.855295
9586.000000;0.855502
9585.000000;0.855326
9584.000000;0.854913
9583.000000;0.854580
9582.000000;0.854508
9581.000000;0.854668
9580.000000;0.854951
9579.000000;0.855233
9578.000000;0.855307
9577.000000;0.854969
9576.000000;0.854281
9575.000000;0.853653
9574.000000;0.853501
9573.000000;0.853809
9572.000000;0.854124
9571.000000;0.854028
9570.000000;0.853563
9569.000000;0.853153
9568.000000;0.853171
9567.000000;0.853615
9566.000000;0.854164
9565.000000;0.854473
9564.000000;0.854409
9563.000000;0.854098
9562.000000;0.853796
9561.000000;0.853702
9560.000000;0.853803
9559.000000;0.853896
9558.000000;0.853785
9557.000000;0.853460
9556.000000;0.853068
9555.000000;0.852725
9554.000000;0.852425
9553.000000;0.852117
9552.000000;0.851809
9551.000000;0.851547
9550.000000;0.851360
9549.000000;0.851270
9548.000000;0.851342
9547.000000;0.851621
9546.000000;0.852044
9545.000000;0.852443
9544.000000;0.852656
9543.000000;0.852631
9542.000000;0.852448
9541.000000;0.852275
9540.000000;0.852245
9539.000000;0.852302
9538.000000;0.852236
9537.000000;0.851951
9536.000000;0.851639
9535.000000;0.851548
9534.000000;0.851595
9533.000000;0.851393
9532.000000;0.850772
9531.000000;0.850088
9530.000000;0.849850
9529.000000;0.850106
9528.000000;0.850390
9527.000000;0.850291
9526.000000;0.849911
9525.000000;0.849689
9524.000000;0.849905
9523.000000;0.850486
9522.000000;0.851173
9521.000000;0.851722
9520.000000;0.851946
9519.000000;0.851718
9518.000000;0.851078
9517.000000;0.850274
9516.000000;0.849604
9515.000000;0.849193
9514.000000;0.848954
9513.000000;0.848760
9512.000000;0.848609
9511.000000;0.848608
9510.000000;0.848822
9509.000000;0.849152
9508.000000;0.849381
9507.000000;0.849355
9506.000000;0.849151
9505.000000;0.849031
9504.000000;0.849168
9503.000000;0.849441
9502.000000;0.849551
9501.000000;0.849344
9500.000000;0.848965
9499.000000;0.848670
9498.000000;0.848581
9497.000000;0.848665
9496.000000;0.848828
9495.000000;0.848941
9494.000000;0.848804
9493.000000;0.848274
9492.000000;0.847472
9491.000000;0.846814
9490.000000;0.846764
9489.000000;0.847500
9488.000000;0.848747
9487.000000;0.849885
9486.000000;0.850320
9485.000000;0.849905
9484.000000;0.849022
9483.000000;0.848212
9482.000000;0.847701
9481.000000;0.847324
9480.000000;0.846858
9479.000000;0.846293
9478.000000;0.845794
9477.000000;0.845511
9476.000000;0.845539
9475.000000;0.845935
9474.000000;0.846614
9473.000000;0.847245
9472.000000;0.847418
9471.000000;0.846993
9470.000000;0.846272
9469.000000;0.845757
9468.000000;0.845716
9467.000000;0.845991
9466.000000;0.846227
9465.000000;0.846234
9464.000000;0.846094
9463.000000;0.845934
9462.000000;0.845730
9461.000000;0.845405
9460.000000;0.845048
9459.000000;0.844873
9458.000000;0.844947
9457.000000;0.845056
9456.000000;0.844934
9455.000000;0.844566
9454.000000;0.844218
9453.000000;0.844166
9452.000000;0.844436
9451.000000;0.844827
9450.000000;0.845145
9449.000000;0.845390
9448.000000;0.845665
9447.000000;0.845951
9446.000000;0.846058
9445.000000;0.845874
9444.000000;0.845545
9443.000000;0.845307
9442.000000;0.845178
9441.000000;0.844961
9440.000000;0.844542
9439.000000;0.844069
9438.000000;0.843783
9437.000000;0.843763
9436.000000;0.843871
9435.000000;0.843868
9434.000000;0.843585
9433.000000;0.843052
9432.000000;0.842501
9431.000000;0.842165
9430.000000;0.842051
9429.000000;0.842001
9428.000000;0.841974
9427.000000;0.842123
9426.000000;0.842534
9425.000000;0.843014
9424.000000;0.843239
9423.000000;0.843049
9422.000000;0.842531
9421.000000;0.841910
9420.000000;0.841431
9419.000000;0.841254
9418.000000;0.841342
9417.000000;0.841498
9416.000000;0.841591
9415.000000;0.841669
9414.000000;0.841766
9413.000000;0.841734
9412.000000;0.841455
9411.000000;0.841146
9410.000000;0.841209
9409.000000;0.841751
9408.000000;0.842429
9407.000000;0.842812
9406.000000;0.842763
9405.000000;0.842422
9404.000000;0.841980
9403.000000;0.841599
9402.000000;0.841394
9401.000000;0.841308
9400.000000;0.841089
9399.000000;0.840538
9398.000000;0.839823
9397.000000;0.839394
9396.000000;0.839540
9395.000000;0.840093
9394.000000;0.840587
9393.000000;0.840672
9392.000000;0.840356
9391.000000;0.839928
9390.000000;0.839735
9389.000000;0.839984
9388.000000;0.840620
9387.000000;0.841306
9386.000000;0.841592
9385.000000;0.841238
9384.000000;0.840420
9383.000000;0.839588
9382.000000;0.839085
9381.000000;0.838913
9380.000000;0.838850
9379.000000;0.838719
9378.000000;0.838514
9377.000000;0.838304
9376.000000;0.838129
9375.000000;0.838025
9374.000000;0.838093
9373.000000;0.838443
9372.000000;0.839028
9371.000000;0.839581
9370.000000;0.839810
9369.000000;0.839708
9368.000000;0.839567
9367.000000;0.839645
9366.000000;0.839861
9365.000000;0.839930
9364.000000;0.839732
9363.000000;0.839405
9362.000000;0.839071
9361.000000;0.838658
9360.000000;0.838094
9359.000000;0.837529
9358.000000;0.837193
9357.000000;0.837090
9356.000000;0.836994
9355.000000;0.836755
9354.000000;0.836493
9353.000000;0.836457
9352.000000;0.836734
9351.000000;0.837153
9350.000000;0.837450
9349.000000;0.837510
9348.000000;0.837438
9347.000000;0.837379
9346.000000;0.837321
9345.000000;0.837154
9344.000000;0.836929
9343.000000;0.836889
9342.000000;0.837157
9341.000000;0.837509
9340.000000;0.837599
9339.000000;0.837338
9338.000000;0.836914
9337.000000;0.836476
9336.000000;0.835993
9335.000000;0.835440
9334.000000;0.834938
9333.000000;0.834619
9332.000000;0.834468
9331.000000;0.834393
9330.000000;0.834399
9329.000000;0.834598
9328.000000;0.835045
9327.000000;0.835623
9326.000000;0.836097
9325.000000;0.836267
9324.000000;0.836091
9323.000000;0.835695
9322.000000;0.835267
9321.000000;0.834957
9320.000000;0.834864
9319.000000;0.835034
9318.000000;0.835397
9317.000000;0.835731
9316.000000;0.835804
9315.000000;0.835597
9314.000000;0.835329
9313.000000;0.835239
9312.000000;0.835367
9311.000000;0.835543
9310.000000;0.835556
9309.000000;0.835328
9308.000000;0.834998
9307.000000;0.834788
9306.000000;0.834756
9305.000000;0.834701
9304.000000;0.834412
9303.000000;0.833986
9302.000000;0.833763
9301.000000;0.833937
9300.000000;0.834327
9299.000000;0.834589
9298.000000;0.834530
9297.000000;0.834185
9296.000000;0.833703
9295.000000;0.833264
9294.000000;0.832999
9293.000000;0.832880
9292.000000;0.832736
9291.000000;0.832467
9290.000000;0.832207
9289.000000;0.832140
9288.000000;0.832231
9287.000000;0.832253
9286.000000;0.832073
9285.000000;0.831801
9284.000000;0.831638
9283.000000;0.831686
9282.000000;0.831913
9281.000000;0.832206
9280.000000;0.832411
9279.000000;0.832404
9278.000000;0.832184
9277.000000;0.831875
9276.000000;0.831600
9275.000000;0.831397
9274.000000;0.831245
9273.000000;0.831109
9272.000000;0.830910
9271.000000;0.830575
9270.000000;0.830160
9269.000000;0.829883
9268.000000;0.829930
9267.000000;0.830259
9266.000000;0.830655
9265.000000;0.830952
9264.000000;0.831137
9263.000000;0.831236
9262.000000;0.831206
9261.000000;0.830989
9260.000000;0.830613
9259.000000;0.830203
9258.000000;0.829888
9257.000000;0.829738
9256.000000;0.829749
9255.000000;0.829853
9254.000000;0.829934
9253.000000;0.829894
9252.000000;0.829719
9251.000000;0.829502
9250.000000;0.829379
9249.000000;0.829419
9248.000000;0.829541
9247.000000;0.829558
9246.000000;0.829345
9245.000000;0.828994
9244.000000;0.828759
9243.000000;0.828820
9242.000000;0.829107
9241.000000;0.829399
9240.000000;0.829554
9239.000000;0.829614
9238.000000;0.829690
9237.000000;0.829832
9236.000000;0.829987
9235.000000;0.830023
9234.000000;0.829777
9233.000000;0.829182
9232.000000;0.828424
9231.000000;0.827912
9230.000000;0.827959
9229.000000;0.828461
9228.000000;0.828956
9227.000000;0.829056
9226.000000;0.828800
9225.000000;0.828552
9224.000000;0.828603
9223.000000;0.828902
9222.000000;0.829152
9221.000000;0.829102
9220.000000;0.828736
9219.000000;0.828240
9218.000000;0.827851
9217.000000;0.827721
9216.000000;0.827830
9215.000000;0.827988
9214.000000;0.827949
9213.000000;0.827600
9212.000000;0.827058
9211.000000;0.826589
9210.000000;0.826403
9209.000000;0.826516
9208.000000;0.826772
9207.000000;0.826958
9206.000000;0.826921
9205.000000;0.826659
9204.000000;0.826331
9203.000000;0.826136
9202.000000;0.826130
9201.000000;0.826188
9200.000000;0.826148
9199.000000;0.825986
9198.000000;0.825813
9197.000000;0.825748
9196.000000;0.825819
9195.000000;0.825987
9194.000000;0.826168
9193.000000;0.826247
9192.000000;0.826116
9191.000000;0.825777
9190.000000;0.825382
9189.000000;0.825124
9188.000000;0.825095
9187.000000;0.825263
9186.000000;0.825547
9185.000000;0.825835
9184.000000;0.825949
9183.000000;0.825722
9182.000000;0.825204
9181.000000;0.824738
9180.000000;0.824703
9179.000000;0.825133
9178.000000;0.825680
9177.000000;0.825974
9176.000000;0.825939
9175.000000;0.825736
9174.000000;0.825492
9173.000000;0.825237
9172.000000;0.825013
9171.000000;0.824882
9170.000000;0.824797
9169.000000;0.824585
9168.000000;0.824176
9167.000000;0.823748
9166.000000;0.823580
9165.000000;0.823739
9164.000000;0.823989
9163.000000;0.824017
9162.000000;0.823739
9161.000000;0.823367
9160.000000;0.823187
9159.000000;0.823264
9158.000000;0.823397
9157.000000;0.823362
9156.000000;0.823164
9155.000000;0.822984
9154.000000;0.822929
9153.000000;0.822940
9152.000000;0.822949
9151.000000;0.823002
9150.000000;0.823151
9149.000000;0.823301
9148.000000;0.823276
9147.000000;0.823002
9146.000000;0.822588
9145.000000;0.822228
9144.000000;0.822069
9143.000000;0.822109
9142.000000;0.822179
9141.000000;0.822071
9140.000000;0.821760
9139.000000;0.821479
9138.000000;0.821497
9137.000000;0.821815
9136.000000;0.822143
9135.000000;0.822176
9134.000000;0.821873
9133.000000;0.821452
9132.000000;0.821177
9131.000000;0.821146
9130.000000;0.821248
9129.000000;0.821294
9128.000000;0.821196
9127.000000;0.821025
9126.000000;0.820895
9125.000000;0.820850
9124.000000;0.820884
9123.000000;0.820998
9122.000000;0.821174
9121.000000;0.821317
9120.000000;0.821314
9119.000000;0.821150
9118.000000;0.820919
9117.000000;0.820720
9116.000000;0.820590
9115.000000;0.820533
9114.000000;0.820536
9113.000000;0.820559
9112.000000;0.820548
9111.000000;0.820484
9110.000000;0.820391
9109.000000;0.820293
9108.000000;0.820203
9107.000000;0.820142
9106.000000;0.820111
9105.000000;0.820041
9104.000000;0.819858
9103.000000;0.819593
9102.000000;0.819383
9101.000000;0.819323
9100.000000;0.819353
9099.000000;0.819329
9098.000000;0.819156
9097.000000;0.818862
9096.000000;0.818567
9095.000000;0.818388
9094.000000;0.818340
9093.000000;0.818330
9092.000000;0.818307
9091.000000;0.818396
9090.000000;0.818778
9089.000000;0.819407
9088.000000;0.819957
9087.000000;0.820127
9086.000000;0.819933
9085.000000;0.819617
9084.000000;0.819361
9083.000000;0.819168
9082.000000;0.818992
9081.000000;0.818823
9080.000000;0.818638
9079.000000;0.818375
9078.000000;0.818002
9077.000000;0.817567
9076.000000;0.817155
9075.000000;0.816834
9074.000000;0.816663
9073.000000;0.816678
9072.000000;0.816842
9071.000000;0.817036
9070.000000;0.817141
9069.000000;0.817113
9068.000000;0.816987
9067.000000;0.816837
9066.000000;0.816760
9065.000000;0.816828
9064.000000;0.817017
9063.000000;0.817194
9062.000000;0.817208
9061.000000;0.817010
9060.000000;0.816685
9059.000000;0.816367
9058.000000;0.816151
9057.000000;0.816042
9056.000000;0.815957
9055.000000;0.815798
9054.000000;0.815543
9053.000000;0.815273
9052.000000;0.815100
9051.000000;0.815067
9050.000000;0.815140
9049.000000;0.815262
9048.000000;0.815389
9047.000000;0.815480
9046.000000;0.815520
9045.000000;0.815556
9044.000000;0.815645
9043.000000;0.815757
9042.000000;0.815746
9041.000000;0.815513
9040.000000;0.815137
9039.000000;0.814830
9038.000000;0.814728
9037.000000;0.814788
9036.000000;0.814862
9035.000000;0.814837
9034.000000;0.814714
9033.000000;0.814598
9032.000000;0.814637
9031.000000;0.814898
9030.000000;0.815259
9029.000000;0.815445
9028.000000;0.815260
9027.000000;0.814765
9026.000000;0.814197
9025.000000;0.813744
9024.000000;0.813465
9023.000000;0.813398
9022.000000;0.813602
9021.000000;0.814028
9020.000000;0.814422
9019.000000;0.814492
9018.000000;0.814180
9017.000000;0.813712
9016.000000;0.813371
9015.000000;0.813263
9014.000000;0.813315
9013.000000;0.813428
9012.000000;0.813556
9011.000000;0.813659
9010.000000;0.813672
9009.000000;0.813541
9008.000000;0.813295
9007.000000;0.813063
9006.000000;0.812986
9005.000000;0.813109
9004.000000;0.813328
9003.000000;0.813469
9002.000000;0.813439
9001.000000;0.813277
9000.000000;0.813080
8999.000000;0.812880
8998.000000;0.812661
8997.000000;0.812438
8996.000000;0.812289
8995.000000;0.812261
8994.000000;0.812339
8993.000000;0.812500
8992.000000;0.812744
8991.000000;0.813001
8990.000000;0.813058
8989.000000;0.812711
8988.000000;0.812009
8987.000000;0.811292
8986.000000;0.810903
8985.000000;0.810910
8984.000000;0.811121
8983.000000;0.811331
8982.000000;0.811489
8981.000000;0.811631
8980.000000;0.811746
8979.000000;0.811763
8978.000000;0.811662
8977.000000;0.811542
8976.000000;0.811557
8975.000000;0.811756
8974.000000;0.812011
8973.000000;0.812112
8972.000000;0.811952
8971.000000;0.811595
8970.000000;0.811183
8969.000000;0.810816
8968.000000;0.810543
8967.000000;0.810401
8966.000000;0.810373
8965.000000;0.810341
8964.000000;0.810187
8963.000000;0.809954
8962.000000;0.809836
8961.000000;0.809941
8960.000000;0.810147
8959.000000;0.810245
8958.000000;0.810169
8957.000000;0.810006
8956.000000;0.809837
8955.000000;0.809671
8954.000000;0.809525
8953.000000;0.809458
8952.000000;0.809499
8951.000000;0.809612
8950.000000;0.809756
8949.000000;0.809899
8948.000000;0.809945
8947.000000;0.809762
8946.000000;0.809354
8945.000000;0.808928
8944.000000;0.808698
8943.000000;0.808675
8942.000000;0.808738
8941.000000;0.808837
8940.000000;0.808987
8939.000000;0.809092
8938.000000;0.808938
8937.000000;0.808430
8936.000000;0.807743
8935.000000;0.807169
8934.000000;0.806887
8933.000000;0.806924
8932.000000;0.807225
8931.000000;0.807659
8930.000000;0.808026
8929.000000;0.808176
8928.000000;0.808125
8927.000000;0.808004
8926.000000;0.807887
8925.000000;0.807752
8924.000000;0.807572
8923.000000;0.807375
8922.000000;0.807212
8921.000000;0.807128
8920.000000;0.807185
8919.000000;0.807421
8918.000000;0.807756
8917.000000;0.807996
8916.000000;0.807986
8915.000000;0.807748
8914.000000;0.807471
8913.000000;0.807352
8912.000000;0.807441
8911.000000;0.807600
8910.000000;0.807610
8909.000000;0.807389
8908.000000;0.807101
8907.000000;0.807003
8906.000000;0.807156
8905.000000;0.807350
8904.000000;0.807345
8903.000000;0.807124
8902.000000;0.806849
8901.000000;0.806631
8900.000000;0.806459
8899.000000;0.806323
8898.000000;0.806249
8897.000000;0.806181
8896.000000;0.805949
8895.000000;0.805478
8894.000000;0.804980
8893.000000;0.804785
8892.000000;0.804991
8891.000000;0.805356
8890.000000;0.805580
8889.000000;0.805590
8888.000000;0.805510
8887.000000;0.805421
8886.000000;0.805287
8885.000000;0.805099
8884.000000;0.804971
8883.000000;0.805030
8882.000000;0.805254
8881.000000;0.805478
8880.000000;0.805553
8879.000000;0.805450
8878.000000;0.805235
8877.000000;0.804980
8876.000000;0.804714
8875.000000;0.804476
8874.000000;0.804344
8873.000000;0.804363
8872.000000;0.804421
8871.000000;0.804298
8870.000000;0.803905
8869.000000;0.803464
8868.000000;0.803300
8867.000000;0.803477
8866.000000;0.803721
8865.000000;0.803776
8864.000000;0.803687
8863.000000;0.803656
8862.000000;0.803727
8861.000000;0.803753
8860.000000;0.803636
8859.000000;0.803442
8858.000000;0.803283
8857.000000;0.803202
8856.000000;0.803211
8855.000000;0.803315
8854.000000;0.803461
8853.000000;0.803556
8852.000000;0.803580
8851.000000;0.803603
8850.000000;0.803622
8849.000000;0.803513
8848.000000;0.803227
8847.000000;0.802937
8846.000000;0.802866
8845.000000;0.803015
8844.000000;0.803183
8843.000000;0.803250
8842.000000;0.803293
8841.000000;0.803405
8840.000000;0.803530
8839.000000;0.803548
8838.000000;0.803435
8837.000000;0.803247
8836.000000;0.803018
8835.000000;0.802767
8834.000000;0.802557
8833.000000;0.802459
8832.000000;0.802454
8831.000000;0.802447
8830.000000;0.802411
8829.000000;0.802427
8828.000000;0.802570
8827.000000;0.802792
8826.000000;0.802968
8825.000000;0.803012
8824.000000;0.802911
8823.000000;0.802696
8822.000000;0.802428
8821.000000;0.802197
8820.000000;0.802063
8819.000000;0.802003
8818.000000;0.801953
8817.000000;0.801904
8816.000000;0.801896
8815.000000;0.801935
8814.000000;0.801956
8813.000000;0.801901
8812.000000;0.801782
8811.000000;0.801656
8810.000000;0.801559
8809.000000;0.801496
8808.000000;0.801457
8807.000000;0.801410
8806.000000;0.801308
8805.000000;0.801120
8804.000000;0.800877
8803.000000;0.800637
8802.000000;0.800443
8801.000000;0.800311
8800.000000;0.800246
8799.000000;0.800245
8798.000000;0.800295
8797.000000;0.800400
8796.000000;0.800585
8795.000000;0.800853
8794.000000;0.801120
8793.000000;0.801233
8792.000000;0.801082
8791.000000;0.800715
8790.000000;0.800354
8789.000000;0.800250
8788.000000;0.800468
8787.000000;0.800797
8786.000000;0.800920
8785.000000;0.800708
8784.000000;0.800317
8783.000000;0.799997
8782.000000;0.799858
8781.000000;0.799862
8780.000000;0.799937
8779.000000;0.800002
8778.000000;0.799926
8777.000000;0.799627
8776.000000;0.799244
8775.000000;0.799082
8774.000000;0.799293
8773.000000;0.799657
8772.000000;0.799795
8771.000000;0.799582
8770.000000;0.799269
8769.000000;0.799172
8768.000000;0.799327
8767.000000;0.799494
8766.000000;0.799461
8765.000000;0.799249
8764.000000;0.799034
8763.000000;0.798939
8762.000000;0.798973
8761.000000;0.799085
8760.000000;0.799191
8759.000000;0.799163
8758.000000;0.798904
8757.000000;0.798486
8756.000000;0.798145
8755.000000;0.798074
8754.000000;0.798252
8753.000000;0.798507
8752.000000;0.798723
8751.000000;0.798888
8750.000000;0.799011
8749.000000;0.799066
8748.000000;0.799047
8747.000000;0.798983
8746.000000;0.798879
8745.000000;0.798711
8744.000000;0.798509
8743.000000;0.798369
8742.000000;0.798341
8741.000000;0.798336
8740.000000;0.798223
8739.000000;0.797998
8738.000000;0.797784
8737.000000;0.797677
8736.000000;0.797646
8735.000000;0.797606
8734.000000;0.797552
8733.000000;0.797562
8732.000000;0.797681
8731.000000;0.797846
8730.000000;0.797947
8729.000000;0.797928
8728.000000;0.797834
8727.000000;0.797763
8726.000000;0.797767
8725.000000;0.797793
8724.000000;0.797709
8723.000000;0.797458
8722.000000;0.797173
8721.000000;0.797077
8720.000000;0.797218
8719.000000;0.797373
8718.000000;0.797293
8717.000000;0.797023
8716.000000;0.796853
8715.000000;0.796940
8714.000000;0.797114
8713.000000;0.797105
8712.000000;0.796870
8711.000000;0.796617
8710.000000;0.796547
8709.000000;0.796683
8708.000000;0.796913
8707.000000;0.797108
8706.000000;0.797201
8705.000000;0.797203
8704.000000;0.797159
8703.000000;0.797075
8702.000000;0.796916
8701.000000;0.796683
8700.000000;0.796464
8699.000000;0.796335
8698.000000;0.796276
8697.000000;0.796239
8696.000000;0.796257
8695.000000;0.796375
8694.000000;0.796525
8693.000000;0.796548
8692.000000;0.796379
8691.000000;0.796108
8690.000000;0.795856
8689.000000;0.795664
8688.000000;0.795540
8687.000000;0.795506
8686.000000;0.795557
8685.000000;0.795617
8684.000000;0.795611
8683.000000;0.795554
8682.000000;0.795511
8681.000000;0.795517
8680.000000;0.795557
8679.000000;0.795610
8678.000000;0.795652
8677.000000;0.795620
8676.000000;0.795435
8675.000000;0.795105
8674.000000;0.794789
8673.000000;0.794705
8672.000000;0.794924
8671.000000;0.795265
8670.000000;0.795435
8669.000000;0.795291
8668.000000;0.794938
8667.000000;0.794591
8666.000000;0.794384
8665.000000;0.794346
8664.000000;0.794472
8663.000000;0.794730
8662.000000;0.795019
8661.000000;0.795226
8660.000000;0.795317
8659.000000;0.795322
8658.000000;0.795231
8657.000000;0.795010
8656.000000;0.794727
8655.000000;0.794570
8654.000000;0.794657
8653.000000;0.794855
8652.000000;0.794867
8651.000000;0.794520
8650.000000;0.793952
8649.000000;0.793464
8648.000000;0.793227
8647.000000;0.793152
8646.000000;0.793080
8645.000000;0.793018
8644.000000;0.793090
8643.000000;0.793264
8642.000000;0.793298
8641.000000;0.793018
8640.000000;0.792566
8639.000000;0.792247
8638.000000;0.792180
8637.000000;0.792242
8636.000000;0.792289
8635.000000;0.792300
8634.000000;0.792290
8633.000000;0.792212
8632.000000;0.792029
8631.000000;0.791796
8630.000000;0.791619
8629.000000;0.791555
8628.000000;0.791565
8627.000000;0.791527
8626.000000;0.791323
8625.000000;0.790953
8624.000000;0.790559
8623.000000;0.790285
8622.000000;0.790145
8621.000000;0.790075
8620.000000;0.790079
8619.000000;0.790188
8618.000000;0.790332
8617.000000;0.790367
8616.000000;0.790258
8615.000000;0.790097
8614.000000;0.789940
8613.000000;0.789761
8612.000000;0.789600
8611.000000;0.789573
8610.000000;0.789673
8609.000000;0.789703
8608.000000;0.789526
8607.000000;0.789271
8606.000000;0.789167
8605.000000;0.789243
8604.000000;0.789298
8603.000000;0.789130
8602.000000;0.788701
8601.000000;0.788139
8600.000000;0.787664
8599.000000;0.787481
8598.000000;0.787610
8597.000000;0.787852
8596.000000;0.787974
8595.000000;0.787915
8594.000000;0.787750
8593.000000;0.787536
8592.000000;0.787283
8591.000000;0.787038
8590.000000;0.786881
8589.000000;0.786824
8588.000000;0.786796
8587.000000;0.786726
8586.000000;0.786581
8585.000000;0.786360
8584.000000;0.786119
8583.000000;0.785974
8582.000000;0.786020
8581.000000;0.786216
8580.000000;0.786410
8579.000000;0.786465
8578.000000;0.786326
8577.000000;0.786034
8576.000000;0.785729
8575.000000;0.785585
8574.000000;0.785633
8573.000000;0.785687
8572.000000;0.785539
8571.000000;0.785222
8570.000000;0.784970
8569.000000;0.784939
8568.000000;0.785057
8567.000000;0.785171
8566.000000;0.785211
8565.000000;0.785169
8564.000000;0.785030
8563.000000;0.784796
8562.000000;0.784517
8561.000000;0.784246
8560.000000;0.784004
8559.000000;0.783825
8558.000000;0.783766
8557.000000;0.783826
8556.000000;0.783903
8555.000000;0.783899
8554.000000;0.783825
8553.000000;0.783751
8552.000000;0.783679
8551.000000;0.783534
8550.000000;0.783275
8549.000000;0.782944
8548.000000;0.782614
8547.000000;0.782323
8546.000000;0.782086
8545.000000;0.781925
8544.000000;0.781850
8543.000000;0.781811
8542.000000;0.781717
8541.000000;0.781545
8540.000000;0.781409
8539.000000;0.781466
8538.000000;0.781697
8537.000000;0.781841
8536.000000;0.781613
8535.000000;0.781003
8534.000000;0.780302
8533.000000;0.779822
8532.000000;0.779662
8531.000000;0.779723
8530.000000;0.779862
8529.000000;0.779965
8528.000000;0.779948
8527.000000;0.779800
8526.000000;0.779610
8525.000000;0.779490
8524.000000;0.779461
8523.000000;0.779466
8522.000000;0.779478
8521.000000;0.779517
8520.000000;0.779562
8519.000000;0.779510
8518.000000;0.779284
8517.000000;0.778938
8516.000000;0.778609
8515.000000;0.778399
8514.000000;0.778338
8513.000000;0.778413
8512.000000;0.778574
8511.000000;0.778712
8510.000000;0.778720
8509.000000;0.778611
8508.000000;0.778512
8507.000000;0.778507
8506.000000;0.778514
8505.000000;0.778381
8504.000000;0.778067
8503.000000;0.777686
8502.000000;0.777366
8501.000000;0.777122
8500.000000;0.776911
8499.000000;0.776749
8498.000000;0.776708
8497.000000;0.776792
8496.000000;0.776877
8495.000000;0.776824
8494.000000;0.776643
8493.000000;0.776481
8492.000000;0.776425
8491.000000;0.776379
8490.000000;0.776186
8489.000000;0.775840
8488.000000;0.775514
8487.000000;0.775375
8486.000000;0.775434
8485.000000;0.775574
8484.000000;0.775649
8483.000000;0.775549
8482.000000;0.775250
8481.000000;0.774888
8480.000000;0.774694
8479.000000;0.774787
8478.000000;0.775037
8477.000000;0.775211
8476.000000;0.775201
8475.000000;0.775064
8474.000000;0.774872
8473.000000;0.774648
8472.000000;0.774434
8471.000000;0.774320
8470.000000;0.774357
8469.000000;0.774506
8468.000000;0.774686
8467.000000;0.774803
8466.000000;0.774744
8465.000000;0.774432
8464.000000;0.773921
8463.000000;0.773387
8462.000000;0.772990
8461.000000;0.772773
8460.000000;0.772712
8459.000000;0.772763
8458.000000;0.772855
8457.000000;0.772905
8456.000000;0.772878
8455.000000;0.772798
8454.000000;0.772682
8453.000000;0.772531
8452.000000;0.772393
8451.000000;0.772332
8450.000000;0.772307
8449.000000;0.772178
8448.000000;0.771889
8447.000000;0.771590
8446.000000;0.771477
8445.000000;0.771586
8444.000000;0.771788
8443.000000;0.771918
8442.000000;0.771859
8441.000000;0.771575
8440.000000;0.771173
8439.000000;0.770872
8438.000000;0.770805
8437.000000;0.770873
8436.000000;0.770882
8435.000000;0.770768
8434.000000;0.770618
8433.000000;0.770490
8432.000000;0.770369
8431.000000;0.770274
8430.000000;0.770284
8429.000000;0.770408
8428.000000;0.770533
8427.000000;0.770544
8426.000000;0.770420
8425.000000;0.770203
8424.000000;0.769930
8423.000000;0.769649
8422.000000;0.769421
8421.000000;0.769267
8420.000000;0.769158
8419.000000;0.769073
8418.000000;0.769016
8417.000000;0.768944
8416.000000;0.768775
8415.000000;0.768497
8414.000000;0.768235
8413.000000;0.768144
8412.000000;0.768250
8411.000000;0.768440
8410.000000;0.768583
8409.000000;0.768614
8408.000000;0.768536
8407.000000;0.768379
8406.000000;0.768174
8405.000000;0.767942
8404.000000;0.767715
8403.000000;0.767556
8402.000000;0.767520
8401.000000;0.767576
8400.000000;0.767593
8399.000000;0.767440
8398.000000;0.767108
8397.000000;0.766714
8396.000000;0.766412
8395.000000;0.766304
8394.000000;0.766395
8393.000000;0.766594
8392.000000;0.766773
8391.000000;0.766840
8390.000000;0.766773
8389.000000;0.766585
8388.000000;0.766305
8387.000000;0.766009
8386.000000;0.765818
8385.000000;0.765804
8384.000000;0.765895
8383.000000;0.765914
8382.000000;0.765757
8381.000000;0.765507
8380.000000;0.765343
8379.000000;0.765342
8378.000000;0.765409
8377.000000;0.765395
8376.000000;0.765262
8375.000000;0.765087
8374.000000;0.764938
8373.000000;0.764818
8372.000000;0.764728
8371.000000;0.764721
8370.000000;0.764818
8369.000000;0.764927
8368.000000;0.764918
8367.000000;0.764771
8366.000000;0.764584
8365.000000;0.764441
8364.000000;0.764336
8363.000000;0.764228
8362.000000;0.764121
8361.000000;0.764049
8360.000000;0.764036
8359.000000;0.764070
8358.000000;0.764073
8357.000000;0.763905
8356.000000;0.763477
8355.000000;0.762909
8354.000000;0.762492
8353.000000;0.762434
8352.000000;0.762669
8351.000000;0.762945
8350.000000;0.763052
8349.000000;0.762926
8348.000000;0.762588
8347.000000;0.762106
8346.000000;0.761622
8345.000000;0.761320
8344.000000;0.761295
8343.000000;0.761489
8342.000000;0.761755
8341.000000;0.761970
8340.000000;0.762075
8339.000000;0.762064
8338.000000;0.761983
8337.000000;0.761918
8336.000000;0.761931
8335.000000;0.761992
8334.000000;0.762001
8333.000000;0.761882
8332.000000;0.761635
8331.000000;0.761299
8330.000000;0.760906
8329.000000;0.760492
8328.000000;0.760146
8327.000000;0.759982
8326.000000;0.760028
8325.000000;0.760184
8324.000000;0.760298
8323.000000;0.760313
8322.000000;0.760286
8321.000000;0.760285
8320.000000;0.760301
8319.000000;0.760264
8318.000000;0.760139
8317.000000;0.759959
8316.000000;0.759782
8315.000000;0.759636
8314.000000;0.759508
8313.000000;0.759375
8312.000000;0.759257
8311.000000;0.759211
8310.000000;0.759259
8309.000000;0.759331
8308.000000;0.759330
8307.000000;0.759251
8306.000000;0.759192
8305.000000;0.759219
8304.000000;0.759278
8303.000000;0.759275
8302.000000;0.759201
8301.000000;0.759115
8300.000000;0.759044
8299.000000;0.758958
8298.000000;0.758829
8297.000000;0.758642
8296.000000;0.758373
8295.000000;0.758032
8294.000000;0.757735
8293.000000;0.757653
8292.000000;0.757813
8291.000000;0.758021
8290.000000;0.758015
8289.000000;0.757713
8288.000000;0.757266
8287.000000;0.756902
8286.000000;0.756751
8285.000000;0.756772
8284.000000;0.756834
8283.000000;0.756847
8282.000000;0.756851
8281.000000;0.756950
8280.000000;0.757153
8279.000000;0.757331
8278.000000;0.757346
8277.000000;0.757192
8276.000000;0.756959
8275.000000;0.756722
8274.000000;0.756519
8273.000000;0.756402
8272.000000;0.756405
8271.000000;0.756459
8270.000000;0.756425
8269.000000;0.756256
8268.000000;0.756059
8267.000000;0.755962
8266.000000;0.755965
8265.000000;0.755965
8264.000000;0.755891
8263.000000;0.755754
8262.000000;0.755592
8261.000000;0.755421
8260.000000;0.755267
8259.000000;0.755172
8258.000000;0.755162
8257.000000;0.755215
8256.000000;0.755277
8255.000000;0.755294
8254.000000;0.755226
8253.000000;0.755063
8252.000000;0.754840
8251.000000;0.754630
8250.000000;0.754480
8249.000000;0.754374
8248.000000;0.754262
8247.000000;0.754128
8246.000000;0.754004
8245.000000;0.753938
8244.000000;0.753948
8243.000000;0.754029
8242.000000;0.754156
8241.000000;0.754277
8240.000000;0.754309
8239.000000;0.754192
8238.000000;0.753950
8237.000000;0.753685
8236.000000;0.753478
8235.000000;0.753327
8234.000000;0.753195
8233.000000;0.753098
8232.000000;0.753091
8231.000000;0.753171
8230.000000;0.753231
8229.000000;0.753149
8228.000000;0.752913
8227.000000;0.752640
8226.000000;0.752451
8225.000000;0.752368
8224.000000;0.752317
8223.000000;0.752236
8222.000000;0.752133
8221.000000;0.752053
8220.000000;0.751993
8219.000000;0.751906
8218.000000;0.751781
8217.000000;0.751677
8216.000000;0.751651
8215.000000;0.751680
8214.000000;0.751694
8213.000000;0.751656
8212.000000;0.751572
8211.000000;0.751445
8210.000000;0.751266
8209.000000;0.751067
8208.000000;0.750916
8207.000000;0.750825
8206.000000;0.750727
8205.000000;0.750574
8204.000000;0.750417
8203.000000;0.750348
8202.000000;0.750379
8201.000000;0.750418
8200.000000;0.750375
8199.000000;0.750234
8198.000000;0.750047
8197.000000;0.749892
8196.000000;0.749838
8195.000000;0.749903
8194.000000;0.750030
8193.000000;0.750111
8192.000000;0.750058
8191.000000;0.749866
8190.000000;0.749605
8189.000000;0.749375
8188.000000;0.749258
8187.000000;0.749257
8186.000000;0.749292
8185.000000;0.749264
8184.000000;0.749148
8183.000000;0.749022
8182.000000;0.748969
8181.000000;0.748980
8180.000000;0.748960
8179.000000;0.748839
8178.000000;0.748654
8177.000000;0.748510
8176.000000;0.748452
8175.000000;0.748411
8174.000000;0.748282
8173.000000;0.748051
8172.000000;0.747830
8171.000000;0.747748
8170.000000;0.747835
8169.000000;0.748003
8168.000000;0.748134
8167.000000;0.748162
8166.000000;0.748094
8165.000000;0.747957
8164.000000;0.747761
8163.000000;0.747513
8162.000000;0.747269
8161.000000;0.747147
8160.000000;0.747237
8159.000000;0.747479
8158.000000;0.747669
8157.000000;0.747617
8156.000000;0.747327
8155.000000;0.746977
8154.000000;0.746749
8153.000000;0.746680
8152.000000;0.746699
8151.000000;0.746737
8150.000000;0.746774
8149.000000;0.746806
8148.000000;0.746813
8147.000000;0.746784
8146.000000;0.746735
8145.000000;0.746687
8144.000000;0.746636
8143.000000;0.746582
8142.000000;0.746552
8141.000000;0.746571
8140.000000;0.746587
8139.000000;0.746488
8138.000000;0.746226
8137.000000;0.745899
8136.000000;0.745669
8135.000000;0.745603
8134.000000;0.745631
8133.000000;0.745641
8132.000000;0.745596
8131.000000;0.745536
8130.000000;0.745502
8129.000000;0.745490
8128.000000;0.745466
8127.000000;0.745411
8126.000000;0.745346
8125.000000;0.745293
8124.000000;0.745235
8123.000000;0.745128
8122.000000;0.744955
8121.000000;0.744740
8120.000000;0.744502
8119.000000;0.744240
8118.000000;0.744008
8117.000000;0.743929
8116.000000;0.744056
8115.000000;0.744244
8114.000000;0.744262
8113.000000;0.744058
8112.000000;0.743818
8111.000000;0.743745
8110.000000;0.743858
8109.000000;0.744048
8108.000000;0.744223
8107.000000;0.744331
8106.000000;0.744305
8105.000000;0.744113
8104.000000;0.743833
8103.000000;0.743603
8102.000000;0.743493
8101.000000;0.743470
8100.000000;0.743472
8099.000000;0.743447
8098.000000;0.743342
8097.000000;0.743139
8096.000000;0.742920
8095.000000;0.742822
8094.000000;0.742888
8093.000000;0.742998
8092.000000;0.742989
8091.000000;0.742826
8090.000000;0.742620
8089.000000;0.742498
8088.000000;0.742488
8087.000000;0.742514
8086.000000;0.742494
8085.000000;0.742424
8084.000000;0.742358
8083.000000;0.742332
8082.000000;0.742320
8081.000000;0.742273
8080.000000;0.742177
8079.000000;0.742046
8078.000000;0.741890
8077.000000;0.741734
8076.000000;0.741644
8075.000000;0.741678
8074.000000;0.741821
8073.000000;0.741978
8072.000000;0.742054
8071.000000;0.742006
8070.000000;0.741845
8069.000000;0.741615
8068.000000;0.741369
8067.000000;0.741143
8066.000000;0.740953
8065.000000;0.740823
8064.000000;0.740787
8063.000000;0.740835
8062.000000;0.740874
8061.000000;0.740810
8060.000000;0.740655
8059.000000;0.740514
8058.000000;0.740453
8057.000000;0.740446
8056.000000;0.740431
8055.000000;0.740380
8054.000000;0.740292
8053.000000;0.740165
8052.000000;0.740009
8051.000000;0.739871
8050.000000;0.739808
8049.000000;0.739835
8048.000000;0.739915
8047.000000;0.739973
8046.000000;0.739950
8045.000000;0.739838
8044.000000;0.739694
8043.000000;0.739587
8042.000000;0.739537
8041.000000;0.739503
8040.000000;0.739455
8039.000000;0.739406
8038.000000;0.739389
8037.000000;0.739409
8036.000000;0.739422
8035.000000;0.739369
8034.000000;0.739227
8033.000000;0.739050
8032.000000;0.738927
8031.000000;0.738893
8030.000000;0.738883
8029.000000;0.738804
8028.000000;0.738646
8027.000000;0.738491
8026.000000;0.738430
8025.000000;0.738490
8024.000000;0.738621
8023.000000;0.738710
8022.000000;0.738639
8021.000000;0.738379
8020.000000;0.738054
8019.000000;0.737851
8018.000000;0.737857
8017.000000;0.737989
8016.000000;0.738086
8015.000000;0.738051
8014.000000;0.737905
8013.000000;0.737742
8012.000000;0.737644
8011.000000;0.737613
8010.000000;0.737593
8009.000000;0.737541
8008.000000;0.737468
8007.000000;0.737378
8006.000000;0.737225
8005.000000;0.736972
8004.000000;0.736685
8003.000000;0.736505
8002.000000;0.736510
8001.000000;0.736653
8000.000000;0.736843
7999.000000;0.737019
7998.000000;0.737150
7997.000000;0.737204
7996.000000;0.737169
7995.000000;0.737067
7994.000000;0.736925
7993.000000;0.736767
7992.000000;0.736621
7991.000000;0.736499
7990.000000;0.736355
7989.000000;0.736137
7988.000000;0.735889
7987.000000;0.735745
7986.000000;0.735772
7985.000000;0.735886
7984.000000;0.735958
7983.000000;0.735960
7982.000000;0.735939
7981.000000;0.735898
7980.000000;0.735782
7979.000000;0.735567
7978.000000;0.735298
7977.000000;0.735049
7976.000000;0.734882
7975.000000;0.734832
7974.000000;0.734883
7973.000000;0.734947
7972.000000;0.734936
7971.000000;0.734855
7970.000000;0.734800
7969.000000;0.734838
7968.000000;0.734933
7967.000000;0.735004
7966.000000;0.735016
7965.000000;0.734968
7964.000000;0.734849
7963.000000;0.734642
7962.000000;0.734404
7961.000000;0.734263
7960.000000;0.734302
7959.000000;0.734454
7958.000000;0.734543
7957.000000;0.734460
7956.000000;0.734264
7955.000000;0.734104
7954.000000;0.734065
7953.000000;0.734101
7952.000000;0.734105
7951.000000;0.734011
7950.000000;0.733832
7949.000000;0.733649
7948.000000;0.733543
7947.000000;0.733524
7946.000000;0.733515
7945.000000;0.733438
7944.000000;0.733316
7943.000000;0.733233
7942.000000;0.733216
7941.000000;0.733198
7940.000000;0.733120
7939.000000;0.733013
7938.000000;0.732944
7937.000000;0.732933
7936.000000;0.732957
7935.000000;0.733003
7934.000000;0.733051
7933.000000;0.733049
7932.000000;0.732963
7931.000000;0.732833
7930.000000;0.732732
7929.000000;0.732673
7928.000000;0.732608
7927.000000;0.732509
7926.000000;0.732398
7925.000000;0.732290
7924.000000;0.732153
7923.000000;0.731968
7922.000000;0.731778
7921.000000;0.731657
7920.000000;0.731631
7919.000000;0.731665
7918.000000;0.731688
7917.000000;0.731653
7916.000000;0.731569
7915.000000;0.731510
7914.000000;0.731553
7913.000000;0.731680
7912.000000;0.731771
7911.000000;0.731723
7910.000000;0.731573
7909.000000;0.731463
7908.000000;0.731473
7907.000000;0.731523
7906.000000;0.731472
7905.000000;0.731297
7904.000000;0.731107
7903.000000;0.731007
7902.000000;0.730983
7901.000000;0.730953
7900.000000;0.730885
7899.000000;0.730805
7898.000000;0.730741
7897.000000;0.730689
7896.000000;0.730657
7895.000000;0.730674
7894.000000;0.730729
7893.000000;0.730756
7892.000000;0.730686
7891.000000;0.730508
7890.000000;0.730275
7889.000000;0.730061
7888.000000;0.729931
7887.000000;0.729909
7886.000000;0.729953
7885.000000;0.729982
7884.000000;0.729942
7883.000000;0.729848
7882.000000;0.729743
7881.000000;0.729645
7880.000000;0.729552
7879.000000;0.729471
7878.000000;0.729425
7877.000000;0.729419
7876.000000;0.729428
7875.000000;0.729411
7874.000000;0.729323
7873.000000;0.729154
7872.000000;0.728958
7871.000000;0.728829
7870.000000;0.728808
7869.000000;0.728841
7868.000000;0.728842
7867.000000;0.728781
7866.000000;0.728695
7865.000000;0.728622
7864.000000;0.728578
7863.000000;0.728567
7862.000000;0.728578
7861.000000;0.728568
7860.000000;0.728484
7859.000000;0.728334
7858.000000;0.728188
7857.000000;0.728115
7856.000000;0.728106
7855.000000;0.728088
7854.000000;0.728004
7853.000000;0.727878
7852.000000;0.727807
7851.000000;0.727875
7850.000000;0.728048
7849.000000;0.728174
7848.000000;0.728128
7847.000000;0.727930
7846.000000;0.727716
7845.000000;0.727579
7844.000000;0.727493
7843.000000;0.727375
7842.000000;0.727202
7841.000000;0.727039
7840.000000;0.726973
7839.000000;0.727037
7838.000000;0.727184
7837.000000;0.727324
7836.000000;0.727394
7835.000000;0.727389
7834.000000;0.727325
7833.000000;0.727200
7832.000000;0.727018
7831.000000;0.726837
7830.000000;0.726735
7829.000000;0.726707
7828.000000;0.726666
7827.000000;0.726565
7826.000000;0.726469
7825.000000;0.726460
7824.000000;0.726518
7823.000000;0.726541
7822.000000;0.726481
7821.000000;0.726374
7820.000000;0.726269
7819.000000;0.726159
7818.000000;0.726015
7817.000000;0.725838
7816.000000;0.725655
7815.000000;0.725495
7814.000000;0.725384
7813.000000;0.725334
7812.000000;0.725326
7811.000000;0.725312
7810.000000;0.725272
7809.000000;0.725228
7808.000000;0.725208
7807.000000;0.725206
7806.000000;0.725219
7805.000000;0.725273
7804.000000;0.725391
7803.000000;0.725521
7802.000000;0.725561
7801.000000;0.725455
7800.000000;0.725260
7799.000000;0.725096
7798.000000;0.725020
7797.000000;0.724987
7796.000000;0.724903
7795.000000;0.724742
7794.000000;0.724574
7793.000000;0.724489
7792.000000;0.724475
7791.000000;0.724417
7790.000000;0.724234
7789.000000;0.723983
7788.000000;0.723804
7787.000000;0.723773
7786.000000;0.723847
7785.000000;0.723948
7784.000000;0.724033
7783.000000;0.724072
7782.000000;0.724025
7781.000000;0.723887
7780.000000;0.723730
7779.000000;0.723652
7778.000000;0.723670
7777.000000;0.723721
7776.000000;0.723724
7775.000000;0.723642
7774.000000;0.723474
7773.000000;0.723252
7772.000000;0.723058
7771.000000;0.722991
7770.000000;0.723082
7769.000000;0.723239
7768.000000;0.723320
7767.000000;0.723250
7766.000000;0.723072
7765.000000;0.722886
7764.000000;0.722776
7763.000000;0.722761
7762.000000;0.722798
7761.000000;0.722802
7760.000000;0.722712
7759.000000;0.722548
7758.000000;0.722414
7757.000000;0.722401
7756.000000;0.722490
7755.000000;0.722559
7754.000000;0.722507
7753.000000;0.722347
7752.000000;0.722181
7751.000000;0.722094
7750.000000;0.722087
7749.000000;0.722113
7748.000000;0.722123
7747.000000;0.722090
7746.000000;0.722018
7745.000000;0.721933
7744.000000;0.721860
7743.000000;0.721795
7742.000000;0.721715
7741.000000;0.721619
7740.000000;0.721541
7739.000000;0.721508
7738.000000;0.721511
7737.000000;0.721528
7736.000000;0.721540
7735.000000;0.721519
7734.000000;0.721431
7733.000000;0.721286
7732.000000;0.721147
7731.000000;0.721063
7730.000000;0.721012
7729.000000;0.720944
7728.000000;0.720870
7727.000000;0.720851
7726.000000;0.720889
7725.000000;0.720893
7724.000000;0.720773
7723.000000;0.720544
7722.000000;0.720316
7721.000000;0.720188
7720.000000;0.720177
7719.000000;0.720220
7718.000000;0.720227
7717.000000;0.720141
7716.000000;0.719988
7715.000000;0.719851
7714.000000;0.719808
7713.000000;0.719867
7712.000000;0.719973
7711.000000;0.720041
7710.000000;0.720012
7709.000000;0.719886
7708.000000;0.719722
7707.000000;0.719592
7706.000000;0.719507
7705.000000;0.719421
7704.000000;0.719287
7703.000000;0.719124
7702.000000;0.718995
7701.000000;0.718952
7700.000000;0.718996
7699.000000;0.719072
7698.000000;0.719103
7697.000000;0.719032
7696.000000;0.718872
7695.000000;0.718702
7694.000000;0.718594
7693.000000;0.718560
7692.000000;0.718556
7691.000000;0.718539
7690.000000;0.718488
7689.000000;0.718391
7688.000000;0.718256
7687.000000;0.718122
7686.000000;0.718037
7685.000000;0.718012
7684.000000;0.718011
7683.000000;0.717996
7682.000000;0.717960
7681.000000;0.717905
7680.000000;0.717815
7679.000000;0.717676
7678.000000;0.717502
7677.000000;0.717337
7676.000000;0.717217
7675.000000;0.717163
7674.000000;0.717168
7673.000000;0.717194
7672.000000;0.717181
7671.000000;0.717100
7670.000000;0.716993
7669.000000;0.716934
7668.000000;0.716952
7667.000000;0.716998
7666.000000;0.716988
7665.000000;0.716859
7664.000000;0.716606
7663.000000;0.716293
7662.000000;0.716042
7661.000000;0.715962
7660.000000;0.716064
7659.000000;0.716250
7658.000000;0.716407
7657.000000;0.716482
7656.000000;0.716471
7655.000000;0.716381
7654.000000;0.716242
7653.000000;0.716118
7652.000000;0.716046
7651.000000;0.715979
7650.000000;0.715839
7649.000000;0.715637
7648.000000;0.715489
7647.000000;0.715494
7646.000000;0.715634
7645.000000;0.715793
7644.000000;0.715867
7643.000000;0.715827
7642.000000;0.715705
7641.000000;0.715562
7640.000000;0.715442
7639.000000;0.715356
7638.000000;0.715296
7637.000000;0.715258
7636.000000;0.715231
7635.000000;0.715183
7634.000000;0.715079
7633.000000;0.714935
7632.000000;0.714816
7631.000000;0.714758
7630.000000;0.714724
7629.000000;0.714660
7628.000000;0.714571
7627.000000;0.714511
7626.000000;0.714521
7625.000000;0.714608
7624.000000;0.714746
7623.000000;0.714881
7622.000000;0.714937
7621.000000;0.714865
7620.000000;0.714693
7619.000000;0.714503
7618.000000;0.714358
7617.000000;0.714258
7616.000000;0.714171
7615.000000;0.714079
7614.000000;0.713990
7613.000000;0.713927
7612.000000;0.713904
7611.000000;0.713921
7610.000000;0.713961
7609.000000;0.713988
7608.000000;0.713977
7607.000000;0.713919
7606.000000;0.713840
7605.000000;0.713780
7604.000000;0.713763
7603.000000;0.713770
7602.000000;0.713744
7601.000000;0.713637
7600.000000;0.713450
7599.000000;0.713238
7598.000000;0.713079
7597.000000;0.713025
7596.000000;0.713060
7595.000000;0.713104
7594.000000;0.713073
7593.000000;0.712946
7592.000000;0.712774
7591.000000;0.712629
7590.000000;0.712554
7589.000000;0.712565
7588.000000;0.712668
7587.000000;0.712833
7586.000000;0.712985
7585.000000;0.713030
7584.000000;0.712934
7583.000000;0.712745
7582.000000;0.712553
7581.000000;0.712414
7580.000000;0.712325
7579.000000;0.712263
7578.000000;0.712226
7577.000000;0.712229
7576.000000;0.712260
7575.000000;0.712279
7574.000000;0.712280
7573.000000;0.712308
7572.000000;0.712384
7571.000000;0.712443
7570.000000;0.712398
7569.000000;0.712238
7568.000000;0.712036
7567.000000;0.711865
7566.000000;0.711761
7565.000000;0.711744
7564.000000;0.711824
7563.000000;0.711946
7562.000000;0.712013
7561.000000;0.711980
7560.000000;0.711894
7559.000000;0.711812
7558.000000;0.711738
7557.000000;0.711644
7556.000000;0.711533
7555.000000;0.711416
7554.000000;0.711289
7553.000000;0.711147
7552.000000;0.711006
7551.000000;0.710883
7550.000000;0.710783
7549.000000;0.710724
7548.000000;0.710733
7547.000000;0.710794
7546.000000;0.710838
7545.000000;0.710830
7544.000000;0.710798
7543.000000;0.710773
7542.000000;0.710733
7541.000000;0.710672
7540.000000;0.710662
7539.000000;0.710776
7538.000000;0.710965
7537.000000;0.711088
7536.000000;0.711058
7535.000000;0.710903
7534.000000;0.710712
7533.000000;0.710556
7532.000000;0.710462
7531.000000;0.710407
7530.000000;0.710348
7529.000000;0.710291
7528.000000;0.710316
7527.000000;0.710472
7526.000000;0.710675
7525.000000;0.710762
7524.000000;0.710661
7523.000000;0.710453
7522.000000;0.710282
7521.000000;0.710238
7520.000000;0.710328
7519.000000;0.710485
7518.000000;0.710583
7517.000000;0.710529
7516.000000;0.710351
7515.000000;0.710186
7514.000000;0.710133
7513.000000;0.710161
7512.000000;0.710150
7511.000000;0.710019
7510.000000;0.709794
7509.000000;0.709587
7508.000000;0.709508
7507.000000;0.709571
7506.000000;0.709693
7505.000000;0.709769
7504.000000;0.709766
7503.000000;0.709710
7502.000000;0.709636
7501.000000;0.709564
7500.000000;0.709522
7499.000000;0.709531
7498.000000;0.709580
7497.000000;0.709645
7496.000000;0.709720
7495.000000;0.709796
7494.000000;0.709828
7493.000000;0.709764
7492.000000;0.709636
7491.000000;0.709515
7490.000000;0.709453
7489.000000;0.709432
7488.000000;0.709410
7487.000000;0.709375
7486.000000;0.709340
7485.000000;0.709319
7484.000000;0.709319
7483.000000;0.709316
7482.000000;0.709269
7481.000000;0.709164
7480.000000;0.709052
7479.000000;0.709006
7478.000000;0.709031
7477.000000;0.709076
7476.000000;0.709095
7475.000000;0.709078
7474.000000;0.709027
7473.000000;0.708961
7472.000000;0.708938
7471.000000;0.709003
7470.000000;0.709126
7469.000000;0.709222
7468.000000;0.709248
7467.000000;0.709228
7466.000000;0.709189
7465.000000;0.709137
7464.000000;0.709091
7463.000000;0.709083
7462.000000;0.709092
7461.000000;0.709044
7460.000000;0.708922
7459.000000;0.708818
7458.000000;0.708832
7457.000000;0.708961
7456.000000;0.709117
7455.000000;0.709214
7454.000000;0.709221
7453.000000;0.709154
7452.000000;0.709059
7451.000000;0.708983
7450.000000;0.708939
7449.000000;0.708905
7448.000000;0.708870
7447.000000;0.708869
7446.000000;0.708938
7445.000000;0.709062
7444.000000;0.709168
7443.000000;0.709177
7442.000000;0.709064
7441.000000;0.708893
7440.000000;0.708778
7439.000000;0.708789
7438.000000;0.708895
7437.000000;0.709014
7436.000000;0.709118
7435.000000;0.709240
7434.000000;0.709397
7433.000000;0.709545
7432.000000;0.709612
7431.000000;0.709552
7430.000000;0.709365
7429.000000;0.709110
7428.000000;0.708892
7427.000000;0.708791
7426.000000;0.708792
7425.000000;0.708811
7424.000000;0.708814
7423.000000;0.708843
7422.000000;0.708926
7421.000000;0.709007
7420.000000;0.709016
7419.000000;0.708964
7418.000000;0.708919
7417.000000;0.708925
7416.000000;0.708960
7415.000000;0.708983
7414.000000;0.708984
7413.000000;0.708995
7412.000000;0.709049
7411.000000;0.709119
7410.000000;0.709126
7409.000000;0.709027
7408.000000;0.708880
7407.000000;0.708791
7406.000000;0.708801
7405.000000;0.708878
7404.000000;0.708993
7403.000000;0.709147
7402.000000;0.709316
7401.000000;0.709441
7400.000000;0.709485
7399.000000;0.709460
7398.000000;0.709392
7397.000000;0.709301
7396.000000;0.709237
7395.000000;0.709261
7394.000000;0.709369
7393.000000;0.709477
7392.000000;0.709507
7391.000000;0.709457
7390.000000;0.709370
7389.000000;0.709285
7388.000000;0.709239
7387.000000;0.709262
7386.000000;0.709333
7385.000000;0.709406
7384.000000;0.709473
7383.000000;0.709563
7382.000000;0.709664
7381.000000;0.709701
7380.000000;0.709639
7379.000000;0.709529
7378.000000;0.709445
7377.000000;0.709406
7376.000000;0.709403
7375.000000;0.709437
7374.000000;0.709490
7373.000000;0.709518
7372.000000;0.709502
7371.000000;0.709490
7370.000000;0.709526
7369.000000;0.709605
7368.000000;0.709709
7367.000000;0.709840
7366.000000;0.709973
7365.000000;0.710036
7364.000000;0.709987
7363.000000;0.709874
7362.000000;0.709794
7361.000000;0.709800
7360.000000;0.709884
7359.000000;0.709991
7358.000000;0.710041
7357.000000;0.709984
7356.000000;0.709880
7355.000000;0.709854
7354.000000;0.709951
7353.000000;0.710084
7352.000000;0.710164
7351.000000;0.710215
7350.000000;0.710303
7349.000000;0.710434
7348.000000;0.710565
7347.000000;0.710673
7346.000000;0.710742
7345.000000;0.710742
7344.000000;0.710674
7343.000000;0.710607
7342.000000;0.710585
7341.000000;0.710564
7340.000000;0.710507
7339.000000;0.710501
7338.000000;0.710657
7337.000000;0.710929
7336.000000;0.711136
7335.000000;0.711160
7334.000000;0.711051
7333.000000;0.710954
7332.000000;0.710978
7331.000000;0.711139
7330.000000;0.711367
7329.000000;0.711559
7328.000000;0.711648
7327.000000;0.711646
7326.000000;0.711610
7325.000000;0.711586
7324.000000;0.711609
7323.000000;0.711704
7322.000000;0.711858
7321.000000;0.712016
7320.000000;0.712148
7319.000000;0.712295
7318.000000;0.712478
7317.000000;0.712614
7316.000000;0.712607
7315.000000;0.712490
7314.000000;0.712394
7313.000000;0.712395
7312.000000;0.712481
7311.000000;0.712657
7310.000000;0.712956
7309.000000;0.713306
7308.000000;0.713527
7307.000000;0.713521
7306.000000;0.713410
7305.000000;0.713399
7304.000000;0.713559
7303.000000;0.713781
7302.000000;0.713926
7301.000000;0.713944
7300.000000;0.713888
7299.000000;0.713885
7298.000000;0.714037
7297.000000;0.714323
7296.000000;0.714599
7295.000000;0.714745
7294.000000;0.714780
7293.000000;0.714816
7292.000000;0.714932
7291.000000;0.715098
7290.000000;0.715241
7289.000000;0.715328
7288.000000;0.715391
7287.000000;0.715493
7286.000000;0.715688
7285.000000;0.715991
7284.000000;0.716368
7283.000000;0.716744
7282.000000;0.717010
7281.000000;0.717081
7280.000000;0.716969
7279.000000;0.716798
7278.000000;0.716713
7277.000000;0.716769
7276.000000;0.716929
7275.000000;0.717143
7274.000000;0.717387
7273.000000;0.717630
7272.000000;0.717834
7271.000000;0.718000
7270.000000;0.718190
7269.000000;0.718463
7268.000000;0.718815
7267.000000;0.719192
7266.000000;0.719529
7265.000000;0.719771
7264.000000;0.719894
7263.000000;0.719940
7262.000000;0.720021
7261.000000;0.720226
7260.000000;0.720527
7259.000000;0.720807
7258.000000;0.720988
7257.000000;0.721097
7256.000000;0.721206
7255.000000;0.721344
7254.000000;0.721498
7253.000000;0.721674
7252.000000;0.721927
7251.000000;0.722293
7250.000000;0.722726
7249.000000;0.723125
7248.000000;0.723437
7247.000000;0.723691
7246.000000;0.723916
7245.000000;0.724080
7244.000000;0.724148
7243.000000;0.724189
7242.000000;0.724348
7241.000000;0.724686
7240.000000;0.725095
7239.000000;0.725417
7238.000000;0.725597
7237.000000;0.725716
7236.000000;0.725883
7235.000000;0.726146
7234.000000;0.726503
7233.000000;0.726933
7232.000000;0.727399
7231.000000;0.727833
7230.000000;0.728178
7229.000000;0.728430
7228.000000;0.728624
7227.000000;0.728802
7226.000000;0.728999
7225.000000;0.729249
7224.000000;0.729574
7223.000000;0.729971
7222.000000;0.730413
7221.000000;0.730872
7220.000000;0.731328
7219.000000;0.731743
7218.000000;0.732063
7217.000000;0.732264
7216.000000;0.732389
7215.000000;0.732523
7214.000000;0.732743
7213.000000;0.733083
7212.000000;0.733526
7211.000000;0.734002
7210.000000;0.734422
7209.000000;0.734735
7208.000000;0.734933
7207.000000;0.735010
7206.000000;0.734960
7205.000000;0.734874
7204.000000;0.734979
7203.000000;0.735483
7202.000000;0.736360
7201.000000;0.737335
7200.000000;0.738098
7199.000000;0.738516
7198.000000;0.738668
7197.000000;0.738761
7196.000000;0.738988
7195.000000;0.739398
7194.000000;0.739857
7193.000000;0.740186
7192.000000;0.740366
7191.000000;0.740533
7190.000000;0.740795
7189.000000;0.741129
7188.000000;0.741481
7187.000000;0.741862
7186.000000;0.742294
7185.000000;0.742741
7184.000000;0.743171
7183.000000;0.743623
7182.000000;0.744126
7181.000000;0.744605
7180.000000;0.744955
7179.000000;0.745178
7178.000000;0.745355
7177.000000;0.745532
7176.000000;0.745727
7175.000000;0.746025
7174.000000;0.746509
7173.000000;0.747099
7172.000000;0.747554
7171.000000;0.747729
7170.000000;0.747738
7169.000000;0.747840
7168.000000;0.748189
7167.000000;0.748752
7166.000000;0.749384
7165.000000;0.749920
7164.000000;0.750235
7163.000000;0.750324
7162.000000;0.750358
7161.000000;0.750605
7160.000000;0.751213
7159.000000;0.752030
7158.000000;0.752702
7157.000000;0.753003
7156.000000;0.753056
7155.000000;0.753176
7154.000000;0.753502
7153.000000;0.753875
7152.000000;0.754110
7151.000000;0.754266
7150.000000;0.754517
7149.000000;0.754879
7148.000000;0.755206
7147.000000;0.755431
7146.000000;0.755636
7145.000000;0.755895
7144.000000;0.756188
7143.000000;0.756492
7142.000000;0.756804
7141.000000;0.757048
7140.000000;0.757091
7139.000000;0.756945
7138.000000;0.756795
7137.000000;0.756769
7136.000000;0.756816
7135.000000;0.756903
7134.000000;0.757127
7133.000000;0.757482
7132.000000;0.757692
7131.000000;0.757503
7130.000000;0.757079
7129.000000;0.756881
7128.000000;0.757164
7127.000000;0.757743
7126.000000;0.758265
7125.000000;0.758526
7124.000000;0.758472
7123.000000;0.758062
7122.000000;0.757275
7121.000000;0.756224
7120.000000;0.755151
7119.000000;0.754316
7118.000000;0.753876
7117.000000;0.753787
7116.000000;0.753800
7115.000000;0.753643
7114.000000;0.753254
7113.000000;0.752789
7112.000000;0.752395
7111.000000;0.752032
7110.000000;0.751531
7109.000000;0.750789
7108.000000;0.749873
7107.000000;0.749011
7106.000000;0.748482
7105.000000;0.748417
7104.000000;0.748599
7103.000000;0.748557
7102.000000;0.747950
7101.000000;0.746859
7100.000000;0.745650
7099.000000;0.744574
7098.000000;0.743572
7097.000000;0.742435
7096.000000;0.741072
7095.000000;0.739595
7094.000000;0.738216
7093.000000;0.737094
7092.000000;0.736244
7091.000000;0.735554
7090.000000;0.734869
7089.000000;0.734070
7088.000000;0.733090
7087.000000;0.731929
7086.000000;0.730684
7085.000000;0.729505
7084.000000;0.728448
7083.000000;0.727373
7082.000000;0.726035
7081.000000;0.724309
7080.000000;0.722336
7079.000000;0.720447
7078.000000;0.718944
7077.000000;0.717895
7076.000000;0.717046
7075.000000;0.715952
7074.000000;0.714311
7073.000000;0.712250
7072.000000;0.710213
7071.000000;0.708503
7070.000000;0.706949
7069.000000;0.705096
7068.000000;0.702746
7067.000000;0.700250
7066.000000;0.698197
7065.000000;0.696836
7064.000000;0.695806
7063.000000;0.694474
7062.000000;0.692516
7061.000000;0.690172
7060.000000;0.687948
7059.000000;0.686166
7058.000000;0.684809
7057.000000;0.683658
7056.000000;0.682438
7055.000000;0.680840
7054.000000;0.678647
7053.000000;0.675977
7052.000000;0.673345
7051.000000;0.671283
7050.000000;0.669848
7049.000000;0.668547
7048.000000;0.666754
7047.000000;0.664225
7046.000000;0.661194
7045.000000;0.658089
7044.000000;0.655196
7043.000000;0.652586
7042.000000;0.650179
7041.000000;0.647793
7040.000000;0.645204
7039.000000;0.642287
7038.000000;0.639171
7037.000000;0.636198
7036.000000;0.633698
7035.000000;0.631816
7034.000000;0.630451
7033.000000;0.629218
7032.000000;0.627492
7031.000000;0.624757
7030.000000;0.621164
7029.000000;0.617642
7028.000000;0.615141
7027.000000;0.613631
7026.000000;0.612037
7025.000000;0.609340
7024.000000;0.605640
7023.000000;0.601927
7022.000000;0.598965
7021.000000;0.596678
7020.000000;0.594570
7019.000000;0.592383
7018.000000;0.590164
7017.000000;0.587937
7016.000000;0.585612
7015.000000;0.583162
7014.000000;0.580639
7013.000000;0.578027
7012.000000;0.575327
7011.000000;0.572758
7010.000000;0.570608
7009.000000;0.568787
7008.000000;0.566716
7007.000000;0.563833
7006.000000;0.560151
7005.000000;0.556244
7004.000000;0.552767
7003.000000;0.549992
7002.000000;0.547638
7001.000000;0.545042
7000.000000;0.541695
6999.000000;0.537793
6998.000000;0.534163
6997.000000;0.531492
6996.000000;0.529692
6995.000000;0.528114
6994.000000;0.526222
6993.000000;0.523883
6992.000000;0.521157
6991.000000;0.518156
6990.000000;0.515165
6989.000000;0.512564
6988.000000;0.510420
6987.000000;0.508314
6986.000000;0.505793
6985.000000;0.502886
6984.000000;0.499940
6983.000000;0.496985
6982.000000;0.493634
6981.000000;0.489768
6980.000000;0.486020
6979.000000;0.483213
6978.000000;0.481360
6977.000000;0.479595
6976.000000;0.477144
6975.000000;0.474056
6974.000000;0.470838
6973.000000;0.467754
6972.000000;0.464780
6971.000000;0.461968
6970.000000;0.459433
6969.000000;0.457020
6968.000000;0.454345
6967.000000;0.451223
6966.000000;0.447827
6965.000000;0.444473
6964.000000;0.441460
6963.000000;0.439036
6962.000000;0.437174
6961.000000;0.435422
6960.000000;0.433297
6959.000000;0.430813
6958.000000;0.428308
6957.000000;0.425823
6956.000000;0.423103
6955.000000;0.420238
6954.000000;0.417754
6953.000000;0.415874
6952.000000;0.414152
6951.000000;0.412149
6950.000000;0.410051
6949.000000;0.408235
6948.000000;0.406503
6947.000000;0.404176
6946.000000;0.400894
6945.000000;0.397044
6944.000000;0.393408
6943.000000;0.390539
6942.000000;0.388453
6941.000000;0.386767
6940.000000;0.385094
6939.000000;0.383335
6938.000000;0.381594
6937.000000;0.379932
6936.000000;0.378366
6935.000000;0.376950
6934.000000;0.375533
6933.000000;0.373604
6932.000000;0.370812
6931.000000;0.367633
6930.000000;0.365023
6929.000000;0.363243
6928.000000;0.361521
6927.000000;0.359134
6926.000000;0.356400
6925.000000;0.354245
6924.000000;0.353056
6923.000000;0.352303
6922.000000;0.351135
6921.000000;0.349118
6920.000000;0.346534
6919.000000;0.344091
6918.000000;0.342274
6917.000000;0.340895
6916.000000;0.339429
6915.000000;0.337775
6914.000000;0.336344
6913.000000;0.335319
6912.000000;0.334309
6911.000000;0.332923
6910.000000;0.331309
6909.000000;0.329778
6908.000000;0.328199
6907.000000;0.326116
6906.000000;0.323380
6905.000000;0.320447
6904.000000;0.318094
6903.000000;0.316855
6902.000000;0.316573
6901.000000;0.316457
6900.000000;0.315825
6899.000000;0.314750
6898.000000;0.313676
6897.000000;0.312512
6896.000000;0.310656
6895.000000;0.308062
6894.000000;0.305679
6893.000000;0.304449
6892.000000;0.304255
6891.000000;0.304178
6890.000000;0.303459
6889.000000;0.301956
6888.000000;0.300043
6887.000000;0.298426
6886.000000;0.297755
6885.000000;0.297981
6884.000000;0.298245
6883.000000;0.297645
6882.000000;0.295990
6881.000000;0.293711
6880.000000;0.291390
6879.000000;0.289556
6878.000000;0.288588
6877.000000;0.288445
6876.000000;0.288634
6875.000000;0.288639
6874.000000;0.288224
6873.000000;0.287345
6872.000000;0.286119
6871.000000;0.284884
6870.000000;0.283846
6869.000000;0.282624
6868.000000;0.280719
6867.000000;0.278540
6866.000000;0.277270
6865.000000;0.277389
6864.000000;0.278017
6863.000000;0.278194
6862.000000;0.278115
6861.000000;0.278449
6860.000000;0.278981
6859.000000;0.278794
6858.000000;0.277570
6857.000000;0.276018
6856.000000;0.275004
6855.000000;0.274766
6854.000000;0.274938
6853.000000;0.274927
6852.000000;0.274308
6851.000000;0.273184
6850.000000;0.272163
6849.000000;0.271771
6848.000000;0.272013
6847.000000;0.272659
6846.000000;0.273617
6845.000000;0.274687
6844.000000;0.275334
6843.000000;0.275234
6842.000000;0.274885
6841.000000;0.275138
6840.000000;0.276133
6839.000000;0.277114
6838.000000;0.277310
6837.000000;0.276647
6836.000000;0.275644
6835.000000;0.274985
6834.000000;0.275196
6833.000000;0.276378
6832.000000;0.278092
6831.000000;0.279683
6830.000000;0.280753
6829.000000;0.281263
6828.000000;0.281333
6827.000000;0.281142
6826.000000;0.280956
6825.000000;0.280992
6824.000000;0.281222
6823.000000;0.281391
6822.000000;0.281224
6821.000000;0.280651
6820.000000;0.280007
6819.000000;0.280007
6818.000000;0.281187
6817.000000;0.283229
6816.000000;0.285114
6815.000000;0.286164
6814.000000;0.286685
6813.000000;0.287346
6812.000000;0.288218
6811.000000;0.288817
6810.000000;0.288927
6809.000000;0.288933
6808.000000;0.289326
6807.000000;0.290191
6806.000000;0.291241
6805.000000;0.292138
6804.000000;0.292757
6803.000000;0.293261
6802.000000;0.293930
6801.000000;0.294837
6800.000000;0.295744
6799.000000;0.296446
6798.000000;0.297080
6797.000000;0.297909
6796.000000;0.298906
6795.000000;0.299791
6794.000000;0.300473
6793.000000;0.301244
6792.000000;0.302467
6791.000000;0.304159
6790.000000;0.305955
6789.000000;0.307437
6788.000000;0.308447
6787.000000;0.309110
6786.000000;0.309640
6785.000000;0.310190
6784.000000;0.310853
6783.000000;0.311640
6782.000000;0.312409
6781.000000;0.312965
6780.000000;0.313377
6779.000000;0.314007
6778.000000;0.315045
6777.000000;0.316169
6776.000000;0.316946
6775.000000;0.317449
6774.000000;0.318111
6773.000000;0.319018
6772.000000;0.319752
6771.000000;0.320024
6770.000000;0.320090
6769.000000;0.320405
6768.000000;0.321183
6767.000000;0.322446
6766.000000;0.324138
6765.000000;0.325979
6764.000000;0.327505
6763.000000;0.328546
6762.000000;0.329472
6761.000000;0.330714
6760.000000;0.332244
6759.000000;0.333735
6758.000000;0.335024
6757.000000;0.336130
6756.000000;0.336997
6755.000000;0.337561
6754.000000;0.338011
6753.000000;0.338695
6752.000000;0.339767
6751.000000;0.341088
6750.000000;0.342425
6749.000000;0.343553
6748.000000;0.344263
6747.000000;0.344524
6746.000000;0.344611
6745.000000;0.344899
6744.000000;0.345544
6743.000000;0.346506
6742.000000;0.347766
6741.000000;0.349234
6740.000000;0.350510
6739.000000;0.351112
6738.000000;0.351070
6737.000000;0.351068
6736.000000;0.351810
6735.000000;0.353367
6734.000000;0.355226
6733.000000;0.356823
6732.000000;0.357901
6731.000000;0.358507
6730.000000;0.358914
6729.000000;0.359510
6728.000000;0.360540
6727.000000;0.361836
6726.000000;0.362941
6725.000000;0.363583
6724.000000;0.363992
6723.000000;0.364626
6722.000000;0.365658
6721.000000;0.366848
6720.000000;0.367932
6719.000000;0.368932
6718.000000;0.370024
6717.000000;0.371201
6716.000000;0.372249
6715.000000;0.373018
6714.000000;0.373584
6713.000000;0.374132
6712.000000;0.374787
6711.000000;0.375600
6710.000000;0.376597
6709.000000;0.377753
6708.000000;0.378952
6707.000000;0.380012
6706.000000;0.380780
6705.000000;0.381231
6704.000000;0.381515
6703.000000;0.381884
6702.000000;0.382520
6701.000000;0.383416
6700.000000;0.384439
6699.000000;0.385470
6698.000000;0.386427
6697.000000;0.387234
6696.000000;0.387863
6695.000000;0.388415
6694.000000;0.389040
6693.000000;0.389799
6692.000000;0.390654
6691.000000;0.391569
6690.000000;0.392509
6689.000000;0.393367
6688.000000;0.394046
6687.000000;0.394621
6686.000000;0.395294
6685.000000;0.396164
6684.000000;0.397152
6683.000000;0.398166
6682.000000;0.399211
6681.000000;0.400306
6680.000000;0.401408
6679.000000;0.402493
6678.000000;0.403580
6677.000000;0.404619
6676.000000;0.405474
6675.000000;0.406089
6674.000000;0.406591
6673.000000;0.407125
6672.000000;0.407700
6671.000000;0.408266
6670.000000;0.408850
6669.000000;0.409512
6668.000000;0.410226
6667.000000;0.410925
6666.000000;0.411612
6665.000000;0.412347
6664.000000;0.413162
6663.000000;0.414046
6662.000000;0.414968
6661.000000;0.415856
6660.000000;0.416614
6659.000000;0.417232
6658.000000;0.417813
6657.000000;0.418420
6656.000000;0.418972
6655.000000;0.419390
6654.000000;0.419793
6653.000000;0.420428
6652.000000;0.421391
6651.000000;0.422532
6650.000000;0.423609
6649.000000;0.424477
6648.000000;0.425143
6647.000000;0.425739
6646.000000;0.426436
6645.000000;0.427278
6644.000000;0.428111
6643.000000;0.428729
6642.000000;0.429119
6641.000000;0.429476
6640.000000;0.429976
6639.000000;0.430620
6638.000000;0.431314
6637.000000;0.431998
6636.000000;0.432660
6635.000000;0.433307
6634.000000;0.433984
6633.000000;0.434759
6632.000000;0.435634
6631.000000;0.436512
6630.000000;0.437297
6629.000000;0.437988
6628.000000;0.438637
6627.000000;0.439256
6626.000000;0.439821
6625.000000;0.440351
6624.000000;0.440903
6623.000000;0.441490
6622.000000;0.442066
6621.000000;0.442586
6620.000000;0.443069
6619.000000;0.443581
6618.000000;0.444198
6617.000000;0.444964
6616.000000;0.445843
6615.000000;0.446698
6614.000000;0.447371
6613.000000;0.447812
6612.000000;0.448128
6611.000000;0.448485
6610.000000;0.448969
6609.000000;0.449559
6608.000000;0.450191
6607.000000;0.450823
6606.000000;0.451456
6605.000000;0.452111
6604.000000;0.452803
6603.000000;0.453514
6602.000000;0.454196
6601.000000;0.454812
6600.000000;0.455370
6599.000000;0.455894
6598.000000;0.456397
6597.000000;0.456891
6596.000000;0.457402
6595.000000;0.457939
6594.000000;0.458467
6593.000000;0.458957
6592.000000;0.459453
6591.000000;0.460028
6590.000000;0.460666
6589.000000;0.461270
6588.000000;0.461801
6587.000000;0.462334
6586.000000;0.462926
6585.000000;0.463501
6584.000000;0.463964
6583.000000;0.464371
6582.000000;0.464905
6581.000000;0.465645
6580.000000;0.466460
6579.000000;0.467158
6578.000000;0.467674
6577.000000;0.468099
6576.000000;0.468552
6575.000000;0.469087
6574.000000;0.469682
6573.000000;0.470263
6572.000000;0.470750
6571.000000;0.471116
6570.000000;0.471428
6569.000000;0.471806
6568.000000;0.472310
6567.000000;0.472883
6566.000000;0.473409
6565.000000;0.473843
6564.000000;0.474261
6563.000000;0.474780
6562.000000;0.475417
6561.000000;0.476071
6560.000000;0.476658
6559.000000;0.477209
6558.000000;0.477811
6557.000000;0.478479
6556.000000;0.479140
6555.000000;0.479735
6554.000000;0.480276
6553.000000;0.480783
6552.000000;0.481233
6551.000000;0.481594
6550.000000;0.481893
6549.000000;0.482204
6548.000000;0.482589
6547.000000;0.483063
6546.000000;0.483588
6545.000000;0.484083
6544.000000;0.484466
6543.000000;0.484724
6542.000000;0.484940
6541.000000;0.485228
6540.000000;0.485649
6539.000000;0.486198
6538.000000;0.486844
6537.000000;0.487551
6536.000000;0.488249
6535.000000;0.488852
6534.000000;0.489321
6533.000000;0.489713
6532.000000;0.490125
6531.000000;0.490590
6530.000000;0.491056
6529.000000;0.491458
6528.000000;0.491808
6527.000000;0.492187
6526.000000;0.492650
6525.000000;0.493166
6524.000000;0.493659
6523.000000;0.494082
6522.000000;0.494460
6521.000000;0.494871
6520.000000;0.495388
6519.000000;0.496018
6518.000000;0.496663
6517.000000;0.497169
6516.000000;0.497461
6515.000000;0.497627
6514.000000;0.497844
6513.000000;0.498210
6512.000000;0.498663
6511.000000;0.499076
6510.000000;0.499401
6509.000000;0.499698
6508.000000;0.500052
6507.000000;0.500488
6506.000000;0.500973
6505.000000;0.501464
6504.000000;0.501946
6503.000000;0.502409
6502.000000;0.502830
6501.000000;0.503174
6500.000000;0.503428
6499.000000;0.503634
6498.000000;0.503883
6497.000000;0.504251
6496.000000;0.504741
6495.000000;0.505268
6494.000000;0.505731
6493.000000;0.506101
6492.000000;0.506440
6491.000000;0.506819
6490.000000;0.507220
6489.000000;0.507550
6488.000000;0.507763
6487.000000;0.507937
6486.000000;0.508202
6485.000000;0.508610
6484.000000;0.509104
6483.000000;0.509589
6482.000000;0.510010
6481.000000;0.510356
6480.000000;0.510640
6479.000000;0.510910
6478.000000;0.511227
6477.000000;0.511617
6476.000000;0.512043
6475.000000;0.512437
6474.000000;0.512765
6473.000000;0.513048
6472.000000;0.513338
6471.000000;0.513667
6470.000000;0.514026
6469.000000;0.514364
6468.000000;0.514642
6467.000000;0.514898
6466.000000;0.515225
6465.000000;0.515674
6464.000000;0.516178
6463.000000;0.516622
6462.000000;0.516978
6461.000000;0.517317
6460.000000;0.517698
6459.000000;0.518076
6458.000000;0.518373
6457.000000;0.518590
6456.000000;0.518809
6455.000000;0.519069
6454.000000;0.519320
6453.000000;0.519524
6452.000000;0.519757
6451.000000;0.520134
6450.000000;0.520647
6449.000000;0.521139
6448.000000;0.521472
6447.000000;0.521669
6446.000000;0.521848
6445.000000;0.522078
6444.000000;0.522333
6443.000000;0.522593
6442.000000;0.522894
6441.000000;0.523270
6440.000000;0.523686
6439.000000;0.524063
6438.000000;0.524363
6437.000000;0.524602
6436.000000;0.524816
6435.000000;0.525037
6434.000000;0.525290
6433.000000;0.525583
6432.000000;0.525896
6431.000000;0.526185
6430.000000;0.526430
6429.000000;0.526651
6428.000000;0.526876
6427.000000;0.527116
6426.000000;0.527370
6425.000000;0.527634
6424.000000;0.527912
6423.000000;0.528201
6422.000000;0.528491
6421.000000;0.528764
6420.000000;0.529008
6419.000000;0.529230
6418.000000;0.529455
6417.000000;0.529703
6416.000000;0.529963
6415.000000;0.530207
6414.000000;0.530429
6413.000000;0.530660
6412.000000;0.530924
6411.000000;0.531204
6410.000000;0.531455
6409.000000;0.531670
6408.000000;0.531891
6407.000000;0.532157
6406.000000;0.532460
6405.000000;0.532754
6404.000000;0.533009
6403.000000;0.533232
6402.000000;0.533450
6401.000000;0.533677
6400.000000;0.533909
6399.000000;0.534138
6398.000000;0.534362
6397.000000;0.534601
6396.000000;0.534870
6395.000000;0.535153
6394.000000;0.535400
6393.000000;0.535574
6392.000000;0.535689
6391.000000;0.535811
6390.000000;0.535989
6389.000000;0.536228
6388.000000;0.536502
6387.000000;0.536789
6386.000000;0.537083
6385.000000;0.537374
6384.000000;0.537647
6383.000000;0.537881
6382.000000;0.538058
6381.000000;0.538183
6380.000000;0.538301
6379.000000;0.538472
6378.000000;0.538715
6377.000000;0.538970
6376.000000;0.539162
6375.000000;0.539278
6374.000000;0.539384
6373.000000;0.539541
6372.000000;0.539744
6371.000000;0.539949
6370.000000;0.540135
6369.000000;0.540315
6368.000000;0.540491
6367.000000;0.540642
6366.000000;0.540766
6365.000000;0.540892
6364.000000;0.541054
6363.000000;0.541252
6362.000000;0.541470
6361.000000;0.541698
6360.000000;0.541915
6359.000000;0.542092
6358.000000;0.542212
6357.000000;0.542307
6356.000000;0.542418
6355.000000;0.542547
6354.000000;0.542672
6353.000000;0.542805
6352.000000;0.542995
6351.000000;0.543250
6350.000000;0.543504
6349.000000;0.543696
6348.000000;0.543837
6347.000000;0.543979
6346.000000;0.544139
6345.000000;0.544290
6344.000000;0.544422
6343.000000;0.544560
6342.000000;0.544713
6341.000000;0.544850
6340.000000;0.544958
6339.000000;0.545065
6338.000000;0.545211
6337.000000;0.545393
6336.000000;0.545579
6335.000000;0.545753
6334.000000;0.545912
6333.000000;0.546038
6332.000000;0.546106
6331.000000;0.546135
6330.000000;0.546189
6329.000000;0.546322
6328.000000;0.546518
6327.000000;0.546713
6326.000000;0.546855
6325.000000;0.546951
6324.000000;0.547047
6323.000000;0.547185
6322.000000;0.547365
6321.000000;0.547543
6320.000000;0.547668
6319.000000;0.547720
6318.000000;0.547735
6317.000000;0.547783
6316.000000;0.547917
6315.000000;0.548126
6314.000000;0.548348
6313.000000;0.548526
6312.000000;0.548649
6311.000000;0.548736
6310.000000;0.548805
6309.000000;0.548854
6308.000000;0.548878
6307.000000;0.548885
6306.000000;0.548898
6305.000000;0.548951
6304.000000;0.549076
6303.000000;0.549268
6302.000000;0.549479
6301.000000;0.549643
6300.000000;0.549725
6299.000000;0.549731
6298.000000;0.549691
6297.000000;0.549644
6296.000000;0.549627
6295.000000;0.549674
6294.000000;0.549796
6293.000000;0.549973
6292.000000;0.550176
6291.000000;0.550370
6290.000000;0.550535
6289.000000;0.550673
6288.000000;0.550806
6287.000000;0.550944
6286.000000;0.551067
6285.000000;0.551154
6284.000000;0.551220
6283.000000;0.551298
6282.000000;0.551391
6281.000000;0.551465
6280.000000;0.551505
6279.000000;0.551544
6278.000000;0.551631
6277.000000;0.551785
6276.000000;0.551988
6275.000000;0.552199
6274.000000;0.552363
6273.000000;0.552435
6272.000000;0.552418
6271.000000;0.552369
6270.000000;0.552338
6269.000000;0.552320
6268.000000;0.552300
6267.000000;0.552306
6266.000000;0.552383
6265.000000;0.552528
6264.000000;0.552680
6263.000000;0.552802
6262.000000;0.552910
6261.000000;0.553028
6260.000000;0.553133
6259.000000;0.553187
6258.000000;0.553194
6257.000000;0.553194
6256.000000;0.553212
6255.000000;0.553236
6254.000000;0.553261
6253.000000;0.553309
6252.000000;0.553397
6251.000000;0.553506
6250.000000;0.553606
6249.000000;0.553682
6248.000000;0.553735
6247.000000;0.553757
6246.000000;0.553742
6245.000000;0.553707
6244.000000;0.553689
6243.000000;0.553703
6242.000000;0.553731
6241.000000;0.553754
6240.000000;0.553784
6239.000000;0.553834
6238.000000;0.553889
6237.000000;0.553932
6236.000000;0.553976
6235.000000;0.554056
6234.000000;0.554172
6233.000000;0.554277
6232.000000;0.554328
6231.000000;0.554327
6230.000000;0.554307
6229.000000;0.554306
6228.000000;0.554354
6227.000000;0.554465
6226.000000;0.554615
6225.000000;0.554740
6224.000000;0.554779
6223.000000;0.554717
6222.000000;0.554592
6221.000000;0.554466
6220.000000;0.554404
6219.000000;0.554447
6218.000000;0.554587
6217.000000;0.554765
6216.000000;0.554898
6215.000000;0.554935
6214.000000;0.554890
6213.000000;0.554825
6212.000000;0.554802
6211.000000;0.554838
6210.000000;0.554913
6209.000000;0.555012
6208.000000;0.555142
6207.000000;0.555298
6206.000000;0.555432
6205.000000;0.555488
6204.000000;0.555474
6203.000000;0.555457
6202.000000;0.555485
6201.000000;0.555540
6200.000000;0.555577
6199.000000;0.555588
6198.000000;0.555590
6197.000000;0.555580
6196.000000;0.555546
6195.000000;0.555499
6194.000000;0.555466
6193.000000;0.555450
6192.000000;0.555427
6191.000000;0.555393
6190.000000;0.555376
6189.000000;0.555396
6188.000000;0.555439
6187.000000;0.555480
6186.000000;0.555520
6185.000000;0.555572
6184.000000;0.555626
6183.000000;0.555653
6182.000000;0.555640
6181.000000;0.555612
6180.000000;0.555604
6179.000000;0.555615
6178.000000;0.555599
6177.000000;0.555522
6176.000000;0.555424
6175.000000;0.555396
6174.000000;0.555489
6173.000000;0.555655
6172.000000;0.555792
6171.000000;0.555843
6170.000000;0.555837
6169.000000;0.555833
6168.000000;0.555848
6167.000000;0.555861
6166.000000;0.555866
6165.000000;0.555889
6164.000000;0.555952
6163.000000;0.556019
6162.000000;0.556019
6161.000000;0.555920
6160.000000;0.555785
6159.000000;0.555718
6158.000000;0.555762
6157.000000;0.555860
6156.000000;0.555927
6155.000000;0.555943
6154.000000;0.555948
6153.000000;0.555980
6152.000000;0.556022
6151.000000;0.556035
6150.000000;0.556001
6149.000000;0.555935
6148.000000;0.555858
6147.000000;0.555782
6146.000000;0.555712
6145.000000;0.555651
6144.000000;0.555613
6143.000000;0.555616
6142.000000;0.555668
6141.000000;0.555761
6140.000000;0.555872
6139.000000;0.555976
6138.000000;0.556049
6137.000000;0.556070
6136.000000;0.556034
6135.000000;0.555969
6134.000000;0.555921
6133.000000;0.555920
6132.000000;0.555960
6131.000000;0.556009
6130.000000;0.556045
6129.000000;0.556062
6128.000000;0.556064
6127.000000;0.556057
6126.000000;0.556054
6125.000000;0.556066
6124.000000;0.556093
6123.000000;0.556123
6122.000000;0.556146
6121.000000;0.556162
6120.000000;0.556170
6119.000000;0.556148
6118.000000;0.556073
6117.000000;0.555958
6116.000000;0.555860
6115.000000;0.555831
6114.000000;0.555866
6113.000000;0.555920
6112.000000;0.555960
6111.000000;0.555987
6110.000000;0.556003
6109.000000;0.555994
6108.000000;0.555955
6107.000000;0.555911
6106.000000;0.555894
6105.000000;0.555900
6104.000000;0.555907
6103.000000;0.555908
6102.000000;0.555916
6101.000000;0.555936
6100.000000;0.555954
6099.000000;0.555959
6098.000000;0.555955
6097.000000;0.555950
6096.000000;0.555943
6095.000000;0.555919
6094.000000;0.555871
6093.000000;0.555809
6092.000000;0.555773
6091.000000;0.555809
6090.000000;0.555931
6089.000000;0.556087
6088.000000;0.556195
6087.000000;0.556218
6086.000000;0.556192
6085.000000;0.556175
6084.000000;0.556195
6083.000000;0.556238
6082.000000;0.556291
6081.000000;0.556351
6080.000000;0.556407
6079.000000;0.556435
6078.000000;0.556415
6077.000000;0.556345
6076.000000;0.556247
6075.000000;0.556151
6074.000000;0.556089
6073.000000;0.556082
6072.000000;0.556118
6071.000000;0.556158
6070.000000;0.556157
6069.000000;0.556098
6068.000000;0.556000
6067.000000;0.555905
6066.000000;0.555853
6065.000000;0.555859
6064.000000;0.555912
6063.000000;0.555977
6062.000000;0.556025
6061.000000;0.556060
6060.000000;0.556100
6059.000000;0.556141
6058.000000;0.556148
6057.000000;0.556105
6056.000000;0.556045
6055.000000;0.556021
6054.000000;0.556045
6053.000000;0.556074
6052.000000;0.556065
6051.000000;0.556017
6050.000000;0.555965
6049.000000;0.555946
6048.000000;0.555972
6047.000000;0.556038
6046.000000;0.556112
6045.000000;0.556145
6044.000000;0.556108
6043.000000;0.556029
6042.000000;0.555968
6041.000000;0.555970
6040.000000;0.556032
6039.000000;0.556120
6038.000000;0.556197
6037.000000;0.556240
6036.000000;0.556235
6035.000000;0.556184
6034.000000;0.556100
6033.000000;0.556010
6032.000000;0.555946
6031.000000;0.555927
6030.000000;0.555952
6029.000000;0.556005
6028.000000;0.556073
6027.000000;0.556149
6026.000000;0.556224
6025.000000;0.556265
6024.000000;0.556245
6023.000000;0.556179
6022.000000;0.556116
6021.000000;0.556091
6020.000000;0.556104
6019.000000;0.556138
6018.000000;0.556194
6017.000000;0.556271
6016.000000;0.556350
6015.000000;0.556401
6014.000000;0.556414
6013.000000;0.556415
6012.000000;0.556426
6011.000000;0.556440
6010.000000;0.556431
6009.000000;0.556399
6008.000000;0.556384
6007.000000;0.556426
6006.000000;0.556508
6005.000000;0.556564
6004.000000;0.556542
6003.000000;0.556458
6002.000000;0.556378
6001.000000;0.556347
6000.000000;0.556358
5999.000000;0.556377
5998.000000;0.556387
5997.000000;0.556402
5996.000000;0.556444
5995.000000;0.556518
5994.000000;0.556601
5993.000000;0.556658
5992.000000;0.556660
5991.000000;0.556609
5990.000000;0.556535
5989.000000;0.556468
5988.000000;0.556420
5987.000000;0.556379
5986.000000;0.556333
5985.000000;0.556289
5984.000000;0.556268
5983.000000;0.556297
5982.000000;0.556372
5981.000000;0.556462
5980.000000;0.556537
5979.000000;0.556603
5978.000000;0.556678
5977.000000;0.556755
5976.000000;0.556802
5975.000000;0.556809
5974.000000;0.556810
5973.000000;0.556846
5972.000000;0.556915
5971.000000;0.556966
5970.000000;0.556957
5969.000000;0.556895
5968.000000;0.556826
5967.000000;0.556802
5966.000000;0.556839
5965.000000;0.556909
5964.000000;0.556975
5963.000000;0.557018
5962.000000;0.557050
5961.000000;0.557084
5960.000000;0.557104
5959.000000;0.557088
5958.000000;0.557037
5957.000000;0.556984
5956.000000;0.556952
5955.000000;0.556944
5954.000000;0.556949
5953.000000;0.556964
5952.000000;0.556975
5951.000000;0.556957
5950.000000;0.556893
5949.000000;0.556803
5948.000000;0.556735
5947.000000;0.556723
5946.000000;0.556772
5945.000000;0.556879
5944.000000;0.557032
5943.000000;0.557198
5942.000000;0.557321
5941.000000;0.557361
5940.000000;0.557332
5939.000000;0.557287
5938.000000;0.557272
5937.000000;0.557296
5936.000000;0.557337
5935.000000;0.557378
5934.000000;0.557420
5933.000000;0.557473
5932.000000;0.557546
5931.000000;0.557633
5930.000000;0.557715
5929.000000;0.557779
5928.000000;0.557819
5927.000000;0.557838
5926.000000;0.557841
5925.000000;0.557839
5924.000000;0.557852
5923.000000;0.557898
5922.000000;0.557969
5921.000000;0.558031
5920.000000;0.558051
5919.000000;0.558025
5918.000000;0.557976
5917.000000;0.557934
5916.000000;0.557909
5915.000000;0.557888
5914.000000;0.557852
5913.000000;0.557801
5912.000000;0.557757
5911.000000;0.557735
5910.000000;0.557731
5909.000000;0.557728
5908.000000;0.557717
5907.000000;0.557705
5906.000000;0.557708
5905.000000;0.557745
5904.000000;0.557828
5903.000000;0.557942
5902.000000;0.558051
5901.000000;0.558121
5900.000000;0.558150
5899.000000;0.558155
5898.000000;0.558143
5897.000000;0.558128
5896.000000;0.558143
5895.000000;0.558215
5894.000000;0.558309
5893.000000;0.558348
5892.000000;0.558303
5891.000000;0.558225
5890.000000;0.558184
5889.000000;0.558190
5888.000000;0.558204
5887.000000;0.558208
5886.000000;0.558213
5885.000000;0.558223
5884.000000;0.558214
5883.000000;0.558178
5882.000000;0.558138
5881.000000;0.558130
5880.000000;0.558167
5879.000000;0.558242
5878.000000;0.558330
5877.000000;0.558407
5876.000000;0.558463
5875.000000;0.558510
5874.000000;0.558564
5873.000000;0.558618
5872.000000;0.558643
5871.000000;0.558627
5870.000000;0.558592
5869.000000;0.558567
5868.000000;0.558554
5867.000000;0.558536
5866.000000;0.558504
5865.000000;0.558468
5864.000000;0.558450
5863.000000;0.558462
5862.000000;0.558499
5861.000000;0.558544
5860.000000;0.558570
5859.000000;0.558563
5858.000000;0.558530
5857.000000;0.558500
5856.000000;0.558510
5855.000000;0.558568
5854.000000;0.558649
5853.000000;0.558714
5852.000000;0.558745
5851.000000;0.558755
5850.000000;0.558761
5849.000000;0.558768
5848.000000;0.558783
5847.000000;0.558813
5846.000000;0.558860
5845.000000;0.558902
5844.000000;0.558929
5843.000000;0.558956
5842.000000;0.558994
5841.000000;0.559019
5840.000000;0.558995
5839.000000;0.558922
5838.000000;0.558837
5837.000000;0.558764
5836.000000;0.558704
5835.000000;0.558670
5834.000000;0.558694
5833.000000;0.558790
5832.000000;0.558920
5831.000000;0.559026
5830.000000;0.559080
5829.000000;0.559094
5828.000000;0.559099
5827.000000;0.559116
5826.000000;0.559152
5825.000000;0.559185
5824.000000;0.559193
5823.000000;0.559183
5822.000000;0.559203
5821.000000;0.559288
5820.000000;0.559406
5819.000000;0.559486
5818.000000;0.559490
5817.000000;0.559441
5816.000000;0.559398
5815.000000;0.559402
5814.000000;0.559456
5813.000000;0.559535
5812.000000;0.559611
5811.000000;0.559667
5810.000000;0.559705
5809.000000;0.559731
5808.000000;0.559746
5807.000000;0.559752
5806.000000;0.559759
5805.000000;0.559766
5804.000000;0.559757
5803.000000;0.559711
5802.000000;0.559628
5801.000000;0.559533
5800.000000;0.559459
5799.000000;0.559431
5798.000000;0.559457
5797.000000;0.559520
5796.000000;0.559587
5795.000000;0.559631
5794.000000;0.559656
5793.000000;0.559679
5792.000000;0.559699
5791.000000;0.559705
5790.000000;0.559691
5789.000000;0.559671
5788.000000;0.559658
5787.000000;0.559658
5786.000000;0.559680
5785.000000;0.559738
5784.000000;0.559830
5783.000000;0.559925
5782.000000;0.559977
5781.000000;0.559971
5780.000000;0.559924
5779.000000;0.559867
5778.000000;0.559811
5777.000000;0.559748
5776.000000;0.559685
5775.000000;0.559651
5774.000000;0.559673
5773.000000;0.559729
5772.000000;0.559763
5771.000000;0.559741
5770.000000;0.559687
5769.000000;0.559652
5768.000000;0.559665
5767.000000;0.559719
5766.000000;0.559801
5765.000000;0.559893
5764.000000;0.559961
5763.000000;0.559974
5762.000000;0.559932
5761.000000;0.559872
5760.000000;0.559821
5759.000000;0.559770
5758.000000;0.559696
5757.000000;0.559599
5756.000000;0.559507
5755.000000;0.559450
5754.000000;0.559443
5753.000000;0.559484
5752.000000;0.559554
5751.000000;0.559621
5750.000000;0.559657
5749.000000;0.559652
5748.000000;0.559615
5747.000000;0.559559
5746.000000;0.559504
5745.000000;0.559472
5744.000000;0.559475
5743.000000;0.559503
5742.000000;0.559526
5741.000000;0.559508
5740.000000;0.559437
5739.000000;0.559328
5738.000000;0.559221
5737.000000;0.559148
5736.000000;0.559114
5735.000000;0.559099
5734.000000;0.559087
5733.000000;0.559080
5732.000000;0.559091
5731.000000;0.559124
5730.000000;0.559171
5729.000000;0.559223
5728.000000;0.559277
5727.000000;0.559328
5726.000000;0.559362
5725.000000;0.559361
5724.000000;0.559310
5723.000000;0.559217
5722.000000;0.559110
5721.000000;0.559027
5720.000000;0.558985
5719.000000;0.558969
5718.000000;0.558953
5717.000000;0.558924
5716.000000;0.558881
5715.000000;0.558829
5714.000000;0.558771
5713.000000;0.558715
5712.000000;0.558668
5711.000000;0.558622
5710.000000;0.558559
5709.000000;0.558484
5708.000000;0.558436
5707.000000;0.558440
5706.000000;0.558470
5705.000000;0.558461
5704.000000;0.558389
5703.000000;0.558303
5702.000000;0.558276
5701.000000;0.558316
5700.000000;0.558366
5699.000000;0.558382
5698.000000;0.558382
5697.000000;0.558409
5696.000000;0.558463
5695.000000;0.558502
5694.000000;0.558505
5693.000000;0.558492
5692.000000;0.558502
5691.000000;0.558535
5690.000000;0.558570
5689.000000;0.558591
5688.000000;0.558598
5687.000000;0.558585
5686.000000;0.558543
5685.000000;0.558475
5684.000000;0.558403
5683.000000;0.558354
5682.000000;0.558342
5681.000000;0.558357
5680.000000;0.558361
5679.000000;0.558317
5678.000000;0.558217
5677.000000;0.558107
5676.000000;0.558041
5675.000000;0.558029
5674.000000;0.558027
5673.000000;0.558007
5672.000000;0.557991
5671.000000;0.558013
5670.000000;0.558068
5669.000000;0.558124
5668.000000;0.558169
5667.000000;0.558221
5666.000000;0.558271
5665.000000;0.558273
5664.000000;0.558210
5663.000000;0.558132
5662.000000;0.558112
5661.000000;0.558163
5660.000000;0.558237
5659.000000;0.558297
5658.000000;0.558352
5657.000000;0.558415
5656.000000;0.558472
5655.000000;0.558504
5654.000000;0.558522
5653.000000;0.558537
5652.000000;0.558531
5651.000000;0.558472
5650.000000;0.558382
5649.000000;0.558339
5648.000000;0.558414
5647.000000;0.558597
5646.000000;0.558813
5645.000000;0.558990
5644.000000;0.559106
5643.000000;0.559189
5642.000000;0.559274
5641.000000;0.559377
5640.000000;0.559491
5639.000000;0.559598
5638.000000;0.559676
5637.000000;0.559707
5636.000000;0.559691
5635.000000;0.559657
5634.000000;0.559646
5633.000000;0.559686
5632.000000;0.559771
5631.000000;0.559883
5630.000000;0.560011
5629.000000;0.560142
5628.000000;0.560249
5627.000000;0.560302
5626.000000;0.560308
5625.000000;0.560318
5624.000000;0.560376
5623.000000;0.560479
5622.000000;0.560593
5621.000000;0.560691
5620.000000;0.560785
5619.000000;0.560909
5618.000000;0.561087
5617.000000;0.561315
5616.000000;0.561551
5615.000000;0.561740
5614.000000;0.561852
5613.000000;0.561902
5612.000000;0.561934
5611.000000;0.561995
5610.000000;0.562113
5609.000000;0.562284
5608.000000;0.562460
5607.000000;0.562582
5606.000000;0.562635
5605.000000;0.562665
5604.000000;0.562730
5603.000000;0.562837
5602.000000;0.562952
5601.000000;0.563060
5600.000000;0.563189
5599.000000;0.563370
5598.000000;0.563591
5597.000000;0.563815
5596.000000;0.564023
5595.000000;0.564208
5594.000000;0.564357
5593.000000;0.564462
5592.000000;0.564544
5591.000000;0.564645
5590.000000;0.564784
5589.000000;0.564934
5588.000000;0.565063
5587.000000;0.565175
5586.000000;0.565293
5585.000000;0.565426
5584.000000;0.565554
5583.000000;0.565657
5582.000000;0.565742
5581.000000;0.565841
5580.000000;0.565987
5579.000000;0.566185
5578.000000;0.566409
5577.000000;0.566614
5576.000000;0.566766
5575.000000;0.566864
5574.000000;0.566938
5573.000000;0.567027
5572.000000;0.567158
5571.000000;0.567331
5570.000000;0.567518
5569.000000;0.567686
5568.000000;0.567831
5567.000000;0.567976
5566.000000;0.568142
5565.000000;0.568317
5564.000000;0.568464
5563.000000;0.568569
5562.000000;0.568651
5561.000000;0.568732
5560.000000;0.568815
5559.000000;0.568904
5558.000000;0.569016
5557.000000;0.569161
5556.000000;0.569319
5555.000000;0.569456
5554.000000;0.569568
5553.000000;0.569665
5552.000000;0.569745
5551.000000;0.569789
5550.000000;0.569803
5549.000000;0.569829
5548.000000;0.569905
5547.000000;0.570031
5546.000000;0.570183
5545.000000;0.570357
5544.000000;0.570556
5543.000000;0.570763
5542.000000;0.570936
5541.000000;0.571049
5540.000000;0.571110
5539.000000;0.571154
5538.000000;0.571211
5537.000000;0.571299
5536.000000;0.571420
5535.000000;0.571564
5534.000000;0.571719
5533.000000;0.571872
5532.000000;0.572010
5531.000000;0.572119
5530.000000;0.572190
5529.000000;0.572242
5528.000000;0.572305
5527.000000;0.572396
5526.000000;0.572501
5525.000000;0.572596
5524.000000;0.572674
5523.000000;0.572737
5522.000000;0.572783
5521.000000;0.572814
5520.000000;0.572851
5519.000000;0.572932
5518.000000;0.573073
5517.000000;0.573261
5516.000000;0.573461
5515.000000;0.573648
5514.000000;0.573805
5513.000000;0.573913
5512.000000;0.573969
5511.000000;0.574013
5510.000000;0.574107
5509.000000;0.574269
5508.000000;0.574432
5507.000000;0.574507
5506.000000;0.574481
5505.000000;0.574426
5504.000000;0.574413
5503.000000;0.574461
5502.000000;0.574560
5501.000000;0.574723
5500.000000;0.574955
5499.000000;0.575215
5498.000000;0.575427
5497.000000;0.575556
5496.000000;0.575631
5495.000000;0.575697
5494.000000;0.575772
5493.000000;0.575841
5492.000000;0.575895
5491.000000;0.575935
5490.000000;0.575963
5489.000000;0.575974
5488.000000;0.575966
5487.000000;0.575956
5486.000000;0.575985
5485.000000;0.576092
5484.000000;0.576294
5483.000000;0.576571
5482.000000;0.576880
5481.000000;0.577165
5480.000000;0.577381
5479.000000;0.577507
5478.000000;0.577573
5477.000000;0.577623
5476.000000;0.577662
5475.000000;0.577640
5474.000000;0.577527
5473.000000;0.577367
5472.000000;0.577255
5471.000000;0.577258
5470.000000;0.577388
5469.000000;0.577622
5468.000000;0.577908
5467.000000;0.578170
5466.000000;0.578353
5465.000000;0.578460
5464.000000;0.578548
5463.000000;0.578663
5462.000000;0.578792
5461.000000;0.578888
5460.000000;0.578919
5459.000000;0.578913
5458.000000;0.578930
5457.000000;0.579020
5456.000000;0.579189
5455.000000;0.579408
5454.000000;0.579641
5453.000000;0.579859
5452.000000;0.580041
5451.000000;0.580180
5450.000000;0.580285
5449.000000;0.580373
5448.000000;0.580440
5447.000000;0.580470
5446.000000;0.580459
5445.000000;0.580456
5444.000000;0.580535
5443.000000;0.580732
5442.000000;0.580990
5441.000000;0.581208
5440.000000;0.581339
5439.000000;0.581425
5438.000000;0.581533
5437.000000;0.581697
5436.000000;0.581903
5435.000000;0.582116
5434.000000;0.582303
5433.000000;0.582440
5432.000000;0.582542
5431.000000;0.582677
5430.000000;0.582899
5429.000000;0.583175
5428.000000;0.583422
5427.000000;0.583599
5426.000000;0.583741
5425.000000;0.583910
5424.000000;0.584137
5423.000000;0.584409
5422.000000;0.584687
5421.000000;0.584924
5420.000000;0.585104
5419.000000;0.585253
5418.000000;0.585404
5417.000000;0.585563
5416.000000;0.585726
5415.000000;0.585898
5414.000000;0.586098
5413.000000;0.586316
5412.000000;0.586529
5411.000000;0.586748
5410.000000;0.587043
5409.000000;0.587444
5408.000000;0.587880
5407.000000;0.588244
5406.000000;0.588510
5405.000000;0.588743
5404.000000;0.589008
5403.000000;0.589314
5402.000000;0.589635
5401.000000;0.589932
5400.000000;0.590179
5399.000000;0.590380
5398.000000;0.590586
5397.000000;0.590854
5396.000000;0.591178
5395.000000;0.591486
5394.000000;0.591714
5393.000000;0.591879
5392.000000;0.592061
5391.000000;0.592332
5390.000000;0.592712
5389.000000;0.593179
5388.000000;0.593681
5387.000000;0.594143
5386.000000;0.594515
5385.000000;0.594827
5384.000000;0.595149
5383.000000;0.595526
5382.000000;0.595970
5381.000000;0.596466
5380.000000;0.596994
5379.000000;0.597534
5378.000000;0.598065
5377.000000;0.598575
5376.000000;0.599062
5375.000000;0.599539
5374.000000;0.600040
5373.000000;0.600596
5372.000000;0.601182
5371.000000;0.601726
5370.000000;0.602195
5369.000000;0.602652
5368.000000;0.603203
5367.000000;0.603883
5366.000000;0.604603
5365.000000;0.605233
5364.000000;0.605723
5363.000000;0.606127
5362.000000;0.606553
5361.000000;0.607089
5360.000000;0.607777
5359.000000;0.608590
5358.000000;0.609435
5357.000000;0.610193
5356.000000;0.610807
5355.000000;0.611310
5354.000000;0.611795
5353.000000;0.612348
5352.000000;0.612978
5351.000000;0.613600
5350.000000;0.614106
5349.000000;0.614465
5348.000000;0.614768
5347.000000;0.615134
5346.000000;0.615588
5345.000000;0.616066
5344.000000;0.616532
5343.000000;0.616986
5342.000000;0.617394
5341.000000;0.617702
5340.000000;0.617929
5339.000000;0.618160
5338.000000;0.618431
5337.000000;0.618669
5336.000000;0.618782
5335.000000;0.618745
5334.000000;0.618538
5333.000000;0.618090
5332.000000;0.617371
5331.000000;0.616426
5330.000000;0.615213
5329.000000;0.613553
5328.000000;0.611378
5327.000000;0.608943
5326.000000;0.606537
5325.000000;0.604034
5324.000000;0.600994
5323.000000;0.597187
5322.000000;0.592740
5321.000000;0.587784
5320.000000;0.582199
5319.000000;0.575798
5318.000000;0.568514
5317.000000;0.560246
5316.000000;0.550692
5315.000000;0.539506
5314.000000;0.526586
5313.000000;0.512141
5312.000000;0.496480
5311.000000;0.479629
5310.000000;0.461093
5309.000000;0.440316
5308.000000;0.417419
5307.000000;0.392949
5306.000000;0.366664
5305.000000;0.337620
5304.000000;0.306039
5303.000000;0.273936
5302.000000;0.243170
5301.000000;0.214132
5300.000000;0.187147
5299.000000;0.164040
5298.000000;0.148072
5297.000000;0.142651
5296.000000;0.148329
5295.000000;0.161727
5294.000000;0.180149
5293.000000;0.204199
5292.000000;0.233377
5291.000000;0.263655
5290.000000;0.290883
5289.000000;0.313319
5288.000000;0.331602
5287.000000;0.348799
5286.000000;0.368466
5285.000000;0.390128
5284.000000;0.408763
5283.000000;0.421410
5282.000000;0.431273
5281.000000;0.442187
5280.000000;0.452945
5279.000000;0.460534
5278.000000;0.465374
5277.000000;0.469557
5276.000000;0.473198
5275.000000;0.476279
5274.000000;0.481099
5273.000000;0.488985
5272.000000;0.497048
5271.000000;0.501757
5270.000000;0.503651
5269.000000;0.505363
5268.000000;0.507705
5267.000000;0.510939
5266.000000;0.516863
5265.000000;0.525711
5264.000000;0.533403
5263.000000;0.535722
5262.000000;0.533345
5261.000000;0.529504
5260.000000;0.525535
5259.000000;0.522150
5258.000000;0.522030
5257.000000;0.526900
5256.000000;0.533599
5255.000000;0.536816
5254.000000;0.535013
5253.000000;0.530964
5252.000000;0.528053
5251.000000;0.528635
5250.000000;0.533779
5249.000000;0.541361
5248.000000;0.546171
5247.000000;0.545280
5246.000000;0.541740
5245.000000;0.540083
5244.000000;0.540427
5243.000000;0.539907
5242.000000;0.537666
5241.000000;0.535078
5240.000000;0.532802
5239.000000;0.530853
5238.000000;0.530132
5237.000000;0.531060
5236.000000;0.532030
5235.000000;0.531943
5234.000000;0.532702
5233.000000;0.536234
5232.000000;0.540609
5231.000000;0.542093
5230.000000;0.540091
5229.000000;0.537432
5228.000000;0.536707
5227.000000;0.538794
5226.000000;0.543488
5225.000000;0.548612
5224.000000;0.549889
5223.000000;0.545187
5222.000000;0.538010
5221.000000;0.533957
5220.000000;0.534848
5219.000000;0.538137
5218.000000;0.540768
5217.000000;0.541526
5216.000000;0.540447
5215.000000;0.538463
5214.000000;0.537468
5213.000000;0.538672
5212.000000;0.540985
5211.000000;0.542441
5210.000000;0.542745
5209.000000;0.543027
5208.000000;0.543696
5207.000000;0.544017
5206.000000;0.543446
5205.000000;0.542108
5204.000000;0.540331
5203.000000;0.538614
5202.000000;0.537528
5201.000000;0.536997
5200.000000;0.536442
5199.000000;0.536119
5198.000000;0.537107
5197.000000;0.539390
5196.000000;0.541359
5195.000000;0.542002
5194.000000;0.542157
5193.000000;0.542812
5192.000000;0.543656
5191.000000;0.544097
5190.000000;0.544132
5189.000000;0.543397
5188.000000;0.541121
5187.000000;0.538113
5186.000000;0.536931
5185.000000;0.538685
5184.000000;0.541135
5183.000000;0.541346
5182.000000;0.539199
5181.000000;0.536990
5180.000000;0.536623
5179.000000;0.538359
5178.000000;0.541170
5177.000000;0.543215
5176.000000;0.542966
5175.000000;0.540887
5174.000000;0.539163
5173.000000;0.539338
5172.000000;0.541115
5171.000000;0.543418
5170.000000;0.545179
5169.000000;0.544877
5168.000000;0.541401
5167.000000;0.536281
5166.000000;0.533072
5165.000000;0.533653
5164.000000;0.536652
5163.000000;0.539724
5162.000000;0.541511
5161.000000;0.541113
5160.000000;0.538280
5159.000000;0.535284
5158.000000;0.536084
5157.000000;0.541800
5156.000000;0.548501
5155.000000;0.550866
5154.000000;0.547318
5153.000000;0.540642
5152.000000;0.534922
5151.000000;0.533045
5150.000000;0.535342
5149.000000;0.539180
5148.000000;0.541112
5147.000000;0.540313
5146.000000;0.538804
5145.000000;0.537983
5144.000000;0.536914
5143.000000;0.534828
5142.000000;0.533072
5141.000000;0.533134
5140.000000;0.534447
5139.000000;0.535618
5138.000000;0.536283
5137.000000;0.536482
5136.000000;0.535780
5135.000000;0.534420
5134.000000;0.533800
5133.000000;0.534463
5132.000000;0.535032
5131.000000;0.534263
5130.000000;0.532808
5129.000000;0.531879
5128.000000;0.531599
5127.000000;0.531812
5126.000000;0.533041
5125.000000;0.535394
5124.000000;0.537633
5123.000000;0.538419
5122.000000;0.537678
5121.000000;0.535991
5120.000000;0.533737
5119.000000;0.531766
5118.000000;0.531646
5117.000000;0.533976
5116.000000;0.537169
5115.000000;0.538894
5114.000000;0.538219
5113.000000;0.535980
5112.000000;0.533958
5111.000000;0.534021
5110.000000;0.536609
5109.000000;0.539491
5108.000000;0.539533
5107.000000;0.536362
5106.000000;0.532740
5105.000000;0.530973
5104.000000;0.530830
5103.000000;0.531250
5102.000000;0.531974
5101.000000;0.532677
5100.000000;0.532493
5099.000000;0.531590
5098.000000;0.531592
5097.000000;0.533316
5096.000000;0.535541
5095.000000;0.536753
5094.000000;0.536608
5093.000000;0.535029
5092.000000;0.531769
5091.000000;0.527902
5090.000000;0.525838
5089.000000;0.526532
5088.000000;0.528293
5087.000000;0.529419
5086.000000;0.530194
5085.000000;0.531145
5084.000000;0.531358
5083.000000;0.530172
5082.000000;0.528922
5081.000000;0.529146
5080.000000;0.530332
5079.000000;0.531103
5078.000000;0.531465
5077.000000;0.532047
5076.000000;0.532014
5075.000000;0.529693
5074.000000;0.525027
5073.000000;0.520058
5072.000000;0.517060
5071.000000;0.516909
5070.000000;0.518830
5069.000000;0.520892
5068.000000;0.521224
5067.000000;0.519383
5066.000000;0.516404
5065.000000;0.513668
5064.000000;0.512339
5063.000000;0.513453
5062.000000;0.517098
5061.000000;0.521314
5060.000000;0.523313
5059.000000;0.522519
5058.000000;0.520935
5057.000000;0.520058
5056.000000;0.519259
5055.000000;0.517688
5054.000000;0.515934
5053.000000;0.514834
5052.000000;0.514272
5051.000000;0.514160
5050.000000;0.515044
5049.000000;0.516677
5048.000000;0.517528
5047.000000;0.516743
5046.000000;0.515303
5045.000000;0.514451
5044.000000;0.514179
5043.000000;0.513992
5042.000000;0.513891
5041.000000;0.513652
5040.000000;0.512426
5039.000000;0.510163
5038.000000;0.508231
5037.000000;0.507524
5036.000000;0.507086
5035.000000;0.505564
5034.000000;0.503028
5033.000000;0.500353
5032.000000;0.497889
5031.000000;0.495838
5030.000000;0.494984
5029.000000;0.495740
5028.000000;0.496888
5027.000000;0.496323
5026.000000;0.492982
5025.000000;0.487592
5024.000000;0.482155
5023.000000;0.478949
5022.000000;0.479126
5021.000000;0.481634
5020.000000;0.483971
5019.000000;0.484462
5018.000000;0.483291
5017.000000;0.481359
5016.000000;0.479286
5015.000000;0.477548
5014.000000;0.476275
5013.000000;0.474747
5012.000000;0.472277
5011.000000;0.469633
5010.000000;0.468223
5009.000000;0.467862
5008.000000;0.467004
5007.000000;0.465304
5006.000000;0.463969
5005.000000;0.463227
5004.000000;0.461579
5003.000000;0.458364
5002.000000;0.455076
5001.000000;0.453072
5000.000000;0.451797
4999.000000;0.450452
4998.000000;0.449676
4997.000000;0.449993
4996.000000;0.450007
4995.000000;0.447833
4994.000000;0.443392
4993.000000;0.438000
4992.000000;0.432636
4991.000000;0.427824
4990.000000;0.424286
4989.000000;0.422351
4988.000000;0.421264
4987.000000;0.420161
4986.000000;0.419201
4985.000000;0.418860
4984.000000;0.418593
4983.000000;0.417121
4982.000000;0.413738
4981.000000;0.408623
4980.000000;0.402349
4979.000000;0.395741
4978.000000;0.389815
4977.000000;0.385256
4976.000000;0.382194
4975.000000;0.380586
4974.000000;0.380144
4973.000000;0.379894
4972.000000;0.378703
4971.000000;0.376477
4970.000000;0.373866
4969.000000;0.370723
4968.000000;0.366157
4967.000000;0.360204
4966.000000;0.354092
4965.000000;0.348485
4964.000000;0.342882
4963.000000;0.337208
4962.000000;0.332467
4961.000000;0.329139
4960.000000;0.326303
4959.000000;0.323186
4958.000000;0.320247
4957.000000;0.317787
4956.000000;0.314803
4955.000000;0.310359
4954.000000;0.304965
4953.000000;0.299601
4952.000000;0.294320
4951.000000;0.288897
4950.000000;0.283895
4949.000000;0.279886
4948.000000;0.276342
4947.000000;0.272311
4946.000000;0.267744
4945.000000;0.263131
4944.000000;0.258439
4943.000000;0.253331
4942.000000;0.248024
4941.000000;0.243063
4940.000000;0.238488
4939.000000;0.233849
4938.000000;0.228797
4937.000000;0.223264
4936.000000;0.217503
4935.000000;0.212138
4934.000000;0.207541
4933.000000;0.203001
4932.000000;0.197337
4931.000000;0.190621
4930.000000;0.184425
4929.000000;0.179928
4928.000000;0.176630
4927.000000;0.173218
4926.000000;0.168701
4925.000000;0.162472
4924.000000;0.154534
4923.000000;0.146390
4922.000000;0.140437
4921.000000;0.137496
4920.000000;0.135821
4919.000000;0.133179
4918.000000;0.128913
4917.000000;0.123427
4916.000000;0.116934
4915.000000;0.109770
4914.000000;0.102871
4913.000000;0.096680
4912.000000;0.090239
4911.000000;0.082500
4910.000000;0.074142
4909.000000;0.066943
4908.000000;0.061640
4907.000000;0.057410
4906.000000;0.053240
4905.000000;0.048749
4904.000000;0.043853
4903.000000;0.038558
4902.000000;0.033057
4901.000000;0.027489
4900.000000;0.021637
4899.000000;0.015322
4898.000000;0.009015
4897.000000;0.003532
4896.000000;-0.000920
4895.000000;-0.005023
4894.000000;-0.009677
4893.000000;-0.015313
4892.000000;-0.021694
4891.000000;-0.027950
4890.000000;-0.032878
4889.000000;-0.035683
4888.000000;-0.036681
4887.000000;-0.037193
4886.000000;-0.038600
4885.000000;-0.041434
4884.000000;-0.045229
4883.000000;-0.049072
4882.000000;-0.052296
4881.000000;-0.054821
4880.000000;-0.057017
4879.000000;-0.059305
4878.000000;-0.061824
4877.000000;-0.064339
4876.000000;-0.066559
4875.000000;-0.068586
4874.000000;-0.070778
4873.000000;-0.072993
4872.000000;-0.074354
4871.000000;-0.074220
4870.000000;-0.073085
4869.000000;-0.071977
4868.000000;-0.071130
4867.000000;-0.069940
4866.000000;-0.068184
4865.000000;-0.066553
4864.000000;-0.065788
4863.000000;-0.065647
4862.000000;-0.065067
4861.000000;-0.063201
4860.000000;-0.060130
4859.000000;-0.056820
4858.000000;-0.054406
4857.000000;-0.053218
4856.000000;-0.052394
4855.000000;-0.050640
4854.000000;-0.047473
4853.000000;-0.043578
4852.000000;-0.039839
4851.000000;-0.036260
4850.000000;-0.032144
4849.000000;-0.027253
4848.000000;-0.022422
4847.000000;-0.018718
4846.000000;-0.016192
4845.000000;-0.013919
4844.000000;-0.011210
4843.000000;-0.008216
4842.000000;-0.005165
4841.000000;-0.001625
4840.000000;0.002936
4839.000000;0.008267
4838.000000;0.013556
4837.000000;0.018303
4836.000000;0.022485
4835.000000;0.026153
4834.000000;0.029523
4833.000000;0.033218
4832.000000;0.037679
4831.000000;0.042377
4830.000000;0.046362
4829.000000;0.049605
4828.000000;0.053058
4827.000000;0.057289
4826.000000;0.061826
4825.000000;0.066042
4824.000000;0.069935
4823.000000;0.073677
4822.000000;0.077138
4821.000000;0.080374
4820.000000;0.084005
4819.000000;0.088514
4818.000000;0.093506
4817.000000;0.098162
4816.000000;0.102129
4815.000000;0.105571
4814.000000;0.108691
4813.000000;0.111698
4812.000000;0.115035
4811.000000;0.119069
4810.000000;0.123576
4809.000000;0.127897
4808.000000;0.131657
4807.000000;0.135005
4806.000000;0.138265
4805.000000;0.141592
4804.000000;0.145017
4803.000000;0.148559
4802.000000;0.152157
4801.000000;0.155698
4800.000000;0.159133
4799.000000;0.162521
4798.000000;0.165921
4797.000000;0.169277
4796.000000;0.172463
4795.000000;0.175475
4794.000000;0.178565
4793.000000;0.182081
4792.000000;0.186045
4791.000000;0.189950
4790.000000;0.193183
4789.000000;0.195618
4788.000000;0.197667
4787.000000;0.199774
4786.000000;0.202119
4785.000000;0.204779
4784.000000;0.207864
4783.000000;0.211303
4782.000000;0.214714
4781.000000;0.217698
4780.000000;0.220221
4779.000000;0.222617
4778.000000;0.225291
4777.000000;0.228417
4776.000000;0.231777
4775.000000;0.234836
4774.000000;0.237174
4773.000000;0.238974
4772.000000;0.240940
4771.000000;0.243579
4770.000000;0.246690
4769.000000;0.249692
4768.000000;0.252274
4767.000000;0.254558
4766.000000;0.256724
4765.000000;0.258774
4764.000000;0.260716
4763.000000;0.262741
4762.000000;0.265068
4761.000000;0.267695
4760.000000;0.270428
4759.000000;0.273120
4758.000000;0.275755
4757.000000;0.278277
4756.000000;0.280515
4755.000000;0.282401
4754.000000;0.284187
4753.000000;0.286234
4752.000000;0.288562
4751.000000;0.290820
4750.000000;0.292776
4749.000000;0.294639
4748.000000;0.296739
4747.000000;0.299047
4746.000000;0.301215
4745.000000;0.303018
4744.000000;0.304545
4743.000000;0.306002
4742.000000;0.307568
4741.000000;0.309380
4740.000000;0.311434
4739.000000;0.313494
4738.000000;0.315319
4737.000000;0.317003
4736.000000;0.318895
4735.000000;0.321138
4734.000000;0.323459
4733.000000;0.325493
4732.000000;0.327120
4731.000000;0.328467
4730.000000;0.329745
4729.000000;0.331186
4728.000000;0.332948
4727.000000;0.334984
4726.000000;0.337081
4725.000000;0.339053
4724.000000;0.340767
4723.000000;0.342032
4722.000000;0.342732
4721.000000;0.343162
4720.000000;0.343958
4719.000000;0.345497
4718.000000;0.347504
4717.000000;0.349445
4716.000000;0.351144
4715.000000;0.352835
4714.000000;0.354690
4713.000000;0.356575
4712.000000;0.358253
4711.000000;0.359645
4710.000000;0.360834
4709.000000;0.361932
4708.000000;0.363016
4707.000000;0.364134
4706.000000;0.365332
4705.000000;0.366637
4704.000000;0.367994
4703.000000;0.369244
4702.000000;0.370274
4701.000000;0.371200
4700.000000;0.372280
4699.000000;0.373615
4698.000000;0.375044
4697.000000;0.376405
4696.000000;0.377745
4695.000000;0.379179
4694.000000;0.380687
4693.000000;0.382184
4692.000000;0.383687
4691.000000;0.385226
4690.000000;0.386650
4689.000000;0.387729
4688.000000;0.388459
4687.000000;0.389123
4686.000000;0.390017
4685.000000;0.391187
4684.000000;0.392437
4683.000000;0.393515
4682.000000;0.394300
4681.000000;0.394889
4680.000000;0.395538
4679.000000;0.396448
4678.000000;0.397617
4677.000000;0.398883
4676.000000;0.400099
4675.000000;0.401224
4674.000000;0.402301
4673.000000;0.403409
4672.000000;0.404592
4671.000000;0.405791
4670.000000;0.406901
4669.000000;0.407903
4668.000000;0.408885
4667.000000;0.409856
4666.000000;0.410685
4665.000000;0.411311
4664.000000;0.411927
4663.000000;0.412784
4662.000000;0.413864
4661.000000;0.414898
4660.000000;0.415709
4659.000000;0.416389
4658.000000;0.417124
4657.000000;0.417990
4656.000000;0.418945
4655.000000;0.419893
4654.000000;0.420734
4653.000000;0.421434
4652.000000;0.422096
4651.000000;0.422872
4650.000000;0.423773
4649.000000;0.424629
4648.000000;0.425297
4647.000000;0.425820
4646.000000;0.426350
4645.000000;0.427001
4644.000000;0.427790
4643.000000;0.428665
4642.000000;0.429531
4641.000000;0.430324
4640.000000;0.431097
4639.000000;0.431972
4638.000000;0.432943
4637.000000;0.433794
4636.000000;0.434298
4635.000000;0.434493
4634.000000;0.434684
4633.000000;0.435184
4632.000000;0.436078
4631.000000;0.437195
4630.000000;0.438258
4629.000000;0.439077
4628.000000;0.439675
4627.000000;0.440224
4626.000000;0.440849
4625.000000;0.441486
4624.000000;0.441984
4623.000000;0.442327
4622.000000;0.442695
4621.000000;0.443284
4620.000000;0.444082
4619.000000;0.444890
4618.000000;0.445526
4617.000000;0.445986
4616.000000;0.446379
4615.000000;0.446775
4614.000000;0.447162
4613.000000;0.447532
4612.000000;0.447934
4611.000000;0.448402
4610.000000;0.448870
4609.000000;0.449216
4608.000000;0.449414
4607.000000;0.449610
4606.000000;0.450001
4605.000000;0.450664
4604.000000;0.451491
4603.000000;0.452289
4602.000000;0.452950
4601.000000;0.453503
4600.000000;0.454027
4599.000000;0.454543
4598.000000;0.455010
4597.000000;0.455414
4596.000000;0.455808
4595.000000;0.456254
4594.000000;0.456774
4593.000000;0.457367
4592.000000;0.458030
4591.000000;0.458712
4590.000000;0.459299
4589.000000;0.459707
4588.000000;0.459979
4587.000000;0.460243
4586.000000;0.460557
4585.000000;0.460853
4584.000000;0.461057
4583.000000;0.461216
4582.000000;0.461449
4581.000000;0.461794
4580.000000;0.462168
4579.000000;0.462480
4578.000000;0.462744
4577.000000;0.463036
4576.000000;0.463380
4575.000000;0.463729
4574.000000;0.464061
4573.000000;0.464423
4572.000000;0.464835
4571.000000;0.465216
4570.000000;0.465477
4569.000000;0.465649
4568.000000;0.465845
4567.000000;0.466123
4566.000000;0.466448
4565.000000;0.466777
4564.000000;0.467101
4563.000000;0.467400
4562.000000;0.467658
4561.000000;0.467931
4560.000000;0.468296
4559.000000;0.468704
4558.000000;0.468961
4557.000000;0.468935
4556.000000;0.468714
4555.000000;0.468513
4554.000000;0.468481
4553.000000;0.468656
4552.000000;0.469024
4551.000000;0.469514
4550.000000;0.469989
4549.000000;0.470342
4548.000000;0.470597
4547.000000;0.470849
4546.000000;0.471120
4545.000000;0.471338
4544.000000;0.471452
4543.000000;0.471494
4542.000000;0.471524
4541.000000;0.471572
4540.000000;0.471633
4539.000000;0.471676
4538.000000;0.471668
4537.000000;0.471646
4536.000000;0.471712
4535.000000;0.471901
4534.000000;0.472084
4533.000000;0.472112
4532.000000;0.472038
4531.000000;0.472114
4530.000000;0.472525
4529.000000;0.473200
4528.000000;0.473893
4527.000000;0.474363
4526.000000;0.474475
4525.000000;0.474233
4524.000000;0.473801
4523.000000;0.473434
4522.000000;0.473302
4521.000000;0.473374
4520.000000;0.473505
4519.000000;0.473605
4518.000000;0.473692
4517.000000;0.473821
4516.000000;0.474012
4515.000000;0.474246
4514.000000;0.474492
4513.000000;0.474723
4512.000000;0.474939
4511.000000;0.475175
4510.000000;0.475463
4509.000000;0.475783
4508.000000;0.476061
4507.000000;0.476221
4506.000000;0.476248
4505.000000;0.476195
4504.000000;0.476129
4503.000000;0.476057
4502.000000;0.475929
4501.000000;0.475727
4500.000000;0.475547
4499.000000;0.475554
4498.000000;0.475817
4497.000000;0.476206
4496.000000;0.476468
4495.000000;0.476440
4494.000000;0.476192
4493.000000;0.475955
4492.000000;0.475921
4491.000000;0.476084
4490.000000;0.476269
4489.000000;0.476314
4488.000000;0.476210
4487.000000;0.476089
4486.000000;0.476084
4485.000000;0.476215
4484.000000;0.476402
4483.000000;0.476573
4482.000000;0.476726
4481.000000;0.476881
4480.000000;0.476995
4479.000000;0.476991
4478.000000;0.476869
4477.000000;0.476741
4476.000000;0.476717
4475.000000;0.476794
4474.000000;0.476911
4473.000000;0.477066
4472.000000;0.477285
4471.000000;0.477511
4470.000000;0.477618
4469.000000;0.477547
4468.000000;0.477366
4467.000000;0.477171
4466.000000;0.476980
4465.000000;0.476751
4464.000000;0.476450
4463.000000;0.476098
4462.000000;0.475800
4461.000000;0.475722
4460.000000;0.475928
4459.000000;0.476236
4458.000000;0.476343
4457.000000;0.476139
4456.000000;0.475817
4455.000000;0.475593
4454.000000;0.475447
4453.000000;0.475238
4452.000000;0.474969
4451.000000;0.474776
4450.000000;0.474699
4449.000000;0.474613
4448.000000;0.474428
4447.000000;0.474214
4446.000000;0.474104
4445.000000;0.474138
4444.000000;0.474282
4443.000000;0.474514
4442.000000;0.474822
4441.000000;0.475112
4440.000000;0.475196
4439.000000;0.474930
4438.000000;0.474381
4437.000000;0.473809
4436.000000;0.473449
4435.000000;0.473296
4434.000000;0.473155
4433.000000;0.472902
4432.000000;0.472649
4431.000000;0.472614
4430.000000;0.472873
4429.000000;0.473237
4428.000000;0.473357
4427.000000;0.472991
4426.000000;0.472259
4425.000000;0.471617
4424.000000;0.471461
4423.000000;0.471716
4422.000000;0.471932
4421.000000;0.471791
4420.000000;0.471387
4419.000000;0.470978
4418.000000;0.470667
4417.000000;0.470439
4416.000000;0.470298
4415.000000;0.470162
4414.000000;0.469779
4413.000000;0.468993
4412.000000;0.468038
4411.000000;0.467312
4410.000000;0.466894
4409.000000;0.466511
4408.000000;0.465987
4407.000000;0.465483
4406.000000;0.465218
4405.000000;0.465153
4404.000000;0.465089
4403.000000;0.464910
4402.000000;0.464589
4401.000000;0.464077
4400.000000;0.463344
4399.000000;0.462481
4398.000000;0.461651
4397.000000;0.460950
4396.000000;0.460341
4395.000000;0.459696
4394.000000;0.458884
4393.000000;0.457908
4392.000000;0.456994
4391.000000;0.456417
4390.000000;0.456162
4389.000000;0.455818
4388.000000;0.454965
4387.000000;0.453633
4386.000000;0.452284
4385.000000;0.451337
4384.000000;0.450802
4383.000000;0.450381
4382.000000;0.449819
4381.000000;0.449088
4380.000000;0.448265
4379.000000;0.447387
4378.000000;0.446448
4377.000000;0.445472
4376.000000;0.444496
4375.000000;0.443478
4374.000000;0.442311
4373.000000;0.440933
4372.000000;0.439385
4371.000000;0.437730
4370.000000;0.436000
4369.000000;0.434258
4368.000000;0.432679
4367.000000;0.431491
4366.000000;0.430784
4365.000000;0.430348
4364.000000;0.429702
4363.000000;0.428432
4362.000000;0.426629
4361.000000;0.424918
4360.000000;0.423836
4359.000000;0.423213
4358.000000;0.422366
4357.000000;0.420963
4356.000000;0.419421
4355.000000;0.418302
4354.000000;0.417527
4353.000000;0.416458
4352.000000;0.414651
4351.000000;0.412280
4350.000000;0.409867
4349.000000;0.407810
4348.000000;0.406222
4347.000000;0.405037
4346.000000;0.404121
4345.000000;0.403308
4344.000000;0.402412
4343.000000;0.401279
4342.000000;0.399897
4341.000000;0.398391
4340.000000;0.396842
4339.000000;0.395160
4338.000000;0.393259
4337.000000;0.391310
4336.000000;0.389572
4335.000000;0.387980
4334.000000;0.386166
4333.000000;0.383982
4332.000000;0.381726
4331.000000;0.379718
4330.000000;0.377925
4329.000000;0.376182
4328.000000;0.374530
4327.000000;0.373070
4326.000000;0.371686
4325.000000;0.370192
4324.000000;0.368584
4323.000000;0.366912
4322.000000;0.365074
4321.000000;0.362964
4320.000000;0.360713
4319.000000;0.358579
4318.000000;0.356735
4317.000000;0.355318
4316.000000;0.354378
4315.000000;0.353554
4314.000000;0.352148
4313.000000;0.349924
4312.000000;0.347578
4311.000000;0.345905
4310.000000;0.344762
4309.000000;0.343381
4308.000000;0.341577
4307.000000;0.340017
4306.000000;0.339200
4305.000000;0.338758
4304.000000;0.337966
4303.000000;0.336532
4302.000000;0.334607
4301.000000;0.332318
4300.000000;0.329627
4299.000000;0.326634
4298.000000;0.323871
4297.000000;0.322132
4296.000000;0.321751
4295.000000;0.322007
4294.000000;0.321634
4293.000000;0.320195
4292.000000;0.318600
4291.000000;0.317797
4290.000000;0.317393
4289.000000;0.316339
4288.000000;0.314693
4287.000000;0.313840
4286.000000;0.314820
4285.000000;0.317168
4284.000000;0.319666
4283.000000;0.321721
4282.000000;0.323693
4281.000000;0.326199
4280.000000;0.329310
4279.000000;0.332208
4278.000000;0.333727
4277.000000;0.333730
4276.000000;0.333802
4275.000000;0.335924
4274.000000;0.340293
4273.000000;0.345139
4272.000000;0.348907
4271.000000;0.351709
4270.000000;0.354274
4269.000000;0.356696
4268.000000;0.359110
4267.000000;0.362551
4266.000000;0.367781
4265.000000;0.373681
4264.000000;0.378184
4263.000000;0.380866
4262.000000;0.383461
4261.000000;0.387597
4260.000000;0.393203
4259.000000;0.399627
4258.000000;0.407050
4257.000000;0.415962
4256.000000;0.425957
4255.000000;0.435852
4254.000000;0.444836
4253.000000;0.452900
4252.000000;0.460171
4251.000000;0.466482
4250.000000;0.471848
4249.000000;0.476986
4248.000000;0.483081
4247.000000;0.490963
4246.000000;0.500441
4245.000000;0.510374
4244.000000;0.519926
4243.000000;0.528806
4242.000000;0.537198
4241.000000;0.544875
4240.000000;0.551476
4239.000000;0.557707
4238.000000;0.565530
4237.000000;0.576458
4236.000000;0.589737
4235.000000;0.602550
4234.000000;0.612241
4233.000000;0.618373
4232.000000;0.622757
4231.000000;0.627638
4230.000000;0.633957
4229.000000;0.641335
4228.000000;0.649419
4227.000000;0.658512
4226.000000;0.668611
4225.000000;0.678714
4224.000000;0.688018
4223.000000;0.697275
4222.000000;0.707568
4221.000000;0.717857
4220.000000;0.725400
4219.000000;0.729312
4218.000000;0.732483
4217.000000;0.738731
4216.000000;0.748950
4215.000000;0.761064
4214.000000;0.772848
4213.000000;0.783612
4212.000000;0.793444
4211.000000;0.802220
4210.000000;0.809929
4209.000000;0.817209
4208.000000;0.824952
4207.000000;0.833746
4206.000000;0.843873
4205.000000;0.855055
4204.000000;0.865907
4203.000000;0.874560
4202.000000;0.880568
4201.000000;0.885721
4200.000000;0.892236
4199.000000;0.900503
4198.000000;0.909162
4197.000000;0.916914
4196.000000;0.923636
4195.000000;0.930097
4194.000000;0.937483
4193.000000;0.946988
4192.000000;0.958772
4191.000000;0.971250
4190.000000;0.982284
4189.000000;0.991464
4188.000000;1.000177
4187.000000;1.008942
4186.000000;1.016495
4185.000000;1.022276
4184.000000;1.028237
4183.000000;1.036866
4182.000000;1.047959
4181.000000;1.058844
4180.000000;1.067874
4179.000000;1.076315
4178.000000;1.086875
4177.000000;1.101685
4176.000000;1.120689
4175.000000;1.139842
4174.000000;1.151495
4173.000000;1.150205
4172.000000;1.140349
4171.000000;1.133296
4170.000000;1.135778
4169.000000;1.146308
4168.000000;1.161354
4167.000000;1.179292
4166.000000;1.197740
4165.000000;1.211888
4164.000000;1.218649
4163.000000;1.220101
4162.000000;1.219392
4161.000000;1.216725
4160.000000;1.213255
4159.000000;1.214424
4158.000000;1.224242
4157.000000;1.238151
4156.000000;1.247198
4155.000000;1.249679
4154.000000;1.252886
4153.000000;1.262010
4152.000000;1.272801
4151.000000;1.278763
4150.000000;1.280081
4149.000000;1.282616
4148.000000;1.291766
4147.000000;1.308075
4146.000000;1.328519
4145.000000;1.350478
4144.000000;1.373319
4143.000000;1.395819
4142.000000;1.411794
4141.000000;1.411914
4140.000000;1.394428
4139.000000;1.370492
4138.000000;1.354971
4137.000000;1.354891
4136.000000;1.365723
4135.000000;1.376889
4134.000000;1.381555
4133.000000;1.379366
4132.000000;1.374518
4131.000000;1.374034
4130.000000;1.382141
4129.000000;1.398292
4128.000000;1.416397
4127.000000;1.429049
4126.000000;1.440665
4125.000000;1.462696
4124.000000;1.499615
4123.000000;1.544345
4122.000000;1.580024
4121.000000;1.594362
4120.000000;1.592147
4119.000000;1.583296
4118.000000;1.566943
4117.000000;1.538451
4116.000000;1.506082
4115.000000;1.487016
4114.000000;1.491511
4113.000000;1.512303
4112.000000;1.527210
4111.000000;1.523904
4110.000000;1.516809
4109.000000;1.524053
4108.000000;1.541962
4107.000000;1.551024
4106.000000;1.545926
4105.000000;1.545655
4104.000000;1.567829
4103.000000;1.606619
4102.000000;1.629394
4101.000000;1.611182
4100.000000;1.572379
4099.000000;1.543531
4098.000000;1.539430
4097.000000;1.561679
4096.000000;1.597047
4095.000000;1.624827
4094.000000;1.633304
4093.000000;1.627800
4092.000000;1.622136
4091.000000;1.626733
4090.000000;1.648214
4089.000000;1.689756
4088.000000;1.740301
4087.000000;1.763073
4086.000000;1.719348
4085.000000;1.639082
4084.000000;1.587000
4083.000000;1.588128
4082.000000;1.628210
4081.000000;1.672344
4080.000000;1.694084
4079.000000;1.696884
4078.000000;1.701235
4077.000000;1.721912
4076.000000;1.759048
4075.000000;1.805656
4074.000000;1.858263
4073.000000;1.916042
4072.000000;1.970797
4071.000000;1.993724
4070.000000;1.945855
4069.000000;1.848454
4068.000000;1.762919
4067.000000;1.717443
4066.000000;1.702770
4065.000000;1.696874
4064.000000;1.701577
4063.000000;1.729405
4062.000000;1.770242
4061.000000;1.820911
4060.000000;1.893074
4059.000000;1.948072
4058.000000;1.921413
4057.000000;1.847170
4056.000000;1.791193
4055.000000;1.773812
4054.000000;1.775832
4053.000000;1.765226
4052.000000;1.740426
4051.000000;1.733416
4050.000000;1.762420
4049.000000;1.806224
4048.000000;1.824177
4047.000000;1.814771
4046.000000;1.818493
4045.000000;1.856621
4044.000000;1.894788
4043.000000;1.888852
4042.000000;1.872427
4041.000000;1.891058
4040.000000;1.941034
4039.000000;1.977776
4038.000000;1.957728
4037.000000;1.905376
4036.000000;1.872609
4035.000000;1.864471
4034.000000;1.849630
4033.000000;1.828863
4032.000000;1.831092
4031.000000;1.865937
4030.000000;1.917697
4029.000000;1.957531
4028.000000;1.972181
4027.000000;1.967960
4026.000000;1.945370
4025.000000;1.901280
4024.000000;1.843944
4023.000000;1.791822
4022.000000;1.764584
4021.000000;1.775532
4020.000000;1.828178
4019.000000;1.908660
4018.000000;1.995068
4017.000000;2.035811
4016.000000;1.988814
4015.000000;1.947606
4014.000000;1.963303
4013.000000;2.002236
4012.000000;2.027280
4011.000000;2.029594
4010.000000;2.010755
4009.000000;1.984528
4008.000000;1.983174
4007.000000;2.027339
4006.000000;2.098938
4005.000000;2.117498
4004.000000;2.034699
4003.000000;1.917203
4002.000000;1.849328
4001.000000;1.873931
4000.000000;2.009395
3999.000000;2.258878
3998.000000;2.544452
3997.000000;2.472952
3996.000000;2.266982
3995.000000;2.188155
3994.000000;2.152688
3993.000000;2.123311
3992.000000;2.140072
3991.000000;2.230046
3990.000000;2.254395
3989.000000;2.155911
3988.000000;2.080045
3987.000000;2.063996
3986.000000;2.071756
3985.000000;2.048583
3984.000000;2.000197
3983.000000;1.981998
3982.000000;2.014821
3981.000000;2.049503
3980.000000;2.050764
3979.000000;2.078223
3978.000000;2.173627
3977.000000;2.293185
3976.000000;2.314265
3975.000000;2.261428
3974.000000;2.219522
3973.000000;2.174377
3972.000000;2.112771
3971.000000;2.056870
3970.000000;2.023624
3969.000000;2.019396
3968.000000;2.042378
3967.000000;2.073319
3966.000000;2.117730
3965.000000;2.185701
3964.000000;2.236216
3963.000000;2.228942
3962.000000;2.206617
3961.000000;2.227168
3960.000000;2.341898
3959.000000;2.510607
3958.000000;2.568637
3957.000000;2.712221
3956.000000;2.497429
3955.000000;2.238926
3954.000000;2.190964
3953.000000;2.307435
3952.000000;2.516781
3951.000000;2.527080
3950.000000;2.369102
3949.000000;2.268782
3948.000000;2.444961
3947.000000;2.516027
3946.000000;2.073805
3945.000000;1.959932
3944.000000;1.987993
3943.000000;2.078014
3942.000000;2.184135
3941.000000;2.258843
3940.000000;2.286251
3939.000000;2.338217
3938.000000;2.421513
3937.000000;2.363261
3936.000000;2.226823
3935.000000;2.145209
3934.000000;2.148565
3933.000000;2.219335
3932.000000;2.290080
3931.000000;2.274207
3930.000000;2.283089
3929.000000;2.423256
3928.000000;2.220529
3927.000000;2.000419
3926.000000;1.983118
3925.000000;2.232366
3924.000000;2.828122
3923.000000;2.206823
3922.000000;2.202260
3921.000000;2.324601
3920.000000;2.045487
3919.000000;1.997034
3918.000000;2.052526
3917.000000;2.129395
3916.000000;2.151555
3915.000000;2.117008
3914.000000;2.078279
3913.000000;2.094557
3912.000000;2.190702
3911.000000;2.338667
3910.000000;2.466688
3909.000000;2.539162
3908.000000;2.510234
3907.000000;2.382597
3906.000000;2.265757
3905.000000;2.207926
3904.000000;2.213975
3903.000000;2.222865
3902.000000;2.172326
3901.000000;2.122583
3900.000000;2.101934
3899.000000;2.119699
3898.000000;2.202638
3897.000000;2.377370
3896.000000;2.666746
3895.000000;2.812512
3894.000000;2.611168
3893.000000;2.404126
3892.000000;2.248549
3891.000000;2.189119
3890.000000;2.247487
3889.000000;2.459501
3888.000000;2.737401
3887.000000;2.771004
3886.000000;2.722343
3885.000000;2.620488
3884.000000;2.467100
3883.000000;2.362216
3882.000000;2.219969
3881.000000;2.015386
3880.000000;1.924752
3879.000000;2.037668
3878.000000;2.461034
3877.000000;2.748534
3876.000000;2.344963
3875.000000;2.175834
3874.000000;2.117649
3873.000000;2.158164
3872.000000;2.275012
3871.000000;2.541477
3870.000000;2.735855
3869.000000;2.490515
3868.000000;2.392725
3867.000000;2.292578
3866.000000;2.415068
3865.000000;2.874059
3864.000000;2.715260
3863.000000;2.488087
3862.000000;2.628178
3861.000000;2.941334
3860.000000;3.555753
3859.000000;3.207659
3858.000000;2.923279
3857.000000;2.836635
3856.000000;2.747756
3855.000000;2.799581
3854.000000;2.777744
3853.000000;2.595237
3852.000000;2.582003
3851.000000;2.941107
3850.000000;2.755379
3849.000000;2.329311
3848.000000;2.143003
3847.000000;2.092614
3846.000000;2.171338
3845.000000;2.415276
3844.000000;2.859295
3843.000000;3.055891
3842.000000;2.891505
3841.000000;2.862421
3840.000000;2.885644
3839.000000;2.908170
3838.000000;3.093143
3837.000000;2.808400
3836.000000;2.507448
3835.000000;2.472583
3834.000000;2.418860
3833.000000;2.258185
3832.000000;2.143767
3831.000000;2.123071
3830.000000;2.190686
3829.000000;2.328214
3828.000000;2.445626
3827.000000;2.415024
3826.000000;2.312814
3825.000000;2.224647
3824.000000;2.170763
3823.000000;2.151331
3822.000000;2.179501
3821.000000;2.264958
3820.000000;2.452155
3819.000000;2.734287
3818.000000;2.598275
3817.000000;2.394739
3816.000000;2.342904
3815.000000;2.392364
3814.000000;2.502877
3813.000000;2.807900
3812.000000;3.273899
3811.000000;2.706869
3810.000000;2.447876
3809.000000;2.358925
3808.000000;2.350558
3807.000000;2.414329
3806.000000;2.494730
3805.000000;2.505708
3804.000000;2.488522
3803.000000;2.550706
3802.000000;2.689241
3801.000000;2.648647
3800.000000;2.492389
3799.000000;2.420592
3798.000000;2.488367
3797.000000;2.885297
3796.000000;2.840656
3795.000000;2.443415
3794.000000;2.316628
3793.000000;2.272291
3792.000000;2.234666
3791.000000;2.210236
3790.000000;2.234263
3789.000000;2.365146
3788.000000;2.482501
3787.000000;2.384296
3786.000000;2.248883
3785.000000;2.313408
3784.000000;2.293293
3783.000000;2.157937
3782.000000;2.189467
3781.000000;2.192265
3780.000000;2.314665
3779.000000;2.385909
3778.000000;2.368285
3777.000000;2.290820
3776.000000;2.305210
3775.000000;2.385185
3774.000000;2.353526
3773.000000;2.381372
3772.000000;2.749176
3771.000000;2.794734
3770.000000;2.483444
3769.000000;2.504851
3768.000000;2.644112
3767.000000;2.638472
3766.000000;2.572311
3765.000000;2.578256
3764.000000;2.759617
3763.000000;2.880825
3762.000000;2.807173
3761.000000;2.712686
3760.000000;2.615110
3759.000000;2.917311
3758.000000;3.238487
3757.000000;2.498381
3756.000000;2.324222
3755.000000;2.431752
3754.000000;2.623187
3753.000000;2.362955
3752.000000;2.157569
3751.000000;2.137506
3750.000000;2.200152
3749.000000;2.376047
3748.000000;2.639972
3747.000000;2.580284
3746.000000;2.376044
3745.000000;2.237126
3744.000000;2.127190
3743.000000;2.065340
3742.000000;2.054014
3741.000000;2.122539
3740.000000;2.294738
3739.000000;2.576345
3738.000000;3.091647
3737.000000;3.190190
3736.000000;2.852619
3735.000000;2.833652
3734.000000;3.145125
3733.000000;3.950958
3732.000000;3.201544
3731.000000;2.734198
3730.000000;2.438116
3729.000000;2.347773
3728.000000;2.409360
3727.000000;2.560280
3726.000000;2.681329
3725.000000;2.656158
3724.000000;2.628303
3723.000000;2.726449
3722.000000;3.037513
3721.000000;3.191580
3720.000000;3.051763
3719.000000;2.779609
3718.000000;2.509215
3717.000000;2.367373
3716.000000;2.327216
3715.000000;2.361404
3714.000000;2.460347
3713.000000;2.520826
3712.000000;2.495835
3711.000000;2.472380
3710.000000;2.676897
3709.000000;3.117902
3708.000000;2.674145
3707.000000;2.482341
3706.000000;2.421262
3705.000000;2.325802
3704.000000;2.258131
3703.000000;2.280572
3702.000000;2.426313
3701.000000;2.490081
3700.000000;2.377188
3699.000000;2.317270
3698.000000;2.338031
3697.000000;2.393492
3696.000000;2.444500
3695.000000;2.455375
3694.000000;2.421778
3693.000000;2.373802
3692.000000;2.281527
3691.000000;2.144826
3690.000000;2.047583
3689.000000;2.050860
3688.000000;2.160608
3687.000000;2.402751
3686.000000;2.934253
3685.000000;3.041623
3684.000000;2.925386
3683.000000;2.838110
3682.000000;2.445356
3681.000000;2.291399
3680.000000;2.288333
3679.000000;2.378525
3678.000000;2.616108
3677.000000;3.088029
3676.000000;4.241203
3675.000000;3.293130
3674.000000;2.626563
3673.000000;2.366120
3672.000000;2.353379
3671.000000;2.561140
3670.000000;2.877413
3669.000000;2.759225
3668.000000;2.766431
3667.000000;3.270481
3666.000000;2.767459
3665.000000;2.361311
3664.000000;2.203506
3663.000000;2.139486
3662.000000;2.173696
3661.000000;2.283560
3660.000000;2.485201
3659.000000;2.806350
3658.000000;2.702879
3657.000000;2.478129
3656.000000;2.476705
3655.000000;2.642504
3654.000000;2.733627
3653.000000;2.455741
3652.000000;2.186643
3651.000000;2.057838
3650.000000;2.064245
3649.000000;2.186710
3648.000000;2.545174
3647.000000;2.929124
3646.000000;2.487080
3645.000000;2.299700
3644.000000;2.272667
3643.000000;2.335848
3642.000000;2.490194
3641.000000;2.637366
3640.000000;2.725601
3639.000000;2.669515
3638.000000;2.895270
3637.000000;2.397690
3636.000000;2.022768
3635.000000;1.855974
3634.000000;1.801328
3633.000000;1.856212
3632.000000;2.158067
3631.000000;3.152244
3630.000000;2.306751
3629.000000;2.297954
3628.000000;2.569156
3627.000000;2.517218
3626.000000;2.456564
3625.000000;2.279856
3624.000000;2.285347
3623.000000;2.321926
3622.000000;2.266167
3621.000000;2.095471
3620.000000;1.972557
3619.000000;1.934358
3618.000000;1.971211
3617.000000;2.348823
3616.000000;2.430513
3615.000000;1.968853
3614.000000;1.866414
3613.000000;1.906907
3612.000000;1.964223
3611.000000;1.831430
3610.000000;1.784605
3609.000000;1.915574
3608.000000;2.080746
3607.000000;2.203884
3606.000000;2.093028
3605.000000;1.947502
3604.000000;1.981667
3603.000000;2.078226
3602.000000;1.984039
3601.000000;1.959333
3600.000000;2.063475
3599.000000;2.192489
3598.000000;1.648530
3597.000000;1.716542
3596.000000;2.243839
3595.000000;2.077932
3594.000000;2.502815
3593.000000;2.562438
3592.000000;2.367497
3591.000000;2.305148
3590.000000;2.065512
3589.000000;1.936199
3588.000000;2.063351
3587.000000;2.115878
3586.000000;2.041282
3585.000000;1.772780
3584.000000;1.722274
3583.000000;1.892979
3582.000000;2.037178
3581.000000;1.954122
3580.000000;1.800626
3579.000000;1.700541
3578.000000;1.718943
3577.000000;1.841093
3576.000000;2.174878
3575.000000;2.678080
3574.000000;2.521168
3573.000000;2.330135
3572.000000;2.155752
3571.000000;2.111353
3570.000000;2.164733
3569.000000;2.277211
3568.000000;2.315042
3567.000000;2.520289
3566.000000;2.807785
3565.000000;2.399371
3564.000000;2.161221
3563.000000;2.036387
3562.000000;1.960833
3561.000000;1.983773
3560.000000;2.102132
3559.000000;2.240666
3558.000000;2.220257
3557.000000;2.119741
3556.000000;2.079166
3555.000000;2.171594
3554.000000;2.276631
3553.000000;2.317258
3552.000000;2.210316
3551.000000;2.111909
3550.000000;2.397483
3549.000000;2.466880
3548.000000;2.033877
3547.000000;1.865525
3546.000000;1.792273
3545.000000;1.779817
3544.000000;1.798755
3543.000000;1.870862
3542.000000;1.952402
3541.000000;1.860944
3540.000000;1.845135
3539.000000;1.908162
3538.000000;1.835908
3537.000000;1.752507
3536.000000;1.784177
3535.000000;1.984048
3534.000000;2.273191
3533.000000;2.335937
3532.000000;2.287135
3531.000000;2.237518
3530.000000;2.219591
3529.000000;2.360898
3528.000000;2.644378
3527.000000;2.390095
3526.000000;2.469681
3525.000000;2.295845
3524.000000;1.781221
3523.000000;1.592441
3522.000000;1.585492
3521.000000;1.756357
3520.000000;2.076837
3519.000000;2.167222
3518.000000;2.110234
3517.000000;2.116568
3516.000000;1.956324
3515.000000;1.757972
3514.000000;1.696187
3513.000000;1.777843
3512.000000;2.085477
3511.000000;2.282436
3510.000000;1.933661
3509.000000;1.715515
3508.000000;1.593261
3507.000000;1.569715
3506.000000;1.613298
3505.000000;1.678756
3504.000000;1.770902
3503.000000;1.732200
3502.000000;1.602436
3501.000000;1.514332
3500.000000;1.569888
3499.000000;1.677689
3498.000000;1.555015
3497.000000;1.463376
3496.000000;1.512167
3495.000000;1.676794
3494.000000;1.875068
3493.000000;1.886579
3492.000000;1.841138
3491.000000;1.825905
3490.000000;1.943137
3489.000000;2.079661
3488.000000;1.808321
3487.000000;1.600752
3486.000000;1.566414
3485.000000;1.608706
3484.000000;1.660846
3483.000000;1.746828
3482.000000;1.906262
3481.000000;2.221750
3480.000000;2.457339
3479.000000;2.195600
3478.000000;2.165423
3477.000000;2.172016
3476.000000;2.037922
3475.000000;1.963041
3474.000000;1.919287
3473.000000;1.858542
3472.000000;1.795202
3471.000000;1.787470
3470.000000;1.814627
3469.000000;1.812404
3468.000000;1.784647
3467.000000;1.752169
3466.000000;1.781719
3465.000000;1.892881
3464.000000;1.929483
3463.000000;1.874955
3462.000000;1.875893
3461.000000;1.961240
3460.000000;2.062014
3459.000000;2.155234
3458.000000;2.268632
3457.000000;2.172639
3456.000000;1.904316
3455.000000;1.782514
3454.000000;1.765801
3453.000000;1.858760
3452.000000;2.315693
3451.000000;2.185724
3450.000000;1.834046
3449.000000;1.786844
3448.000000;1.911063
3447.000000;2.279710
3446.000000;1.940805
3445.000000;1.614275
3444.000000;1.507711
3443.000000;1.506823
3442.000000;1.573291
3441.000000;1.624039
3440.000000;1.664033
3439.000000;1.715199
3438.000000;1.946881
3437.000000;2.402228
3436.000000;2.056725
3435.000000;1.859639
3434.000000;2.010085
3433.000000;2.253470
3432.000000;2.065569
3431.000000;2.083042
3430.000000;2.514366
3429.000000;2.100260
3428.000000;1.785667
3427.000000;1.722676
3426.000000;1.756446
3425.000000;1.859514
3424.000000;1.914629
3423.000000;1.883547
3422.000000;1.977311
3421.000000;2.090503
3420.000000;1.790957
3419.000000;1.582727
3418.000000;1.589538
3417.000000;1.616217
3416.000000;1.584589
3415.000000;1.644618
3414.000000;2.028289
3413.000000;2.935361
3412.000000;2.212437
3411.000000;2.175375
3410.000000;2.111702
3409.000000;1.905438
3408.000000;1.779689
3407.000000;1.712139
3406.000000;1.729148
3405.000000;1.767537
3404.000000;1.806207
3403.000000;2.047022
3402.000000;2.446649
3401.000000;2.077787
3400.000000;2.002765
3399.000000;2.045294
3398.000000;1.970693
3397.000000;2.148583
3396.000000;2.308832
3395.000000;2.055968
3394.000000;1.924252
3393.000000;1.998362
3392.000000;2.161980
3391.000000;1.807322
3390.000000;1.530839
3389.000000;1.444053
3388.000000;1.473467
3387.000000;1.596426
3386.000000;1.774547
3385.000000;1.859199
3384.000000;1.765853
3383.000000;1.747708
3382.000000;1.872338
3381.000000;1.906423
3380.000000;1.805769
3379.000000;1.813983
3378.000000;1.936389
3377.000000;2.086018
3376.000000;2.112714
3375.000000;2.081876
3374.000000;2.086518
3373.000000;2.041821
3372.000000;1.953955
3371.000000;1.877203
3370.000000;1.851771
3369.000000;1.883438
3368.000000;1.979701
3367.000000;2.148551
3366.000000;2.369138
3365.000000;2.443499
3364.000000;2.562123
3363.000000;2.907960
3362.000000;2.415124
3361.000000;2.034815
3360.000000;1.821231
3359.000000;1.674816
3358.000000;1.577162
3357.000000;1.559619
3356.000000;1.640512
3355.000000;1.970509
3354.000000;2.363609
3353.000000;1.941231
3352.000000;1.834162
3351.000000;1.887651
3350.000000;1.988284
3349.000000;1.958083
3348.000000;1.792497
3347.000000;1.697963
3346.000000;1.726858
3345.000000;1.880913
3344.000000;1.818342
3343.000000;1.639290
3342.000000;1.583040
3341.000000;1.636170
3340.000000;1.785875
3339.000000;1.899880
3338.000000;1.903787
3337.000000;1.956002
3336.000000;1.999896
3335.000000;1.966791
3334.000000;1.978272
3333.000000;1.971939
3332.000000;1.943744
3331.000000;2.012850
3330.000000;2.217907
3329.000000;2.376486
3328.000000;2.083000
3327.000000;1.903161
3326.000000;1.893843
3325.000000;1.846199
3324.000000;1.759834
3323.000000;1.795596
3322.000000;1.852002
3321.000000;1.695580
3320.000000;1.570389
3319.000000;1.598654
3318.000000;1.778973
3317.000000;2.056578
3316.000000;2.104719
3315.000000;1.962710
3314.000000;1.886881
3313.000000;1.935339
3312.000000;2.079693
3311.000000;2.151190
3310.000000;2.052212
3309.000000;1.936827
3308.000000;2.005303
3307.000000;2.278930
3306.000000;2.216580
3305.000000;2.036603
3304.000000;2.340499
3303.000000;2.483024
3302.000000;1.833436
3301.000000;1.594422
3300.000000;1.465856
3299.000000;1.423771
3298.000000;1.480685
3297.000000;1.625623
3296.000000;1.781772
3295.000000;1.753514
3294.000000;1.685073
3293.000000;1.657444
3292.000000;1.690158
3291.000000;1.894399
3290.000000;1.777935
3289.000000;1.517296
3288.000000;1.485142
3287.000000;1.666168
3286.000000;1.942407
3285.000000;1.858936
3284.000000;1.724838
3283.000000;1.652399
3282.000000;1.617952
3281.000000;1.601313
3280.000000;1.560934
3279.000000;1.574629
3278.000000;1.673890
3277.000000;2.041393
3276.000000;2.378462
3275.000000;1.794983
3274.000000;1.672198
3273.000000;1.745972
3272.000000;1.763186
3271.000000;1.576699
3270.000000;1.445129
3269.000000;1.408511
3268.000000;1.411223
3267.000000;1.425425
3266.000000;1.451001
3265.000000;1.532288
3264.000000;1.677519
3263.000000;1.853953
3262.000000;2.027346
3261.000000;2.074849
3260.000000;2.044626
3259.000000;2.214498
3258.000000;2.187917
3257.000000;1.977391
3256.000000;1.804210
3255.000000;1.570661
3254.000000;1.426880
3253.000000;1.429519
3252.000000;1.602705
3251.000000;1.944455
3250.000000;2.028660
3249.000000;1.803075
3248.000000;1.671334
3247.000000;1.648730
3246.000000;1.741642
3245.000000;1.997171
3244.000000;2.215398
3243.000000;1.944481
3242.000000;1.739480
3241.000000;1.680008
3240.000000;1.728932
3239.000000;1.853123
3238.000000;1.991920
3237.000000;2.038992
3236.000000;1.938061
3235.000000;1.898461
3234.000000;1.939326
3233.000000;2.018830
3232.000000;2.329839
3231.000000;2.172056
3230.000000;1.851129
3229.000000;1.801441
3228.000000;2.014312
3227.000000;2.471587
3226.000000;2.288188
3225.000000;2.346997
3224.000000;2.265727
3223.000000;2.036927
3222.000000;2.034307
3221.000000;2.155361
3220.000000;2.533388
3219.000000;2.540186
3218.000000;2.066396
3217.000000;1.890909
3216.000000;1.801151
3215.000000;1.784030
3214.000000;1.862495
3213.000000;2.084917
3212.000000;2.688321
3211.000000;2.703786
3210.000000;2.203463
3209.000000;2.003277
3208.000000;1.980483
3207.000000;2.214311
3206.000000;2.538213
3205.000000;2.276232
3204.000000;2.140417
3203.000000;2.121215
3202.000000;2.232532
3201.000000;2.627944
3200.000000;2.402438
3199.000000;2.137579
3198.000000;2.181001
3197.000000;2.418696
3196.000000;2.417733
3195.000000;2.395455
3194.000000;2.547973
3193.000000;2.506891
3192.000000;2.445511
3191.000000;2.269343
3190.000000;1.986304
3189.000000;1.820353
3188.000000;1.795719
3187.000000;1.895417
3186.000000;2.133437
3185.000000;2.446501
3184.000000;2.741054
3183.000000;2.388166
3182.000000;2.028791
3181.000000;1.953739
3180.000000;2.067359
3179.000000;2.231022
3178.000000;2.207861
3177.000000;2.053398
3176.000000;1.954732
3175.000000;1.976726
3174.000000;2.162689
3173.000000;2.485033
3172.000000;2.334111
3171.000000;2.035238
3170.000000;1.878642
3169.000000;1.864866
3168.000000;2.056103
3167.000000;2.579920
3166.000000;2.507359
3165.000000;2.153594
3164.000000;2.050921
3163.000000;2.024138
3162.000000;2.088063
3161.000000;2.234376
3160.000000;2.432048
3159.000000;2.556411
3158.000000;2.575488
3157.000000;2.464015
3156.000000;2.367918
3155.000000;2.405788
3154.000000;2.469046
3153.000000;2.486981
3152.000000;2.550969
3151.000000;2.465974
3150.000000;2.253485
3149.000000;2.156942
3148.000000;2.200478
3147.000000;2.394382
3146.000000;2.774700
3145.000000;2.799809
3144.000000;2.455943
3143.000000;2.289976
3142.000000;2.288519
3141.000000;2.444583
3140.000000;2.588657
3139.000000;2.492147
3138.000000;2.452673
3137.000000;2.907074
3136.000000;3.058422
3135.000000;2.568970
3134.000000;2.533346
3133.000000;2.392858
3132.000000;2.365831
3131.000000;2.408229
3130.000000;2.415421
3129.000000;2.466378
3128.000000;2.423956
3127.000000;2.343586
3126.000000;2.378231
3125.000000;2.604007
3124.000000;3.270947
3123.000000;2.624229
3122.000000;2.409180
3121.000000;2.337995
3120.000000;2.189506
3119.000000;2.084693
3118.000000;2.059911
3117.000000;2.105214
3116.000000;2.289215
3115.000000;2.574561
3114.000000;2.359970
3113.000000;2.318569
3112.000000;2.696093
3111.000000;2.442462
3110.000000;2.083236
3109.000000;2.022805
3108.000000;2.049661
3107.000000;2.144291
3106.000000;2.276135
3105.000000;2.391278
3104.000000;2.477693
3103.000000;2.591184
3102.000000;2.499379
3101.000000;2.268422
3100.000000;2.133200
3099.000000;2.079385
3098.000000;2.086715
3097.000000;2.159320
3096.000000;2.309255
3095.000000;2.478275
3094.000000;2.364463
3093.000000;2.183592
3092.000000;2.101228
3091.000000;2.099984
3090.000000;2.169762
3089.000000;2.344223
3088.000000;2.764807
3087.000000;2.888686
3086.000000;2.526490
3085.000000;2.415763
3084.000000;2.290026
3083.000000;2.238115
3082.000000;2.279596
3081.000000;2.346325
3080.000000;2.338535
3079.000000;2.286216
3078.000000;2.283434
3077.000000;2.303889
3076.000000;2.291944
3075.000000;2.298867
3074.000000;2.360367
3073.000000;2.406480
3072.000000;2.438357
3071.000000;2.469822
3070.000000;2.334874
3069.000000;2.175245
3068.000000;2.054676
3067.000000;1.965984
3066.000000;1.943519
3065.000000;2.026662
3064.000000;2.241835
3063.000000;2.491276
3062.000000;2.554072
3061.000000;2.416778
3060.000000;2.285922
3059.000000;2.318078
3058.000000;2.509561
3057.000000;2.778161
3056.000000;3.097132
3055.000000;3.481758
3054.000000;3.242403
3053.000000;3.407344
3052.000000;3.028699
3051.000000;2.743369
3050.000000;2.547726
3049.000000;2.310468
3048.000000;2.168117
3047.000000;2.127404
3046.000000;2.188722
3045.000000;2.373871
3044.000000;2.829515
3043.000000;2.687869
3042.000000;2.454779
3041.000000;2.418898
3040.000000;2.401932
3039.000000;2.370116
3038.000000;2.410536
3037.000000;2.505935
3036.000000;2.369205
3035.000000;2.177519
3034.000000;2.111872
3033.000000;2.170043
3032.000000;2.381501
3031.000000;2.779078
3030.000000;2.693746
3029.000000;2.331292
3028.000000;2.154357
3027.000000;2.121974
3026.000000;2.244086
3025.000000;2.540699
3024.000000;2.989851
3023.000000;2.856219
3022.000000;2.585302
3021.000000;2.433149
3020.000000;2.351274
3019.000000;2.378593
3018.000000;2.522363
3017.000000;3.382772
3016.000000;2.772106
3015.000000;2.598018
3014.000000;3.026429
3013.000000;2.746797
3012.000000;2.349240
3011.000000;2.246836
3010.000000;2.300590
3009.000000;2.241162
3008.000000;2.066217
3007.000000;2.024662
3006.000000;2.090809
3005.000000;2.113015
3004.000000;2.068285
3003.000000;2.129501
3002.000000;2.409619
3001.000000;2.372555
3000.000000;2.104322
2999.000000;2.091876
2998.000000;2.229548
2997.000000;2.644123
2996.000000;3.038913
2995.000000;2.881306
2994.000000;2.890896
2993.000000;2.763030
2992.000000;2.754009
2991.000000;2.911577
2990.000000;2.862479
2989.000000;2.669300
2988.000000;2.669462
2987.000000;2.862014
2986.000000;3.090732
2985.000000;2.716063
2984.000000;2.397607
2983.000000;2.289132
2982.000000;2.330094
2981.000000;2.463323
2980.000000;2.550100
2979.000000;2.511404
2978.000000;2.476913
2977.000000;2.759388
2976.000000;2.790370
2975.000000;2.354752
2974.000000;2.274065
2973.000000;2.285991
2972.000000;2.372305
2971.000000;2.456734
2970.000000;2.462422
2969.000000;2.465734
2968.000000;2.545562
2967.000000;2.695176
2966.000000;2.869795
2965.000000;2.928067
2964.000000;2.859307
2963.000000;2.717756
2962.000000;2.647044
2961.000000;2.654070
2960.000000;2.843987
2959.000000;2.898493
2958.000000;2.602534
2957.000000;2.684169
2956.000000;3.129769
2955.000000;2.431549
2954.000000;2.148144
2953.000000;2.021220
2952.000000;2.016714
2951.000000;2.131548
2950.000000;2.408475
2949.000000;2.565793
2948.000000;2.435560
2947.000000;2.461549
2946.000000;2.797702
2945.000000;2.626470
2944.000000;2.265055
2943.000000;2.223302
2942.000000;2.484095
2941.000000;2.466742
2940.000000;2.217347
2939.000000;2.194994
2938.000000;2.287594
2937.000000;2.449516
2936.000000;2.559192
2935.000000;2.454272
2934.000000;2.405919
2933.000000;2.586674
2932.000000;3.296896
2931.000000;2.511624
2930.000000;2.362981
2929.000000;2.403088
2928.000000;2.519579
2927.000000;2.474697
2926.000000;2.405926
2925.000000;2.412565
2924.000000;2.518571
2923.000000;2.725650
2922.000000;2.629148
2921.000000;2.424776
2920.000000;2.363278
2919.000000;2.364246
2918.000000;2.382104
2917.000000;2.399466
2916.000000;2.456534
2915.000000;2.472582
2914.000000;2.369354
2913.000000;2.323391
2912.000000;2.524002
2911.000000;2.817801
2910.000000;2.513289
2909.000000;2.583527
2908.000000;2.479856
2907.000000;2.218423
2906.000000;2.195280
2905.000000;2.388418
2904.000000;2.852932
2903.000000;3.306780
2902.000000;2.532311
2901.000000;2.302833
2900.000000;2.290685
2899.000000;2.507173
2898.000000;2.845589
2897.000000;2.805657
2896.000000;3.131216
2895.000000;2.876361
2894.000000;2.398467
2893.000000;2.284288
2892.000000;2.367789
2891.000000;2.576302
2890.000000;2.378731
2889.000000;2.232773
2888.000000;2.288498
2887.000000;2.448410
2886.000000;2.622054
2885.000000;2.654867
2884.000000;2.706673
2883.000000;2.594674
2882.000000;2.338241
2881.000000;2.210448
2880.000000;2.200268
2879.000000;2.310528
2878.000000;2.715343
2877.000000;2.463386
2876.000000;2.229444
2875.000000;2.259187
2874.000000;2.486485
2873.000000;2.746551
2872.000000;2.575340
2871.000000;2.414526
2870.000000;2.298671
2869.000000;2.201217
2868.000000;2.131971
2867.000000;2.109684
2866.000000;2.146520
2865.000000;2.237641
2864.000000;2.227216
2863.000000;2.144522
2862.000000;2.170918
2861.000000;2.304665
2860.000000;2.240454
2859.000000;2.107104
2858.000000;2.093405
2857.000000;2.119384
2856.000000;2.065991
2855.000000;1.980874
2854.000000;1.951621
2853.000000;1.985746
2852.000000;2.033205
2851.000000;2.024416
2850.000000;1.985409
2849.000000;2.000086
2848.000000;2.181336
2847.000000;2.680317
2846.000000;2.424077
2845.000000;2.269090
2844.000000;2.440039
2843.000000;2.834328
2842.000000;2.672373
2841.000000;2.493207
2840.000000;2.505856
2839.000000;2.746264
2838.000000;2.908228
2837.000000;2.606147
2836.000000;2.465605
2835.000000;2.696349
2834.000000;2.883135
2833.000000;2.417763
2832.000000;2.308510
2831.000000;2.478344
2830.000000;2.714681
2829.000000;2.508939
2828.000000;2.375337
2827.000000;2.306224
2826.000000;2.264045
2825.000000;2.271252
2824.000000;2.310627
2823.000000;2.367759
2822.000000;2.477634
2821.000000;2.680063
2820.000000;2.900329
2819.000000;3.107068
2818.000000;2.885261
2817.000000;2.570019
2816.000000;2.783346
2815.000000;2.958905
2814.000000;2.399058
2813.000000;2.314881
2812.000000;2.408042
2811.000000;2.936784
2810.000000;2.707637
2809.000000;2.260484
2808.000000;2.111895
2807.000000;2.065032
2806.000000;2.118153
2805.000000;2.186617
2804.000000;2.192492
2803.000000;2.220515
2802.000000;2.377683
2801.000000;2.843803
2800.000000;2.740011
2799.000000;2.602910
2798.000000;2.628527
2797.000000;2.654099
2796.000000;2.754072
2795.000000;2.902481
2794.000000;2.917052
2793.000000;2.801804
2792.000000;2.798504
2791.000000;2.754958
2790.000000;2.501439
2789.000000;2.207742
2788.000000;2.064285
2787.000000;2.062324
2786.000000;2.155037
2785.000000;2.273876
2784.000000;2.384007
2783.000000;2.440615
2782.000000;2.432236
2781.000000;2.349090
2780.000000;2.151558
2779.000000;2.020013
2778.000000;2.025168
2777.000000;2.136658
2776.000000;2.231020
2775.000000;2.272489
2774.000000;2.389519
2773.000000;2.611141
2772.000000;3.171882
2771.000000;2.839938
2770.000000;2.431405
2769.000000;2.220455
2768.000000;2.107701
2767.000000;2.082812
2766.000000;2.151755
2765.000000;2.322676
2764.000000;2.564734
2763.000000;2.685316
2762.000000;2.729791
2761.000000;3.051595
2760.000000;2.605043
2759.000000;2.254519
2758.000000;2.188000
2757.000000;2.169733
2756.000000;2.086258
2755.000000;2.020555
2754.000000;2.085288
2753.000000;2.388502
2752.000000;2.156629
2751.000000;1.923956
2750.000000;1.924213
2749.000000;2.069057
2748.000000;2.409521
2747.000000;2.618324
2746.000000;2.239062
2745.000000;2.014826
2744.000000;1.925413
2743.000000;1.993967
2742.000000;2.270800
2741.000000;2.146414
2740.000000;1.966941
2739.000000;2.082542
2738.000000;2.547944
2737.000000;2.519561
2736.000000;2.287765
2735.000000;2.394195
2734.000000;2.594610
2733.000000;2.634827
2732.000000;2.465954
2731.000000;2.384393
2730.000000;2.310529
2729.000000;2.230922
2728.000000;2.156117
2727.000000;2.104943
2726.000000;2.101182
2725.000000;2.138117
2724.000000;2.179864
2723.000000;2.221724
2722.000000;2.308135
2721.000000;2.446856
2720.000000;2.435652
2719.000000;2.374595
2718.000000;2.371584
2717.000000;2.338304
2716.000000;2.518899
2715.000000;2.507826
2714.000000;2.029456
2713.000000;1.920150
2712.000000;2.042067
2711.000000;2.522433
2710.000000;2.566102
2709.000000;2.293094
2708.000000;2.461029
2707.000000;2.677258
2706.000000;2.686049
2705.000000;2.564946
2704.000000;2.391525
2703.000000;2.137968
2702.000000;2.023489
2701.000000;2.089177
2700.000000;2.588527
2699.000000;2.320853
2698.000000;2.051150
2697.000000;2.080957
2696.000000;2.081371
2695.000000;2.038258
2694.000000;2.048794
2693.000000;2.094312
2692.000000;2.069805
2691.000000;2.043494
2690.000000;2.092779
2689.000000;2.131120
2688.000000;2.039792
2687.000000;1.943761
2686.000000;1.878318
2685.000000;1.815999
2684.000000;1.776067
2683.000000;1.780189
2682.000000;1.828680
2681.000000;1.922773
2680.000000;2.130602
2679.000000;2.210796
2678.000000;1.970583
2677.000000;1.877109
2676.000000;1.943633
2675.000000;2.170002
2674.000000;2.415725
2673.000000;2.677673
2672.000000;2.437277
2671.000000;2.073598
2670.000000;1.934801
2669.000000;1.931051
2668.000000;1.997651
2667.000000;2.118752
2666.000000;2.150561
2665.000000;1.957455
2664.000000;1.872203
2663.000000;1.918538
2662.000000;2.055559
2661.000000;2.320507
2660.000000;2.489487
2659.000000;2.144817
2658.000000;1.935169
2657.000000;1.861957
2656.000000;1.986615
2655.000000;2.444886
2654.000000;2.397830
2653.000000;2.132699
2652.000000;2.647137
2651.000000;2.573064
2650.000000;2.035289
2649.000000;1.976122
2648.000000;2.056776
2647.000000;2.105194
2646.000000;2.020676
2645.000000;2.025408
2644.000000;2.057465
2643.000000;2.094406
2642.000000;2.281547
2641.000000;2.812706
2640.000000;2.230738
2639.000000;2.019255
2638.000000;2.143978
2637.000000;2.404755
2636.000000;1.896139
2635.000000;1.758384
2634.000000;1.832096
2633.000000;1.942482
2632.000000;1.900909
2631.000000;1.865281
2630.000000;1.873868
2629.000000;1.843926
2628.000000;1.749572
2627.000000;1.686968
2626.000000;1.718632
2625.000000;1.852282
2624.000000;2.100670
2623.000000;2.368469
2622.000000;2.546286
2621.000000;2.485179
2620.000000;2.134419
2619.000000;2.017868
2618.000000;2.148156
2617.000000;2.478230
2616.000000;2.357548
2615.000000;2.230177
2614.000000;2.375137
2613.000000;2.349399
2612.000000;2.121568
2611.000000;2.010996
2610.000000;2.002689
2609.000000;2.091268
2608.000000;2.306513
2607.000000;2.508043
2606.000000;2.471435
2605.000000;2.234493
2604.000000;1.895722
2603.000000;1.726007
2602.000000;1.714497
2601.000000;1.849705
2600.000000;2.120254
2599.000000;2.407739
2598.000000;2.251728
2597.000000;2.038606
2596.000000;2.023669
2595.000000;2.151044
2594.000000;2.309195
2593.000000;2.267316
2592.000000;2.118340
2591.000000;2.024020
2590.000000;2.039534
2589.000000;2.189986
2588.000000;2.267053
2587.000000;2.108200
2586.000000;1.991175
2585.000000;1.971591
2584.000000;2.021267
2583.000000;2.103162
2582.000000;2.163888
2581.000000;2.144840
2580.000000;2.118182
2579.000000;2.131564
2578.000000;2.150451
2577.000000;2.227471
2576.000000;2.228043
2575.000000;2.076030
2574.000000;2.055210
2573.000000;2.237359
2572.000000;2.456954
2571.000000;2.286117
2570.000000;2.121036
2569.000000;2.050530
2568.000000;2.059336
2567.000000;2.179342
2566.000000;2.292782
2565.000000;2.264574
2564.000000;2.319342
2563.000000;2.482547
2562.000000;2.347487
2561.000000;2.202978
2560.000000;2.209486
2559.000000;2.369132
2558.000000;2.772849
2557.000000;2.502223
2556.000000;2.216063
2555.000000;2.103967
2554.000000;2.099492
2553.000000;2.169646
2552.000000;2.180630
2551.000000;2.142848
2550.000000;2.169014
2549.000000;2.112191
2548.000000;1.986402
2547.000000;1.972985
2546.000000;2.056794
2545.000000;2.157369
2544.000000;2.264739
2543.000000;2.223399
2542.000000;2.065322
2541.000000;2.053505
2540.000000;2.162753
2539.000000;2.164192
2538.000000;2.054455
2537.000000;1.974485
2536.000000;1.967651
2535.000000;2.139511
2534.000000;2.814395
2533.000000;2.348080
2532.000000;2.111883
2531.000000;2.110619
2530.000000;2.232850
2529.000000;2.682317
2528.000000;2.471565
2527.000000;2.245631
2526.000000;2.349279
2525.000000;2.700882
2524.000000;2.713068
2523.000000;2.541925
2522.000000;2.530507
2521.000000;2.590529
2520.000000;2.520353
2519.000000;2.317874
2518.000000;2.211325
2517.000000;2.196645
2516.000000;2.733431
2515.000000;2.690834
2514.000000;2.103558
2513.000000;2.048341
2512.000000;2.254049
2511.000000;2.690909
2510.000000;2.236741
2509.000000;2.024307
2508.000000;2.049156
2507.000000;2.219860
2506.000000;2.749333
2505.000000;2.628856
2504.000000;2.386069
2503.000000;2.337908
2502.000000;2.295738
2501.000000;2.277468
2500.000000;2.314832
2499.000000;2.367305
2498.000000;2.557304
2497.000000;3.064710
2496.000000;2.589096
2495.000000;2.396776
2494.000000;2.491424
2493.000000;2.452530
2492.000000;2.238813
2491.000000;2.155955
2490.000000;2.140243
2489.000000;2.102007
2488.000000;2.038339
2487.000000;2.013751
2486.000000;2.025027
2485.000000;1.996792
2484.000000;1.969844
2483.000000;2.046185
2482.000000;2.357925
2481.000000;2.440585
2480.000000;2.173255
2479.000000;2.155243
2478.000000;2.461975
2477.000000;2.786570
2476.000000;2.358005
2475.000000;2.257711
2474.000000;2.244714
2473.000000;2.179045
2472.000000;2.097538
2471.000000;2.042250
2470.000000;2.046942
2469.000000;2.157690
2468.000000;2.225966
2467.000000;2.110668
2466.000000;2.098922
2465.000000;2.169546
2464.000000;2.580959
2463.000000;2.717027
2462.000000;2.104428
2461.000000;1.957763
2460.000000;1.992689
2459.000000;2.292773
2458.000000;2.628677
2457.000000;2.269355
2456.000000;2.201269
2455.000000;2.535224
2454.000000;2.308793
2453.000000;1.970966
2452.000000;1.876120
2451.000000;1.912952
2450.000000;2.136027
2449.000000;2.521361
2448.000000;2.237810
2447.000000;2.058349
2446.000000;2.026935
2445.000000;2.067480
2444.000000;2.154819
2443.000000;2.195986
2442.000000;2.233186
2441.000000;2.238449
2440.000000;2.166880
2439.000000;2.145875
2438.000000;2.249844
2437.000000;2.308871
2436.000000;2.096780
2435.000000;1.918512
2434.000000;1.865504
2433.000000;1.986835
2432.000000;2.146901
2431.000000;2.015272
2430.000000;1.915331
2429.000000;1.980628
2428.000000;2.419164
2427.000000;2.392702
2426.000000;2.020069
2425.000000;2.012158
2424.000000;1.956466
2423.000000;1.799282
2422.000000;1.776717
2421.000000;1.897486
2420.000000;2.043979
2419.000000;2.062338
2418.000000;2.040935
2417.000000;2.138079
2416.000000;2.344864
2415.000000;2.299517
2414.000000;2.140384
2413.000000;2.100747
2412.000000;2.114728
2411.000000;2.104803
2410.000000;2.057493
2409.000000;2.056300
2408.000000;2.118327
2407.000000;2.149290
2406.000000;2.061416
2405.000000;1.912085
2404.000000;1.825850
2403.000000;1.862252
2402.000000;2.084377
2401.000000;2.411956
2400.000000;2.322457
2399.000000;2.150868
2398.000000;2.108344
2397.000000;2.106289
2396.000000;1.969345
2395.000000;1.840851
2394.000000;1.851495
2393.000000;2.002217
2392.000000;2.372816
2391.000000;2.746058
2390.000000;2.173910
2389.000000;1.937174
2388.000000;1.994490
2387.000000;2.228257
2386.000000;2.520729
2385.000000;2.555265
2384.000000;2.108706
2383.000000;1.911221
2382.000000;1.990116
2381.000000;2.410538
2380.000000;2.356055
2379.000000;2.059412
2378.000000;2.055423
2377.000000;2.141575
2376.000000;2.285733
2375.000000;2.420881
2374.000000;2.369566
2373.000000;2.214426
2372.000000;2.171355
2371.000000;2.256186
2370.000000;2.243630
2369.000000;2.116394
2368.000000;2.071316
2367.000000;2.078590
2366.000000;2.036185
2365.000000;1.975101
2364.000000;1.963002
2363.000000;2.018330
2362.000000;2.156908
2361.000000;2.390522
2360.000000;2.473443
2359.000000;2.365341
2358.000000;2.369844
2357.000000;2.480964
2356.000000;2.391560
2355.000000;2.142287
2354.000000;2.023651
2353.000000;2.029453
2352.000000;2.080263
2351.000000;2.067941
2350.000000;1.945009
2349.000000;1.771134
2348.000000;1.665347
2347.000000;1.730863
2346.000000;2.014313
2345.000000;2.547887
2344.000000;3.006859
2343.000000;2.700412
2342.000000;2.512373
2341.000000;2.283193
2340.000000;2.140696
2339.000000;2.145501
2338.000000;2.382386
2337.000000;2.853233
2336.000000;2.458652
2335.000000;2.219813
2334.000000;2.040338
2333.000000;1.922096
2332.000000;1.926405
2331.000000;2.029794
2330.000000;2.214109
2329.000000;2.402765
2328.000000;2.393150
2327.000000;2.174229
2326.000000;2.030650
2325.000000;1.984026
2324.000000;2.033640
2323.000000;2.086684
2322.000000;2.045549
2321.000000;1.949071
2320.000000;1.860350
2319.000000;1.830113
2318.000000;1.910436
2317.000000;2.058503
2316.000000;1.960372
2315.000000;1.793498
2314.000000;1.731856
2313.000000;1.767157
2312.000000;1.950211
2311.000000;2.230989
2310.000000;2.272360
2309.000000;2.230755
2308.000000;2.355537
2307.000000;2.299613
2306.000000;2.046517
2305.000000;1.898031
2304.000000;1.862782
2303.000000;1.890107
2302.000000;2.024859
2301.000000;2.148102
2300.000000;1.994068
2299.000000;1.819194
2298.000000;1.820452
2297.000000;2.190645
2296.000000;2.211133
2295.000000;1.812551
2294.000000;1.700062
2293.000000;1.609770
2292.000000;1.507983
2291.000000;1.431092
2290.000000;1.450835
2289.000000;1.586883
2288.000000;1.917633
2287.000000;2.185111
2286.000000;1.637387
2285.000000;1.412925
2284.000000;1.392944
2283.000000;1.545677
2282.000000;1.789642
2281.000000;1.721544
2280.000000;1.628348
2279.000000;1.598128
2278.000000;1.560189
2277.000000;1.568835
2276.000000;1.861204
2275.000000;2.068632
2274.000000;1.783609
2273.000000;1.938171
2272.000000;1.960198
2271.000000;1.661547
2270.000000;1.562980
2269.000000;1.532035
2268.000000;1.455748
2267.000000;1.338967
2266.000000;1.365201
2265.000000;1.565823
2264.000000;1.446422
2263.000000;1.242204
2262.000000;1.195302
2261.000000;1.195386
2260.000000;1.178702
2259.000000;1.177762
2258.000000;1.244226
2257.000000;1.353518
2256.000000;1.432810
2255.000000;1.470904
2254.000000;1.534985
2253.000000;1.654688
2252.000000;1.742269
2251.000000;1.769524
2250.000000;1.861788
2249.000000;2.075908
2248.000000;2.301590
2247.000000;2.250418
2246.000000;2.142291
2245.000000;2.291861
2244.000000;2.687887
2243.000000;2.452201
2242.000000;2.252282
2241.000000;2.120075
2240.000000;1.984706
2239.000000;1.960809
2238.000000;1.975614
2237.000000;1.885406
2236.000000;1.723297
2235.000000;1.616090
2234.000000;1.642752
2233.000000;1.780685
2232.000000;2.123673
2231.000000;2.594880
2230.000000;2.046109
2229.000000;1.882106
2228.000000;1.974528
2227.000000;2.177199
2226.000000;2.101340
2225.000000;1.945631
2224.000000;2.218242
2223.000000;2.571811
2222.000000;2.138618
2221.000000;2.079470
2220.000000;2.247069
2219.000000;2.401149
2218.000000;2.265293
2217.000000;2.070265
2216.000000;1.989000
2215.000000;2.046678
2214.000000;2.161771
2213.000000;2.040720
2212.000000;1.971902
2211.000000;2.087335
2210.000000;2.254544
2209.000000;2.201382
2208.000000;2.019975
2207.000000;1.901995
2206.000000;1.913275
2205.000000;2.087543
2204.000000;2.323999
2203.000000;2.455788
2202.000000;2.229061
2201.000000;1.928417
2200.000000;1.792945
2199.000000;1.751343
2198.000000;1.758513
2197.000000;1.817656
2196.000000;1.950593
2195.000000;2.205473
2194.000000;2.500681
2193.000000;2.500879
2192.000000;2.331814
2191.000000;2.215383
2190.000000;2.317309
2189.000000;2.343134
2188.000000;2.103864
2187.000000;1.980335
2186.000000;2.030047
2185.000000;2.278143
2184.000000;2.243633
2183.000000;1.973292
2182.000000;1.959116
2181.000000;2.339947
2180.000000;2.392116
2179.000000;2.042430
2178.000000;2.050769
2177.000000;2.381128
2176.000000;3.024694
2175.000000;2.466450
2174.000000;2.484713
2173.000000;2.766242
2172.000000;2.434859
2171.000000;2.323858
2170.000000;2.184880
2169.000000;2.063584
2168.000000;2.042735
2167.000000;2.105782
2166.000000;2.662018
2165.000000;2.589927
2164.000000;2.075218
2163.000000;2.035882
2162.000000;1.991406
2161.000000;1.905419
2160.000000;1.836773
2159.000000;1.798927
2158.000000;1.814646
2157.000000;1.862214
2156.000000;1.926671
2155.000000;1.990058
2154.000000;2.151371
2153.000000;2.589675
2152.000000;2.667899
2151.000000;2.272958
2150.000000;2.351673
2149.000000;2.654880
2148.000000;2.272775
2147.000000;2.055729
2146.000000;2.013555
2145.000000;2.042552
2144.000000;2.176385
2143.000000;2.616278
2142.000000;2.857346
2141.000000;2.413656
2140.000000;2.414239
2139.000000;2.451601
2138.000000;2.359077
2137.000000;2.222953
2136.000000;2.126183
2135.000000;2.092001
2134.000000;2.122094
2133.000000;2.254103
2132.000000;2.512241
2131.000000;2.964501
2130.000000;3.074500
2129.000000;2.762948
2128.000000;2.821819
2127.000000;2.687349
2126.000000;2.203127
2125.000000;1.980514
2124.000000;1.916177
2123.000000;1.946686
2122.000000;2.067647
2121.000000;2.304535
2120.000000;2.584230
2119.000000;2.425148
2118.000000;2.223826
2117.000000;2.100444
2116.000000;2.052440
2115.000000;2.183216
2114.000000;2.253827
2113.000000;2.116622
2112.000000;2.130262
2111.000000;2.273612
2110.000000;2.240976
2109.000000;2.196066
2108.000000;2.342942
2107.000000;2.337801
2106.000000;2.188093
2105.000000;2.385550
2104.000000;2.999232
2103.000000;2.661407
2102.000000;2.462120
2101.000000;2.223775
2100.000000;2.046924
2099.000000;1.999812
2098.000000;1.970051
2097.000000;1.958791
2096.000000;1.976670
2095.000000;2.006465
2094.000000;1.972944
2093.000000;1.915139
2092.000000;1.929834
2091.000000;2.043507
2090.000000;2.122031
2089.000000;2.117138
2088.000000;2.152637
2087.000000;2.062969
2086.000000;1.887822
2085.000000;1.793675
2084.000000;1.786731
2083.000000;1.788539
2082.000000;1.761116
2081.000000;1.802130
2080.000000;1.958397
2079.000000;2.184098
2078.000000;2.178500
2077.000000;1.944716
2076.000000;1.784099
2075.000000;1.796409
2074.000000;1.955630
2073.000000;2.246637
2072.000000;2.844776
2071.000000;2.270421
2070.000000;1.879587
2069.000000;1.779427
2068.000000;1.826392
2067.000000;1.917859
2066.000000;1.886250
2065.000000;1.813103
2064.000000;1.876397
2063.000000;2.071384
2062.000000;1.985336
2061.000000;1.801771
2060.000000;1.764334
2059.000000;1.863411
2058.000000;2.070657
2057.000000;2.102535
2056.000000;2.003438
2055.000000;2.044920
2054.000000;2.221174
2053.000000;2.269125
2052.000000;2.175410
2051.000000;2.198682
2050.000000;2.223357
2049.000000;2.242295
2048.000000;2.281661
2047.000000;2.498033
2046.000000;3.156102
2045.000000;2.479087
2044.000000;2.080831
2043.000000;1.927438
2042.000000;1.874745
2041.000000;2.035850
2040.000000;2.502608
2039.000000;2.260498
2038.000000;2.021356
2037.000000;2.144621
2036.000000;2.420076
2035.000000;2.270509
2034.000000;2.064460
2033.000000;2.059777
2032.000000;2.187955
2031.000000;2.331588
2030.000000;2.218300
2029.000000;2.034286
2028.000000;1.936371
2027.000000;1.933142
2026.000000;2.160713
2025.000000;2.592057
2024.000000;2.305817
2023.000000;2.163526
2022.000000;2.118704
2021.000000;2.070422
2020.000000;2.195540
2019.000000;2.292409
2018.000000;2.153696
2017.000000;2.063259
2016.000000;2.085991
2015.000000;2.204252
2014.000000;2.291850
2013.000000;2.217367
2012.000000;2.180078
2011.000000;2.290022
2010.000000;2.480674
2009.000000;2.359659
2008.000000;2.328467
2007.000000;2.588451
2006.000000;2.329008
2005.000000;2.068647
2004.000000;2.070010
2003.000000;2.211352
2002.000000;2.170479
2001.000000;2.026864
2000.000000;2.015529
1999.000000;2.209484
1998.000000;2.933450
1997.000000;2.963120
1996.000000;2.875597
1995.000000;2.786197
1994.000000;2.325497
1993.000000;2.095195
1992.000000;1.966330
1991.000000;1.946493
1990.000000;2.088431
1989.000000;2.335962
1988.000000;2.205428
1987.000000;2.046145
1986.000000;2.039673
1985.000000;2.157701
1984.000000;2.376602
1983.000000;2.537752
1982.000000;2.681621
1981.000000;2.498813
1980.000000;2.254437
1979.000000;2.212727
1978.000000;2.269631
1977.000000;2.345837
1976.000000;2.386121
1975.000000;2.327052
1974.000000;2.242521
1973.000000;2.261906
1972.000000;2.393821
1971.000000;2.408924
1970.000000;2.292574
1969.000000;2.303419
1968.000000;2.250235
1967.000000;2.040866
1966.000000;1.968850
1965.000000;2.046123
1964.000000;2.152826
1963.000000;2.228679
1962.000000;2.243467
1961.000000;2.172071
1960.000000;2.156647
1959.000000;2.285038
1958.000000;2.750733
1957.000000;3.032365
1956.000000;2.389770
1955.000000;2.140976
1954.000000;1.983907
1953.000000;1.934411
1952.000000;2.055233
1951.000000;2.141856
1950.000000;1.989071
1949.000000;1.919619
1948.000000;2.033874
1947.000000;2.327307
1946.000000;2.593511
1945.000000;2.518840
1944.000000;2.680033
1943.000000;2.771695
1942.000000;2.438132
1941.000000;2.159756
1940.000000;2.215925
1939.000000;2.848516
1938.000000;2.409440
1937.000000;2.118863
1936.000000;2.090884
1935.000000;2.115056
1934.000000;2.452544
1933.000000;2.597904
1932.000000;2.084370
1931.000000;2.074728
1930.000000;2.424808
1929.000000;2.268880
1928.000000;1.946744
1927.000000;1.891587
1926.000000;1.948925
1925.000000;2.001860
1924.000000;1.944418
1923.000000;1.812317
1922.000000;1.752272
1921.000000;1.818106
1920.000000;2.066775
1919.000000;2.584647
1918.000000;2.719136
1917.000000;2.455311
1916.000000;2.371448
1915.000000;2.238766
1914.000000;2.087853
1913.000000;1.993084
1912.000000;1.963450
1911.000000;1.994662
1910.000000;2.028124
1909.000000;1.974711
1908.000000;2.045112
1907.000000;2.449020
1906.000000;2.343584
1905.000000;2.039584
1904.000000;2.030704
1903.000000;2.158245
1902.000000;2.308928
1901.000000;2.338942
1900.000000;2.283870
1899.000000;2.253990
1898.000000;2.233037
1897.000000;2.283077
1896.000000;2.736822
1895.000000;2.566176
1894.000000;2.115222
1893.000000;2.097152
1892.000000;2.421117
1891.000000;2.520903
1890.000000;2.211329
1889.000000;2.164784
1888.000000;2.249617
1887.000000;2.342204
1886.000000;2.287683
1885.000000;2.214153
1884.000000;2.247627
1883.000000;2.491624
1882.000000;2.842637
1881.000000;2.381193
1880.000000;2.166637
1879.000000;2.110737
1878.000000;2.133818
1877.000000;2.168387
1876.000000;2.139351
1875.000000;2.126401
1874.000000;2.164281
1873.000000;2.452834
1872.000000;2.774333
1871.000000;2.333058
1870.000000;2.182254
1869.000000;2.054555
1868.000000;1.882712
1867.000000;1.854204
1866.000000;2.025250
1865.000000;2.441366
1864.000000;2.742065
1863.000000;2.374649
1862.000000;2.131311
1861.000000;2.058508
1860.000000;2.106776
1859.000000;2.324065
1858.000000;2.644559
1857.000000;2.572635
1856.000000;2.610181
1855.000000;2.492181
1854.000000;2.306885
1853.000000;2.201147
1852.000000;2.019960
1851.000000;1.910233
1850.000000;1.951069
1849.000000;2.181465
1848.000000;2.303203
1847.000000;2.101996
1846.000000;2.064322
1845.000000;2.125094
1844.000000;2.158056
1843.000000;2.149792
1842.000000;2.222053
1841.000000;2.484966
1840.000000;2.837704
1839.000000;2.534209
1838.000000;2.112641
1837.000000;1.897535
1836.000000;1.839098
1835.000000;1.903858
1834.000000;2.071140
1833.000000;2.257004
1832.000000;2.230527
1831.000000;2.014003
1830.000000;1.863614
1829.000000;1.831242
1828.000000;1.885148
1827.000000;1.926152
1826.000000;2.130493
1825.000000;2.499490
1824.000000;1.972987
1823.000000;1.817652
1822.000000;1.900759
1821.000000;2.090127
1820.000000;2.326286
1819.000000;2.693983
1818.000000;2.773271
1817.000000;2.396319
1816.000000;2.250593
1815.000000;2.249615
1814.000000;2.200537
1813.000000;2.012168
1812.000000;1.917415
1811.000000;1.928146
1810.000000;1.984919
1809.000000;2.077859
1808.000000;2.206901
1807.000000;2.226660
1806.000000;2.083978
1805.000000;1.956827
1804.000000;1.919816
1803.000000;1.948162
1802.000000;1.902009
1801.000000;1.819900
1800.000000;1.861722
1799.000000;2.062461
1798.000000;2.309253
1797.000000;2.529088
1796.000000;2.740284
1795.000000;2.214322
1794.000000;1.860837
1793.000000;1.728749
1792.000000;1.723992
1791.000000;1.886464
1790.000000;2.230411
1789.000000;2.037805
1788.000000;1.822911
1787.000000;1.863983
1786.000000;2.113974
1785.000000;2.401082
1784.000000;2.150263
1783.000000;1.941952
1782.000000;1.837397
1781.000000;1.846577
1780.000000;2.096365
1779.000000;2.413259
1778.000000;2.159899
1777.000000;2.040831
1776.000000;1.955839
1775.000000;1.887337
1774.000000;1.919387
1773.000000;2.054929
1772.000000;2.236998
1771.000000;2.306517
1770.000000;2.268680
1769.000000;2.206825
1768.000000;2.102630
1767.000000;2.002960
1766.000000;2.009437
1765.000000;2.108875
1764.000000;2.221701
1763.000000;2.482110
1762.000000;2.567247
1761.000000;2.465061
1760.000000;2.521388
1759.000000;2.178369
1758.000000;1.999181
1757.000000;2.035589
1756.000000;2.340054
1755.000000;2.734100
1754.000000;2.329082
1753.000000;2.211082
1752.000000;2.212620
1751.000000;2.069542
1750.000000;1.855606
1749.000000;1.757587
1748.000000;1.838882
1747.000000;2.235285
1746.000000;2.599878
1745.000000;2.238606
1744.000000;2.249033
1743.000000;1.967954
1742.000000;1.803833
1741.000000;1.837725
1740.000000;2.003759
1739.000000;2.243703
1738.000000;2.432563
1737.000000;2.441917
1736.000000;2.363048
1735.000000;2.274151
1734.000000;2.117287
1733.000000;2.016119
1732.000000;2.089999
1731.000000;2.564730
1730.000000;2.753875
1729.000000;2.505423
1728.000000;2.414988
1727.000000;2.263436
1726.000000;2.352600
1725.000000;2.659057
1724.000000;2.257246
1723.000000;2.144221
1722.000000;2.468585
1721.000000;2.300869
1720.000000;2.197596
1719.000000;2.603401
1718.000000;2.104238
1717.000000;1.768303
1716.000000;1.673437
1715.000000;1.715822
1714.000000;1.875134
1713.000000;2.174857
1712.000000;2.263479
1711.000000;2.003350
1710.000000;1.909040
1709.000000;2.045174
1708.000000;2.299235
1707.000000;2.083367
1706.000000;1.955696
1705.000000;2.007744
1704.000000;2.021884
1703.000000;2.060180
1702.000000;2.056455
1701.000000;1.955237
1700.000000;1.988491
1699.000000;2.269437
1698.000000;3.190162
1697.000000;2.494900
1696.000000;2.394385
1695.000000;2.639664
1694.000000;2.431889
1693.000000;2.201959
1692.000000;2.035426
1691.000000;1.910223
1690.000000;1.870696
1689.000000;1.942953
1688.000000;2.044044
1687.000000;2.037640
1686.000000;2.049496
1685.000000;2.147076
1684.000000;2.237870
1683.000000;2.240381
1682.000000;2.185823
1681.000000;2.085020
1680.000000;1.941147
1679.000000;1.756400
1678.000000;1.628613
1677.000000;1.621512
1676.000000;1.707356
1675.000000;1.823852
1674.000000;1.943885
1673.000000;2.095484
1672.000000;2.213397
1671.000000;2.106662
1670.000000;1.969859
1669.000000;1.942397
1668.000000;1.980280
1667.000000;2.005733
1666.000000;1.992615
1665.000000;1.973788
1664.000000;2.149210
1663.000000;2.676945
1662.000000;2.122155
1661.000000;1.895143
1660.000000;1.905917
1659.000000;2.028105
1658.000000;2.071527
1657.000000;1.945082
1656.000000;1.864486
1655.000000;1.934205
1654.000000;2.279138
1653.000000;2.374525
1652.000000;2.499011
1651.000000;2.679538
1650.000000;2.143377
1649.000000;1.910030
1648.000000;1.877986
1647.000000;1.929623
1646.000000;1.961026
1645.000000;1.970526
1644.000000;1.960237
1643.000000;1.919477
1642.000000;1.928034
1641.000000;2.090975
1640.000000;2.212051
1639.000000;2.089498
1638.000000;2.085474
1637.000000;2.052191
1636.000000;2.074116
1635.000000;2.076447
1634.000000;2.041135
1633.000000;2.080404
1632.000000;2.106110
1631.000000;2.092729
1630.000000;2.119708
1629.000000;2.354869
1628.000000;2.602173
1627.000000;2.290433
1626.000000;2.034883
1625.000000;1.986539
1624.000000;2.022988
1623.000000;1.853373
1622.000000;1.763819
1621.000000;1.883363
1620.000000;1.975478
1619.000000;1.773309
1618.000000;1.626974
1617.000000;1.628709
1616.000000;1.776970
1615.000000;1.856825
1614.000000;1.742197
1613.000000;1.692352
1612.000000;1.693976
1611.000000;1.779748
1610.000000;2.034342
1609.000000;1.994446
1608.000000;1.827105
1607.000000;1.885661
1606.000000;2.139574
1605.000000;2.630813
1604.000000;2.236532
1603.000000;1.895289
1602.000000;1.801048
1601.000000;1.866585
1600.000000;2.142722
1599.000000;1.972766
1598.000000;1.708338
1597.000000;1.638901
1596.000000;1.625482
1595.000000;1.637931
1594.000000;1.701426
1593.000000;1.878678
1592.000000;2.008200
1591.000000;1.840143
1590.000000;1.729579
1589.000000;1.721751
1588.000000;1.729775
1587.000000;1.708526
1586.000000;1.715325
1585.000000;1.792152
1584.000000;1.921770
1583.000000;2.087746
1582.000000;2.210910
1581.000000;2.141299
1580.000000;2.161022
1579.000000;2.037028
1578.000000;1.782994
1577.000000;1.706276
1576.000000;1.789731
1575.000000;1.982974
1574.000000;2.124876
1573.000000;2.049006
1572.000000;1.853436
1571.000000;1.706331
1570.000000;1.645437
1569.000000;1.680020
1568.000000;1.829753
1567.000000;2.164038
1566.000000;1.963005
1565.000000;1.692979
1564.000000;1.588550
1563.000000;1.598522
1562.000000;1.743989
1561.000000;2.008641
1560.000000;2.116698
1559.000000;2.088769
1558.000000;2.101928
1557.000000;2.142722
1556.000000;2.032266
1555.000000;2.053898
1554.000000;2.264571
1553.000000;1.735653
1552.000000;1.556413
1551.000000;1.584691
1550.000000;1.862050
1549.000000;2.252680
1548.000000;1.912177
1547.000000;1.759342
1546.000000;1.675019
1545.000000;1.612570
1544.000000;1.631176
1543.000000;1.893237
1542.000000;2.038420
1541.000000;1.852966
1540.000000;1.805270
1539.000000;1.803716
1538.000000;1.801875
1537.000000;1.821800
1536.000000;1.953036
1535.000000;2.222449
1534.000000;1.963995
1533.000000;1.905334
1532.000000;1.927626
1531.000000;1.760050
1530.000000;1.637339
1529.000000;1.609171
1528.000000;1.673021
1527.000000;1.840269
1526.000000;2.023717
1525.000000;1.915728
1524.000000;1.738627
1523.000000;1.634597
1522.000000;1.565745
1521.000000;1.522804
1520.000000;1.580301
1519.000000;1.694066
1518.000000;1.575582
1517.000000;1.420625
1516.000000;1.364129
1515.000000;1.320427
1514.000000;1.303418
1513.000000;1.374403
1512.000000;1.674528
1511.000000;1.897238
1510.000000;1.391021
1509.000000;1.202091
1508.000000;1.216290
1507.000000;1.416586
1506.000000;1.456523
1505.000000;1.425049
1504.000000;1.470310
1503.000000;1.468654
1502.000000;1.472682
1501.000000;1.668720
1500.000000;1.821823
1499.000000;1.400435
1498.000000;1.320482
1497.000000;1.501768
1496.000000;2.027323
1495.000000;1.761363
1494.000000;1.623028
1493.000000;1.752010
1492.000000;1.821254
1491.000000;1.967991
1490.000000;1.824308
1489.000000;2.060183
1488.000000;1.792053
1487.000000;1.313714
1486.000000;1.177106
1485.000000;1.171828
1484.000000;1.264928
1483.000000;1.456620
1482.000000;2.101598
1481.000000;1.500201
1480.000000;1.199546
1479.000000;1.111233
1478.000000;1.160895
1477.000000;1.347024
1476.000000;1.520439
1475.000000;1.320506
1474.000000;1.201652
1473.000000;1.180807
1472.000000;1.244055
1471.000000;1.386291
1470.000000;1.687716
1469.000000;2.070995
1468.000000;1.783973
1467.000000;1.591153
1466.000000;1.523226
1465.000000;1.558127
1464.000000;1.519846
1463.000000;1.316670
1462.000000;1.188313
1461.000000;1.125243
1460.000000;1.085837
1459.000000;1.103886
1458.000000;1.228604
1457.000000;1.284941
1456.000000;1.172377
1455.000000;1.152339
1454.000000;1.178671
1453.000000;1.235468
1452.000000;1.420020
1451.000000;1.561683
1450.000000;1.402332
1449.000000;1.449927
1448.000000;1.564250
1447.000000;1.499475
1446.000000;1.804043
1445.000000;2.062136
1444.000000;1.356694
1443.000000;1.231466
1442.000000;1.211182
1441.000000;1.307119
1440.000000;1.381249
1439.000000;1.345025
1438.000000;1.314743
1437.000000;1.392189
1436.000000;1.606046
1435.000000;2.002924
1434.000000;2.026442
1433.000000;1.746991
1432.000000;1.542428
1431.000000;1.403412
1430.000000;1.348309
1429.000000;1.399482
1428.000000;1.715799
1427.000000;1.925928
1426.000000;1.444322
1425.000000;1.364557
1424.000000;1.501000
1423.000000;1.907413
1422.000000;1.956673
1421.000000;1.560874
1420.000000;1.415341
1419.000000;1.390889
1418.000000;1.578090
1417.000000;2.063061
1416.000000;1.630843
1415.000000;1.363951
1414.000000;1.314318
1413.000000;1.395669
1412.000000;1.558558
1411.000000;2.079898
1410.000000;1.770227
1409.000000;1.385024
1408.000000;1.346077
1407.000000;1.432568
1406.000000;1.643911
1405.000000;1.834166
1404.000000;1.777320
1403.000000;1.693649
1402.000000;1.737496
1401.000000;1.811496
1400.000000;1.623803
1399.000000;1.503144
1398.000000;1.571247
1397.000000;1.812347
1396.000000;1.783798
1395.000000;1.601487
1394.000000;1.517193
1393.000000;1.510652
1392.000000;1.507005
1391.000000;1.434424
1390.000000;1.386662
1389.000000;1.429460
1388.000000;1.579345
1387.000000;1.840741
1386.000000;2.129966
1385.000000;2.152313
1384.000000;1.969089
1383.000000;1.874623
1382.000000;1.793335
1381.000000;1.669271
1380.000000;1.637366
1379.000000;1.736713
1378.000000;1.856635
1377.000000;1.955430
1376.000000;2.084024
1375.000000;1.906303
1374.000000;1.791384
1373.000000;1.935541
1372.000000;2.180155
1371.000000;1.978649
1370.000000;1.896281
1369.000000;1.805488
1368.000000;1.772855
1367.000000;1.729894
1366.000000;1.574115
1365.000000;1.459388
1364.000000;1.418312
1363.000000;1.427961
1362.000000;1.473242
1361.000000;1.556638
1360.000000;1.620509
1359.000000;1.614848
1358.000000;1.627492
1357.000000;1.695952
1356.000000;1.920974
1355.000000;1.855586
1354.000000;1.596205
1353.000000;1.522357
1352.000000;1.554182
1351.000000;1.667717
1350.000000;1.866346
1349.000000;2.539795
1348.000000;1.952980
1347.000000;1.686761
1346.000000;1.562168
1345.000000;1.473913
1344.000000;1.476572
1343.000000;1.580172
1342.000000;1.710127
1341.000000;1.752761
1340.000000;1.718034
1339.000000;1.785282
1338.000000;1.992413
1337.000000;1.652889
1336.000000;1.383792
1335.000000;1.306914
1334.000000;1.354446
1333.000000;1.540798
1332.000000;1.779692
1331.000000;1.795468
1330.000000;1.777103
1329.000000;1.787845
1328.000000;1.765731
1327.000000;1.843655
1326.000000;2.166212
1325.000000;1.778623
1324.000000;1.550726
1323.000000;1.572560
1322.000000;1.667554
1321.000000;1.636966
1320.000000;1.589582
1319.000000;1.582693
1318.000000;1.508014
1317.000000;1.374674
1316.000000;1.282296
1315.000000;1.286458
1314.000000;1.417200
1313.000000;1.682560
1312.000000;1.757533
1311.000000;1.565838
1310.000000;1.477700
1309.000000;1.478272
1308.000000;1.621808
1307.000000;1.834930
1306.000000;1.774613
1305.000000;1.746217
1304.000000;1.868766
1303.000000;1.766770
1302.000000;1.577416
1301.000000;1.470383
1300.000000;1.458155
1299.000000;1.566136
1298.000000;1.909219
1297.000000;2.035254
1296.000000;1.708301
1295.000000;1.557561
1294.000000;1.499569
1293.000000;1.492908
1292.000000;1.543156
1291.000000;1.680800
1290.000000;1.959695
1289.000000;2.332382
1288.000000;2.660604
1287.000000;2.432164
1286.000000;2.142724
1285.000000;2.368103
1284.000000;2.485505
1283.000000;2.338600
1282.000000;1.727897
1281.000000;1.321093
1280.000000;1.174300
1279.000000;1.192812
1278.000000;1.376256
1277.000000;1.641050
1276.000000;1.732285
1275.000000;1.771198
1274.000000;1.785552
1273.000000;1.717897
1272.000000;1.684830
1271.000000;1.731599
1270.000000;1.908675
1269.000000;2.321793
1268.000000;2.168238
1267.000000;2.030131
1266.000000;1.967552
1265.000000;1.799349
1264.000000;1.585479
1263.000000;1.431607
1262.000000;1.404898
1261.000000;1.538194
1260.000000;1.680976
1259.000000;1.537659
1258.000000;1.496701
1257.000000;1.542429
1256.000000;1.485951
1255.000000;1.404289
1254.000000;1.426762
1253.000000;1.594468
1252.000000;1.880554
1251.000000;1.801008
1250.000000;1.636119
1249.000000;1.584058
1248.000000;1.509194
1247.000000;1.437745
1246.000000;1.409834
1245.000000;1.419879
1244.000000;1.445749
1243.000000;1.515910
1242.000000;1.687142
1241.000000;1.790832
1240.000000;1.667585
1239.000000;1.600509
1238.000000;1.635410
1237.000000;1.783124
1236.000000;2.118106
1235.000000;1.925591
1234.000000;1.591219
1233.000000;1.503722
1232.000000;1.616482
1231.000000;1.998319
1230.000000;1.994028
1229.000000;1.672550
1228.000000;1.644714
1227.000000;1.752740
1226.000000;2.024714
1225.000000;2.330117
1224.000000;2.148416
1223.000000;1.880295
1222.000000;1.703586
1221.000000;1.641221
1220.000000;1.737124
1219.000000;1.990465
1218.000000;2.295113
1217.000000;2.154875
1216.000000;1.913851
1215.000000;1.848656
1214.000000;1.977108
1213.000000;2.142114
1212.000000;2.236065
1211.000000;2.183027
1210.000000;1.745527
1209.000000;1.615359
1208.000000;1.691963
1207.000000;1.972504
1206.000000;2.281624
1205.000000;1.898773
1204.000000;1.646815
1203.000000;1.544793
1202.000000;1.554425
1201.000000;1.585774
1200.000000;1.553925
