Criado como novo conjunto de dados;"2706_e01_daniel.spp","101887.4 Secs"
cm-1;Abs
10000.000000;0.869204
9999.000000;0.868316
9998.000000;0.867429
9997.000000;0.866544
9996.000000;0.865661
9995.000000;0.864780
9994.000000;0.863900
9993.000000;0.863023
9992.000000;0.862144
9991.000000;0.861379
9990.000000;0.860782
9989.000000;0.860559
9988.000000;0.860865
9987.000000;0.861518
9986.000000;0.862066
9985.000000;0.862160
9984.000000;0.861833
9983.000000;0.861447
9982.000000;0.861366
9981.000000;0.861667
9980.000000;0.862129
9979.000000;0.862480
9978.000000;0.862608
9977.000000;0.862567
9976.000000;0.862487
9975.000000;0.862510
9974.000000;0.862686
9973.000000;0.862876
9972.000000;0.862856
9971.000000;0.862597
9970.000000;0.862336
9969.000000;0.862280
9968.000000;0.862342
9967.000000;0.862304
9966.000000;0.862167
9965.000000;0.862177
9964.000000;0.862497
9963.000000;0.862955
9962.000000;0.863168
9961.000000;0.862886
9960.000000;0.862245
9959.000000;0.861688
9958.000000;0.861542
9957.000000;0.861659
9956.000000;0.861572
9955.000000;0.861047
9954.000000;0.860338
9953.000000;0.859856
9952.000000;0.859758
9951.000000;0.859937
9950.000000;0.860222
9949.000000;0.860421
9948.000000;0.860340
9947.000000;0.859965
9946.000000;0.859546
9945.000000;0.859340
9944.000000;0.859320
9943.000000;0.859306
9942.000000;0.859259
9941.000000;0.859290
9940.000000;0.859437
9939.000000;0.859643
9938.000000;0.859884
9937.000000;0.860104
9936.000000;0.860070
9935.000000;0.859568
9934.000000;0.858772
9933.000000;0.858180
9932.000000;0.858088
9931.000000;0.858308
9930.000000;0.858479
9929.000000;0.858469
9928.000000;0.858359
9927.000000;0.858192
9926.000000;0.857924
9925.000000;0.857591
9924.000000;0.857366
9923.000000;0.857414
9922.000000;0.857710
9921.000000;0.858030
9920.000000;0.858146
9919.000000;0.858051
9918.000000;0.857960
9917.000000;0.858030
9916.000000;0.858166
9915.000000;0.858174
9914.000000;0.858009
9913.000000;0.857731
9912.000000;0.857306
9911.000000;0.856666
9910.000000;0.855975
9909.000000;0.855634
9908.000000;0.855904
9907.000000;0.856624
9906.000000;0.857336
9905.000000;0.857633
9904.000000;0.857393
9903.000000;0.856806
9902.000000;0.856212
9901.000000;0.855818
9900.000000;0.855549
9899.000000;0.855277
9898.000000;0.855155
9897.000000;0.855482
9896.000000;0.856166
9895.000000;0.856609
9894.000000;0.856326
9893.000000;0.855576
9892.000000;0.855119
9891.000000;0.855392
9890.000000;0.856073
9889.000000;0.856485
9888.000000;0.856280
9887.000000;0.855721
9886.000000;0.855384
9885.000000;0.855614
9884.000000;0.856195
9883.000000;0.856518
9882.000000;0.856161
9881.000000;0.855326
9880.000000;0.854640
9879.000000;0.854521
9878.000000;0.854822
9877.000000;0.855077
9876.000000;0.855034
9875.000000;0.854888
9874.000000;0.855007
9873.000000;0.855487
9872.000000;0.855976
9871.000000;0.855941
9870.000000;0.855174
9869.000000;0.854058
9868.000000;0.853299
9867.000000;0.853332
9866.000000;0.853971
9865.000000;0.854627
9864.000000;0.854830
9863.000000;0.854545
9862.000000;0.854034
9861.000000;0.853545
9860.000000;0.853190
9859.000000;0.853024
9858.000000;0.853037
9857.000000;0.853044
9856.000000;0.852756
9855.000000;0.852099
9854.000000;0.851405
9853.000000;0.851113
9852.000000;0.851285
9851.000000;0.851561
9850.000000;0.851628
9849.000000;0.851583
9848.000000;0.851717
9847.000000;0.852047
9846.000000;0.852243
9845.000000;0.852015
9844.000000;0.851440
9843.000000;0.850876
9842.000000;0.850606
9841.000000;0.850617
9840.000000;0.850701
9839.000000;0.850722
9838.000000;0.850785
9837.000000;0.851112
9836.000000;0.851751
9835.000000;0.852442
9834.000000;0.852838
9833.000000;0.852834
9832.000000;0.852606
9831.000000;0.852338
9830.000000;0.852025
9829.000000;0.851564
9828.000000;0.850968
9827.000000;0.850394
9826.000000;0.850006
9825.000000;0.849854
9824.000000;0.849842
9823.000000;0.849756
9822.000000;0.849426
9821.000000;0.848969
9820.000000;0.848778
9819.000000;0.849115
9818.000000;0.849730
9817.000000;0.850061
9816.000000;0.849844
9815.000000;0.849342
9814.000000;0.848923
9813.000000;0.848644
9812.000000;0.848428
9811.000000;0.848395
9810.000000;0.848750
9809.000000;0.849396
9808.000000;0.850001
9807.000000;0.850431
9806.000000;0.850832
9805.000000;0.851190
9804.000000;0.851130
9803.000000;0.850371
9802.000000;0.849197
9801.000000;0.848237
9800.000000;0.847854
9799.000000;0.847942
9798.000000;0.848256
9797.000000;0.848705
9796.000000;0.849296
9795.000000;0.849970
9794.000000;0.850550
9793.000000;0.850777
9792.000000;0.850403
9791.000000;0.849385
9790.000000;0.848047
9789.000000;0.846943
9788.000000;0.846457
9787.000000;0.846554
9786.000000;0.846894
9785.000000;0.847145
9784.000000;0.847177
9783.000000;0.847059
9782.000000;0.846968
9781.000000;0.847063
9780.000000;0.847384
9779.000000;0.847802
9778.000000;0.848080
9777.000000;0.848020
9776.000000;0.847623
9775.000000;0.847130
9774.000000;0.846841
9773.000000;0.846850
9772.000000;0.846955
9771.000000;0.846910
9770.000000;0.846726
9769.000000;0.846644
9768.000000;0.846792
9767.000000;0.846996
9766.000000;0.846982
9765.000000;0.846714
9764.000000;0.846402
9763.000000;0.846184
9762.000000;0.845948
9761.000000;0.845539
9760.000000;0.845073
9759.000000;0.844898
9758.000000;0.845185
9757.000000;0.845682
9756.000000;0.845945
9755.000000;0.845768
9754.000000;0.845303
9753.000000;0.844831
9752.000000;0.844531
9751.000000;0.844428
9750.000000;0.844392
9749.000000;0.844186
9748.000000;0.843695
9747.000000;0.843163
9746.000000;0.843049
9745.000000;0.843532
9744.000000;0.844287
9743.000000;0.844823
9742.000000;0.844942
9741.000000;0.844750
9740.000000;0.844388
9739.000000;0.843957
9738.000000;0.843630
9737.000000;0.843586
9736.000000;0.843808
9735.000000;0.844087
9734.000000;0.844255
9733.000000;0.844301
9732.000000;0.844253
9731.000000;0.844085
9730.000000;0.843785
9729.000000;0.843455
9728.000000;0.843264
9727.000000;0.843319
9726.000000;0.843535
9725.000000;0.843657
9724.000000;0.843520
9723.000000;0.843326
9722.000000;0.843483
9721.000000;0.844046
9720.000000;0.844484
9719.000000;0.844249
9718.000000;0.843477
9717.000000;0.842853
9716.000000;0.842829
9715.000000;0.843261
9714.000000;0.843789
9713.000000;0.844256
9712.000000;0.844630
9711.000000;0.844796
9710.000000;0.844652
9709.000000;0.844280
9708.000000;0.843874
9707.000000;0.843565
9706.000000;0.843384
9705.000000;0.843285
9704.000000;0.843120
9703.000000;0.842743
9702.000000;0.842205
9701.000000;0.841740
9700.000000;0.841486
9699.000000;0.841350
9698.000000;0.841223
9697.000000;0.841155
9696.000000;0.841236
9695.000000;0.841431
9694.000000;0.841623
9693.000000;0.841707
9692.000000;0.841554
9691.000000;0.841099
9690.000000;0.840540
9689.000000;0.840263
9688.000000;0.840416
9687.000000;0.840714
9686.000000;0.840842
9685.000000;0.840837
9684.000000;0.840875
9683.000000;0.840889
9682.000000;0.840693
9681.000000;0.840350
9680.000000;0.840086
9679.000000;0.839906
9678.000000;0.839607
9677.000000;0.839156
9676.000000;0.838750
9675.000000;0.838503
9674.000000;0.838329
9673.000000;0.838169
9672.000000;0.838079
9671.000000;0.838029
9670.000000;0.837897
9669.000000;0.837722
9668.000000;0.837717
9667.000000;0.837922
9666.000000;0.838097
9665.000000;0.838097
9664.000000;0.838131
9663.000000;0.838446
9662.000000;0.838954
9661.000000;0.839374
9660.000000;0.839611
9659.000000;0.839805
9658.000000;0.840077
9657.000000;0.840409
9656.000000;0.840712
9655.000000;0.840842
9654.000000;0.840633
9653.000000;0.840081
9652.000000;0.839463
9651.000000;0.839082
9650.000000;0.838907
9649.000000;0.838627
9648.000000;0.838081
9647.000000;0.837494
9646.000000;0.837220
9645.000000;0.837357
9644.000000;0.837695
9643.000000;0.837982
9642.000000;0.838139
9641.000000;0.838231
9640.000000;0.838294
9639.000000;0.838253
9638.000000;0.838013
9637.000000;0.837614
9636.000000;0.837257
9635.000000;0.837138
9634.000000;0.837284
9633.000000;0.837527
9632.000000;0.837639
9631.000000;0.837504
9630.000000;0.837203
9629.000000;0.836953
9628.000000;0.836912
9627.000000;0.837045
9626.000000;0.837183
9625.000000;0.837223
9624.000000;0.837216
9623.000000;0.837260
9622.000000;0.837353
9621.000000;0.837369
9620.000000;0.837176
9619.000000;0.836776
9618.000000;0.836363
9617.000000;0.836191
9616.000000;0.836308
9615.000000;0.836469
9614.000000;0.836411
9613.000000;0.836195
9612.000000;0.836117
9611.000000;0.836286
9610.000000;0.836470
9609.000000;0.836416
9608.000000;0.836188
9607.000000;0.836048
9606.000000;0.836117
9605.000000;0.836260
9604.000000;0.836264
9603.000000;0.836015
9602.000000;0.835562
9601.000000;0.835083
9600.000000;0.834743
9599.000000;0.834541
9598.000000;0.834366
9597.000000;0.834252
9596.000000;0.834431
9595.000000;0.834994
9594.000000;0.835640
9593.000000;0.835940
9592.000000;0.835810
9591.000000;0.835531
9590.000000;0.835370
9589.000000;0.835364
9588.000000;0.835424
9587.000000;0.835430
9586.000000;0.835187
9585.000000;0.834572
9584.000000;0.833811
9583.000000;0.833384
9582.000000;0.833511
9581.000000;0.833874
9580.000000;0.834018
9579.000000;0.833878
9578.000000;0.833743
9577.000000;0.833801
9576.000000;0.833952
9575.000000;0.834046
9574.000000;0.834079
9573.000000;0.834103
9572.000000;0.834099
9571.000000;0.834040
9570.000000;0.833972
9569.000000;0.833944
9568.000000;0.833910
9567.000000;0.833778
9566.000000;0.833532
9565.000000;0.833268
9564.000000;0.833112
9563.000000;0.833127
9562.000000;0.833252
9561.000000;0.833309
9560.000000;0.833124
9559.000000;0.832695
9558.000000;0.832231
9557.000000;0.832011
9556.000000;0.832183
9555.000000;0.832669
9554.000000;0.833205
9553.000000;0.833457
9552.000000;0.833248
9551.000000;0.832742
9550.000000;0.832351
9549.000000;0.832317
9548.000000;0.832440
9547.000000;0.832325
9546.000000;0.831898
9545.000000;0.831510
9544.000000;0.831505
9543.000000;0.831835
9542.000000;0.832174
9541.000000;0.832255
9540.000000;0.831985
9539.000000;0.831370
9538.000000;0.830507
9537.000000;0.829651
9536.000000;0.829117
9535.000000;0.829073
9534.000000;0.829467
9533.000000;0.830095
9532.000000;0.830665
9531.000000;0.830895
9530.000000;0.830724
9529.000000;0.830410
9528.000000;0.830240
9527.000000;0.830177
9526.000000;0.829978
9525.000000;0.829648
9524.000000;0.829513
9523.000000;0.829747
9522.000000;0.830064
9521.000000;0.830080
9520.000000;0.829781
9519.000000;0.829409
9518.000000;0.829022
9517.000000;0.828476
9516.000000;0.827834
9515.000000;0.827495
9514.000000;0.827772
9513.000000;0.828496
9512.000000;0.829167
9511.000000;0.829418
9510.000000;0.829283
9509.000000;0.829043
9508.000000;0.828911
9507.000000;0.828854
9506.000000;0.828690
9505.000000;0.828338
9504.000000;0.827945
9503.000000;0.827759
9502.000000;0.827909
9501.000000;0.828327
9500.000000;0.828835
9499.000000;0.829252
9498.000000;0.829447
9497.000000;0.829387
9496.000000;0.829132
9495.000000;0.828735
9494.000000;0.828197
9493.000000;0.827589
9492.000000;0.827163
9491.000000;0.827180
9490.000000;0.827587
9489.000000;0.827974
9488.000000;0.827946
9487.000000;0.827505
9486.000000;0.827006
9485.000000;0.826752
9484.000000;0.826718
9483.000000;0.826682
9482.000000;0.826574
9481.000000;0.826607
9480.000000;0.826991
9479.000000;0.827580
9478.000000;0.827931
9477.000000;0.827770
9476.000000;0.827275
9475.000000;0.826810
9474.000000;0.826508
9473.000000;0.826233
9472.000000;0.825876
9471.000000;0.825506
9470.000000;0.825243
9469.000000;0.825171
9468.000000;0.825375
9467.000000;0.825866
9466.000000;0.826412
9465.000000;0.826612
9464.000000;0.826288
9463.000000;0.825719
9462.000000;0.825337
9461.000000;0.825282
9460.000000;0.825335
9459.000000;0.825285
9458.000000;0.825187
9457.000000;0.825220
9456.000000;0.825383
9455.000000;0.825449
9454.000000;0.825231
9453.000000;0.824830
9452.000000;0.824523
9451.000000;0.824413
9450.000000;0.824356
9449.000000;0.824253
9448.000000;0.824273
9447.000000;0.824588
9446.000000;0.824992
9445.000000;0.825062
9444.000000;0.824723
9443.000000;0.824416
9442.000000;0.824537
9441.000000;0.824904
9440.000000;0.824969
9439.000000;0.824476
9438.000000;0.823725
9437.000000;0.823195
9436.000000;0.823062
9435.000000;0.823146
9434.000000;0.823198
9433.000000;0.823164
9432.000000;0.823181
9431.000000;0.823368
9430.000000;0.823647
9429.000000;0.823778
9428.000000;0.823587
9427.000000;0.823141
9426.000000;0.822715
9425.000000;0.822601
9424.000000;0.822922
9423.000000;0.823544
9422.000000;0.824141
9421.000000;0.824409
9420.000000;0.824269
9419.000000;0.823869
9418.000000;0.823414
9417.000000;0.823049
9416.000000;0.822835
9415.000000;0.822726
9414.000000;0.822565
9413.000000;0.822237
9412.000000;0.821849
9411.000000;0.821652
9410.000000;0.821747
9409.000000;0.821985
9408.000000;0.822205
9407.000000;0.822423
9406.000000;0.822695
9405.000000;0.822931
9404.000000;0.822985
9403.000000;0.822850
9402.000000;0.822651
9401.000000;0.822465
9400.000000;0.822279
9399.000000;0.822092
9398.000000;0.821960
9397.000000;0.821953
9396.000000;0.822096
9395.000000;0.822315
9394.000000;0.822390
9393.000000;0.822084
9392.000000;0.821438
9391.000000;0.820863
9390.000000;0.820797
9389.000000;0.821258
9388.000000;0.821843
9387.000000;0.822123
9386.000000;0.821954
9385.000000;0.821431
9384.000000;0.820730
9383.000000;0.820066
9382.000000;0.819662
9381.000000;0.819653
9380.000000;0.819975
9379.000000;0.820400
9378.000000;0.820696
9377.000000;0.820792
9376.000000;0.820787
9375.000000;0.820757
9374.000000;0.820594
9373.000000;0.820132
9372.000000;0.819451
9371.000000;0.818915
9370.000000;0.818789
9369.000000;0.818964
9368.000000;0.819146
9367.000000;0.819226
9366.000000;0.819296
9365.000000;0.819384
9364.000000;0.819389
9363.000000;0.819283
9362.000000;0.819195
9361.000000;0.819258
9360.000000;0.819467
9359.000000;0.819705
9358.000000;0.819804
9357.000000;0.819615
9356.000000;0.819155
9355.000000;0.818679
9354.000000;0.818471
9353.000000;0.818566
9352.000000;0.818783
9351.000000;0.818984
9350.000000;0.819156
9349.000000;0.819240
9348.000000;0.819099
9347.000000;0.818731
9346.000000;0.818345
9345.000000;0.818143
9344.000000;0.818136
9343.000000;0.818221
9342.000000;0.818307
9341.000000;0.818307
9340.000000;0.818178
9339.000000;0.818046
9338.000000;0.818128
9337.000000;0.818432
9336.000000;0.818669
9335.000000;0.818580
9334.000000;0.818246
9333.000000;0.817943
9332.000000;0.817797
9331.000000;0.817736
9330.000000;0.817666
9329.000000;0.817537
9328.000000;0.817271
9327.000000;0.816814
9326.000000;0.816283
9325.000000;0.815917
9324.000000;0.815851
9323.000000;0.816014
9322.000000;0.816276
9321.000000;0.816604
9320.000000;0.817021
9319.000000;0.817452
9318.000000;0.817696
9317.000000;0.817575
9316.000000;0.817139
9315.000000;0.816684
9314.000000;0.816502
9313.000000;0.816598
9312.000000;0.816699
9311.000000;0.816567
9310.000000;0.816230
9309.000000;0.815899
9308.000000;0.815740
9307.000000;0.815784
9306.000000;0.815943
9305.000000;0.816050
9304.000000;0.815949
9303.000000;0.815643
9302.000000;0.815318
9301.000000;0.815157
9300.000000;0.815181
9299.000000;0.815301
9298.000000;0.815471
9297.000000;0.815699
9296.000000;0.815938
9295.000000;0.816081
9294.000000;0.816032
9293.000000;0.815762
9292.000000;0.815310
9291.000000;0.814807
9290.000000;0.814433
9289.000000;0.814288
9288.000000;0.814317
9287.000000;0.814408
9286.000000;0.814493
9285.000000;0.814514
9284.000000;0.814370
9283.000000;0.814027
9282.000000;0.813634
9281.000000;0.813425
9280.000000;0.813496
9279.000000;0.813745
9278.000000;0.814022
9277.000000;0.814250
9276.000000;0.814403
9275.000000;0.814475
9274.000000;0.814481
9273.000000;0.814432
9272.000000;0.814288
9271.000000;0.813986
9270.000000;0.813533
9269.000000;0.813039
9268.000000;0.812661
9267.000000;0.812515
9266.000000;0.812594
9265.000000;0.812745
9264.000000;0.812778
9263.000000;0.812636
9262.000000;0.812427
9261.000000;0.812262
9260.000000;0.812165
9259.000000;0.812163
9258.000000;0.812352
9257.000000;0.812744
9256.000000;0.813145
9255.000000;0.813331
9254.000000;0.813301
9253.000000;0.813210
9252.000000;0.813091
9251.000000;0.812825
9250.000000;0.812390
9249.000000;0.811956
9248.000000;0.811675
9247.000000;0.811517
9246.000000;0.811388
9245.000000;0.811311
9244.000000;0.811361
9243.000000;0.811505
9242.000000;0.811594
9241.000000;0.811536
9240.000000;0.811411
9239.000000;0.811408
9238.000000;0.811629
9237.000000;0.811952
9236.000000;0.812121
9235.000000;0.812022
9234.000000;0.811805
9233.000000;0.811668
9232.000000;0.811572
9231.000000;0.811300
9230.000000;0.810792
9229.000000;0.810284
9228.000000;0.810049
9227.000000;0.810125
9226.000000;0.810354
9225.000000;0.810579
9224.000000;0.810725
9223.000000;0.810739
9222.000000;0.810569
9221.000000;0.810246
9220.000000;0.809936
9219.000000;0.809859
9218.000000;0.810098
9217.000000;0.810459
9216.000000;0.810593
9215.000000;0.810346
9214.000000;0.809964
9213.000000;0.809836
9212.000000;0.810054
9211.000000;0.810329
9210.000000;0.810355
9209.000000;0.810115
9208.000000;0.809795
9207.000000;0.809534
9206.000000;0.809375
9205.000000;0.809352
9204.000000;0.809484
9203.000000;0.809681
9202.000000;0.809779
9201.000000;0.809701
9200.000000;0.809539
9199.000000;0.809469
9198.000000;0.809575
9197.000000;0.809777
9196.000000;0.809909
9195.000000;0.809874
9194.000000;0.809702
9193.000000;0.809454
9192.000000;0.809128
9191.000000;0.808721
9190.000000;0.808326
9189.000000;0.808051
9188.000000;0.807870
9187.000000;0.807669
9186.000000;0.807456
9185.000000;0.807393
9184.000000;0.807543
9183.000000;0.807716
9182.000000;0.807682
9181.000000;0.807458
9180.000000;0.807286
9179.000000;0.807381
9178.000000;0.807757
9177.000000;0.808234
9176.000000;0.808526
9175.000000;0.808389
9174.000000;0.807825
9173.000000;0.807151
9172.000000;0.806751
9171.000000;0.806737
9170.000000;0.806911
9169.000000;0.807041
9168.000000;0.807105
9167.000000;0.807234
9166.000000;0.807489
9165.000000;0.807762
9164.000000;0.807875
9163.000000;0.807740
9162.000000;0.807414
9161.000000;0.807031
9160.000000;0.806680
9159.000000;0.806352
9158.000000;0.805983
9157.000000;0.805551
9156.000000;0.805145
9155.000000;0.804924
9154.000000;0.804982
9153.000000;0.805228
9152.000000;0.805433
9151.000000;0.805449
9150.000000;0.805366
9149.000000;0.805392
9148.000000;0.805605
9147.000000;0.805873
9146.000000;0.806019
9145.000000;0.806001
9144.000000;0.805923
9143.000000;0.805931
9142.000000;0.806092
9141.000000;0.806302
9140.000000;0.806340
9139.000000;0.806089
9138.000000;0.805710
9137.000000;0.805490
9136.000000;0.805513
9135.000000;0.805598
9134.000000;0.805589
9133.000000;0.805544
9132.000000;0.805564
9131.000000;0.805570
9130.000000;0.805423
9129.000000;0.805172
9128.000000;0.805012
9127.000000;0.804999
9126.000000;0.804955
9125.000000;0.804709
9124.000000;0.804319
9123.000000;0.804026
9122.000000;0.804024
9121.000000;0.804289
9120.000000;0.804607
9119.000000;0.804757
9118.000000;0.804696
9117.000000;0.804541
9116.000000;0.804397
9115.000000;0.804251
9114.000000;0.804075
9113.000000;0.803934
9112.000000;0.803921
9111.000000;0.804015
9110.000000;0.804097
9109.000000;0.804075
9108.000000;0.803957
9107.000000;0.803789
9106.000000;0.803611
9105.000000;0.803444
9104.000000;0.803295
9103.000000;0.803167
9102.000000;0.803087
9101.000000;0.803065
9100.000000;0.803023
9099.000000;0.802858
9098.000000;0.802611
9097.000000;0.802470
9096.000000;0.802518
9095.000000;0.802600
9094.000000;0.802550
9093.000000;0.802434
9092.000000;0.802418
9091.000000;0.802461
9090.000000;0.802368
9089.000000;0.802109
9088.000000;0.801888
9087.000000;0.801835
9086.000000;0.801835
9085.000000;0.801732
9084.000000;0.801547
9083.000000;0.801387
9082.000000;0.801273
9081.000000;0.801159
9080.000000;0.801057
9079.000000;0.801019
9078.000000;0.801047
9077.000000;0.801117
9076.000000;0.801244
9075.000000;0.801456
9074.000000;0.801704
9073.000000;0.801885
9072.000000;0.801910
9071.000000;0.801725
9070.000000;0.801312
9069.000000;0.800747
9068.000000;0.800248
9067.000000;0.800051
9066.000000;0.800224
9065.000000;0.800616
9064.000000;0.800988
9063.000000;0.801173
9062.000000;0.801140
9061.000000;0.800966
9060.000000;0.800764
9059.000000;0.800611
9058.000000;0.800521
9057.000000;0.800464
9056.000000;0.800398
9055.000000;0.800293
9054.000000;0.800151
9053.000000;0.800021
9052.000000;0.799973
9051.000000;0.800040
9050.000000;0.800204
9049.000000;0.800414
9048.000000;0.800584
9047.000000;0.800586
9046.000000;0.800334
9045.000000;0.799904
9044.000000;0.799512
9043.000000;0.799318
9042.000000;0.799292
9041.000000;0.799294
9040.000000;0.799239
9039.000000;0.799111
9038.000000;0.798891
9037.000000;0.798583
9036.000000;0.798289
9035.000000;0.798171
9034.000000;0.798264
9033.000000;0.798409
9032.000000;0.798407
9031.000000;0.798231
9030.000000;0.798018
9029.000000;0.797894
9028.000000;0.797849
9027.000000;0.797809
9026.000000;0.797784
9025.000000;0.797866
9024.000000;0.798081
9023.000000;0.798275
9022.000000;0.798222
9021.000000;0.797865
9020.000000;0.797404
9019.000000;0.797107
9018.000000;0.797043
9017.000000;0.797060
9016.000000;0.796993
9015.000000;0.796855
9014.000000;0.796766
9013.000000;0.796765
9012.000000;0.796765
9011.000000;0.796698
9010.000000;0.796628
9009.000000;0.796666
9008.000000;0.796838
9007.000000;0.797066
9006.000000;0.797274
9005.000000;0.797420
9004.000000;0.797464
9003.000000;0.797362
9002.000000;0.797145
9001.000000;0.796940
9000.000000;0.796883
8999.000000;0.797016
8998.000000;0.797244
8997.000000;0.797383
8996.000000;0.797260
8995.000000;0.796854
8994.000000;0.796343
8993.000000;0.795963
8992.000000;0.795798
8991.000000;0.795755
8990.000000;0.795748
8989.000000;0.795794
8988.000000;0.795895
8987.000000;0.795954
8986.000000;0.795911
8985.000000;0.795864
8984.000000;0.795933
8983.000000;0.796052
8982.000000;0.796042
8981.000000;0.795864
8980.000000;0.795651
8979.000000;0.795494
8978.000000;0.795340
8977.000000;0.795138
8976.000000;0.794940
8975.000000;0.794805
8974.000000;0.794708
8973.000000;0.794641
8972.000000;0.794731
8971.000000;0.795118
8970.000000;0.795736
8969.000000;0.796279
8968.000000;0.796425
8967.000000;0.796087
8966.000000;0.795464
8965.000000;0.794887
8964.000000;0.794608
8963.000000;0.794683
8962.000000;0.794992
8961.000000;0.795304
8960.000000;0.795351
8959.000000;0.794964
8958.000000;0.794264
8957.000000;0.793672
8956.000000;0.793574
8955.000000;0.793935
8954.000000;0.794349
8953.000000;0.794493
8952.000000;0.794416
8951.000000;0.794341
8950.000000;0.794339
8949.000000;0.794322
8948.000000;0.794238
8947.000000;0.794104
8946.000000;0.793877
8945.000000;0.793477
8944.000000;0.793001
8943.000000;0.792755
8942.000000;0.792960
8941.000000;0.793469
8940.000000;0.793868
8939.000000;0.793875
8938.000000;0.793588
8937.000000;0.793301
8936.000000;0.793147
8935.000000;0.792998
8934.000000;0.792727
8933.000000;0.792459
8932.000000;0.792450
8931.000000;0.792741
8930.000000;0.793064
8929.000000;0.793122
8928.000000;0.792879
8927.000000;0.792520
8926.000000;0.792215
8925.000000;0.792020
8924.000000;0.791936
8923.000000;0.791941
8922.000000;0.791967
8921.000000;0.791941
8920.000000;0.791882
8919.000000;0.791905
8918.000000;0.792097
8917.000000;0.792400
8916.000000;0.792624
8915.000000;0.792564
8914.000000;0.792143
8913.000000;0.791499
8912.000000;0.790926
8911.000000;0.790679
8910.000000;0.790794
8909.000000;0.791092
8908.000000;0.791328
8907.000000;0.791356
8906.000000;0.791197
8905.000000;0.791024
8904.000000;0.791030
8903.000000;0.791248
8902.000000;0.791490
8901.000000;0.791522
8900.000000;0.791294
8899.000000;0.790954
8898.000000;0.790658
8897.000000;0.790426
8896.000000;0.790219
8895.000000;0.790051
8894.000000;0.789980
8893.000000;0.790012
8892.000000;0.790081
8891.000000;0.790113
8890.000000;0.790081
8889.000000;0.790028
8888.000000;0.790018
8887.000000;0.790069
8886.000000;0.790113
8885.000000;0.790072
8884.000000;0.789960
8883.000000;0.789872
8882.000000;0.789847
8881.000000;0.789802
8880.000000;0.789633
8879.000000;0.789368
8878.000000;0.789145
8877.000000;0.789054
8876.000000;0.789040
8875.000000;0.788983
8874.000000;0.788856
8873.000000;0.788765
8872.000000;0.788830
8871.000000;0.789046
8870.000000;0.789272
8869.000000;0.789358
8868.000000;0.789272
8867.000000;0.789088
8866.000000;0.788912
8865.000000;0.788808
8864.000000;0.788795
8863.000000;0.788818
8862.000000;0.788763
8861.000000;0.788560
8860.000000;0.788286
8859.000000;0.788130
8858.000000;0.788193
8857.000000;0.788404
8856.000000;0.788626
8855.000000;0.788792
8854.000000;0.788876
8853.000000;0.788816
8852.000000;0.788579
8851.000000;0.788271
8850.000000;0.788079
8849.000000;0.788055
8848.000000;0.788062
8847.000000;0.787956
8846.000000;0.787758
8845.000000;0.787594
8844.000000;0.787520
8843.000000;0.787483
8842.000000;0.787429
8841.000000;0.787369
8840.000000;0.787367
8839.000000;0.787471
8838.000000;0.787662
8837.000000;0.787840
8836.000000;0.787898
8835.000000;0.787852
8834.000000;0.787831
8833.000000;0.787894
8832.000000;0.787912
8831.000000;0.787730
8830.000000;0.787389
8829.000000;0.787104
8828.000000;0.787000
8827.000000;0.786998
8826.000000;0.786968
8825.000000;0.786870
8824.000000;0.786704
8823.000000;0.786454
8822.000000;0.786167
8821.000000;0.785986
8820.000000;0.785998
8819.000000;0.786095
8818.000000;0.786116
8817.000000;0.786074
8816.000000;0.786130
8815.000000;0.786332
8814.000000;0.786532
8813.000000;0.786581
8812.000000;0.786492
8811.000000;0.786340
8810.000000;0.786114
8809.000000;0.785786
8808.000000;0.785451
8807.000000;0.785274
8806.000000;0.785298
8805.000000;0.785392
8804.000000;0.785407
8803.000000;0.785332
8802.000000;0.785257
8801.000000;0.785233
8800.000000;0.785215
8799.000000;0.785140
8798.000000;0.785012
8797.000000;0.784903
8796.000000;0.784887
8795.000000;0.784982
8794.000000;0.785135
8793.000000;0.785240
8792.000000;0.785205
8791.000000;0.785034
8790.000000;0.784861
8789.000000;0.784829
8788.000000;0.784921
8787.000000;0.784947
8786.000000;0.784752
8785.000000;0.784401
8784.000000;0.784109
8783.000000;0.784001
8782.000000;0.784005
8781.000000;0.783995
8780.000000;0.783936
8779.000000;0.783863
8778.000000;0.783785
8777.000000;0.783687
8776.000000;0.783595
8775.000000;0.783574
8774.000000;0.783631
8773.000000;0.783686
8772.000000;0.783658
8771.000000;0.783546
8770.000000;0.783411
8769.000000;0.783310
8768.000000;0.783255
8767.000000;0.783227
8766.000000;0.783185
8765.000000;0.783073
8764.000000;0.782881
8763.000000;0.782708
8762.000000;0.782708
8761.000000;0.782938
8760.000000;0.783260
8759.000000;0.783454
8758.000000;0.783398
8757.000000;0.783114
8756.000000;0.782663
8755.000000;0.782099
8754.000000;0.781541
8753.000000;0.781192
8752.000000;0.781216
8751.000000;0.781593
8750.000000;0.782138
8749.000000;0.782620
8748.000000;0.782854
8747.000000;0.782752
8746.000000;0.782388
8745.000000;0.781991
8744.000000;0.781772
8743.000000;0.781756
8742.000000;0.781814
8741.000000;0.781850
8740.000000;0.781876
8739.000000;0.781908
8738.000000;0.781894
8737.000000;0.781806
8736.000000;0.781705
8735.000000;0.781657
8734.000000;0.781629
8733.000000;0.781540
8732.000000;0.781405
8731.000000;0.781333
8730.000000;0.781393
8729.000000;0.781526
8728.000000;0.781627
8727.000000;0.781660
8726.000000;0.781653
8725.000000;0.781606
8724.000000;0.781454
8723.000000;0.781166
8722.000000;0.780843
8721.000000;0.780662
8720.000000;0.780712
8719.000000;0.780884
8718.000000;0.780958
8717.000000;0.780793
8716.000000;0.780437
8715.000000;0.780083
8714.000000;0.779919
8713.000000;0.779993
8712.000000;0.780187
8711.000000;0.780337
8710.000000;0.780369
8709.000000;0.780333
8708.000000;0.780292
8707.000000;0.780242
8706.000000;0.780146
8705.000000;0.779993
8704.000000;0.779795
8703.000000;0.779556
8702.000000;0.779326
8701.000000;0.779208
8700.000000;0.779268
8699.000000;0.779432
8698.000000;0.779553
8697.000000;0.779573
8696.000000;0.779558
8695.000000;0.779598
8694.000000;0.779718
8693.000000;0.779886
8692.000000;0.780046
8691.000000;0.780117
8690.000000;0.780035
8689.000000;0.779801
8688.000000;0.779470
8687.000000;0.779095
8686.000000;0.778753
8685.000000;0.778582
8684.000000;0.778691
8683.000000;0.779001
8682.000000;0.779256
8681.000000;0.779269
8680.000000;0.779095
8679.000000;0.778926
8678.000000;0.778858
8677.000000;0.778818
8676.000000;0.778685
8675.000000;0.778446
8674.000000;0.778215
8673.000000;0.778130
8672.000000;0.778217
8671.000000;0.778353
8670.000000;0.778380
8669.000000;0.778257
8668.000000;0.778094
8667.000000;0.778017
8666.000000;0.778042
8665.000000;0.778066
8664.000000;0.777962
8663.000000;0.777696
8662.000000;0.777375
8661.000000;0.777172
8660.000000;0.777159
8659.000000;0.777211
8658.000000;0.777141
8657.000000;0.776929
8656.000000;0.776745
8655.000000;0.776747
8654.000000;0.776904
8653.000000;0.777050
8652.000000;0.777063
8651.000000;0.776949
8650.000000;0.776809
8649.000000;0.776728
8648.000000;0.776694
8647.000000;0.776621
8646.000000;0.776479
8645.000000;0.776376
8644.000000;0.776416
8643.000000;0.776522
8642.000000;0.776491
8641.000000;0.776247
8640.000000;0.775932
8639.000000;0.775717
8638.000000;0.775614
8637.000000;0.775534
8636.000000;0.775429
8635.000000;0.775320
8634.000000;0.775228
8633.000000;0.775160
8632.000000;0.775117
8631.000000;0.775087
8630.000000;0.775059
8629.000000;0.775079
8628.000000;0.775203
8627.000000;0.775360
8626.000000;0.775371
8625.000000;0.775187
8624.000000;0.775009
8623.000000;0.775048
8622.000000;0.775233
8621.000000;0.775288
8620.000000;0.775082
8619.000000;0.774782
8618.000000;0.774620
8617.000000;0.774621
8616.000000;0.774599
8615.000000;0.774364
8614.000000;0.773913
8613.000000;0.773452
8612.000000;0.773241
8611.000000;0.773397
8610.000000;0.773790
8609.000000;0.774143
8608.000000;0.774232
8607.000000;0.774026
8606.000000;0.773676
8605.000000;0.773385
8604.000000;0.773242
8603.000000;0.773153
8602.000000;0.772971
8601.000000;0.772672
8600.000000;0.772364
8599.000000;0.772117
8598.000000;0.771894
8597.000000;0.771670
8596.000000;0.771525
8595.000000;0.771523
8594.000000;0.771602
8593.000000;0.771653
8592.000000;0.771667
8591.000000;0.771706
8590.000000;0.771783
8589.000000;0.771856
8588.000000;0.771899
8587.000000;0.771877
8586.000000;0.771723
8585.000000;0.771452
8584.000000;0.771257
8583.000000;0.771343
8582.000000;0.771652
8581.000000;0.771887
8580.000000;0.771822
8579.000000;0.771524
8578.000000;0.771222
8577.000000;0.771075
8576.000000;0.771076
8575.000000;0.771121
8574.000000;0.771110
8573.000000;0.771045
8572.000000;0.771035
8571.000000;0.771147
8570.000000;0.771256
8569.000000;0.771160
8568.000000;0.770833
8567.000000;0.770481
8566.000000;0.770291
8565.000000;0.770227
8564.000000;0.770140
8563.000000;0.769985
8562.000000;0.769837
8561.000000;0.769761
8560.000000;0.769742
8559.000000;0.769738
8558.000000;0.769720
8557.000000;0.769662
8556.000000;0.769539
8555.000000;0.769355
8554.000000;0.769149
8553.000000;0.768942
8552.000000;0.768737
8551.000000;0.768541
8550.000000;0.768395
8549.000000;0.768359
8548.000000;0.768450
8547.000000;0.768601
8546.000000;0.768700
8545.000000;0.768687
8544.000000;0.768607
8543.000000;0.768541
8542.000000;0.768496
8541.000000;0.768424
8540.000000;0.768315
8539.000000;0.768211
8538.000000;0.768122
8537.000000;0.767997
8536.000000;0.767804
8535.000000;0.767586
8534.000000;0.767407
8533.000000;0.767273
8532.000000;0.767156
8531.000000;0.767056
8530.000000;0.766993
8529.000000;0.766950
8528.000000;0.766886
8527.000000;0.766807
8526.000000;0.766790
8525.000000;0.766888
8524.000000;0.767017
8523.000000;0.767003
8522.000000;0.766765
8521.000000;0.766443
8520.000000;0.766274
8519.000000;0.766344
8518.000000;0.766513
8517.000000;0.766605
8516.000000;0.766598
8515.000000;0.766568
8514.000000;0.766507
8513.000000;0.766314
8512.000000;0.765962
8511.000000;0.765573
8510.000000;0.765299
8509.000000;0.765198
8508.000000;0.765227
8507.000000;0.765307
8506.000000;0.765362
8505.000000;0.765367
8504.000000;0.765376
8503.000000;0.765441
8502.000000;0.765493
8501.000000;0.765371
8500.000000;0.765007
8499.000000;0.764533
8498.000000;0.764148
8497.000000;0.763946
8496.000000;0.763886
8495.000000;0.763892
8494.000000;0.763897
8493.000000;0.763853
8492.000000;0.763774
8491.000000;0.763735
8490.000000;0.763784
8489.000000;0.763867
8488.000000;0.763908
8487.000000;0.763930
8486.000000;0.764023
8485.000000;0.764162
8484.000000;0.764181
8483.000000;0.763952
8482.000000;0.763558
8481.000000;0.763208
8480.000000;0.763022
8479.000000;0.762954
8478.000000;0.762921
8477.000000;0.762910
8476.000000;0.762944
8475.000000;0.762993
8474.000000;0.762976
8473.000000;0.762845
8472.000000;0.762617
8471.000000;0.762329
8470.000000;0.762028
8469.000000;0.761813
8468.000000;0.761814
8467.000000;0.762054
8466.000000;0.762371
8465.000000;0.762541
8464.000000;0.762475
8463.000000;0.762258
8462.000000;0.762006
8461.000000;0.761764
8460.000000;0.761533
8459.000000;0.761328
8458.000000;0.761177
8457.000000;0.761100
8456.000000;0.761116
8455.000000;0.761225
8454.000000;0.761368
8453.000000;0.761440
8452.000000;0.761388
8451.000000;0.761259
8450.000000;0.761123
8449.000000;0.760970
8448.000000;0.760744
8447.000000;0.760454
8446.000000;0.760199
8445.000000;0.760074
8444.000000;0.760076
8443.000000;0.760110
8442.000000;0.760078
8441.000000;0.759954
8440.000000;0.759805
8439.000000;0.759732
8438.000000;0.759778
8437.000000;0.759864
8436.000000;0.759853
8435.000000;0.759685
8434.000000;0.759451
8433.000000;0.759321
8432.000000;0.759381
8431.000000;0.759555
8430.000000;0.759684
8429.000000;0.759684
8428.000000;0.759609
8427.000000;0.759560
8426.000000;0.759561
8425.000000;0.759543
8424.000000;0.759440
8423.000000;0.759247
8422.000000;0.758994
8421.000000;0.758730
8420.000000;0.758529
8419.000000;0.758462
8418.000000;0.758523
8417.000000;0.758599
8416.000000;0.758568
8415.000000;0.758407
8414.000000;0.758200
8413.000000;0.758044
8412.000000;0.757988
8411.000000;0.758034
8410.000000;0.758150
8409.000000;0.758263
8408.000000;0.758290
8407.000000;0.758206
8406.000000;0.758063
8405.000000;0.757922
8404.000000;0.757784
8403.000000;0.757632
8402.000000;0.757500
8401.000000;0.757464
8400.000000;0.757537
8399.000000;0.757634
8398.000000;0.757656
8397.000000;0.757584
8396.000000;0.757459
8395.000000;0.757300
8394.000000;0.757094
8393.000000;0.756862
8392.000000;0.756656
8391.000000;0.756489
8390.000000;0.756299
8389.000000;0.756039
8388.000000;0.755753
8387.000000;0.755548
8386.000000;0.755490
8385.000000;0.755558
8384.000000;0.755664
8383.000000;0.755704
8382.000000;0.755626
8381.000000;0.755480
8380.000000;0.755389
8379.000000;0.755416
8378.000000;0.755497
8377.000000;0.755533
8376.000000;0.755515
8375.000000;0.755501
8374.000000;0.755504
8373.000000;0.755461
8372.000000;0.755334
8371.000000;0.755164
8370.000000;0.755014
8369.000000;0.754915
8368.000000;0.754876
8367.000000;0.754902
8366.000000;0.754952
8365.000000;0.754936
8364.000000;0.754807
8363.000000;0.754611
8362.000000;0.754416
8361.000000;0.754221
8360.000000;0.753992
8359.000000;0.753759
8358.000000;0.753619
8357.000000;0.753613
8356.000000;0.753667
8355.000000;0.753671
8354.000000;0.753600
8353.000000;0.753521
8352.000000;0.753496
8351.000000;0.753505
8350.000000;0.753474
8349.000000;0.753352
8348.000000;0.753150
8347.000000;0.752912
8346.000000;0.752676
8345.000000;0.752482
8344.000000;0.752378
8343.000000;0.752399
8342.000000;0.752516
8341.000000;0.752638
8340.000000;0.752666
8339.000000;0.752563
8338.000000;0.752359
8337.000000;0.752130
8336.000000;0.751950
8335.000000;0.751854
8334.000000;0.751819
8333.000000;0.751799
8332.000000;0.751776
8331.000000;0.751766
8330.000000;0.751770
8329.000000;0.751754
8328.000000;0.751686
8327.000000;0.751593
8326.000000;0.751533
8325.000000;0.751521
8324.000000;0.751495
8323.000000;0.751396
8322.000000;0.751262
8321.000000;0.751203
8320.000000;0.751271
8319.000000;0.751380
8318.000000;0.751373
8317.000000;0.751185
8316.000000;0.750887
8315.000000;0.750594
8314.000000;0.750359
8313.000000;0.750190
8312.000000;0.750092
8311.000000;0.750055
8310.000000;0.750026
8309.000000;0.749966
8308.000000;0.749933
8307.000000;0.750042
8306.000000;0.750320
8305.000000;0.750626
8304.000000;0.750762
8303.000000;0.750645
8302.000000;0.750344
8301.000000;0.749972
8300.000000;0.749600
8299.000000;0.749272
8298.000000;0.749051
8297.000000;0.748995
8296.000000;0.749074
8295.000000;0.749167
8294.000000;0.749150
8293.000000;0.748998
8292.000000;0.748785
8291.000000;0.748597
8290.000000;0.748480
8289.000000;0.748437
8288.000000;0.748450
8287.000000;0.748472
8286.000000;0.748447
8285.000000;0.748360
8284.000000;0.748262
8283.000000;0.748214
8282.000000;0.748220
8281.000000;0.748232
8280.000000;0.748197
8279.000000;0.748084
8278.000000;0.747899
8277.000000;0.747691
8276.000000;0.747535
8275.000000;0.747459
8274.000000;0.747420
8273.000000;0.747360
8272.000000;0.747289
8271.000000;0.747264
8270.000000;0.747301
8269.000000;0.747346
8268.000000;0.747347
8267.000000;0.747306
8266.000000;0.747253
8265.000000;0.747188
8264.000000;0.747086
8263.000000;0.746945
8262.000000;0.746780
8261.000000;0.746596
8260.000000;0.746380
8259.000000;0.746160
8258.000000;0.746024
8257.000000;0.746047
8256.000000;0.746181
8255.000000;0.746268
8254.000000;0.746207
8253.000000;0.746073
8252.000000;0.746014
8251.000000;0.746038
8250.000000;0.745993
8249.000000;0.745784
8248.000000;0.745534
8247.000000;0.745458
8246.000000;0.745608
8245.000000;0.745827
8244.000000;0.745944
8243.000000;0.745945
8242.000000;0.745928
8241.000000;0.745942
8240.000000;0.745911
8239.000000;0.745725
8238.000000;0.745386
8237.000000;0.745040
8236.000000;0.744857
8235.000000;0.744864
8234.000000;0.744930
8233.000000;0.744920
8232.000000;0.744814
8231.000000;0.744664
8230.000000;0.744508
8229.000000;0.744365
8228.000000;0.744271
8227.000000;0.744237
8226.000000;0.744199
8225.000000;0.744086
8224.000000;0.743922
8223.000000;0.743788
8222.000000;0.743683
8221.000000;0.743528
8220.000000;0.743306
8219.000000;0.743124
8218.000000;0.743086
8217.000000;0.743165
8216.000000;0.743248
8215.000000;0.743273
8214.000000;0.743267
8213.000000;0.743277
8212.000000;0.743293
8211.000000;0.743253
8210.000000;0.743100
8209.000000;0.742851
8208.000000;0.742597
8207.000000;0.742439
8206.000000;0.742409
8205.000000;0.742476
8204.000000;0.742583
8203.000000;0.742666
8202.000000;0.742653
8201.000000;0.742523
8200.000000;0.742340
8199.000000;0.742187
8198.000000;0.742078
8197.000000;0.741978
8196.000000;0.741894
8195.000000;0.741865
8194.000000;0.741866
8193.000000;0.741805
8192.000000;0.741652
8191.000000;0.741493
8190.000000;0.741413
8189.000000;0.741401
8188.000000;0.741400
8187.000000;0.741392
8186.000000;0.741378
8185.000000;0.741336
8184.000000;0.741244
8183.000000;0.741132
8182.000000;0.741028
8181.000000;0.740919
8180.000000;0.740780
8179.000000;0.740632
8178.000000;0.740516
8177.000000;0.740428
8176.000000;0.740348
8175.000000;0.740294
8174.000000;0.740296
8173.000000;0.740348
8172.000000;0.740425
8171.000000;0.740526
8170.000000;0.740634
8169.000000;0.740668
8168.000000;0.740539
8167.000000;0.740272
8166.000000;0.740012
8165.000000;0.739887
8164.000000;0.739892
8163.000000;0.739919
8162.000000;0.739875
8161.000000;0.739753
8160.000000;0.739624
8159.000000;0.739563
8158.000000;0.739569
8157.000000;0.739567
8156.000000;0.739495
8155.000000;0.739378
8154.000000;0.739264
8153.000000;0.739129
8152.000000;0.738901
8151.000000;0.738592
8150.000000;0.738343
8149.000000;0.738299
8148.000000;0.738450
8147.000000;0.738636
8146.000000;0.738703
8145.000000;0.738620
8144.000000;0.738469
8143.000000;0.738341
8142.000000;0.738266
8141.000000;0.738222
8140.000000;0.738181
8139.000000;0.738109
8138.000000;0.737956
8137.000000;0.737696
8136.000000;0.737396
8135.000000;0.737207
8134.000000;0.737222
8133.000000;0.737371
8132.000000;0.737474
8131.000000;0.737420
8130.000000;0.737255
8129.000000;0.737108
8128.000000;0.737069
8127.000000;0.737141
8126.000000;0.737267
8125.000000;0.737377
8124.000000;0.737424
8123.000000;0.737410
8122.000000;0.737375
8121.000000;0.737347
8120.000000;0.737301
8119.000000;0.737171
8118.000000;0.736917
8117.000000;0.736586
8116.000000;0.736294
8115.000000;0.736142
8114.000000;0.736130
8113.000000;0.736161
8112.000000;0.736137
8111.000000;0.736041
8110.000000;0.735929
8109.000000;0.735856
8108.000000;0.735833
8107.000000;0.735842
8106.000000;0.735873
8105.000000;0.735912
8104.000000;0.735928
8103.000000;0.735886
8102.000000;0.735795
8101.000000;0.735709
8100.000000;0.735678
8099.000000;0.735679
8098.000000;0.735625
8097.000000;0.735469
8096.000000;0.735280
8095.000000;0.735182
8094.000000;0.735210
8093.000000;0.735255
8092.000000;0.735193
8091.000000;0.735022
8090.000000;0.734864
8089.000000;0.734818
8088.000000;0.734858
8087.000000;0.734883
8086.000000;0.734822
8085.000000;0.734684
8084.000000;0.734515
8083.000000;0.734340
8082.000000;0.734162
8081.000000;0.734004
8080.000000;0.733916
8079.000000;0.733912
8078.000000;0.733931
8077.000000;0.733878
8076.000000;0.733737
8075.000000;0.733595
8074.000000;0.733550
8073.000000;0.733609
8072.000000;0.733702
8071.000000;0.733768
8070.000000;0.733783
8069.000000;0.733731
8068.000000;0.733598
8067.000000;0.733411
8066.000000;0.733252
8065.000000;0.733188
8064.000000;0.733197
8063.000000;0.733194
8062.000000;0.733108
8061.000000;0.732938
8060.000000;0.732729
8059.000000;0.732532
8058.000000;0.732384
8057.000000;0.732307
8056.000000;0.732306
8055.000000;0.732367
8054.000000;0.732459
8053.000000;0.732542
8052.000000;0.732579
8051.000000;0.732544
8050.000000;0.732442
8049.000000;0.732301
8048.000000;0.732147
8047.000000;0.731985
8046.000000;0.731823
8045.000000;0.731705
8044.000000;0.731679
8043.000000;0.731719
8042.000000;0.731719
8041.000000;0.731600
8040.000000;0.731414
8039.000000;0.731306
8038.000000;0.731359
8037.000000;0.731507
8036.000000;0.731626
8035.000000;0.731665
8034.000000;0.731659
8033.000000;0.731646
8032.000000;0.731601
8031.000000;0.731474
8030.000000;0.731279
8029.000000;0.731102
8028.000000;0.731019
8027.000000;0.731017
8026.000000;0.731030
8025.000000;0.731015
8024.000000;0.730976
8023.000000;0.730899
8022.000000;0.730727
8021.000000;0.730431
8020.000000;0.730086
8019.000000;0.729823
8018.000000;0.729707
8017.000000;0.729697
8016.000000;0.729729
8015.000000;0.729784
8014.000000;0.729874
8013.000000;0.729986
8012.000000;0.730069
8011.000000;0.730079
8010.000000;0.730005
8009.000000;0.729880
8008.000000;0.729755
8007.000000;0.729662
8006.000000;0.729594
8005.000000;0.729533
8004.000000;0.729476
8003.000000;0.729431
8002.000000;0.729382
8001.000000;0.729312
8000.000000;0.729242
7999.000000;0.729203
7998.000000;0.729181
7997.000000;0.729124
7996.000000;0.729006
7995.000000;0.728852
7994.000000;0.728693
7993.000000;0.728547
7992.000000;0.728452
7991.000000;0.728442
7990.000000;0.728476
7989.000000;0.728445
7988.000000;0.728305
7987.000000;0.728153
7986.000000;0.728116
7985.000000;0.728190
7984.000000;0.728263
7983.000000;0.728261
7982.000000;0.728218
7981.000000;0.728191
7980.000000;0.728163
7979.000000;0.728080
7978.000000;0.727943
7977.000000;0.727828
7976.000000;0.727809
7975.000000;0.727868
7974.000000;0.727903
7973.000000;0.727818
7972.000000;0.727619
7971.000000;0.727406
7970.000000;0.727275
7969.000000;0.727233
7968.000000;0.727228
7967.000000;0.727213
7966.000000;0.727179
7965.000000;0.727117
7964.000000;0.726994
7963.000000;0.726786
7962.000000;0.726531
7961.000000;0.726328
7960.000000;0.726255
7959.000000;0.726290
7958.000000;0.726334
7957.000000;0.726326
7956.000000;0.726302
7955.000000;0.726318
7954.000000;0.726334
7953.000000;0.726265
7952.000000;0.726117
7951.000000;0.726000
7950.000000;0.725977
7949.000000;0.725976
7948.000000;0.725881
7947.000000;0.725670
7946.000000;0.725412
7945.000000;0.725172
7944.000000;0.724992
7943.000000;0.724909
7942.000000;0.724933
7941.000000;0.725007
7940.000000;0.725052
7939.000000;0.725042
7938.000000;0.725005
7937.000000;0.724953
7936.000000;0.724870
7935.000000;0.724757
7934.000000;0.724641
7933.000000;0.724534
7932.000000;0.724430
7931.000000;0.724344
7930.000000;0.724302
7929.000000;0.724301
7928.000000;0.724305
7927.000000;0.724292
7926.000000;0.724268
7925.000000;0.724234
7924.000000;0.724187
7923.000000;0.724150
7922.000000;0.724164
7921.000000;0.724243
7920.000000;0.724340
7919.000000;0.724383
7918.000000;0.724307
7917.000000;0.724092
7916.000000;0.723800
7915.000000;0.723555
7914.000000;0.723439
7913.000000;0.723410
7912.000000;0.723356
7911.000000;0.723242
7910.000000;0.723132
7909.000000;0.723073
7908.000000;0.723029
7907.000000;0.722952
7906.000000;0.722854
7905.000000;0.722771
7904.000000;0.722708
7903.000000;0.722657
7902.000000;0.722643
7901.000000;0.722701
7900.000000;0.722818
7899.000000;0.722941
7898.000000;0.723009
7897.000000;0.722987
7896.000000;0.722876
7895.000000;0.722714
7894.000000;0.722553
7893.000000;0.722415
7892.000000;0.722285
7891.000000;0.722145
7890.000000;0.722004
7889.000000;0.721887
7888.000000;0.721827
7887.000000;0.721851
7886.000000;0.721933
7885.000000;0.721965
7884.000000;0.721846
7883.000000;0.721619
7882.000000;0.721453
7881.000000;0.721443
7880.000000;0.721502
7879.000000;0.721493
7878.000000;0.721404
7877.000000;0.721316
7876.000000;0.721254
7875.000000;0.721171
7874.000000;0.721061
7873.000000;0.720985
7872.000000;0.720967
7871.000000;0.720946
7870.000000;0.720860
7869.000000;0.720724
7868.000000;0.720597
7867.000000;0.720517
7866.000000;0.720476
7865.000000;0.720444
7864.000000;0.720372
7863.000000;0.720238
7862.000000;0.720087
7861.000000;0.720006
7860.000000;0.720020
7859.000000;0.720071
7858.000000;0.720092
7857.000000;0.720093
7856.000000;0.720110
7855.000000;0.720134
7854.000000;0.720113
7853.000000;0.720031
7852.000000;0.719934
7851.000000;0.719860
7850.000000;0.719799
7849.000000;0.719719
7848.000000;0.719611
7847.000000;0.719494
7846.000000;0.719378
7845.000000;0.719245
7844.000000;0.719070
7843.000000;0.718867
7842.000000;0.718695
7841.000000;0.718621
7840.000000;0.718657
7839.000000;0.718755
7838.000000;0.718849
7837.000000;0.718891
7836.000000;0.718856
7835.000000;0.718744
7834.000000;0.718585
7833.000000;0.718435
7832.000000;0.718335
7831.000000;0.718281
7830.000000;0.718243
7829.000000;0.718195
7828.000000;0.718133
7827.000000;0.718067
7826.000000;0.718011
7825.000000;0.717972
7824.000000;0.717929
7823.000000;0.717844
7822.000000;0.717695
7821.000000;0.717506
7820.000000;0.717315
7819.000000;0.717147
7818.000000;0.717027
7817.000000;0.716993
7816.000000;0.717052
7815.000000;0.717148
7814.000000;0.717197
7813.000000;0.717167
7812.000000;0.717090
7811.000000;0.716988
7810.000000;0.716844
7809.000000;0.716652
7808.000000;0.716469
7807.000000;0.716382
7806.000000;0.716419
7805.000000;0.716528
7804.000000;0.716620
7803.000000;0.716630
7802.000000;0.716553
7801.000000;0.716433
7800.000000;0.716330
7799.000000;0.716265
7798.000000;0.716201
7797.000000;0.716092
7796.000000;0.715949
7795.000000;0.715836
7794.000000;0.715794
7793.000000;0.715799
7792.000000;0.715797
7791.000000;0.715759
7790.000000;0.715685
7789.000000;0.715582
7788.000000;0.715471
7787.000000;0.715383
7786.000000;0.715342
7785.000000;0.715321
7784.000000;0.715270
7783.000000;0.715171
7782.000000;0.715054
7781.000000;0.714943
7780.000000;0.714830
7779.000000;0.714726
7778.000000;0.714683
7777.000000;0.714736
7776.000000;0.714823
7775.000000;0.714823
7774.000000;0.714684
7773.000000;0.714476
7772.000000;0.714317
7771.000000;0.714258
7770.000000;0.714273
7769.000000;0.714315
7768.000000;0.714350
7767.000000;0.714355
7766.000000;0.714303
7765.000000;0.714183
7764.000000;0.714013
7763.000000;0.713841
7762.000000;0.713717
7761.000000;0.713660
7760.000000;0.713633
7759.000000;0.713581
7758.000000;0.713499
7757.000000;0.713424
7756.000000;0.713369
7755.000000;0.713284
7754.000000;0.713123
7753.000000;0.712922
7752.000000;0.712766
7751.000000;0.712689
7750.000000;0.712644
7749.000000;0.712576
7748.000000;0.712504
7747.000000;0.712492
7746.000000;0.712569
7745.000000;0.712683
7744.000000;0.712735
7743.000000;0.712662
7742.000000;0.712495
7741.000000;0.712336
7740.000000;0.712265
7739.000000;0.712282
7738.000000;0.712335
7737.000000;0.712376
7736.000000;0.712378
7735.000000;0.712310
7734.000000;0.712160
7733.000000;0.711976
7732.000000;0.711840
7731.000000;0.711788
7730.000000;0.711780
7729.000000;0.711755
7728.000000;0.711686
7727.000000;0.711582
7726.000000;0.711448
7725.000000;0.711294
7724.000000;0.711129
7723.000000;0.710969
7722.000000;0.710842
7721.000000;0.710786
7720.000000;0.710811
7719.000000;0.710853
7718.000000;0.710812
7717.000000;0.710662
7716.000000;0.710477
7715.000000;0.710334
7714.000000;0.710240
7713.000000;0.710169
7712.000000;0.710122
7711.000000;0.710123
7710.000000;0.710164
7709.000000;0.710213
7708.000000;0.710229
7707.000000;0.710170
7706.000000;0.709998
7705.000000;0.709747
7704.000000;0.709540
7703.000000;0.709498
7702.000000;0.709602
7701.000000;0.709714
7700.000000;0.709712
7699.000000;0.709591
7698.000000;0.709436
7697.000000;0.709334
7696.000000;0.709325
7695.000000;0.709375
7694.000000;0.709406
7693.000000;0.709356
7692.000000;0.709229
7691.000000;0.709080
7690.000000;0.708957
7689.000000;0.708879
7688.000000;0.708853
7687.000000;0.708865
7686.000000;0.708864
7685.000000;0.708787
7684.000000;0.708622
7683.000000;0.708419
7682.000000;0.708237
7681.000000;0.708109
7680.000000;0.708025
7679.000000;0.707957
7678.000000;0.707883
7677.000000;0.707826
7676.000000;0.707833
7675.000000;0.707899
7674.000000;0.707940
7673.000000;0.707894
7672.000000;0.707805
7671.000000;0.707752
7670.000000;0.707715
7669.000000;0.707592
7668.000000;0.707353
7667.000000;0.707100
7666.000000;0.706948
7665.000000;0.706917
7664.000000;0.706954
7663.000000;0.706997
7662.000000;0.706996
7661.000000;0.706920
7660.000000;0.706795
7659.000000;0.706706
7658.000000;0.706704
7657.000000;0.706755
7656.000000;0.706795
7655.000000;0.706803
7654.000000;0.706787
7653.000000;0.706753
7652.000000;0.706696
7651.000000;0.706602
7650.000000;0.706438
7649.000000;0.706177
7648.000000;0.705882
7647.000000;0.705692
7646.000000;0.705683
7645.000000;0.705782
7644.000000;0.705852
7643.000000;0.705847
7642.000000;0.705813
7641.000000;0.705797
7640.000000;0.705798
7639.000000;0.705797
7638.000000;0.705769
7637.000000;0.705678
7636.000000;0.705515
7635.000000;0.705331
7634.000000;0.705185
7633.000000;0.705069
7632.000000;0.704931
7631.000000;0.704780
7630.000000;0.704689
7629.000000;0.704697
7628.000000;0.704754
7627.000000;0.704777
7626.000000;0.704723
7625.000000;0.704600
7624.000000;0.704447
7623.000000;0.704322
7622.000000;0.704268
7621.000000;0.704269
7620.000000;0.704269
7619.000000;0.704241
7618.000000;0.704210
7617.000000;0.704182
7616.000000;0.704107
7615.000000;0.703947
7614.000000;0.703746
7613.000000;0.703584
7612.000000;0.703487
7611.000000;0.703407
7610.000000;0.703298
7609.000000;0.703176
7608.000000;0.703098
7607.000000;0.703100
7606.000000;0.703160
7605.000000;0.703218
7604.000000;0.703225
7603.000000;0.703164
7602.000000;0.703047
7601.000000;0.702890
7600.000000;0.702725
7599.000000;0.702593
7598.000000;0.702523
7597.000000;0.702497
7596.000000;0.702463
7595.000000;0.702378
7594.000000;0.702251
7593.000000;0.702131
7592.000000;0.702063
7591.000000;0.702048
7590.000000;0.702040
7589.000000;0.701994
7588.000000;0.701927
7587.000000;0.701912
7586.000000;0.701971
7585.000000;0.702023
7584.000000;0.701961
7583.000000;0.701781
7582.000000;0.701593
7581.000000;0.701489
7580.000000;0.701456
7579.000000;0.701425
7578.000000;0.701350
7577.000000;0.701222
7576.000000;0.701054
7575.000000;0.700897
7574.000000;0.700832
7573.000000;0.700885
7572.000000;0.700963
7571.000000;0.700948
7570.000000;0.700831
7569.000000;0.700712
7568.000000;0.700656
7567.000000;0.700629
7566.000000;0.700569
7565.000000;0.700484
7564.000000;0.700415
7563.000000;0.700355
7562.000000;0.700256
7561.000000;0.700116
7560.000000;0.699991
7559.000000;0.699930
7558.000000;0.699915
7557.000000;0.699895
7556.000000;0.699853
7555.000000;0.699815
7554.000000;0.699800
7553.000000;0.699795
7552.000000;0.699771
7551.000000;0.699725
7550.000000;0.699671
7549.000000;0.699624
7548.000000;0.699575
7547.000000;0.699506
7546.000000;0.699412
7545.000000;0.699304
7544.000000;0.699192
7543.000000;0.699070
7542.000000;0.698940
7541.000000;0.698819
7540.000000;0.698741
7539.000000;0.698723
7538.000000;0.698743
7537.000000;0.698761
7536.000000;0.698740
7535.000000;0.698663
7534.000000;0.698553
7533.000000;0.698466
7532.000000;0.698455
7531.000000;0.698498
7530.000000;0.698498
7529.000000;0.698369
7528.000000;0.698129
7527.000000;0.697900
7526.000000;0.697794
7525.000000;0.697821
7524.000000;0.697901
7523.000000;0.697956
7522.000000;0.697960
7521.000000;0.697933
7520.000000;0.697884
7519.000000;0.697798
7518.000000;0.697657
7517.000000;0.697485
7516.000000;0.697352
7515.000000;0.697313
7514.000000;0.697349
7513.000000;0.697382
7512.000000;0.697359
7511.000000;0.697301
7510.000000;0.697264
7509.000000;0.697263
7508.000000;0.697258
7507.000000;0.697210
7506.000000;0.697113
7505.000000;0.696976
7504.000000;0.696811
7503.000000;0.696646
7502.000000;0.696545
7501.000000;0.696563
7500.000000;0.696671
7499.000000;0.696756
7498.000000;0.696727
7497.000000;0.696607
7496.000000;0.696495
7495.000000;0.696438
7494.000000;0.696379
7493.000000;0.696245
7492.000000;0.696067
7491.000000;0.695941
7490.000000;0.695914
7489.000000;0.695923
7488.000000;0.695884
7487.000000;0.695793
7486.000000;0.695710
7485.000000;0.695664
7484.000000;0.695629
7483.000000;0.695576
7482.000000;0.695515
7481.000000;0.695466
7480.000000;0.695429
7479.000000;0.695389
7478.000000;0.695350
7477.000000;0.695327
7476.000000;0.695315
7475.000000;0.695283
7474.000000;0.695214
7473.000000;0.695133
7472.000000;0.695077
7471.000000;0.695036
7470.000000;0.694947
7469.000000;0.694772
7468.000000;0.694563
7467.000000;0.694412
7466.000000;0.694365
7465.000000;0.694386
7464.000000;0.694414
7463.000000;0.694421
7462.000000;0.694402
7461.000000;0.694361
7460.000000;0.694322
7459.000000;0.694324
7458.000000;0.694372
7457.000000;0.694395
7456.000000;0.694312
7455.000000;0.694125
7454.000000;0.693924
7453.000000;0.693793
7452.000000;0.693745
7451.000000;0.693742
7450.000000;0.693740
7449.000000;0.693711
7448.000000;0.693644
7447.000000;0.693562
7446.000000;0.693500
7445.000000;0.693470
7444.000000;0.693447
7443.000000;0.693426
7442.000000;0.693445
7441.000000;0.693515
7440.000000;0.693563
7439.000000;0.693487
7438.000000;0.693293
7437.000000;0.693103
7436.000000;0.693009
7435.000000;0.692976
7434.000000;0.692921
7433.000000;0.692838
7432.000000;0.692792
7431.000000;0.692797
7430.000000;0.692784
7429.000000;0.692707
7428.000000;0.692620
7427.000000;0.692588
7426.000000;0.692590
7425.000000;0.692547
7424.000000;0.692433
7423.000000;0.692313
7422.000000;0.692255
7421.000000;0.692259
7420.000000;0.692276
7419.000000;0.692273
7418.000000;0.692246
7417.000000;0.692200
7416.000000;0.692138
7415.000000;0.692064
7414.000000;0.691995
7413.000000;0.691957
7412.000000;0.691950
7411.000000;0.691928
7410.000000;0.691828
7409.000000;0.691637
7408.000000;0.691430
7407.000000;0.691314
7406.000000;0.691326
7405.000000;0.691400
7404.000000;0.691425
7403.000000;0.691333
7402.000000;0.691134
7401.000000;0.690898
7400.000000;0.690719
7399.000000;0.690668
7398.000000;0.690738
7397.000000;0.690844
7396.000000;0.690890
7395.000000;0.690849
7394.000000;0.690764
7393.000000;0.690694
7392.000000;0.690668
7391.000000;0.690688
7390.000000;0.690726
7389.000000;0.690734
7388.000000;0.690674
7387.000000;0.690553
7386.000000;0.690412
7385.000000;0.690283
7384.000000;0.690162
7383.000000;0.690046
7382.000000;0.689968
7381.000000;0.689976
7380.000000;0.690063
7379.000000;0.690131
7378.000000;0.690069
7377.000000;0.689875
7376.000000;0.689662
7375.000000;0.689553
7374.000000;0.689567
7373.000000;0.689631
7372.000000;0.689675
7371.000000;0.689678
7370.000000;0.689659
7369.000000;0.689652
7368.000000;0.689691
7367.000000;0.689787
7366.000000;0.689895
7365.000000;0.689939
7364.000000;0.689883
7363.000000;0.689774
7362.000000;0.689688
7361.000000;0.689658
7360.000000;0.689627
7359.000000;0.689498
7358.000000;0.689232
7357.000000;0.688937
7356.000000;0.688804
7355.000000;0.688927
7354.000000;0.689193
7353.000000;0.689385
7352.000000;0.689377
7351.000000;0.689212
7350.000000;0.689029
7349.000000;0.688943
7348.000000;0.688968
7347.000000;0.689008
7346.000000;0.688941
7345.000000;0.688739
7344.000000;0.688492
7343.000000;0.688305
7342.000000;0.688199
7341.000000;0.688157
7340.000000;0.688221
7339.000000;0.688453
7338.000000;0.688812
7337.000000;0.689129
7336.000000;0.689259
7335.000000;0.689190
7334.000000;0.689013
7333.000000;0.688826
7332.000000;0.688661
7331.000000;0.688484
7330.000000;0.688262
7329.000000;0.688051
7328.000000;0.687970
7327.000000;0.688050
7326.000000;0.688172
7325.000000;0.688211
7324.000000;0.688188
7323.000000;0.688204
7322.000000;0.688278
7321.000000;0.688324
7320.000000;0.688276
7319.000000;0.688154
7318.000000;0.688018
7317.000000;0.687920
7316.000000;0.687900
7315.000000;0.687948
7314.000000;0.687972
7313.000000;0.687894
7312.000000;0.687775
7311.000000;0.687749
7310.000000;0.687804
7309.000000;0.687779
7308.000000;0.687616
7307.000000;0.687494
7306.000000;0.687619
7305.000000;0.687939
7304.000000;0.688204
7303.000000;0.688234
7302.000000;0.688056
7301.000000;0.687814
7300.000000;0.687649
7299.000000;0.687638
7298.000000;0.687744
7297.000000;0.687820
7296.000000;0.687764
7295.000000;0.687669
7294.000000;0.687723
7293.000000;0.687940
7292.000000;0.688110
7291.000000;0.688029
7290.000000;0.687748
7289.000000;0.687521
7288.000000;0.687562
7287.000000;0.687860
7286.000000;0.688198
7285.000000;0.688342
7284.000000;0.688228
7283.000000;0.687987
7282.000000;0.687812
7281.000000;0.687783
7280.000000;0.687835
7279.000000;0.687860
7278.000000;0.687817
7277.000000;0.687743
7276.000000;0.687695
7275.000000;0.687702
7274.000000;0.687740
7273.000000;0.687758
7272.000000;0.687719
7271.000000;0.687640
7270.000000;0.687573
7269.000000;0.687567
7268.000000;0.687636
7267.000000;0.687743
7266.000000;0.687798
7265.000000;0.687719
7264.000000;0.687531
7263.000000;0.687380
7262.000000;0.687406
7261.000000;0.687599
7260.000000;0.687828
7259.000000;0.687981
7258.000000;0.688027
7257.000000;0.687966
7256.000000;0.687788
7255.000000;0.687534
7254.000000;0.687316
7253.000000;0.687240
7252.000000;0.687317
7251.000000;0.687465
7250.000000;0.687571
7249.000000;0.687550
7248.000000;0.687404
7247.000000;0.687221
7246.000000;0.687082
7245.000000;0.686980
7244.000000;0.686885
7243.000000;0.686864
7242.000000;0.687039
7241.000000;0.687386
7240.000000;0.687673
7239.000000;0.687703
7238.000000;0.687546
7237.000000;0.687436
7236.000000;0.687447
7235.000000;0.687412
7234.000000;0.687172
7233.000000;0.686830
7232.000000;0.686671
7231.000000;0.686849
7230.000000;0.687209
7229.000000;0.687459
7228.000000;0.687464
7227.000000;0.687313
7226.000000;0.687165
7225.000000;0.687092
7224.000000;0.687070
7223.000000;0.687061
7222.000000;0.687064
7221.000000;0.687102
7220.000000;0.687179
7219.000000;0.687237
7218.000000;0.687185
7217.000000;0.686976
7216.000000;0.686677
7215.000000;0.686446
7214.000000;0.686411
7213.000000;0.686572
7212.000000;0.686805
7211.000000;0.686973
7210.000000;0.687010
7209.000000;0.686914
7208.000000;0.686720
7207.000000;0.686483
7206.000000;0.686249
7205.000000;0.686049
7204.000000;0.685915
7203.000000;0.685897
7202.000000;0.686021
7201.000000;0.686219
7200.000000;0.686364
7199.000000;0.686383
7198.000000;0.686326
7197.000000;0.686290
7196.000000;0.686318
7195.000000;0.686377
7194.000000;0.686414
7193.000000;0.686392
7192.000000;0.686295
7191.000000;0.686147
7190.000000;0.685997
7189.000000;0.685859
7188.000000;0.685694
7187.000000;0.685485
7186.000000;0.685278
7185.000000;0.685108
7184.000000;0.684928
7183.000000;0.684689
7182.000000;0.684450
7181.000000;0.684331
7180.000000;0.684358
7179.000000;0.684429
7178.000000;0.684451
7177.000000;0.684438
7176.000000;0.684448
7175.000000;0.684490
7174.000000;0.684544
7173.000000;0.684609
7172.000000;0.684686
7171.000000;0.684740
7170.000000;0.684712
7169.000000;0.684543
7168.000000;0.684208
7167.000000;0.683758
7166.000000;0.683326
7165.000000;0.683015
7164.000000;0.682789
7163.000000;0.682538
7162.000000;0.682287
7161.000000;0.682251
7160.000000;0.682593
7159.000000;0.683130
7158.000000;0.683410
7157.000000;0.683141
7156.000000;0.682494
7155.000000;0.681938
7154.000000;0.681786
7153.000000;0.681937
7152.000000;0.682065
7151.000000;0.681983
7150.000000;0.681751
7149.000000;0.681475
7148.000000;0.681161
7147.000000;0.680798
7146.000000;0.680460
7145.000000;0.680239
7144.000000;0.680122
7143.000000;0.680009
7142.000000;0.679834
7141.000000;0.679617
7140.000000;0.679442
7139.000000;0.679415
7138.000000;0.679564
7137.000000;0.679729
7136.000000;0.679639
7135.000000;0.679184
7134.000000;0.678557
7133.000000;0.678022
7132.000000;0.677595
7131.000000;0.677098
7130.000000;0.676496
7129.000000;0.676011
7128.000000;0.675848
7127.000000;0.675926
7126.000000;0.675955
7125.000000;0.675686
7124.000000;0.675073
7123.000000;0.674276
7122.000000;0.673568
7121.000000;0.673122
7120.000000;0.672834
7119.000000;0.672442
7118.000000;0.671870
7117.000000;0.671324
7116.000000;0.670944
7115.000000;0.670540
7114.000000;0.669874
7113.000000;0.669083
7112.000000;0.668567
7111.000000;0.668452
7110.000000;0.668389
7109.000000;0.667914
7108.000000;0.666869
7107.000000;0.665458
7106.000000;0.664098
7105.000000;0.663248
7104.000000;0.663137
7103.000000;0.663466
7102.000000;0.663533
7101.000000;0.662861
7100.000000;0.661650
7099.000000;0.660458
7098.000000;0.659511
7097.000000;0.658559
7096.000000;0.657379
7095.000000;0.656157
7094.000000;0.655273
7093.000000;0.654883
7092.000000;0.654854
7091.000000;0.654952
7090.000000;0.654917
7089.000000;0.654482
7088.000000;0.653528
7087.000000;0.652246
7086.000000;0.650996
7085.000000;0.649979
7084.000000;0.649117
7083.000000;0.648237
7082.000000;0.647249
7081.000000;0.646140
7080.000000;0.644942
7079.000000;0.643762
7078.000000;0.642744
7077.000000;0.641891
7076.000000;0.640982
7075.000000;0.639745
7074.000000;0.638154
7073.000000;0.636482
7072.000000;0.635049
7071.000000;0.633950
7070.000000;0.633048
7069.000000;0.632110
7068.000000;0.630943
7067.000000;0.629519
7066.000000;0.628089
7065.000000;0.627077
7064.000000;0.626640
7063.000000;0.626353
7062.000000;0.625531
7061.000000;0.623962
7060.000000;0.622102
7059.000000;0.620481
7058.000000;0.619150
7057.000000;0.617908
7056.000000;0.616785
7055.000000;0.615929
7054.000000;0.615165
7053.000000;0.614106
7052.000000;0.612738
7051.000000;0.611474
7050.000000;0.610544
7049.000000;0.609680
7048.000000;0.608564
7047.000000;0.607238
7046.000000;0.605857
7045.000000;0.604341
7044.000000;0.602576
7043.000000;0.600720
7042.000000;0.599016
7041.000000;0.597453
7040.000000;0.595855
7039.000000;0.594173
7038.000000;0.592399
7037.000000;0.590364
7036.000000;0.587972
7035.000000;0.585546
7034.000000;0.583626
7033.000000;0.582383
7032.000000;0.581456
7031.000000;0.580356
7030.000000;0.578841
7029.000000;0.576969
7028.000000;0.575030
7027.000000;0.573368
7026.000000;0.572038
7025.000000;0.570648
7024.000000;0.568761
7023.000000;0.566418
7022.000000;0.564095
7021.000000;0.562228
7020.000000;0.560976
7019.000000;0.560255
7018.000000;0.559680
7017.000000;0.558610
7016.000000;0.556705
7015.000000;0.554431
7014.000000;0.552632
7013.000000;0.551604
7012.000000;0.550886
7011.000000;0.549914
7010.000000;0.548466
7009.000000;0.546512
7008.000000;0.544150
7007.000000;0.541815
7006.000000;0.540066
7005.000000;0.538969
7004.000000;0.538041
7003.000000;0.536891
7002.000000;0.535522
7001.000000;0.533863
7000.000000;0.531551
6999.000000;0.528494
6998.000000;0.525269
6997.000000;0.522582
6996.000000;0.520585
6995.000000;0.518980
6994.000000;0.517500
6993.000000;0.515978
6992.000000;0.514201
6991.000000;0.512112
6990.000000;0.510071
6989.000000;0.508601
6988.000000;0.507819
6987.000000;0.507223
6986.000000;0.505997
6985.000000;0.503585
6984.000000;0.500195
6983.000000;0.496767
6982.000000;0.494225
6981.000000;0.492679
6980.000000;0.491515
6979.000000;0.490246
6978.000000;0.488925
6977.000000;0.487655
6976.000000;0.486187
6975.000000;0.484271
6974.000000;0.482039
6973.000000;0.479800
6972.000000;0.477695
6971.000000;0.475755
6970.000000;0.474010
6969.000000;0.472317
6968.000000;0.470333
6967.000000;0.467929
6966.000000;0.465454
6965.000000;0.463426
6964.000000;0.462146
6963.000000;0.461632
6962.000000;0.461553
6961.000000;0.461130
6960.000000;0.459562
6959.000000;0.456818
6958.000000;0.453752
6957.000000;0.451237
6956.000000;0.449479
6955.000000;0.448301
6954.000000;0.447584
6953.000000;0.447054
6952.000000;0.446129
6951.000000;0.444469
6950.000000;0.442483
6949.000000;0.440866
6948.000000;0.439710
6947.000000;0.438401
6946.000000;0.436329
6945.000000;0.433497
6944.000000;0.430528
6943.000000;0.428236
6942.000000;0.427058
6941.000000;0.426709
6940.000000;0.426451
6939.000000;0.425773
6938.000000;0.424693
6937.000000;0.423466
6936.000000;0.422281
6935.000000;0.421262
6934.000000;0.420385
6933.000000;0.419295
6932.000000;0.417559
6931.000000;0.415173
6930.000000;0.412527
6929.000000;0.409901
6928.000000;0.407450
6927.000000;0.405619
6926.000000;0.404905
6925.000000;0.405048
6924.000000;0.405047
6923.000000;0.404279
6922.000000;0.403026
6921.000000;0.401676
6920.000000;0.400132
6919.000000;0.398389
6918.000000;0.396968
6917.000000;0.396213
6916.000000;0.395724
6915.000000;0.395037
6914.000000;0.394370
6913.000000;0.394055
6912.000000;0.393750
6911.000000;0.392933
6910.000000;0.391775
6909.000000;0.390786
6908.000000;0.389838
6907.000000;0.388269
6906.000000;0.385914
6905.000000;0.383432
6904.000000;0.381592
6903.000000;0.380642
6902.000000;0.380342
6901.000000;0.380217
6900.000000;0.379791
6899.000000;0.378865
6898.000000;0.377548
6897.000000;0.375916
6896.000000;0.373926
6895.000000;0.371936
6894.000000;0.370898
6893.000000;0.371450
6892.000000;0.372976
6891.000000;0.374051
6890.000000;0.373773
6889.000000;0.372328
6888.000000;0.370450
6887.000000;0.368808
6886.000000;0.367877
6885.000000;0.367904
6884.000000;0.368738
6883.000000;0.369817
6882.000000;0.370384
6881.000000;0.369842
6880.000000;0.368176
6879.000000;0.366083
6878.000000;0.364447
6877.000000;0.363540
6876.000000;0.362910
6875.000000;0.362070
6874.000000;0.361004
6873.000000;0.360006
6872.000000;0.359419
6871.000000;0.359599
6870.000000;0.360641
6869.000000;0.361955
6868.000000;0.362594
6867.000000;0.362246
6866.000000;0.361480
6865.000000;0.360847
6864.000000;0.360278
6863.000000;0.359664
6862.000000;0.359382
6861.000000;0.359712
6860.000000;0.360161
6859.000000;0.359898
6858.000000;0.358685
6857.000000;0.357017
6856.000000;0.355641
6855.000000;0.355193
6854.000000;0.355947
6853.000000;0.357489
6852.000000;0.358881
6851.000000;0.359467
6850.000000;0.359339
6849.000000;0.358904
6848.000000;0.358427
6847.000000;0.358225
6846.000000;0.358675
6845.000000;0.359578
6844.000000;0.360001
6843.000000;0.359331
6842.000000;0.358153
6841.000000;0.357621
6840.000000;0.358202
6839.000000;0.359475
6838.000000;0.360809
6837.000000;0.361707
6836.000000;0.361829
6835.000000;0.361316
6834.000000;0.360938
6833.000000;0.361357
6832.000000;0.362361
6831.000000;0.363233
6830.000000;0.363671
6829.000000;0.363891
6828.000000;0.364049
6827.000000;0.364159
6826.000000;0.364465
6825.000000;0.365284
6824.000000;0.366452
6823.000000;0.367368
6822.000000;0.367632
6821.000000;0.367387
6820.000000;0.367099
6819.000000;0.367280
6818.000000;0.368272
6817.000000;0.369964
6816.000000;0.371816
6815.000000;0.373464
6814.000000;0.375133
6813.000000;0.377082
6812.000000;0.378855
6811.000000;0.379602
6810.000000;0.379168
6809.000000;0.378398
6808.000000;0.378243
6807.000000;0.378891
6806.000000;0.379878
6805.000000;0.380743
6804.000000;0.381419
6803.000000;0.382116
6802.000000;0.382944
6801.000000;0.383699
6800.000000;0.384164
6799.000000;0.384619
6798.000000;0.385737
6797.000000;0.387727
6796.000000;0.389843
6795.000000;0.391116
6794.000000;0.391421
6793.000000;0.391500
6792.000000;0.392071
6791.000000;0.393282
6790.000000;0.394969
6789.000000;0.396936
6788.000000;0.398813
6787.000000;0.400019
6786.000000;0.400244
6785.000000;0.399902
6784.000000;0.399890
6783.000000;0.400797
6782.000000;0.402369
6781.000000;0.403788
6780.000000;0.404466
6779.000000;0.404573
6778.000000;0.404769
6777.000000;0.405530
6776.000000;0.406807
6775.000000;0.408235
6774.000000;0.409459
6773.000000;0.410279
6772.000000;0.410734
6771.000000;0.411133
6770.000000;0.411819
6769.000000;0.412833
6768.000000;0.413952
6767.000000;0.415083
6766.000000;0.416337
6765.000000;0.417675
6764.000000;0.418833
6763.000000;0.419758
6762.000000;0.420787
6761.000000;0.422137
6760.000000;0.423510
6759.000000;0.424520
6758.000000;0.425287
6757.000000;0.426220
6756.000000;0.427326
6755.000000;0.428179
6754.000000;0.428585
6753.000000;0.428921
6752.000000;0.429683
6751.000000;0.430903
6750.000000;0.432128
6749.000000;0.432876
6748.000000;0.433045
6747.000000;0.432976
6746.000000;0.433125
6745.000000;0.433631
6744.000000;0.434271
6743.000000;0.434872
6742.000000;0.435599
6741.000000;0.436677
6740.000000;0.437971
6739.000000;0.439127
6738.000000;0.440097
6737.000000;0.441223
6736.000000;0.442700
6735.000000;0.444187
6734.000000;0.445153
6733.000000;0.445500
6732.000000;0.445687
6731.000000;0.446264
6730.000000;0.447387
6729.000000;0.448786
6728.000000;0.450102
6727.000000;0.451162
6726.000000;0.451974
6725.000000;0.452588
6724.000000;0.453060
6723.000000;0.453467
6722.000000;0.453850
6721.000000;0.454174
6720.000000;0.454472
6719.000000;0.454962
6718.000000;0.455868
6717.000000;0.457097
6716.000000;0.458288
6715.000000;0.459241
6714.000000;0.460147
6713.000000;0.461268
6712.000000;0.462525
6711.000000;0.463551
6710.000000;0.464073
6709.000000;0.464140
6708.000000;0.464058
6707.000000;0.464198
6706.000000;0.464772
6705.000000;0.465656
6704.000000;0.466458
6703.000000;0.466895
6702.000000;0.467078
6701.000000;0.467378
6700.000000;0.468060
6699.000000;0.469117
6698.000000;0.470336
6697.000000;0.471416
6696.000000;0.472132
6695.000000;0.472454
6694.000000;0.472635
6693.000000;0.473031
6692.000000;0.473808
6691.000000;0.474862
6690.000000;0.475979
6689.000000;0.477028
6688.000000;0.477981
6687.000000;0.478840
6686.000000;0.479563
6685.000000;0.480088
6684.000000;0.480435
6683.000000;0.480752
6682.000000;0.481190
6681.000000;0.481754
6680.000000;0.482330
6679.000000;0.482862
6678.000000;0.483397
6677.000000;0.483948
6676.000000;0.484468
6675.000000;0.484991
6674.000000;0.485654
6673.000000;0.486493
6672.000000;0.487324
6671.000000;0.487954
6670.000000;0.488406
6669.000000;0.488834
6668.000000;0.489299
6667.000000;0.489769
6666.000000;0.490262
6665.000000;0.490829
6664.000000;0.491441
6663.000000;0.492025
6662.000000;0.492596
6661.000000;0.493225
6660.000000;0.493886
6659.000000;0.494470
6658.000000;0.494962
6657.000000;0.495465
6656.000000;0.496027
6655.000000;0.496542
6654.000000;0.496923
6653.000000;0.497264
6652.000000;0.497758
6651.000000;0.498467
6650.000000;0.499255
6649.000000;0.499929
6648.000000;0.500428
6647.000000;0.500858
6646.000000;0.501360
6645.000000;0.501952
6644.000000;0.502528
6643.000000;0.502995
6642.000000;0.503353
6641.000000;0.503661
6640.000000;0.503947
6639.000000;0.504219
6638.000000;0.504497
6637.000000;0.504800
6636.000000;0.505138
6635.000000;0.505554
6634.000000;0.506134
6633.000000;0.506884
6632.000000;0.507635
6631.000000;0.508168
6630.000000;0.508441
6629.000000;0.508642
6628.000000;0.508989
6627.000000;0.509516
6626.000000;0.510086
6625.000000;0.510556
6624.000000;0.510907
6623.000000;0.511231
6622.000000;0.511620
6621.000000;0.512073
6620.000000;0.512529
6619.000000;0.512971
6618.000000;0.513468
6617.000000;0.514091
6616.000000;0.514819
6615.000000;0.515530
6614.000000;0.516082
6613.000000;0.516384
6612.000000;0.516446
6611.000000;0.516407
6610.000000;0.516500
6609.000000;0.516891
6608.000000;0.517545
6607.000000;0.518272
6606.000000;0.518905
6605.000000;0.519428
6604.000000;0.519916
6603.000000;0.520396
6602.000000;0.520787
6601.000000;0.520996
6600.000000;0.521048
6599.000000;0.521119
6598.000000;0.521395
6597.000000;0.521911
6596.000000;0.522520
6595.000000;0.523022
6594.000000;0.523325
6593.000000;0.523480
6592.000000;0.523614
6591.000000;0.523844
6590.000000;0.524229
6589.000000;0.524757
6588.000000;0.525363
6587.000000;0.525960
6586.000000;0.526471
6585.000000;0.526861
6584.000000;0.527154
6583.000000;0.527419
6582.000000;0.527693
6581.000000;0.527960
6580.000000;0.528207
6579.000000;0.528480
6578.000000;0.528823
6577.000000;0.529187
6576.000000;0.529480
6575.000000;0.529706
6574.000000;0.529985
6573.000000;0.530387
6572.000000;0.530826
6571.000000;0.531154
6570.000000;0.531329
6569.000000;0.531440
6568.000000;0.531599
6567.000000;0.531848
6566.000000;0.532164
6565.000000;0.532525
6564.000000;0.532946
6563.000000;0.533455
6562.000000;0.534016
6561.000000;0.534505
6560.000000;0.534826
6559.000000;0.535029
6558.000000;0.535266
6557.000000;0.535601
6556.000000;0.535959
6555.000000;0.536255
6554.000000;0.536515
6553.000000;0.536805
6552.000000;0.537117
6551.000000;0.537404
6550.000000;0.537659
6549.000000;0.537917
6548.000000;0.538181
6547.000000;0.538424
6546.000000;0.538663
6545.000000;0.538954
6544.000000;0.539333
6543.000000;0.539771
6542.000000;0.540201
6541.000000;0.540563
6540.000000;0.540835
6539.000000;0.541045
6538.000000;0.541245
6537.000000;0.541443
6536.000000;0.541606
6535.000000;0.541737
6534.000000;0.541908
6533.000000;0.542195
6532.000000;0.542591
6531.000000;0.543017
6530.000000;0.543401
6529.000000;0.543710
6528.000000;0.543946
6527.000000;0.544148
6526.000000;0.544376
6525.000000;0.544650
6524.000000;0.544928
6523.000000;0.545158
6522.000000;0.545334
6521.000000;0.545482
6520.000000;0.545630
6519.000000;0.545815
6518.000000;0.546076
6517.000000;0.546380
6516.000000;0.546630
6515.000000;0.546785
6514.000000;0.546937
6513.000000;0.547208
6512.000000;0.547583
6511.000000;0.547933
6510.000000;0.548181
6509.000000;0.548365
6508.000000;0.548554
6507.000000;0.548755
6506.000000;0.548947
6505.000000;0.549150
6504.000000;0.549416
6503.000000;0.549760
6502.000000;0.550120
6501.000000;0.550402
6500.000000;0.550582
6499.000000;0.550758
6498.000000;0.551051
6497.000000;0.551448
6496.000000;0.551783
6495.000000;0.551916
6494.000000;0.551885
6493.000000;0.551849
6492.000000;0.551920
6491.000000;0.552102
6490.000000;0.552359
6489.000000;0.552657
6488.000000;0.552958
6487.000000;0.553229
6486.000000;0.553456
6485.000000;0.553622
6484.000000;0.553699
6483.000000;0.553711
6482.000000;0.553763
6481.000000;0.553951
6480.000000;0.554255
6479.000000;0.554580
6478.000000;0.554883
6477.000000;0.555172
6476.000000;0.555413
6475.000000;0.555532
6474.000000;0.555544
6473.000000;0.555583
6472.000000;0.555770
6471.000000;0.556097
6470.000000;0.556473
6469.000000;0.556812
6468.000000;0.557057
6467.000000;0.557180
6466.000000;0.557221
6465.000000;0.557279
6464.000000;0.557422
6463.000000;0.557631
6462.000000;0.557844
6461.000000;0.558033
6460.000000;0.558201
6459.000000;0.558349
6458.000000;0.558476
6457.000000;0.558606
6456.000000;0.558773
6455.000000;0.558983
6454.000000;0.559208
6453.000000;0.559416
6452.000000;0.559590
6451.000000;0.559743
6450.000000;0.559908
6449.000000;0.560106
6448.000000;0.560305
6447.000000;0.560445
6446.000000;0.560509
6445.000000;0.560556
6444.000000;0.560663
6443.000000;0.560860
6442.000000;0.561122
6441.000000;0.561400
6440.000000;0.561642
6439.000000;0.561821
6438.000000;0.561962
6437.000000;0.562122
6436.000000;0.562324
6435.000000;0.562526
6434.000000;0.562667
6433.000000;0.562733
6432.000000;0.562761
6431.000000;0.562796
6430.000000;0.562864
6429.000000;0.562982
6428.000000;0.563150
6427.000000;0.563359
6426.000000;0.563577
6425.000000;0.563757
6424.000000;0.563851
6423.000000;0.563861
6422.000000;0.563859
6421.000000;0.563940
6420.000000;0.564136
6419.000000;0.564393
6418.000000;0.564627
6417.000000;0.564784
6416.000000;0.564844
6415.000000;0.564830
6414.000000;0.564800
6413.000000;0.564824
6412.000000;0.564930
6411.000000;0.565090
6410.000000;0.565268
6409.000000;0.565441
6408.000000;0.565582
6407.000000;0.565675
6406.000000;0.565752
6405.000000;0.565880
6404.000000;0.566089
6403.000000;0.566341
6402.000000;0.566592
6401.000000;0.566837
6400.000000;0.567066
6399.000000;0.567234
6398.000000;0.567309
6397.000000;0.567326
6396.000000;0.567346
6395.000000;0.567380
6394.000000;0.567391
6393.000000;0.567357
6392.000000;0.567299
6391.000000;0.567253
6390.000000;0.567262
6389.000000;0.567367
6388.000000;0.567565
6387.000000;0.567782
6386.000000;0.567926
6385.000000;0.567987
6384.000000;0.568039
6383.000000;0.568153
6382.000000;0.568312
6381.000000;0.568451
6380.000000;0.568530
6379.000000;0.568559
6378.000000;0.568576
6377.000000;0.568619
6376.000000;0.568708
6375.000000;0.568850
6374.000000;0.569022
6373.000000;0.569176
6372.000000;0.569259
6371.000000;0.569260
6370.000000;0.569230
6369.000000;0.569245
6368.000000;0.569323
6367.000000;0.569412
6366.000000;0.569465
6365.000000;0.569502
6364.000000;0.569571
6363.000000;0.569675
6362.000000;0.569778
6361.000000;0.569857
6360.000000;0.569923
6359.000000;0.569974
6358.000000;0.569993
6357.000000;0.569988
6356.000000;0.570004
6355.000000;0.570080
6354.000000;0.570212
6353.000000;0.570375
6352.000000;0.570546
6351.000000;0.570689
6350.000000;0.570761
6349.000000;0.570762
6348.000000;0.570752
6347.000000;0.570793
6346.000000;0.570881
6345.000000;0.570969
6344.000000;0.571027
6343.000000;0.571064
6342.000000;0.571080
6341.000000;0.571065
6340.000000;0.571026
6339.000000;0.570999
6338.000000;0.571013
6337.000000;0.571057
6336.000000;0.571110
6335.000000;0.571171
6334.000000;0.571258
6333.000000;0.571375
6332.000000;0.571496
6331.000000;0.571579
6330.000000;0.571605
6329.000000;0.571589
6328.000000;0.571575
6327.000000;0.571604
6326.000000;0.571676
6325.000000;0.571740
6324.000000;0.571736
6323.000000;0.571658
6322.000000;0.571581
6321.000000;0.571601
6320.000000;0.571756
6319.000000;0.571982
6318.000000;0.572174
6317.000000;0.572275
6316.000000;0.572303
6315.000000;0.572302
6314.000000;0.572291
6313.000000;0.572269
6312.000000;0.572246
6311.000000;0.572235
6310.000000;0.572234
6309.000000;0.572224
6308.000000;0.572211
6307.000000;0.572230
6306.000000;0.572309
6305.000000;0.572418
6304.000000;0.572491
6303.000000;0.572486
6302.000000;0.572434
6301.000000;0.572401
6300.000000;0.572417
6299.000000;0.572459
6298.000000;0.572492
6297.000000;0.572502
6296.000000;0.572496
6295.000000;0.572471
6294.000000;0.572428
6293.000000;0.572397
6292.000000;0.572417
6291.000000;0.572491
6290.000000;0.572567
6289.000000;0.572598
6288.000000;0.572587
6287.000000;0.572580
6286.000000;0.572599
6285.000000;0.572631
6284.000000;0.572663
6283.000000;0.572703
6282.000000;0.572760
6281.000000;0.572803
6280.000000;0.572791
6279.000000;0.572722
6278.000000;0.572646
6277.000000;0.572620
6276.000000;0.572658
6275.000000;0.572732
6274.000000;0.572810
6273.000000;0.572881
6272.000000;0.572944
6271.000000;0.572990
6270.000000;0.573010
6269.000000;0.573005
6268.000000;0.572988
6267.000000;0.572966
6266.000000;0.572929
6265.000000;0.572877
6264.000000;0.572829
6263.000000;0.572807
6262.000000;0.572808
6261.000000;0.572805
6260.000000;0.572781
6259.000000;0.572738
6258.000000;0.572689
6257.000000;0.572649
6256.000000;0.572633
6255.000000;0.572657
6254.000000;0.572712
6253.000000;0.572764
6252.000000;0.572782
6251.000000;0.572776
6250.000000;0.572781
6249.000000;0.572814
6248.000000;0.572844
6247.000000;0.572830
6246.000000;0.572774
6245.000000;0.572724
6244.000000;0.572719
6243.000000;0.572739
6242.000000;0.572729
6241.000000;0.572667
6240.000000;0.572597
6239.000000;0.572563
6238.000000;0.572556
6237.000000;0.572533
6236.000000;0.572495
6235.000000;0.572483
6234.000000;0.572522
6233.000000;0.572579
6232.000000;0.572614
6231.000000;0.572622
6230.000000;0.572616
6229.000000;0.572585
6228.000000;0.572516
6227.000000;0.572435
6226.000000;0.572391
6225.000000;0.572400
6224.000000;0.572431
6223.000000;0.572450
6222.000000;0.572453
6221.000000;0.572448
6220.000000;0.572439
6219.000000;0.572421
6218.000000;0.572391
6217.000000;0.572346
6216.000000;0.572288
6215.000000;0.572235
6214.000000;0.572209
6213.000000;0.572212
6212.000000;0.572221
6211.000000;0.572214
6210.000000;0.572186
6209.000000;0.572139
6208.000000;0.572077
6207.000000;0.572019
6206.000000;0.571991
6205.000000;0.571998
6204.000000;0.572020
6203.000000;0.572031
6202.000000;0.572019
6201.000000;0.571985
6200.000000;0.571933
6199.000000;0.571873
6198.000000;0.571812
6197.000000;0.571751
6196.000000;0.571695
6195.000000;0.571670
6194.000000;0.571701
6193.000000;0.571764
6192.000000;0.571792
6191.000000;0.571740
6190.000000;0.571630
6189.000000;0.571516
6188.000000;0.571427
6187.000000;0.571354
6186.000000;0.571290
6185.000000;0.571240
6184.000000;0.571213
6183.000000;0.571208
6182.000000;0.571221
6181.000000;0.571244
6180.000000;0.571265
6179.000000;0.571266
6178.000000;0.571238
6177.000000;0.571186
6176.000000;0.571125
6175.000000;0.571078
6174.000000;0.571058
6173.000000;0.571051
6172.000000;0.571027
6171.000000;0.570983
6170.000000;0.570937
6169.000000;0.570904
6168.000000;0.570865
6167.000000;0.570799
6166.000000;0.570715
6165.000000;0.570647
6164.000000;0.570614
6163.000000;0.570612
6162.000000;0.570624
6161.000000;0.570620
6160.000000;0.570575
6159.000000;0.570497
6158.000000;0.570435
6157.000000;0.570430
6156.000000;0.570466
6155.000000;0.570487
6154.000000;0.570463
6153.000000;0.570408
6152.000000;0.570342
6151.000000;0.570270
6150.000000;0.570206
6149.000000;0.570168
6148.000000;0.570155
6147.000000;0.570141
6146.000000;0.570100
6145.000000;0.570040
6144.000000;0.569981
6143.000000;0.569934
6142.000000;0.569895
6141.000000;0.569855
6140.000000;0.569801
6139.000000;0.569730
6138.000000;0.569664
6137.000000;0.569636
6136.000000;0.569658
6135.000000;0.569707
6134.000000;0.569737
6133.000000;0.569711
6132.000000;0.569618
6131.000000;0.569482
6130.000000;0.569352
6129.000000;0.569263
6128.000000;0.569202
6127.000000;0.569134
6126.000000;0.569058
6125.000000;0.569010
6124.000000;0.569009
6123.000000;0.569017
6122.000000;0.568985
6121.000000;0.568916
6120.000000;0.568859
6119.000000;0.568854
6118.000000;0.568891
6117.000000;0.568928
6116.000000;0.568923
6115.000000;0.568861
6114.000000;0.568759
6113.000000;0.568651
6112.000000;0.568553
6111.000000;0.568457
6110.000000;0.568361
6109.000000;0.568288
6108.000000;0.568266
6107.000000;0.568286
6106.000000;0.568300
6105.000000;0.568256
6104.000000;0.568146
6103.000000;0.568004
6102.000000;0.567886
6101.000000;0.567827
6100.000000;0.567830
6099.000000;0.567872
6098.000000;0.567925
6097.000000;0.567971
6096.000000;0.567991
6095.000000;0.567974
6094.000000;0.567924
6093.000000;0.567861
6092.000000;0.567800
6091.000000;0.567736
6090.000000;0.567678
6089.000000;0.567654
6088.000000;0.567687
6087.000000;0.567746
6086.000000;0.567767
6085.000000;0.567708
6084.000000;0.567588
6083.000000;0.567456
6082.000000;0.567349
6081.000000;0.567274
6080.000000;0.567217
6079.000000;0.567155
6078.000000;0.567080
6077.000000;0.567004
6076.000000;0.566949
6075.000000;0.566919
6074.000000;0.566899
6073.000000;0.566876
6072.000000;0.566851
6071.000000;0.566826
6070.000000;0.566789
6069.000000;0.566726
6068.000000;0.566635
6067.000000;0.566528
6066.000000;0.566420
6065.000000;0.566329
6064.000000;0.566280
6063.000000;0.566274
6062.000000;0.566291
6061.000000;0.566302
6060.000000;0.566304
6059.000000;0.566304
6058.000000;0.566290
6057.000000;0.566232
6056.000000;0.566134
6055.000000;0.566042
6054.000000;0.566003
6053.000000;0.566012
6052.000000;0.566028
6051.000000;0.566025
6050.000000;0.566009
6049.000000;0.565992
6048.000000;0.565974
6047.000000;0.565945
6046.000000;0.565905
6045.000000;0.565858
6044.000000;0.565813
6043.000000;0.565789
6042.000000;0.565791
6041.000000;0.565798
6040.000000;0.565770
6039.000000;0.565692
6038.000000;0.565599
6037.000000;0.565531
6036.000000;0.565495
6035.000000;0.565468
6034.000000;0.565429
6033.000000;0.565373
6032.000000;0.565298
6031.000000;0.565207
6030.000000;0.565115
6029.000000;0.565048
6028.000000;0.565017
6027.000000;0.565013
6026.000000;0.565013
6025.000000;0.565003
6024.000000;0.564979
6023.000000;0.564947
6022.000000;0.564911
6021.000000;0.564867
6020.000000;0.564802
6019.000000;0.564720
6018.000000;0.564642
6017.000000;0.564588
6016.000000;0.564564
6015.000000;0.564561
6014.000000;0.564578
6013.000000;0.564616
6012.000000;0.564657
6011.000000;0.564680
6010.000000;0.564685
6009.000000;0.564688
6008.000000;0.564689
6007.000000;0.564667
6006.000000;0.564607
6005.000000;0.564527
6004.000000;0.564455
6003.000000;0.564399
6002.000000;0.564353
6001.000000;0.564319
6000.000000;0.564302
5999.000000;0.564292
5998.000000;0.564263
5997.000000;0.564196
5996.000000;0.564098
5995.000000;0.563989
5994.000000;0.563895
5993.000000;0.563832
5992.000000;0.563803
5991.000000;0.563794
5990.000000;0.563779
5989.000000;0.563735
5988.000000;0.563654
5987.000000;0.563553
5986.000000;0.563477
5985.000000;0.563463
5984.000000;0.563503
5983.000000;0.563545
5982.000000;0.563543
5981.000000;0.563498
5980.000000;0.563451
5979.000000;0.563430
5978.000000;0.563427
5977.000000;0.563411
5976.000000;0.563366
5975.000000;0.563308
5974.000000;0.563275
5973.000000;0.563296
5972.000000;0.563362
5971.000000;0.563437
5970.000000;0.563482
5969.000000;0.563479
5968.000000;0.563427
5967.000000;0.563333
5966.000000;0.563219
5965.000000;0.563118
5964.000000;0.563058
5963.000000;0.563039
5962.000000;0.563042
5961.000000;0.563045
5960.000000;0.563029
5959.000000;0.562982
5958.000000;0.562907
5957.000000;0.562832
5956.000000;0.562788
5955.000000;0.562780
5954.000000;0.562784
5953.000000;0.562782
5952.000000;0.562769
5951.000000;0.562751
5950.000000;0.562726
5949.000000;0.562694
5948.000000;0.562667
5947.000000;0.562656
5946.000000;0.562664
5945.000000;0.562684
5944.000000;0.562709
5943.000000;0.562731
5942.000000;0.562742
5941.000000;0.562738
5940.000000;0.562721
5939.000000;0.562692
5938.000000;0.562655
5937.000000;0.562622
5936.000000;0.562608
5935.000000;0.562611
5934.000000;0.562606
5933.000000;0.562581
5932.000000;0.562549
5931.000000;0.562527
5930.000000;0.562512
5929.000000;0.562486
5928.000000;0.562449
5927.000000;0.562409
5926.000000;0.562367
5925.000000;0.562314
5924.000000;0.562259
5923.000000;0.562224
5922.000000;0.562211
5921.000000;0.562196
5920.000000;0.562155
5919.000000;0.562093
5918.000000;0.562022
5917.000000;0.561946
5916.000000;0.561865
5915.000000;0.561793
5914.000000;0.561745
5913.000000;0.561712
5912.000000;0.561680
5911.000000;0.561645
5910.000000;0.561619
5909.000000;0.561607
5908.000000;0.561606
5907.000000;0.561608
5906.000000;0.561601
5905.000000;0.561566
5904.000000;0.561505
5903.000000;0.561452
5902.000000;0.561443
5901.000000;0.561466
5900.000000;0.561459
5899.000000;0.561378
5898.000000;0.561247
5897.000000;0.561120
5896.000000;0.561022
5895.000000;0.560937
5894.000000;0.560848
5893.000000;0.560764
5892.000000;0.560707
5891.000000;0.560684
5890.000000;0.560679
5889.000000;0.560661
5888.000000;0.560611
5887.000000;0.560532
5886.000000;0.560446
5885.000000;0.560368
5884.000000;0.560296
5883.000000;0.560225
5882.000000;0.560162
5881.000000;0.560127
5880.000000;0.560133
5879.000000;0.560170
5878.000000;0.560211
5877.000000;0.560233
5876.000000;0.560226
5875.000000;0.560198
5874.000000;0.560159
5873.000000;0.560105
5872.000000;0.560031
5871.000000;0.559945
5870.000000;0.559869
5869.000000;0.559814
5868.000000;0.559770
5867.000000;0.559730
5866.000000;0.559697
5865.000000;0.559680
5864.000000;0.559673
5863.000000;0.559666
5862.000000;0.559653
5861.000000;0.559631
5860.000000;0.559594
5859.000000;0.559541
5858.000000;0.559486
5857.000000;0.559453
5856.000000;0.559444
5855.000000;0.559434
5854.000000;0.559400
5853.000000;0.559346
5852.000000;0.559302
5851.000000;0.559288
5850.000000;0.559293
5849.000000;0.559287
5848.000000;0.559257
5847.000000;0.559213
5846.000000;0.559162
5845.000000;0.559089
5844.000000;0.558987
5843.000000;0.558888
5842.000000;0.558843
5841.000000;0.558863
5840.000000;0.558909
5839.000000;0.558927
5838.000000;0.558901
5837.000000;0.558841
5836.000000;0.558764
5835.000000;0.558685
5834.000000;0.558616
5833.000000;0.558561
5832.000000;0.558513
5831.000000;0.558475
5830.000000;0.558460
5829.000000;0.558469
5828.000000;0.558476
5827.000000;0.558462
5826.000000;0.558439
5825.000000;0.558424
5824.000000;0.558412
5823.000000;0.558386
5822.000000;0.558353
5821.000000;0.558337
5820.000000;0.558341
5819.000000;0.558342
5818.000000;0.558325
5817.000000;0.558292
5816.000000;0.558247
5815.000000;0.558186
5814.000000;0.558105
5813.000000;0.558018
5812.000000;0.557949
5811.000000;0.557918
5810.000000;0.557926
5809.000000;0.557953
5808.000000;0.557964
5807.000000;0.557942
5806.000000;0.557897
5805.000000;0.557857
5804.000000;0.557819
5803.000000;0.557760
5802.000000;0.557678
5801.000000;0.557604
5800.000000;0.557568
5799.000000;0.557564
5798.000000;0.557557
5797.000000;0.557521
5796.000000;0.557465
5795.000000;0.557416
5794.000000;0.557395
5793.000000;0.557401
5792.000000;0.557409
5791.000000;0.557399
5790.000000;0.557376
5789.000000;0.557367
5788.000000;0.557388
5787.000000;0.557422
5786.000000;0.557438
5785.000000;0.557420
5784.000000;0.557373
5783.000000;0.557306
5782.000000;0.557228
5781.000000;0.557148
5780.000000;0.557079
5779.000000;0.557024
5778.000000;0.556965
5777.000000;0.556876
5776.000000;0.556752
5775.000000;0.556620
5774.000000;0.556518
5773.000000;0.556457
5772.000000;0.556410
5771.000000;0.556343
5770.000000;0.556254
5769.000000;0.556163
5768.000000;0.556090
5767.000000;0.556046
5766.000000;0.556031
5765.000000;0.556024
5764.000000;0.555983
5763.000000;0.555884
5762.000000;0.555764
5761.000000;0.555686
5760.000000;0.555677
5759.000000;0.555697
5758.000000;0.555685
5757.000000;0.555613
5756.000000;0.555497
5755.000000;0.555372
5754.000000;0.555277
5753.000000;0.555233
5752.000000;0.555231
5751.000000;0.555231
5750.000000;0.555197
5749.000000;0.555122
5748.000000;0.555024
5747.000000;0.554923
5746.000000;0.554829
5745.000000;0.554740
5744.000000;0.554645
5743.000000;0.554541
5742.000000;0.554439
5741.000000;0.554352
5740.000000;0.554270
5739.000000;0.554162
5738.000000;0.554024
5737.000000;0.553894
5736.000000;0.553813
5735.000000;0.553782
5734.000000;0.553769
5733.000000;0.553749
5732.000000;0.553723
5731.000000;0.553704
5730.000000;0.553689
5729.000000;0.553660
5728.000000;0.553595
5727.000000;0.553488
5726.000000;0.553354
5725.000000;0.553217
5724.000000;0.553097
5723.000000;0.553011
5722.000000;0.552964
5721.000000;0.552942
5720.000000;0.552907
5719.000000;0.552827
5718.000000;0.552709
5717.000000;0.552589
5716.000000;0.552497
5715.000000;0.552426
5714.000000;0.552358
5713.000000;0.552286
5712.000000;0.552215
5711.000000;0.552145
5710.000000;0.552074
5709.000000;0.551993
5708.000000;0.551895
5707.000000;0.551773
5706.000000;0.551637
5705.000000;0.551509
5704.000000;0.551409
5703.000000;0.551351
5702.000000;0.551340
5701.000000;0.551367
5700.000000;0.551396
5699.000000;0.551383
5698.000000;0.551318
5697.000000;0.551236
5696.000000;0.551163
5695.000000;0.551088
5694.000000;0.550982
5693.000000;0.550852
5692.000000;0.550724
5691.000000;0.550613
5690.000000;0.550520
5689.000000;0.550446
5688.000000;0.550389
5687.000000;0.550329
5686.000000;0.550241
5685.000000;0.550128
5684.000000;0.550028
5683.000000;0.549977
5682.000000;0.549977
5681.000000;0.549990
5680.000000;0.549976
5679.000000;0.549916
5678.000000;0.549827
5677.000000;0.549740
5676.000000;0.549672
5675.000000;0.549616
5674.000000;0.549556
5673.000000;0.549490
5672.000000;0.549425
5671.000000;0.549359
5670.000000;0.549272
5669.000000;0.549154
5668.000000;0.549034
5667.000000;0.548961
5666.000000;0.548955
5665.000000;0.548973
5664.000000;0.548942
5663.000000;0.548835
5662.000000;0.548701
5661.000000;0.548615
5660.000000;0.548600
5659.000000;0.548607
5658.000000;0.548588
5657.000000;0.548540
5656.000000;0.548491
5655.000000;0.548450
5654.000000;0.548406
5653.000000;0.548338
5652.000000;0.548228
5651.000000;0.548078
5650.000000;0.547932
5649.000000;0.547855
5648.000000;0.547875
5647.000000;0.547935
5646.000000;0.547946
5645.000000;0.547866
5644.000000;0.547726
5643.000000;0.547586
5642.000000;0.547486
5641.000000;0.547440
5640.000000;0.547438
5639.000000;0.547456
5638.000000;0.547467
5637.000000;0.547462
5636.000000;0.547444
5635.000000;0.547413
5634.000000;0.547370
5633.000000;0.547338
5632.000000;0.547349
5631.000000;0.547408
5630.000000;0.547484
5629.000000;0.547536
5628.000000;0.547544
5627.000000;0.547510
5626.000000;0.547452
5625.000000;0.547400
5624.000000;0.547388
5623.000000;0.547430
5622.000000;0.547502
5621.000000;0.547556
5620.000000;0.547559
5619.000000;0.547507
5618.000000;0.547427
5617.000000;0.547347
5616.000000;0.547277
5615.000000;0.547208
5614.000000;0.547132
5613.000000;0.547062
5612.000000;0.547022
5611.000000;0.547022
5610.000000;0.547053
5609.000000;0.547106
5608.000000;0.547174
5607.000000;0.547242
5606.000000;0.547280
5605.000000;0.547268
5604.000000;0.547212
5603.000000;0.547140
5602.000000;0.547083
5601.000000;0.547050
5600.000000;0.547036
5599.000000;0.547035
5598.000000;0.547047
5597.000000;0.547076
5596.000000;0.547114
5595.000000;0.547151
5594.000000;0.547188
5593.000000;0.547235
5592.000000;0.547284
5591.000000;0.547310
5590.000000;0.547299
5589.000000;0.547272
5588.000000;0.547266
5587.000000;0.547292
5586.000000;0.547331
5585.000000;0.547367
5584.000000;0.547396
5583.000000;0.547413
5582.000000;0.547406
5581.000000;0.547373
5580.000000;0.547330
5579.000000;0.547297
5578.000000;0.547277
5577.000000;0.547264
5576.000000;0.547264
5575.000000;0.547284
5574.000000;0.547315
5573.000000;0.547326
5572.000000;0.547295
5571.000000;0.547231
5570.000000;0.547174
5569.000000;0.547153
5568.000000;0.547166
5567.000000;0.547191
5566.000000;0.547221
5565.000000;0.547266
5564.000000;0.547319
5563.000000;0.547351
5562.000000;0.547344
5561.000000;0.547320
5560.000000;0.547305
5559.000000;0.547303
5558.000000;0.547295
5557.000000;0.547283
5556.000000;0.547286
5555.000000;0.547305
5554.000000;0.547315
5553.000000;0.547295
5552.000000;0.547249
5551.000000;0.547195
5550.000000;0.547141
5549.000000;0.547096
5548.000000;0.547067
5547.000000;0.547058
5546.000000;0.547064
5545.000000;0.547073
5544.000000;0.547076
5543.000000;0.547067
5542.000000;0.547056
5541.000000;0.547060
5540.000000;0.547083
5539.000000;0.547095
5538.000000;0.547065
5537.000000;0.546998
5536.000000;0.546936
5535.000000;0.546913
5534.000000;0.546929
5533.000000;0.546966
5532.000000;0.547011
5531.000000;0.547047
5530.000000;0.547061
5529.000000;0.547057
5528.000000;0.547056
5527.000000;0.547066
5526.000000;0.547066
5525.000000;0.547028
5524.000000;0.546958
5523.000000;0.546886
5522.000000;0.546823
5521.000000;0.546754
5520.000000;0.546666
5519.000000;0.546575
5518.000000;0.546524
5517.000000;0.546541
5516.000000;0.546611
5515.000000;0.546681
5514.000000;0.546703
5513.000000;0.546682
5512.000000;0.546663
5511.000000;0.546681
5510.000000;0.546726
5509.000000;0.546751
5508.000000;0.546719
5507.000000;0.546625
5506.000000;0.546502
5505.000000;0.546394
5504.000000;0.546332
5503.000000;0.546318
5502.000000;0.546338
5501.000000;0.546391
5500.000000;0.546477
5499.000000;0.546560
5498.000000;0.546582
5497.000000;0.546509
5496.000000;0.546382
5495.000000;0.546281
5494.000000;0.546260
5493.000000;0.546304
5492.000000;0.546342
5491.000000;0.546298
5490.000000;0.546168
5489.000000;0.546025
5488.000000;0.545947
5487.000000;0.545929
5486.000000;0.545900
5485.000000;0.545834
5484.000000;0.545799
5483.000000;0.545869
5482.000000;0.546015
5481.000000;0.546146
5480.000000;0.546196
5479.000000;0.546169
5478.000000;0.546091
5477.000000;0.545991
5476.000000;0.545897
5475.000000;0.545829
5474.000000;0.545755
5473.000000;0.545617
5472.000000;0.545434
5471.000000;0.545313
5470.000000;0.545344
5469.000000;0.545500
5468.000000;0.545670
5467.000000;0.545760
5466.000000;0.545742
5465.000000;0.545639
5464.000000;0.545506
5463.000000;0.545414
5462.000000;0.545401
5461.000000;0.545443
5460.000000;0.545462
5459.000000;0.545408
5458.000000;0.545305
5457.000000;0.545226
5456.000000;0.545225
5455.000000;0.545297
5454.000000;0.545385
5453.000000;0.545416
5452.000000;0.545375
5451.000000;0.545327
5450.000000;0.545336
5449.000000;0.545361
5448.000000;0.545288
5447.000000;0.545085
5446.000000;0.544865
5445.000000;0.544746
5444.000000;0.544703
5443.000000;0.544652
5442.000000;0.544610
5441.000000;0.544692
5440.000000;0.544921
5439.000000;0.545123
5438.000000;0.545101
5437.000000;0.544875
5436.000000;0.544665
5435.000000;0.544672
5434.000000;0.544870
5433.000000;0.545026
5432.000000;0.544950
5431.000000;0.544708
5430.000000;0.544536
5429.000000;0.544580
5428.000000;0.544771
5427.000000;0.544927
5426.000000;0.544956
5425.000000;0.544922
5424.000000;0.544942
5423.000000;0.545050
5422.000000;0.545184
5421.000000;0.545266
5420.000000;0.545269
5419.000000;0.545208
5418.000000;0.545073
5417.000000;0.544829
5416.000000;0.544503
5415.000000;0.544228
5414.000000;0.544140
5413.000000;0.544237
5412.000000;0.544385
5411.000000;0.544513
5410.000000;0.544692
5409.000000;0.544987
5408.000000;0.545300
5407.000000;0.545468
5406.000000;0.545456
5405.000000;0.545373
5404.000000;0.545314
5403.000000;0.545277
5402.000000;0.545228
5401.000000;0.545164
5400.000000;0.545108
5399.000000;0.545087
5398.000000;0.545098
5397.000000;0.545118
5396.000000;0.545119
5395.000000;0.545085
5394.000000;0.545037
5393.000000;0.545015
5392.000000;0.545020
5391.000000;0.545018
5390.000000;0.544988
5389.000000;0.544954
5388.000000;0.544958
5387.000000;0.545019
5386.000000;0.545114
5385.000000;0.545196
5384.000000;0.545210
5383.000000;0.545153
5382.000000;0.545092
5381.000000;0.545078
5380.000000;0.545082
5379.000000;0.545056
5378.000000;0.545022
5377.000000;0.545050
5376.000000;0.545161
5375.000000;0.545277
5374.000000;0.545321
5373.000000;0.545309
5372.000000;0.545318
5371.000000;0.545389
5370.000000;0.545509
5369.000000;0.545645
5368.000000;0.545746
5367.000000;0.545756
5366.000000;0.545668
5365.000000;0.545549
5364.000000;0.545479
5363.000000;0.545473
5362.000000;0.545481
5361.000000;0.545459
5360.000000;0.545427
5359.000000;0.545428
5358.000000;0.545456
5357.000000;0.545445
5356.000000;0.545329
5355.000000;0.545107
5354.000000;0.544853
5353.000000;0.544642
5352.000000;0.544473
5351.000000;0.544290
5350.000000;0.544103
5349.000000;0.543990
5348.000000;0.543934
5347.000000;0.543775
5346.000000;0.543391
5345.000000;0.542899
5344.000000;0.542574
5343.000000;0.542483
5342.000000;0.542360
5341.000000;0.541969
5340.000000;0.541415
5339.000000;0.540976
5338.000000;0.540733
5337.000000;0.540492
5336.000000;0.540026
5335.000000;0.539322
5334.000000;0.538530
5333.000000;0.537764
5332.000000;0.537007
5331.000000;0.536132
5330.000000;0.534979
5329.000000;0.533489
5328.000000;0.531800
5327.000000;0.530120
5326.000000;0.528441
5325.000000;0.526503
5324.000000;0.524119
5323.000000;0.521369
5322.000000;0.518382
5321.000000;0.515069
5320.000000;0.511222
5319.000000;0.506786
5318.000000;0.501851
5317.000000;0.496414
5316.000000;0.490300
5315.000000;0.483283
5314.000000;0.475220
5313.000000;0.466189
5312.000000;0.456572
5311.000000;0.446702
5310.000000;0.436177
5309.000000;0.423867
5308.000000;0.409011
5307.000000;0.392080
5306.000000;0.374108
5305.000000;0.355501
5304.000000;0.336175
5303.000000;0.316447
5302.000000;0.297194
5301.000000;0.279697
5300.000000;0.265859
5299.000000;0.258025
5298.000000;0.258674
5297.000000;0.270108
5296.000000;0.292301
5295.000000;0.322278
5294.000000;0.358313
5293.000000;0.400919
5292.000000;0.447784
5291.000000;0.493446
5290.000000;0.534711
5289.000000;0.571110
5288.000000;0.602095
5287.000000;0.629341
5286.000000;0.657987
5285.000000;0.689571
5284.000000;0.717477
5283.000000;0.735893
5282.000000;0.749448
5281.000000;0.766356
5280.000000;0.787225
5279.000000;0.807673
5278.000000;0.826994
5277.000000;0.846255
5276.000000;0.861533
5275.000000;0.868273
5274.000000;0.869934
5273.000000;0.873743
5272.000000;0.881752
5271.000000;0.892601
5270.000000;0.906477
5269.000000;0.921199
5268.000000;0.928543
5267.000000;0.924078
5266.000000;0.916344
5265.000000;0.916100
5264.000000;0.922486
5263.000000;0.927128
5262.000000;0.927291
5261.000000;0.927066
5260.000000;0.928552
5259.000000;0.930351
5258.000000;0.932402
5257.000000;0.935734
5256.000000;0.939260
5255.000000;0.941080
5254.000000;0.941153
5253.000000;0.939721
5252.000000;0.936393
5251.000000;0.934359
5250.000000;0.939941
5249.000000;0.952956
5248.000000;0.962951
5247.000000;0.961781
5246.000000;0.954943
5245.000000;0.951756
5244.000000;0.951643
5243.000000;0.948116
5242.000000;0.940676
5241.000000;0.934116
5240.000000;0.930139
5239.000000;0.927960
5238.000000;0.929528
5237.000000;0.936463
5236.000000;0.944031
5235.000000;0.945274
5234.000000;0.940400
5233.000000;0.935240
5232.000000;0.932541
5231.000000;0.931345
5230.000000;0.932061
5229.000000;0.935932
5228.000000;0.940925
5227.000000;0.943539
5226.000000;0.943659
5225.000000;0.943178
5224.000000;0.942071
5223.000000;0.940193
5222.000000;0.940010
5221.000000;0.942705
5220.000000;0.944374
5219.000000;0.940995
5218.000000;0.934776
5217.000000;0.930775
5216.000000;0.930300
5215.000000;0.931703
5214.000000;0.934284
5213.000000;0.936973
5212.000000;0.936221
5211.000000;0.930203
5210.000000;0.922987
5209.000000;0.920483
5208.000000;0.924234
5207.000000;0.931445
5206.000000;0.938370
5205.000000;0.941149
5204.000000;0.936969
5203.000000;0.928473
5202.000000;0.923454
5201.000000;0.926635
5200.000000;0.934631
5199.000000;0.941190
5198.000000;0.944710
5197.000000;0.947176
5196.000000;0.949019
5195.000000;0.949698
5194.000000;0.950511
5193.000000;0.952164
5192.000000;0.951742
5191.000000;0.946735
5190.000000;0.940097
5189.000000;0.937048
5188.000000;0.939051
5187.000000;0.943926
5186.000000;0.949071
5185.000000;0.951815
5184.000000;0.950166
5183.000000;0.946345
5182.000000;0.946020
5181.000000;0.951221
5180.000000;0.957161
5179.000000;0.958918
5178.000000;0.958016
5177.000000;0.958464
5176.000000;0.960216
5175.000000;0.960571
5174.000000;0.958962
5173.000000;0.956617
5172.000000;0.953989
5171.000000;0.951881
5170.000000;0.952190
5169.000000;0.954579
5168.000000;0.955471
5167.000000;0.952981
5166.000000;0.949461
5165.000000;0.946670
5164.000000;0.942820
5163.000000;0.936981
5162.000000;0.932170
5161.000000;0.931434
5160.000000;0.934433
5159.000000;0.939899
5158.000000;0.947459
5157.000000;0.954396
5156.000000;0.955380
5155.000000;0.949110
5154.000000;0.941569
5153.000000;0.938992
5152.000000;0.940764
5151.000000;0.942836
5150.000000;0.944546
5149.000000;0.947065
5148.000000;0.948586
5147.000000;0.946673
5146.000000;0.943101
5145.000000;0.941318
5144.000000;0.941377
5143.000000;0.941506
5142.000000;0.941889
5141.000000;0.942864
5140.000000;0.942451
5139.000000;0.939975
5138.000000;0.939082
5137.000000;0.942952
5136.000000;0.949106
5135.000000;0.952325
5134.000000;0.950740
5133.000000;0.945774
5132.000000;0.939022
5131.000000;0.933085
5130.000000;0.931953
5129.000000;0.936197
5128.000000;0.940642
5127.000000;0.941002
5126.000000;0.939652
5125.000000;0.940479
5124.000000;0.942267
5123.000000;0.941793
5122.000000;0.940285
5121.000000;0.941485
5120.000000;0.945385
5119.000000;0.948831
5118.000000;0.951015
5117.000000;0.953840
5116.000000;0.957594
5115.000000;0.960400
5114.000000;0.961003
5113.000000;0.958583
5112.000000;0.951796
5111.000000;0.941837
5110.000000;0.934004
5109.000000;0.932462
5108.000000;0.935864
5107.000000;0.940694
5106.000000;0.946110
5105.000000;0.952025
5104.000000;0.955197
5103.000000;0.952274
5102.000000;0.945259
5101.000000;0.939069
5100.000000;0.935562
5099.000000;0.933967
5098.000000;0.934802
5097.000000;0.938915
5096.000000;0.943853
5095.000000;0.945371
5094.000000;0.942532
5093.000000;0.938081
5092.000000;0.934312
5091.000000;0.931887
5090.000000;0.931655
5089.000000;0.934135
5088.000000;0.937735
5087.000000;0.940164
5086.000000;0.940682
5085.000000;0.938988
5084.000000;0.934318
5083.000000;0.928486
5082.000000;0.927005
5081.000000;0.933525
5080.000000;0.944981
5079.000000;0.954980
5078.000000;0.960610
5077.000000;0.962535
5076.000000;0.960359
5075.000000;0.953228
5074.000000;0.944147
5073.000000;0.938529
5072.000000;0.938399
5071.000000;0.941260
5070.000000;0.944468
5069.000000;0.947607
5068.000000;0.949954
5067.000000;0.949062
5066.000000;0.943502
5065.000000;0.935130
5064.000000;0.927564
5063.000000;0.923547
5062.000000;0.923530
5061.000000;0.925780
5060.000000;0.928421
5059.000000;0.931352
5058.000000;0.934825
5057.000000;0.936496
5056.000000;0.932888
5055.000000;0.925101
5054.000000;0.919611
5053.000000;0.921175
5052.000000;0.927520
5051.000000;0.932356
5050.000000;0.931907
5049.000000;0.927032
5048.000000;0.920630
5047.000000;0.915627
5046.000000;0.914196
5045.000000;0.916016
5044.000000;0.918034
5043.000000;0.917708
5042.000000;0.915427
5041.000000;0.912395
5040.000000;0.908296
5039.000000;0.902975
5038.000000;0.898144
5037.000000;0.895498
5036.000000;0.895102
5035.000000;0.897026
5034.000000;0.902112
5033.000000;0.909241
5032.000000;0.914353
5031.000000;0.914664
5030.000000;0.911890
5029.000000;0.909077
5028.000000;0.906709
5027.000000;0.904245
5026.000000;0.902721
5025.000000;0.903020
5024.000000;0.903849
5023.000000;0.903836
5022.000000;0.903392
5021.000000;0.902223
5020.000000;0.897852
5019.000000;0.889705
5018.000000;0.881962
5017.000000;0.879228
5016.000000;0.881389
5015.000000;0.884649
5014.000000;0.885859
5013.000000;0.883880
5012.000000;0.878824
5011.000000;0.872852
5010.000000;0.869598
5009.000000;0.869770
5008.000000;0.869060
5007.000000;0.863368
5006.000000;0.854589
5005.000000;0.847969
5004.000000;0.846022
5003.000000;0.847639
5002.000000;0.850205
5001.000000;0.850060
5000.000000;0.843540
4999.000000;0.831162
4998.000000;0.819109
4997.000000;0.813303
4996.000000;0.813426
4995.000000;0.814888
4994.000000;0.814955
4993.000000;0.814138
4992.000000;0.812759
4991.000000;0.809857
4990.000000;0.805608
4989.000000;0.801828
4988.000000;0.799625
4987.000000;0.798409
4986.000000;0.797178
4985.000000;0.795225
4984.000000;0.791868
4983.000000;0.786915
4982.000000;0.781077
4981.000000;0.774892
4980.000000;0.768085
4979.000000;0.761014
4978.000000;0.755467
4977.000000;0.752464
4976.000000;0.750305
4975.000000;0.746334
4974.000000;0.739759
4973.000000;0.731606
4972.000000;0.723435
4971.000000;0.717225
4970.000000;0.714387
4969.000000;0.713253
4968.000000;0.709571
4967.000000;0.701572
4966.000000;0.692680
4965.000000;0.686937
4964.000000;0.684004
4963.000000;0.680843
4962.000000;0.676406
4961.000000;0.672030
4960.000000;0.668224
4959.000000;0.663927
4958.000000;0.658603
4957.000000;0.652731
4956.000000;0.646417
4955.000000;0.639432
4954.000000;0.632164
4953.000000;0.624794
4952.000000;0.616504
4951.000000;0.607183
4950.000000;0.598687
4949.000000;0.592750
4948.000000;0.588681
4947.000000;0.584586
4946.000000;0.579788
4945.000000;0.574224
4944.000000;0.566999
4943.000000;0.558041
4942.000000;0.549970
4941.000000;0.545594
4940.000000;0.543870
4939.000000;0.540756
4938.000000;0.534082
4937.000000;0.525406
4936.000000;0.517173
4935.000000;0.510248
4934.000000;0.504162
4933.000000;0.497784
4932.000000;0.489607
4931.000000;0.479175
4930.000000;0.468641
4929.000000;0.461296
4928.000000;0.458084
4927.000000;0.456401
4926.000000;0.452478
4925.000000;0.444509
4924.000000;0.433771
4923.000000;0.423483
4922.000000;0.416325
4921.000000;0.412096
4920.000000;0.407953
4919.000000;0.401499
4918.000000;0.393093
4917.000000;0.384596
4916.000000;0.376863
4915.000000;0.369464
4914.000000;0.362009
4913.000000;0.354414
4912.000000;0.346296
4911.000000;0.337438
4910.000000;0.328639
4909.000000;0.321013
4908.000000;0.314625
4907.000000;0.308713
4906.000000;0.302881
4905.000000;0.296993
4904.000000;0.290276
4903.000000;0.281862
4902.000000;0.272215
4901.000000;0.262940
4900.000000;0.255010
4899.000000;0.247981
4898.000000;0.241035
4897.000000;0.234114
4896.000000;0.227688
4895.000000;0.221854
4894.000000;0.216015
4893.000000;0.209328
4892.000000;0.201469
4891.000000;0.193196
4890.000000;0.186091
4889.000000;0.181383
4888.000000;0.178890
4887.000000;0.177246
4886.000000;0.175100
4885.000000;0.171967
4884.000000;0.168082
4883.000000;0.163782
4882.000000;0.159139
4881.000000;0.154136
4880.000000;0.149039
4879.000000;0.144383
4878.000000;0.140481
4877.000000;0.137100
4876.000000;0.133749
4875.000000;0.130246
4874.000000;0.126881
4873.000000;0.124086
4872.000000;0.122048
4871.000000;0.120585
4870.000000;0.119362
4869.000000;0.118269
4868.000000;0.117546
4867.000000;0.117401
4866.000000;0.117606
4865.000000;0.117668
4864.000000;0.117336
4863.000000;0.116795
4862.000000;0.116316
4861.000000;0.115946
4860.000000;0.115648
4859.000000;0.115477
4858.000000;0.115477
4857.000000;0.115622
4856.000000;0.116102
4855.000000;0.117498
4854.000000;0.120279
4853.000000;0.124060
4852.000000;0.127752
4851.000000;0.130668
4850.000000;0.133211
4849.000000;0.136106
4848.000000;0.139152
4847.000000;0.141341
4846.000000;0.142238
4845.000000;0.142617
4844.000000;0.143493
4843.000000;0.145060
4842.000000;0.146951
4841.000000;0.149097
4840.000000;0.151797
4839.000000;0.155225
4838.000000;0.159288
4837.000000;0.163717
4836.000000;0.167947
4835.000000;0.171245
4834.000000;0.173457
4833.000000;0.175345
4832.000000;0.177695
4831.000000;0.180337
4830.000000;0.182631
4829.000000;0.184656
4828.000000;0.187151
4827.000000;0.190331
4826.000000;0.193527
4825.000000;0.196168
4824.000000;0.198475
4823.000000;0.200917
4822.000000;0.203571
4821.000000;0.206368
4820.000000;0.209498
4819.000000;0.213116
4818.000000;0.216883
4817.000000;0.220221
4816.000000;0.222921
4815.000000;0.225262
4814.000000;0.227609
4813.000000;0.230102
4812.000000;0.232728
4811.000000;0.235516
4810.000000;0.238558
4809.000000;0.241848
4808.000000;0.245154
4807.000000;0.248108
4806.000000;0.250467
4805.000000;0.252286
4804.000000;0.253831
4803.000000;0.255440
4802.000000;0.257432
4801.000000;0.259953
4800.000000;0.262809
4799.000000;0.265586
4798.000000;0.268023
4797.000000;0.270135
4796.000000;0.271989
4795.000000;0.273661
4794.000000;0.275495
4793.000000;0.277995
4792.000000;0.281150
4791.000000;0.284200
4790.000000;0.286461
4789.000000;0.288135
4788.000000;0.289901
4787.000000;0.291916
4786.000000;0.293716
4785.000000;0.295074
4784.000000;0.296421
4783.000000;0.298284
4782.000000;0.300664
4781.000000;0.303166
4780.000000;0.305472
4779.000000;0.307544
4778.000000;0.309522
4777.000000;0.311577
4776.000000;0.313746
4775.000000;0.315868
4774.000000;0.317755
4773.000000;0.319436
4772.000000;0.321119
4771.000000;0.322914
4770.000000;0.324717
4769.000000;0.326397
4768.000000;0.327958
4767.000000;0.329492
4766.000000;0.331034
4765.000000;0.332500
4764.000000;0.333728
4763.000000;0.334640
4762.000000;0.335408
4761.000000;0.336387
4760.000000;0.337811
4759.000000;0.339615
4758.000000;0.341583
4757.000000;0.343527
4756.000000;0.345272
4755.000000;0.346678
4754.000000;0.347846
4753.000000;0.349118
4752.000000;0.350682
4751.000000;0.352288
4750.000000;0.353574
4749.000000;0.354554
4748.000000;0.355548
4747.000000;0.356733
4746.000000;0.357978
4745.000000;0.359108
4744.000000;0.360105
4743.000000;0.361108
4742.000000;0.362356
4741.000000;0.364049
4740.000000;0.366064
4739.000000;0.367896
4738.000000;0.369147
4737.000000;0.370018
4736.000000;0.371067
4735.000000;0.372518
4734.000000;0.374077
4733.000000;0.375391
4732.000000;0.376416
4731.000000;0.377276
4730.000000;0.378062
4729.000000;0.378858
4728.000000;0.379741
4727.000000;0.380678
4726.000000;0.381563
4725.000000;0.382430
4724.000000;0.383437
4723.000000;0.384583
4722.000000;0.385642
4721.000000;0.386446
4720.000000;0.387071
4719.000000;0.387670
4718.000000;0.388280
4717.000000;0.388926
4716.000000;0.389739
4715.000000;0.390844
4714.000000;0.392195
4713.000000;0.393617
4712.000000;0.394921
4711.000000;0.395950
4710.000000;0.396624
4709.000000;0.397044
4708.000000;0.397454
4707.000000;0.398036
4706.000000;0.398779
4705.000000;0.399561
4704.000000;0.400291
4703.000000;0.400941
4702.000000;0.401551
4701.000000;0.402218
4700.000000;0.402993
4699.000000;0.403787
4698.000000;0.404478
4697.000000;0.405113
4696.000000;0.405858
4695.000000;0.406734
4694.000000;0.407577
4693.000000;0.408304
4692.000000;0.409055
4691.000000;0.409941
4690.000000;0.410811
4689.000000;0.411406
4688.000000;0.411662
4687.000000;0.411784
4686.000000;0.412051
4685.000000;0.412621
4684.000000;0.413434
4683.000000;0.414239
4682.000000;0.414779
4681.000000;0.415050
4680.000000;0.415311
4679.000000;0.415796
4678.000000;0.416488
4677.000000;0.417212
4676.000000;0.417852
4675.000000;0.418412
4674.000000;0.418929
4673.000000;0.419435
4672.000000;0.419949
4671.000000;0.420470
4670.000000;0.420994
4669.000000;0.421576
4668.000000;0.422287
4667.000000;0.423087
4666.000000;0.423815
4665.000000;0.424370
4664.000000;0.424828
4663.000000;0.425311
4662.000000;0.425815
4661.000000;0.426239
4660.000000;0.426539
4659.000000;0.426793
4658.000000;0.427123
4657.000000;0.427611
4656.000000;0.428213
4655.000000;0.428731
4654.000000;0.428956
4653.000000;0.428906
4652.000000;0.428862
4651.000000;0.429087
4650.000000;0.429561
4649.000000;0.430059
4648.000000;0.430433
4647.000000;0.430719
4646.000000;0.431023
4645.000000;0.431403
4644.000000;0.431869
4643.000000;0.432383
4642.000000;0.432836
4641.000000;0.433119
4640.000000;0.433248
4639.000000;0.433408
4638.000000;0.433803
4637.000000;0.434452
4636.000000;0.435162
4635.000000;0.435700
4634.000000;0.436022
4633.000000;0.436280
4632.000000;0.436613
4631.000000;0.436965
4630.000000;0.437178
4629.000000;0.437240
4628.000000;0.437324
4627.000000;0.437562
4626.000000;0.437878
4625.000000;0.438094
4624.000000;0.438146
4623.000000;0.438144
4622.000000;0.438256
4621.000000;0.438570
4620.000000;0.439030
4619.000000;0.439468
4618.000000;0.439755
4617.000000;0.439940
4616.000000;0.440187
4615.000000;0.440567
4614.000000;0.440965
4613.000000;0.441241
4612.000000;0.441392
4611.000000;0.441497
4610.000000;0.441579
4609.000000;0.441594
4608.000000;0.441544
4607.000000;0.441520
4606.000000;0.441635
4605.000000;0.441946
4604.000000;0.442403
4603.000000;0.442862
4602.000000;0.443168
4601.000000;0.443294
4600.000000;0.443371
4599.000000;0.443541
4598.000000;0.443821
4597.000000;0.444125
4596.000000;0.444383
4595.000000;0.444599
4594.000000;0.444823
4593.000000;0.445097
4592.000000;0.445386
4591.000000;0.445562
4590.000000;0.445526
4589.000000;0.445359
4588.000000;0.445273
4587.000000;0.445344
4586.000000;0.445410
4585.000000;0.445301
4584.000000;0.445107
4583.000000;0.445094
4582.000000;0.445403
4581.000000;0.445917
4580.000000;0.446398
4579.000000;0.446663
4578.000000;0.446645
4577.000000;0.446382
4576.000000;0.445979
4575.000000;0.445561
4574.000000;0.445246
4573.000000;0.445162
4572.000000;0.445401
4571.000000;0.445878
4570.000000;0.446315
4569.000000;0.446477
4568.000000;0.446420
4567.000000;0.446395
4566.000000;0.446527
4565.000000;0.446703
4564.000000;0.446773
4563.000000;0.446728
4562.000000;0.446645
4561.000000;0.446567
4560.000000;0.446508
4559.000000;0.446495
4558.000000;0.446522
4557.000000;0.446514
4556.000000;0.446421
4555.000000;0.446322
4554.000000;0.446377
4553.000000;0.446650
4552.000000;0.447017
4551.000000;0.447272
4550.000000;0.447298
4549.000000;0.447123
4548.000000;0.446854
4547.000000;0.446575
4546.000000;0.446336
4545.000000;0.446194
4544.000000;0.446214
4543.000000;0.446393
4542.000000;0.446623
4541.000000;0.446746
4540.000000;0.446664
4539.000000;0.446397
4538.000000;0.446073
4537.000000;0.445872
4536.000000;0.445927
4535.000000;0.446205
4534.000000;0.446494
4533.000000;0.446546
4532.000000;0.446289
4531.000000;0.445898
4530.000000;0.445653
4529.000000;0.445708
4528.000000;0.445962
4527.000000;0.446140
4526.000000;0.446038
4525.000000;0.445694
4524.000000;0.445321
4523.000000;0.445086
4522.000000;0.444979
4521.000000;0.444899
4520.000000;0.444782
4519.000000;0.444627
4518.000000;0.444465
4517.000000;0.444364
4516.000000;0.444407
4515.000000;0.444590
4514.000000;0.444754
4513.000000;0.444696
4512.000000;0.444363
4511.000000;0.443907
4510.000000;0.443568
4509.000000;0.443493
4508.000000;0.443651
4507.000000;0.443885
4506.000000;0.444055
4505.000000;0.444139
4504.000000;0.444172
4503.000000;0.444118
4502.000000;0.443874
4501.000000;0.443442
4500.000000;0.442984
4499.000000;0.442672
4498.000000;0.442555
4497.000000;0.442627
4496.000000;0.442898
4495.000000;0.443283
4494.000000;0.443511
4493.000000;0.443335
4492.000000;0.442850
4491.000000;0.442416
4490.000000;0.442256
4489.000000;0.442239
4488.000000;0.442114
4487.000000;0.441848
4486.000000;0.441625
4485.000000;0.441612
4484.000000;0.441787
4483.000000;0.441978
4482.000000;0.442003
4481.000000;0.441802
4480.000000;0.441485
4479.000000;0.441216
4478.000000;0.441052
4477.000000;0.440915
4476.000000;0.440760
4475.000000;0.440683
4474.000000;0.440790
4473.000000;0.441005
4472.000000;0.441095
4471.000000;0.440915
4470.000000;0.440567
4469.000000;0.440279
4468.000000;0.440160
4467.000000;0.440128
4466.000000;0.440038
4465.000000;0.439836
4464.000000;0.439536
4463.000000;0.439161
4462.000000;0.438770
4461.000000;0.438530
4460.000000;0.438593
4459.000000;0.438895
4458.000000;0.439165
4457.000000;0.439203
4456.000000;0.439042
4455.000000;0.438793
4454.000000;0.438432
4453.000000;0.437910
4452.000000;0.437364
4451.000000;0.437033
4450.000000;0.436967
4449.000000;0.436988
4448.000000;0.436956
4447.000000;0.436896
4446.000000;0.436840
4445.000000;0.436720
4444.000000;0.436534
4443.000000;0.436450
4442.000000;0.436596
4441.000000;0.436804
4440.000000;0.436740
4439.000000;0.436269
4438.000000;0.435597
4437.000000;0.435066
4436.000000;0.434897
4435.000000;0.435108
4434.000000;0.435541
4433.000000;0.435924
4432.000000;0.435990
4431.000000;0.435642
4430.000000;0.435015
4429.000000;0.434369
4428.000000;0.433906
4427.000000;0.433667
4426.000000;0.433560
4425.000000;0.433456
4424.000000;0.433287
4423.000000;0.433064
4422.000000;0.432838
4421.000000;0.432649
4420.000000;0.432521
4419.000000;0.432465
4418.000000;0.432474
4417.000000;0.432517
4416.000000;0.432544
4415.000000;0.432493
4414.000000;0.432299
4413.000000;0.431934
4412.000000;0.431443
4411.000000;0.430910
4410.000000;0.430366
4409.000000;0.429768
4408.000000;0.429097
4407.000000;0.428456
4406.000000;0.428037
4405.000000;0.427967
4404.000000;0.428196
4403.000000;0.428502
4402.000000;0.428624
4401.000000;0.428413
4400.000000;0.427901
4399.000000;0.427221
4398.000000;0.426481
4397.000000;0.425724
4396.000000;0.424972
4395.000000;0.424263
4394.000000;0.423635
4393.000000;0.423136
4392.000000;0.422840
4391.000000;0.422781
4390.000000;0.422810
4389.000000;0.422602
4388.000000;0.421865
4387.000000;0.420554
4386.000000;0.418852
4385.000000;0.417019
4384.000000;0.415356
4383.000000;0.414189
4382.000000;0.413680
4381.000000;0.413584
4380.000000;0.413376
4379.000000;0.412777
4378.000000;0.412043
4377.000000;0.411577
4376.000000;0.411322
4375.000000;0.410789
4374.000000;0.409705
4373.000000;0.408379
4372.000000;0.407257
4371.000000;0.406323
4370.000000;0.405190
4369.000000;0.403706
4368.000000;0.402187
4367.000000;0.401020
4366.000000;0.400250
4365.000000;0.399624
4364.000000;0.398850
4363.000000;0.397740
4362.000000;0.396297
4361.000000;0.394773
4360.000000;0.393474
4359.000000;0.392391
4358.000000;0.391164
4357.000000;0.389565
4356.000000;0.387851
4355.000000;0.386468
4354.000000;0.385555
4353.000000;0.384933
4352.000000;0.384456
4351.000000;0.384070
4350.000000;0.383597
4349.000000;0.382777
4348.000000;0.381542
4347.000000;0.380029
4346.000000;0.378309
4345.000000;0.376389
4344.000000;0.374506
4343.000000;0.373103
4342.000000;0.372320
4341.000000;0.371740
4340.000000;0.370845
4339.000000;0.369574
4338.000000;0.368243
4337.000000;0.367025
4336.000000;0.365756
4335.000000;0.364196
4334.000000;0.362334
4333.000000;0.360394
4332.000000;0.358597
4331.000000;0.356925
4330.000000;0.355156
4329.000000;0.353236
4328.000000;0.351583
4327.000000;0.350776
4326.000000;0.350799
4325.000000;0.350830
4324.000000;0.349994
4323.000000;0.348219
4322.000000;0.346173
4321.000000;0.344459
4320.000000;0.343135
4319.000000;0.341939
4318.000000;0.340646
4317.000000;0.339134
4316.000000;0.337374
4315.000000;0.335581
4314.000000;0.334196
4313.000000;0.333479
4312.000000;0.333112
4311.000000;0.332409
4310.000000;0.330945
4309.000000;0.328880
4308.000000;0.326648
4307.000000;0.324553
4306.000000;0.322776
4305.000000;0.321614
4304.000000;0.321366
4303.000000;0.321867
4302.000000;0.322274
4301.000000;0.321535
4300.000000;0.319255
4299.000000;0.316110
4298.000000;0.313378
4297.000000;0.311953
4296.000000;0.311653
4295.000000;0.311525
4294.000000;0.310981
4293.000000;0.310616
4292.000000;0.311647
4291.000000;0.314373
4290.000000;0.317500
4289.000000;0.319257
4288.000000;0.319024
4287.000000;0.317702
4286.000000;0.316631
4285.000000;0.316509
4284.000000;0.317301
4283.000000;0.318732
4282.000000;0.320669
4281.000000;0.323261
4280.000000;0.326782
4279.000000;0.331061
4278.000000;0.335137
4277.000000;0.337956
4276.000000;0.339606
4275.000000;0.341406
4274.000000;0.344447
4273.000000;0.348541
4272.000000;0.353072
4271.000000;0.358147
4270.000000;0.363931
4269.000000;0.369333
4268.000000;0.372750
4267.000000;0.374405
4266.000000;0.376732
4265.000000;0.381782
4264.000000;0.389127
4263.000000;0.396913
4262.000000;0.404181
4261.000000;0.411332
4260.000000;0.418782
4259.000000;0.426214
4258.000000;0.433091
4257.000000;0.439271
4256.000000;0.445274
4255.000000;0.452327
4254.000000;0.461733
4253.000000;0.473394
4252.000000;0.485053
4251.000000;0.494009
4250.000000;0.499965
4249.000000;0.505326
4248.000000;0.512489
4247.000000;0.521500
4246.000000;0.530554
4245.000000;0.538301
4244.000000;0.545210
4243.000000;0.552902
4242.000000;0.562654
4241.000000;0.574520
4240.000000;0.587543
4239.000000;0.600472
4238.000000;0.612357
4237.000000;0.622853
4236.000000;0.632208
4235.000000;0.640676
4234.000000;0.647813
4233.000000;0.652805
4232.000000;0.655982
4231.000000;0.659770
4230.000000;0.667349
4229.000000;0.680167
4228.000000;0.696940
4227.000000;0.714741
4226.000000;0.730679
4225.000000;0.743289
4224.000000;0.753516
4223.000000;0.763973
4222.000000;0.776066
4221.000000;0.788075
4220.000000;0.797448
4219.000000;0.804876
4218.000000;0.814026
4217.000000;0.826939
4216.000000;0.841773
4215.000000;0.855820
4214.000000;0.868655
4213.000000;0.880546
4212.000000;0.889814
4211.000000;0.894865
4210.000000;0.897961
4209.000000;0.903683
4208.000000;0.913894
4207.000000;0.926382
4206.000000;0.938227
4205.000000;0.948852
4204.000000;0.959258
4203.000000;0.969638
4202.000000;0.978637
4201.000000;0.984571
4200.000000;0.987567
4199.000000;0.990782
4198.000000;0.998283
4197.000000;1.010401
4196.000000;1.022217
4195.000000;1.028859
4194.000000;1.032096
4193.000000;1.038539
4192.000000;1.051632
4191.000000;1.068327
4190.000000;1.083472
4189.000000;1.095661
4188.000000;1.107372
4187.000000;1.120485
4186.000000;1.133802
4185.000000;1.144476
4184.000000;1.151219
4183.000000;1.156253
4182.000000;1.163891
4181.000000;1.176688
4180.000000;1.192554
4179.000000;1.206296
4178.000000;1.214843
4177.000000;1.220307
4176.000000;1.227409
4175.000000;1.239039
4174.000000;1.254604
4173.000000;1.271282
4172.000000;1.285987
4171.000000;1.296644
4170.000000;1.302982
4169.000000;1.306709
4168.000000;1.311264
4167.000000;1.321631
4166.000000;1.339843
4165.000000;1.359163
4164.000000;1.369159
4163.000000;1.367230
4162.000000;1.360990
4161.000000;1.359691
4160.000000;1.364890
4159.000000;1.370637
4158.000000;1.372297
4157.000000;1.373902
4156.000000;1.384462
4155.000000;1.409007
4154.000000;1.444809
4153.000000;1.482148
4152.000000;1.509029
4151.000000;1.520435
4150.000000;1.521297
4149.000000;1.519952
4148.000000;1.523556
4147.000000;1.533165
4146.000000;1.544240
4145.000000;1.553161
4144.000000;1.559337
4143.000000;1.564662
4142.000000;1.571905
4141.000000;1.583220
4140.000000;1.597015
4139.000000;1.611135
4138.000000;1.625951
4137.000000;1.639719
4136.000000;1.645676
4135.000000;1.636313
4134.000000;1.614118
4133.000000;1.593855
4132.000000;1.589454
4131.000000;1.603415
4130.000000;1.625306
4129.000000;1.640080
4128.000000;1.645579
4127.000000;1.655953
4126.000000;1.684259
4125.000000;1.728096
4124.000000;1.771347
4123.000000;1.796499
4122.000000;1.798809
4121.000000;1.790707
4120.000000;1.782970
4119.000000;1.771728
4118.000000;1.747578
4117.000000;1.708785
4116.000000;1.667829
4115.000000;1.640440
4114.000000;1.632307
4113.000000;1.642365
4112.000000;1.666066
4111.000000;1.696704
4110.000000;1.724644
4109.000000;1.736380
4108.000000;1.733332
4107.000000;1.740385
4106.000000;1.775440
4105.000000;1.826413
4104.000000;1.869515
4103.000000;1.887361
4102.000000;1.874167
4101.000000;1.844616
4100.000000;1.816404
4099.000000;1.806943
4098.000000;1.833275
4097.000000;1.894834
4096.000000;1.957388
4095.000000;1.971333
4094.000000;1.937858
4093.000000;1.903575
4092.000000;1.896229
4091.000000;1.915433
4090.000000;1.948142
4089.000000;1.966713
4088.000000;1.948084
4087.000000;1.920915
4086.000000;1.924106
4085.000000;1.965331
4084.000000;2.030162
4083.000000;2.101341
4082.000000;2.156306
4081.000000;2.180396
4080.000000;2.197430
4079.000000;2.166961
4078.000000;2.067066
4077.000000;1.986151
4076.000000;1.956319
4075.000000;1.962980
4074.000000;1.999134
4073.000000;2.078514
4072.000000;2.209791
4071.000000;2.335963
4070.000000;2.336633
4069.000000;2.244161
4068.000000;2.144487
4067.000000;2.077098
4066.000000;2.071891
4065.000000;2.139316
4064.000000;2.248551
4063.000000;2.312280
4062.000000;2.277563
4061.000000;2.204064
4060.000000;2.150667
4059.000000;2.124405
4058.000000;2.106700
4057.000000;2.086067
4056.000000;2.087833
4055.000000;2.133577
4054.000000;2.201010
4053.000000;2.254724
4052.000000;2.279728
4051.000000;2.278417
4050.000000;2.265995
4049.000000;2.244647
4048.000000;2.213199
4047.000000;2.195315
4046.000000;2.223814
4045.000000;2.288052
4044.000000;2.309601
4043.000000;2.232356
4042.000000;2.128052
4041.000000;2.066202
4040.000000;2.048441
4039.000000;2.051028
4038.000000;2.065271
4037.000000;2.101220
4036.000000;2.151776
4035.000000;2.192044
4034.000000;2.229924
4033.000000;2.275683
4032.000000;2.300891
4031.000000;2.283389
4030.000000;2.242260
4029.000000;2.215202
4028.000000;2.226518
4027.000000;2.270543
4026.000000;2.310168
4025.000000;2.302340
4024.000000;2.252419
4023.000000;2.200382
4022.000000;2.175358
4021.000000;2.192587
4020.000000;2.251426
4019.000000;2.315398
4018.000000;2.341711
4017.000000;2.359146
4016.000000;2.338540
4015.000000;2.223167
4014.000000;2.109675
4013.000000;2.063075
4012.000000;2.086592
4011.000000;2.160039
4010.000000;2.234478
4009.000000;2.258604
4008.000000;2.264832
4007.000000;2.328725
4006.000000;2.474048
4005.000000;2.629590
4004.000000;2.655940
4003.000000;2.601875
4002.000000;2.576518
4001.000000;2.562366
4000.000000;2.487027
3999.000000;2.361119
3998.000000;2.256685
3997.000000;2.198801
3996.000000;2.181781
3995.000000;2.209602
3994.000000;2.288081
3993.000000;2.335126
3992.000000;2.284334
3991.000000;2.250667
3990.000000;2.293483
3989.000000;2.403992
3988.000000;2.513759
3987.000000;2.466555
3986.000000;2.380564
3985.000000;2.365010
3984.000000;2.366482
3983.000000;2.335510
3982.000000;2.310308
3981.000000;2.303374
3980.000000;2.306538
3979.000000;2.354664
3978.000000;2.413038
3977.000000;2.310250
3976.000000;2.161365
3975.000000;2.104541
3974.000000;2.145458
3973.000000;2.262396
3972.000000;2.379174
3971.000000;2.404514
3970.000000;2.356327
3969.000000;2.309286
3968.000000;2.319379
3967.000000;2.369503
3966.000000;2.423454
3965.000000;2.494833
3964.000000;2.633109
3963.000000;2.945169
3962.000000;2.796114
3961.000000;2.524019
3960.000000;2.457915
3959.000000;2.516146
3958.000000;2.674481
3957.000000;2.938678
3956.000000;3.215909
3955.000000;2.796224
3954.000000;2.526080
3953.000000;2.393887
3952.000000;2.307357
3951.000000;2.237680
3950.000000;2.211149
3949.000000;2.281134
3948.000000;2.512281
3947.000000;2.937489
3946.000000;3.242959
3945.000000;3.250035
3944.000000;2.802728
3943.000000;2.470109
3942.000000;2.350628
3941.000000;2.332755
3940.000000;2.354282
3939.000000;2.359669
3938.000000;2.341970
3937.000000;2.325549
3936.000000;2.291900
3935.000000;2.235288
3934.000000;2.210932
3933.000000;2.283024
3932.000000;2.477987
3931.000000;2.659464
3930.000000;2.650398
3929.000000;2.552733
3928.000000;2.469549
3927.000000;2.432402
3926.000000;2.417733
3925.000000;2.381351
3924.000000;2.337622
3923.000000;2.334768
3922.000000;2.380644
3921.000000;2.453976
3920.000000;2.512694
3919.000000;2.508197
3918.000000;2.511601
3917.000000;2.554067
3916.000000;2.557112
3915.000000;2.533968
3914.000000;2.473846
3913.000000;2.401937
3912.000000;2.397701
3911.000000;2.582706
3910.000000;2.912068
3909.000000;2.716425
3908.000000;2.564513
3907.000000;2.638620
3906.000000;2.915005
3905.000000;2.628625
3904.000000;2.377655
3903.000000;2.415766
3902.000000;2.621687
3901.000000;2.844192
3900.000000;2.672656
3899.000000;2.585829
3898.000000;2.731314
3897.000000;2.531524
3896.000000;2.394946
3895.000000;2.457385
3894.000000;2.776786
3893.000000;3.410058
3892.000000;3.257950
3891.000000;2.958854
3890.000000;2.783297
3889.000000;3.107616
3888.000000;3.117961
3887.000000;2.380381
3886.000000;2.030484
3885.000000;1.982270
3884.000000;2.212477
3883.000000;2.610595
3882.000000;3.197151
3881.000000;2.830721
3880.000000;2.449897
3879.000000;2.441025
3878.000000;2.731983
3877.000000;3.043386
3876.000000;2.495425
3875.000000;2.272123
3874.000000;2.310955
3873.000000;2.385975
3872.000000;2.382891
3871.000000;2.360441
3870.000000;2.318928
3869.000000;2.232213
3868.000000;2.198382
3867.000000;2.210833
3866.000000;2.245354
3865.000000;2.537315
3864.000000;2.359160
3863.000000;2.034529
3862.000000;2.034126
3861.000000;2.072576
3860.000000;2.204057
3859.000000;2.438723
3858.000000;2.699893
3857.000000;3.070857
3856.000000;3.338128
3855.000000;2.745301
3854.000000;2.421301
3853.000000;2.493341
3852.000000;2.687195
3851.000000;2.478018
3850.000000;2.330810
3849.000000;2.334548
3848.000000;2.348803
3847.000000;2.257462
3846.000000;2.311121
3845.000000;2.522461
3844.000000;2.843695
3843.000000;2.834345
3842.000000;2.739809
3841.000000;2.687151
3840.000000;2.551913
3839.000000;2.417980
3838.000000;2.257857
3837.000000;2.067485
3836.000000;1.938752
3835.000000;1.912475
3834.000000;1.967767
3833.000000;2.105037
3832.000000;2.202704
3831.000000;2.416253
3830.000000;4.072721
3829.000000;2.996221
3828.000000;2.763003
3827.000000;2.661255
3826.000000;2.729111
3825.000000;2.758795
3824.000000;2.604514
3823.000000;2.459673
3822.000000;2.415863
3821.000000;2.401992
3820.000000;2.381222
3819.000000;2.355787
3818.000000;2.376982
3817.000000;2.443952
3816.000000;2.840897
3815.000000;2.859900
3814.000000;2.408233
3813.000000;2.104248
3812.000000;1.926470
3811.000000;2.138544
3810.000000;2.682763
3809.000000;2.686378
3808.000000;2.297730
3807.000000;2.078584
3806.000000;2.150170
3805.000000;2.797251
3804.000000;2.541396
3803.000000;2.423657
3802.000000;2.399581
3801.000000;2.535429
3800.000000;2.724742
3799.000000;2.718978
3798.000000;2.829931
3797.000000;3.277947
3796.000000;3.006744
3795.000000;2.484812
3794.000000;2.306946
3793.000000;2.566253
3792.000000;2.744100
3791.000000;2.765155
3790.000000;2.614744
3789.000000;2.647181
3788.000000;2.788841
3787.000000;3.020312
3786.000000;2.949083
3785.000000;2.571357
3784.000000;2.383892
3783.000000;2.364546
3782.000000;2.445122
3781.000000;2.511891
3780.000000;2.531772
3779.000000;2.729389
3778.000000;2.755389
3777.000000;2.498529
3776.000000;2.393290
3775.000000;2.306911
3774.000000;2.275886
3773.000000;2.351015
3772.000000;2.497508
3771.000000;2.560877
3770.000000;2.472364
3769.000000;2.490944
3768.000000;2.673521
3767.000000;2.638023
3766.000000;2.347684
3765.000000;2.183715
3764.000000;2.243189
3763.000000;2.486121
3762.000000;2.792429
3761.000000;2.862752
3760.000000;2.613635
3759.000000;2.420039
3758.000000;2.352889
3757.000000;2.461755
3756.000000;2.663209
3755.000000;2.292607
3754.000000;2.256196
3753.000000;2.606500
3752.000000;2.583314
3751.000000;2.818646
3750.000000;2.993219
3749.000000;3.166832
3748.000000;2.991465
3747.000000;2.924222
3746.000000;2.989615
3745.000000;3.231559
3744.000000;3.636909
3743.000000;2.898749
3742.000000;2.555993
3741.000000;2.460584
3740.000000;2.485729
3739.000000;2.547627
3738.000000;2.479266
3737.000000;2.352369
3736.000000;2.238554
3735.000000;2.235811
3734.000000;2.192996
3733.000000;2.299886
3732.000000;2.091020
3731.000000;1.914249
3730.000000;2.184190
3729.000000;2.370667
3728.000000;2.344521
3727.000000;2.265050
3726.000000;2.358722
3725.000000;2.588221
3724.000000;2.848475
3723.000000;2.839937
3722.000000;2.715366
3721.000000;2.679330
3720.000000;2.801623
3719.000000;3.286600
3718.000000;3.163475
3717.000000;2.830907
3716.000000;2.789316
3715.000000;2.924525
3714.000000;3.255595
3713.000000;2.734762
3712.000000;2.369879
3711.000000;2.177800
3710.000000;2.028184
3709.000000;1.937938
3708.000000;1.935555
3707.000000;2.062421
3706.000000;2.406268
3705.000000;2.813150
3704.000000;2.619036
3703.000000;2.510093
3702.000000;2.468783
3701.000000;2.484854
3700.000000;2.515703
3699.000000;2.402542
3698.000000;2.256589
3697.000000;2.193900
3696.000000;2.262344
3695.000000;2.464219
3694.000000;2.770741
3693.000000;2.856567
3692.000000;2.754232
3691.000000;2.639298
3690.000000;2.481587
3689.000000;2.423653
3688.000000;2.421956
3687.000000;2.500213
3686.000000;2.676387
3685.000000;2.797883
3684.000000;2.749377
3683.000000;2.726941
3682.000000;2.588538
3681.000000;2.432706
3680.000000;2.366750
3679.000000;2.353151
3678.000000;2.387688
3677.000000;2.494069
3676.000000;2.707135
3675.000000;2.860200
3674.000000;2.642500
3673.000000;2.397894
3672.000000;2.250428
3671.000000;2.179425
3670.000000;2.172710
3669.000000;2.222837
3668.000000;2.326635
3667.000000;2.469378
3666.000000;2.624319
3665.000000;2.725862
3664.000000;2.697582
3663.000000;2.626188
3662.000000;2.626132
3661.000000;2.721556
3660.000000;2.838138
3659.000000;2.947091
3658.000000;2.846943
3657.000000;2.585356
3656.000000;2.480782
3655.000000;2.507225
3654.000000;2.475038
3653.000000;2.376490
3652.000000;2.350015
3651.000000;2.522354
3650.000000;2.976499
3649.000000;2.742332
3648.000000;2.490232
3647.000000;2.522523
3646.000000;2.659239
3645.000000;2.665459
3644.000000;2.692837
3643.000000;2.438187
3642.000000;2.330177
3641.000000;2.499045
3640.000000;2.575414
3639.000000;2.670704
3638.000000;2.800332
3637.000000;3.109092
3636.000000;2.776853
3635.000000;2.495616
3634.000000;2.410137
3633.000000;2.421832
3632.000000;2.455857
3631.000000;2.403446
3630.000000;2.290129
3629.000000;2.213744
3628.000000;2.288847
3627.000000;2.601021
3626.000000;3.114858
3625.000000;2.928565
3624.000000;2.641657
3623.000000;2.596430
3622.000000;2.717284
3621.000000;2.814534
3620.000000;2.543783
3619.000000;2.305541
3618.000000;2.238407
3617.000000;2.263068
3616.000000;2.287930
3615.000000;2.279319
3614.000000;2.288328
3613.000000;2.350007
3612.000000;2.439881
3611.000000;2.553935
3610.000000;2.672856
3609.000000;2.753211
3608.000000;2.727412
3607.000000;2.565410
3606.000000;2.460536
3605.000000;2.425629
3604.000000;2.422035
3603.000000;2.484589
3602.000000;2.698259
3601.000000;2.791469
3600.000000;2.571233
3599.000000;2.445430
3598.000000;2.308231
3597.000000;2.172607
3596.000000;2.104209
3595.000000;2.111899
3594.000000;2.198855
3593.000000;2.351459
3592.000000;2.534727
3591.000000;2.629218
3590.000000;2.612156
3589.000000;2.604591
3588.000000;2.615223
3587.000000;2.616986
3586.000000;2.590534
3585.000000;2.584784
3584.000000;2.624686
3583.000000;2.767140
3582.000000;2.878479
3581.000000;2.996190
3580.000000;3.574781
3579.000000;3.017174
3578.000000;2.589251
3577.000000;2.423287
3576.000000;2.387081
3575.000000;2.480898
3574.000000;2.617674
3573.000000;2.635977
3572.000000;2.583486
3571.000000;2.610460
3570.000000;2.845996
3569.000000;2.970227
3568.000000;2.661281
3567.000000;2.726060
3566.000000;2.978640
3565.000000;2.990453
3564.000000;3.491477
3563.000000;3.237902
3562.000000;2.602100
3561.000000;2.412601
3560.000000;2.401073
3559.000000;2.508367
3558.000000;2.653356
3557.000000;2.666757
3556.000000;2.561412
3555.000000;2.635874
3554.000000;2.824069
3553.000000;2.544297
3552.000000;2.445344
3551.000000;2.662220
3550.000000;3.017137
3549.000000;3.215060
3548.000000;3.301309
3547.000000;2.853056
3546.000000;2.671733
3545.000000;2.680416
3544.000000;2.705770
3543.000000;2.766800
3542.000000;2.750698
3541.000000;2.643576
3540.000000;2.555852
3539.000000;2.764098
3538.000000;2.885808
3537.000000;2.498849
3536.000000;2.364598
3535.000000;2.416966
3534.000000;2.608492
3533.000000;2.987802
3532.000000;3.539168
3531.000000;3.350229
3530.000000;2.996289
3529.000000;2.774961
3528.000000;2.605847
3527.000000;2.537294
3526.000000;2.521445
3525.000000;2.542919
3524.000000;2.605522
3523.000000;2.643347
3522.000000;2.676046
3521.000000;2.764619
3520.000000;2.847200
3519.000000;2.868065
3518.000000;2.947512
3517.000000;3.078202
3516.000000;2.946037
3515.000000;2.641699
3514.000000;2.424952
3513.000000;2.331896
3512.000000;2.352692
3511.000000;2.444041
3510.000000;2.585887
3509.000000;2.869387
3508.000000;3.175921
3507.000000;3.398100
3506.000000;3.477950
3505.000000;2.967480
3504.000000;2.771557
3503.000000;2.771950
3502.000000;2.755051
3501.000000;2.653752
3500.000000;2.529623
3499.000000;2.486909
3498.000000;2.551851
3497.000000;2.909721
3496.000000;3.282667
3495.000000;2.758397
3494.000000;2.627409
3493.000000;2.592563
3492.000000;2.560023
3491.000000;2.593973
3490.000000;2.636063
3489.000000;2.620654
3488.000000;2.661156
3487.000000;2.569948
3486.000000;2.327654
3485.000000;2.224139
3484.000000;2.242095
3483.000000;2.328552
3482.000000;2.370915
3481.000000;2.340619
3480.000000;2.379675
3479.000000;2.537929
3478.000000;2.647555
3477.000000;2.585306
3476.000000;2.507308
3475.000000;2.433481
3474.000000;2.426567
3473.000000;2.505018
3472.000000;2.563877
3471.000000;2.601136
3470.000000;2.720309
3469.000000;2.941766
3468.000000;3.366656
3467.000000;3.133136
3466.000000;2.650709
3465.000000;2.483947
3464.000000;2.486721
3463.000000;2.610461
3462.000000;2.737118
3461.000000;2.732665
3460.000000;2.659493
3459.000000;2.569063
3458.000000;2.509004
3457.000000;2.501987
3456.000000;2.531854
3455.000000;2.604479
3454.000000;2.896219
3453.000000;3.178582
3452.000000;2.795232
3451.000000;2.694528
3450.000000;3.049347
3449.000000;3.210463
3448.000000;2.899278
3447.000000;3.194661
3446.000000;3.119653
3445.000000;2.694571
3444.000000;2.551131
3443.000000;2.504379
3442.000000;2.574639
3441.000000;2.633095
3440.000000;2.595018
3439.000000;2.641016
3438.000000;2.757068
3437.000000;2.788716
3436.000000;2.687475
3435.000000;2.564927
3434.000000;2.481798
3433.000000;2.407548
3432.000000;2.347884
3431.000000;2.347772
3430.000000;2.401911
3429.000000;2.434012
3428.000000;2.412177
3427.000000;2.400015
3426.000000;2.460502
3425.000000;2.531353
3424.000000;2.451340
3423.000000;2.344950
3422.000000;2.306668
3421.000000;2.303064
3420.000000;2.308221
3419.000000;2.324899
3418.000000;2.379343
3417.000000;2.513121
3416.000000;2.620972
3415.000000;2.478136
3414.000000;2.323140
3413.000000;2.229939
3412.000000;2.164609
3411.000000;2.140342
3410.000000;2.176532
3409.000000;2.306342
3408.000000;2.527385
3407.000000;3.063975
3406.000000;3.595358
3405.000000;2.846590
3404.000000;3.049782
3403.000000;3.118474
3402.000000;2.560144
3401.000000;2.371124
3400.000000;2.355648
3399.000000;2.464946
3398.000000;2.585772
3397.000000;2.571848
3396.000000;2.524776
3395.000000;2.490584
3394.000000;2.444212
3393.000000;2.349300
3392.000000;2.247368
3391.000000;2.222329
3390.000000;2.302357
3389.000000;2.459389
3388.000000;2.610519
3387.000000;2.673605
3386.000000;2.618861
3385.000000;2.574507
3384.000000;2.606535
3383.000000;2.654085
3382.000000;2.897506
3381.000000;3.221486
3380.000000;2.918857
3379.000000;2.980618
3378.000000;3.621313
3377.000000;3.544609
3376.000000;2.824029
3375.000000;2.507625
3374.000000;2.404076
3373.000000;2.443347
3372.000000;2.563510
3371.000000;2.626557
3370.000000;2.613047
3369.000000;2.606105
3368.000000;2.691657
3367.000000;2.977519
3366.000000;3.171848
3365.000000;2.919907
3364.000000;2.883616
3363.000000;2.948110
3362.000000;2.677789
3361.000000;2.456587
3360.000000;2.394395
3359.000000;2.425476
3358.000000;2.482574
3357.000000;2.496481
3356.000000;2.443132
3355.000000;2.357022
3354.000000;2.289669
3353.000000;2.263186
3352.000000;2.277323
3351.000000;2.295970
3350.000000;2.292477
3349.000000;2.306628
3348.000000;2.395255
3347.000000;2.579870
3346.000000;2.685996
3345.000000;2.821953
3344.000000;3.005522
3343.000000;2.586892
3342.000000;2.361364
3341.000000;2.337119
3340.000000;2.353709
3339.000000;2.348186
3338.000000;2.361314
3337.000000;2.536029
3336.000000;2.730054
3335.000000;2.571836
3334.000000;2.520618
3333.000000;2.782189
3332.000000;3.348028
3331.000000;3.117287
3330.000000;3.186025
3329.000000;2.877751
3328.000000;2.571776
3327.000000;2.539279
3326.000000;2.599151
3325.000000;2.598616
3324.000000;2.577756
3323.000000;2.654900
3322.000000;2.704628
3321.000000;2.712318
3320.000000;2.752947
3319.000000;2.741933
3318.000000;2.702847
3317.000000;2.748363
3316.000000;2.983241
3315.000000;3.216674
3314.000000;2.944594
3313.000000;2.649594
3312.000000;2.499133
3311.000000;2.479316
3310.000000;2.680006
3309.000000;3.233924
3308.000000;2.955177
3307.000000;3.038423
3306.000000;3.138810
3305.000000;2.602150
3304.000000;2.472634
3303.000000;2.520326
3302.000000;2.644433
3301.000000;2.666834
3300.000000;2.528619
3299.000000;2.399660
3298.000000;2.365128
3297.000000;2.436879
3296.000000;2.660770
3295.000000;3.107110
3294.000000;2.902264
3293.000000;2.713888
3292.000000;2.807263
3291.000000;2.854124
3290.000000;2.909814
3289.000000;2.805843
3288.000000;2.541270
3287.000000;2.407917
3286.000000;2.408247
3285.000000;2.530518
3284.000000;2.758131
3283.000000;2.997927
3282.000000;3.312768
3281.000000;3.621609
3280.000000;3.152618
3279.000000;2.703390
3278.000000;2.457532
3277.000000;2.477474
3276.000000;2.759738
3275.000000;2.622467
3274.000000;2.380174
3273.000000;2.395691
3272.000000;2.555326
3271.000000;2.791544
3270.000000;2.846847
3269.000000;2.716732
3268.000000;2.608365
3267.000000;2.544168
3266.000000;2.530160
3265.000000;2.550397
3264.000000;2.635185
3263.000000;2.826029
3262.000000;3.079588
3261.000000;3.141568
3260.000000;2.879654
3259.000000;2.658028
3258.000000;2.618152
3257.000000;2.917214
3256.000000;3.107015
3255.000000;2.777070
3254.000000;2.888920
3253.000000;2.818802
3252.000000;2.624384
3251.000000;2.667555
3250.000000;2.810565
3249.000000;2.924759
3248.000000;2.800001
3247.000000;2.580095
3246.000000;2.444491
3245.000000;2.380018
3244.000000;2.369349
3243.000000;2.375715
3242.000000;2.359670
3241.000000;2.369104
3240.000000;2.506661
3239.000000;2.777571
3238.000000;2.782485
3237.000000;2.770958
3236.000000;3.026550
3235.000000;3.160656
3234.000000;3.225013
3233.000000;2.906077
3232.000000;2.515761
3231.000000;2.295356
3230.000000;2.197584
3229.000000;2.217917
3228.000000;2.366613
3227.000000;2.646885
3226.000000;3.003825
3225.000000;3.312897
3224.000000;3.364196
3223.000000;3.100830
3222.000000;2.949841
3221.000000;3.132862
3220.000000;2.964827
3219.000000;2.577306
3218.000000;2.463978
3217.000000;2.414913
3216.000000;2.381566
3215.000000;2.419534
3214.000000;2.572108
3213.000000;2.824179
3212.000000;2.796121
3211.000000;2.538387
3210.000000;2.375294
3209.000000;2.341415
3208.000000;2.431143
3207.000000;2.585342
3206.000000;2.656135
3205.000000;2.617373
3204.000000;2.580018
3203.000000;2.602945
3202.000000;2.563815
3201.000000;2.389719
3200.000000;2.268453
3199.000000;2.234738
3198.000000;2.265949
3197.000000;2.375199
3196.000000;2.574617
3195.000000;2.761695
3194.000000;2.696406
3193.000000;2.451673
3192.000000;2.294664
3191.000000;2.296781
3190.000000;2.413268
3189.000000;2.479343
3188.000000;2.468874
3187.000000;2.546458
3186.000000;2.713681
3185.000000;2.718151
3184.000000;2.581549
3183.000000;2.533165
3182.000000;2.549467
3181.000000;2.538789
3180.000000;2.476938
3179.000000;2.435675
3178.000000;2.482471
3177.000000;2.628733
3176.000000;2.638028
3175.000000;2.457578
3174.000000;2.351041
3173.000000;2.327408
3172.000000;2.369385
3171.000000;2.458423
3170.000000;2.724133
3169.000000;3.288962
3168.000000;2.800906
3167.000000;2.618527
3166.000000;2.616300
3165.000000;2.687159
3164.000000;2.901366
3163.000000;3.084484
3162.000000;2.888750
3161.000000;2.674291
3160.000000;2.579155
3159.000000;2.550735
3158.000000;2.566978
3157.000000;2.685735
3156.000000;2.757530
3155.000000;2.642577
3154.000000;2.580842
3153.000000;2.617188
3152.000000;2.689494
3151.000000;2.677743
3150.000000;2.610158
3149.000000;2.627907
3148.000000;2.733749
3147.000000;2.815270
3146.000000;2.782166
3145.000000;2.701425
3144.000000;2.622699
3143.000000;2.502446
3142.000000;2.421954
3141.000000;2.445373
3140.000000;2.509773
3139.000000;2.534600
3138.000000;2.531047
3137.000000;2.535616
3136.000000;2.726969
3135.000000;2.851344
3134.000000;2.541656
3133.000000;2.440274
3132.000000;2.692634
3131.000000;2.896056
3130.000000;2.523684
3129.000000;2.380806
3128.000000;2.402245
3127.000000;2.512283
3126.000000;2.628442
3125.000000;2.611132
3124.000000;2.533239
3123.000000;2.526902
3122.000000;2.724631
3121.000000;3.385671
3120.000000;2.826604
3119.000000;2.524026
3118.000000;2.420587
3117.000000;2.466371
3116.000000;2.692889
3115.000000;2.839280
3114.000000;2.692343
3113.000000;2.608892
3112.000000;2.466115
3111.000000;2.293250
3110.000000;2.155090
3109.000000;2.080864
3108.000000;2.100828
3107.000000;2.237524
3106.000000;2.442254
3105.000000;2.487644
3104.000000;2.440367
3103.000000;2.470539
3102.000000;2.612376
3101.000000;2.885113
3100.000000;3.204676
3099.000000;3.754908
3098.000000;3.924045
3097.000000;3.465066
3096.000000;2.934993
3095.000000;2.750838
3094.000000;2.760100
3093.000000;2.763966
3092.000000;2.651709
3091.000000;2.543736
3090.000000;2.464073
3089.000000;2.418518
3088.000000;2.422903
3087.000000;2.483751
3086.000000;2.601534
3085.000000;2.683566
3084.000000;2.641632
3083.000000;2.634457
3082.000000;2.718737
3081.000000;2.793278
3080.000000;2.812913
3079.000000;3.003825
3078.000000;3.510523
3077.000000;3.174151
3076.000000;2.913040
3075.000000;2.751845
3074.000000;2.575488
3073.000000;2.454872
3072.000000;2.411637
3071.000000;2.471124
3070.000000;2.666224
3069.000000;3.150920
3068.000000;3.119048
3067.000000;2.898236
3066.000000;3.020224
3065.000000;3.159326
3064.000000;2.916370
3063.000000;2.872777
3062.000000;2.911597
3061.000000;2.892329
3060.000000;2.795940
3059.000000;2.997030
3058.000000;3.377334
3057.000000;2.757715
3056.000000;2.588603
3055.000000;2.523035
3054.000000;2.439919
3053.000000;2.358700
3052.000000;2.300459
3051.000000;2.282998
3050.000000;2.335364
3049.000000;2.462781
3048.000000;2.613581
3047.000000;2.903642
3046.000000;2.919853
3045.000000;2.579569
3044.000000;2.489233
3043.000000;2.557862
3042.000000;2.546023
3041.000000;2.470292
3040.000000;2.488166
3039.000000;2.678940
3038.000000;3.207817
3037.000000;3.458247
3036.000000;3.540920
3035.000000;3.047488
3034.000000;2.772751
3033.000000;2.687923
3032.000000;2.547240
3031.000000;2.417686
3030.000000;2.404330
3029.000000;2.552805
3028.000000;2.829255
3027.000000;2.718546
3026.000000;2.556478
3025.000000;2.536375
3024.000000;2.436240
3023.000000;2.325602
3022.000000;2.293324
3021.000000;2.310150
3020.000000;2.327075
3019.000000;2.360408
3018.000000;2.454212
3017.000000;2.618042
3016.000000;2.831866
3015.000000;3.034336
3014.000000;3.080891
3013.000000;2.960382
3012.000000;2.903512
3011.000000;3.091580
3010.000000;2.743144
3009.000000;2.364982
3008.000000;2.223133
3007.000000;2.226047
3006.000000;2.342590
3005.000000;2.515401
3004.000000;2.601094
3003.000000;2.514732
3002.000000;2.402978
3001.000000;2.367893
3000.000000;2.403064
2999.000000;2.427331
2998.000000;2.399289
2997.000000;2.392316
2996.000000;2.483279
2995.000000;2.729631
2994.000000;3.436180
2993.000000;3.190960
2992.000000;2.954249
2991.000000;2.941000
2990.000000;2.840993
2989.000000;2.636497
2988.000000;2.416511
2987.000000;2.293645
2986.000000;2.259337
2985.000000;2.251912
2984.000000;2.242826
2983.000000;2.268679
2982.000000;2.367168
2981.000000;2.538718
2980.000000;2.740999
2979.000000;2.984565
2978.000000;3.226745
2977.000000;3.510834
2976.000000;3.306835
2975.000000;2.976429
2974.000000;3.030472
2973.000000;2.811618
2972.000000;2.547570
2971.000000;2.505829
2970.000000;2.612032
2969.000000;3.315443
2968.000000;2.875393
2967.000000;2.511142
2966.000000;2.507187
2965.000000;2.597271
2964.000000;2.531595
2963.000000;2.426619
2962.000000;2.447345
2961.000000;2.573531
2960.000000;2.814205
2959.000000;3.291781
2958.000000;3.693544
2957.000000;3.249465
2956.000000;2.992319
2955.000000;2.770187
2954.000000;2.613878
2953.000000;2.500173
2952.000000;2.415881
2951.000000;2.391716
2950.000000;2.422029
2949.000000;2.698049
2948.000000;3.058721
2947.000000;2.530694
2946.000000;2.384725
2945.000000;2.485235
2944.000000;2.619414
2943.000000;2.546397
2942.000000;2.509251
2941.000000;2.535654
2940.000000;2.507802
2939.000000;2.435475
2938.000000;2.369790
2937.000000;2.318136
2936.000000;2.281496
2935.000000;2.270896
2934.000000;2.296972
2933.000000;2.369224
2932.000000;2.467076
2931.000000;2.521483
2930.000000;2.553823
2929.000000;2.589092
2928.000000;2.576510
2927.000000;2.591053
2926.000000;2.651695
2925.000000;2.672999
2924.000000;2.641594
2923.000000;2.574389
2922.000000;2.562709
2921.000000;2.657907
2920.000000;2.961807
2919.000000;3.199379
2918.000000;2.873183
2917.000000;2.764448
2916.000000;2.848831
2915.000000;2.674996
2914.000000;2.423681
2913.000000;2.309534
2912.000000;2.288933
2911.000000;2.342607
2910.000000;2.448687
2909.000000;2.560948
2908.000000;2.643227
2907.000000;2.738336
2906.000000;2.857935
2905.000000;2.964062
2904.000000;2.899507
2903.000000;2.560702
2902.000000;2.366160
2901.000000;2.290947
2900.000000;2.312697
2899.000000;2.438296
2898.000000;2.673347
2897.000000;3.005214
2896.000000;3.070271
2895.000000;2.841328
2894.000000;2.799921
2893.000000;3.252806
2892.000000;2.912773
2891.000000;2.504387
2890.000000;2.492031
2889.000000;2.655923
2888.000000;2.858086
2887.000000;2.985193
2886.000000;3.459864
2885.000000;2.962136
2884.000000;2.852927
2883.000000;3.117525
2882.000000;3.478053
2881.000000;3.131801
2880.000000;2.713349
2879.000000;2.477404
2878.000000;2.359589
2877.000000;2.330301
2876.000000;2.383912
2875.000000;2.516399
2874.000000;2.694147
2873.000000;2.804752
2872.000000;3.093513
2871.000000;3.383449
2870.000000;2.709571
2869.000000;2.571661
2868.000000;2.591282
2867.000000;2.677961
2866.000000;2.597467
2865.000000;2.425816
2864.000000;2.333811
2863.000000;2.368623
2862.000000;2.517616
2861.000000;2.709983
2860.000000;2.840753
2859.000000;2.786558
2858.000000;2.631735
2857.000000;2.602689
2856.000000;2.808346
2855.000000;2.747791
2854.000000;2.669243
2853.000000;2.879350
2852.000000;2.733708
2851.000000;2.691588
2850.000000;3.177919
2849.000000;2.700014
2848.000000;2.430004
2847.000000;2.398253
2846.000000;2.499020
2845.000000;2.623283
2844.000000;2.653867
2843.000000;2.648560
2842.000000;2.692987
2841.000000;2.777727
2840.000000;2.772485
2839.000000;2.707362
2838.000000;2.695517
2837.000000;2.711152
2836.000000;2.684930
2835.000000;2.623752
2834.000000;2.594091
2833.000000;2.657288
2832.000000;2.857422
2831.000000;3.499048
2830.000000;3.328930
2829.000000;3.058372
2828.000000;2.925685
2827.000000;2.925244
2826.000000;3.136672
2825.000000;3.865639
2824.000000;3.131677
2823.000000;3.237331
2822.000000;3.322289
2821.000000;2.782187
2820.000000;2.698295
2819.000000;2.829307
2818.000000;3.262037
2817.000000;2.976027
2816.000000;2.577098
2815.000000;2.442326
2814.000000;2.447590
2813.000000;2.619460
2812.000000;2.665306
2811.000000;2.473947
2810.000000;2.425113
2809.000000;2.501544
2808.000000;2.849189
2807.000000;2.877557
2806.000000;2.553256
2805.000000;2.484993
2804.000000;2.690917
2803.000000;2.532476
2802.000000;2.233954
2801.000000;2.103614
2800.000000;2.069609
2799.000000;2.099824
2798.000000;2.195620
2797.000000;2.385568
2796.000000;2.685214
2795.000000;2.809386
2794.000000;2.760305
2793.000000;2.780634
2792.000000;2.788423
2791.000000;2.771999
2790.000000;2.760273
2789.000000;2.753145
2788.000000;2.655949
2787.000000;2.501621
2786.000000;2.435088
2785.000000;2.469215
2784.000000;2.555121
2783.000000;2.660804
2782.000000;2.733012
2781.000000;2.623667
2780.000000;2.544790
2779.000000;2.645596
2778.000000;2.997467
2777.000000;2.785454
2776.000000;2.567200
2775.000000;2.498263
2774.000000;2.439263
2773.000000;2.433293
2772.000000;2.541286
2771.000000;2.702050
2770.000000;2.701940
2769.000000;2.755941
2768.000000;2.782143
2767.000000;2.570140
2766.000000;2.392891
2765.000000;2.296441
2764.000000;2.316420
2763.000000;2.500969
2762.000000;2.976949
2761.000000;2.994236
2760.000000;2.718225
2759.000000;2.829562
2758.000000;2.864444
2757.000000;2.763688
2756.000000;2.740375
2755.000000;2.757631
2754.000000;2.686620
2753.000000;2.586056
2752.000000;2.538171
2751.000000;2.562101
2750.000000;2.620810
2749.000000;2.608405
2748.000000;2.526897
2747.000000;2.455726
2746.000000;2.450597
2745.000000;2.554717
2744.000000;2.739857
2743.000000;2.605112
2742.000000;2.441214
2741.000000;2.424269
2740.000000;2.542389
2739.000000;2.662907
2738.000000;2.616374
2737.000000;2.577726
2736.000000;2.533685
2735.000000;2.485034
2734.000000;2.430819
2733.000000;2.384291
2732.000000;2.420395
2731.000000;2.554444
2730.000000;2.511961
2729.000000;2.380482
2728.000000;2.405857
2727.000000;2.570881
2726.000000;2.735576
2725.000000;2.809511
2724.000000;2.828512
2723.000000;2.884451
2722.000000;2.975166
2721.000000;3.024211
2720.000000;3.338907
2719.000000;2.872617
2718.000000;2.743711
2717.000000;2.805265
2716.000000;2.763453
2715.000000;2.628075
2714.000000;2.488727
2713.000000;2.371882
2712.000000;2.330879
2711.000000;2.396802
2710.000000;2.520382
2709.000000;2.445337
2708.000000;2.282936
2707.000000;2.240081
2706.000000;2.301251
2705.000000;2.421468
2704.000000;2.535673
2703.000000;2.622018
2702.000000;2.679296
2701.000000;2.640786
2700.000000;2.516156
2699.000000;2.444306
2698.000000;2.502609
2697.000000;2.698446
2696.000000;2.799678
2695.000000;2.786170
2694.000000;2.869941
2693.000000;3.267169
2692.000000;2.808305
2691.000000;2.598433
2690.000000;2.615753
2689.000000;2.706281
2688.000000;2.711079
2687.000000;2.600394
2686.000000;2.561596
2685.000000;2.641334
2684.000000;2.715794
2683.000000;2.654613
2682.000000;2.491578
2681.000000;2.357600
2680.000000;2.325774
2679.000000;2.390570
2678.000000;2.581824
2677.000000;2.950634
2676.000000;2.893861
2675.000000;2.747388
2674.000000;3.375864
2673.000000;3.289704
2672.000000;3.030268
2671.000000;2.807779
2670.000000;2.490197
2669.000000;2.373104
2668.000000;2.398720
2667.000000;2.573732
2666.000000;3.127519
2665.000000;3.075019
2664.000000;3.027060
2663.000000;3.393080
2662.000000;2.632406
2661.000000;2.430487
2660.000000;2.408158
2659.000000;2.527209
2658.000000;2.518376
2657.000000;2.309456
2656.000000;2.238687
2655.000000;2.288725
2654.000000;2.399967
2653.000000;2.519033
2652.000000;2.673016
2651.000000;2.930659
2650.000000;2.962047
2649.000000;2.675884
2648.000000;2.518801
2647.000000;2.475407
2646.000000;2.488033
2645.000000;2.539625
2644.000000;2.697452
2643.000000;2.927618
2642.000000;2.725760
2641.000000;2.513388
2640.000000;2.413282
2639.000000;2.384659
2638.000000;2.404907
2637.000000;2.399844
2636.000000;2.387940
2635.000000;2.451615
2634.000000;2.656065
2633.000000;2.826714
2632.000000;2.532372
2631.000000;2.347614
2630.000000;2.256441
2629.000000;2.236950
2628.000000;2.311967
2627.000000;2.521686
2626.000000;2.945931
2625.000000;2.968088
2624.000000;2.691828
2623.000000;2.663952
2622.000000;2.755510
2621.000000;3.207917
2620.000000;2.696431
2619.000000;2.354603
2618.000000;2.310064
2617.000000;2.393024
2616.000000;2.485979
2615.000000;2.467746
2614.000000;2.420329
2613.000000;2.333570
2612.000000;2.246040
2611.000000;2.235425
2610.000000;2.349018
2609.000000;2.655378
2608.000000;2.910670
2607.000000;2.809545
2606.000000;2.922725
2605.000000;2.875478
2604.000000;2.905828
2603.000000;3.050642
2602.000000;2.771038
2601.000000;2.542493
2600.000000;2.410591
2599.000000;2.332916
2598.000000;2.294008
2597.000000;2.285869
2596.000000;2.316491
2595.000000;2.401790
2594.000000;2.520993
2593.000000;2.534611
2592.000000;2.495638
2591.000000;2.558319
2590.000000;2.648602
2589.000000;2.592919
2588.000000;2.514672
2587.000000;2.541509
2586.000000;2.809913
2585.000000;3.141189
2584.000000;2.719056
2583.000000;2.607963
2582.000000;2.541148
2581.000000;2.444497
2580.000000;2.417103
2579.000000;2.455381
2578.000000;2.488498
2577.000000;2.450557
2576.000000;2.385249
2575.000000;2.365126
2574.000000;2.439827
2573.000000;2.589029
2572.000000;2.653812
2571.000000;2.639527
2570.000000;2.673131
2569.000000;2.730252
2568.000000;2.794196
2567.000000;2.791612
2566.000000;2.599576
2565.000000;2.395032
2564.000000;2.308106
2563.000000;2.359314
2562.000000;2.588859
2561.000000;2.708391
2560.000000;2.504361
2559.000000;2.395994
2558.000000;2.400192
2557.000000;2.513240
2556.000000;2.834504
2555.000000;3.382824
2554.000000;2.941588
2553.000000;2.909638
2552.000000;3.071728
2551.000000;3.453822
2550.000000;3.841738
2549.000000;2.987513
2548.000000;2.741468
2547.000000;2.606836
2546.000000;2.533122
2545.000000;2.503913
2544.000000;2.502213
2543.000000;2.512958
2542.000000;2.520526
2541.000000;2.524151
2540.000000;2.527501
2539.000000;2.501700
2538.000000;2.408211
2537.000000;2.351524
2536.000000;2.408761
2535.000000;2.653780
2534.000000;3.351326
2533.000000;2.813299
2532.000000;2.615280
2531.000000;2.599397
2530.000000;2.542395
2529.000000;2.555787
2528.000000;2.633271
2527.000000;2.777870
2526.000000;2.770742
2525.000000;2.495948
2524.000000;2.380367
2523.000000;2.427341
2522.000000;2.681965
2521.000000;2.918104
2520.000000;2.664495
2519.000000;2.614350
2518.000000;2.786489
2517.000000;2.778412
2516.000000;2.499029
2515.000000;2.355663
2514.000000;2.314271
2513.000000;2.351063
2512.000000;2.449049
2511.000000;2.585016
2510.000000;2.692814
2509.000000;2.701518
2508.000000;2.654181
2507.000000;2.515258
2506.000000;2.393023
2505.000000;2.375551
2504.000000;2.442775
2503.000000;2.558774
2502.000000;2.702417
2501.000000;2.796827
2500.000000;2.758069
2499.000000;2.569864
2498.000000;2.378068
2497.000000;2.303694
2496.000000;2.409503
2495.000000;2.832218
2494.000000;3.576447
2493.000000;3.179244
2492.000000;2.644187
2491.000000;2.306919
2490.000000;2.208536
2489.000000;2.243448
2488.000000;2.404161
2487.000000;2.671805
2486.000000;2.771954
2485.000000;2.773902
2484.000000;2.959633
2483.000000;2.986698
2482.000000;2.818805
2481.000000;2.744550
2480.000000;2.781784
2479.000000;2.919073
2478.000000;2.982267
2477.000000;2.991851
2476.000000;3.130476
2475.000000;3.130106
2474.000000;2.896677
2473.000000;2.775675
2472.000000;2.673473
2471.000000;2.477659
2470.000000;2.343725
2469.000000;2.321772
2468.000000;2.354723
2467.000000;2.385292
2466.000000;2.385289
2465.000000;2.365121
2464.000000;2.371563
2463.000000;2.476537
2462.000000;2.764740
2461.000000;2.677661
2460.000000;2.405718
2459.000000;2.361688
2458.000000;2.432453
2457.000000;2.545814
2456.000000;2.690877
2455.000000;2.864082
2454.000000;2.881413
2453.000000;2.793034
2452.000000;2.737996
2451.000000;2.634763
2450.000000;2.467558
2449.000000;2.359088
2448.000000;2.359664
2447.000000;2.424030
2446.000000;2.451376
2445.000000;2.429618
2444.000000;2.424323
2443.000000;2.491885
2442.000000;2.717266
2441.000000;3.137805
2440.000000;3.087491
2439.000000;2.925586
2438.000000;3.149479
2437.000000;3.070562
2436.000000;2.678677
2435.000000;2.520047
2434.000000;2.474193
2433.000000;2.520263
2432.000000;2.668151
2431.000000;2.785865
2430.000000;2.704945
2429.000000;2.686693
2428.000000;3.034681
2427.000000;3.152553
2426.000000;2.738906
2425.000000;2.569199
2424.000000;2.401869
2423.000000;2.257076
2422.000000;2.212628
2421.000000;2.269031
2420.000000;2.458437
2419.000000;2.784807
2418.000000;2.760777
2417.000000;2.675200
2416.000000;2.806487
2415.000000;2.807456
2414.000000;2.706437
2413.000000;2.676486
2412.000000;2.708026
2411.000000;2.887500
2410.000000;2.933002
2409.000000;2.756575
2408.000000;2.836797
2407.000000;3.276063
2406.000000;3.292455
2405.000000;3.285783
2404.000000;3.189095
2403.000000;3.020027
2402.000000;2.692197
2401.000000;2.380416
2400.000000;2.292017
2399.000000;2.404568
2398.000000;2.649507
2397.000000;2.635123
2396.000000;2.567143
2395.000000;2.672859
2394.000000;2.715066
2393.000000;2.525337
2392.000000;2.364609
2391.000000;2.316085
2390.000000;2.382184
2389.000000;2.634302
2388.000000;2.911021
2387.000000;2.703175
2386.000000;2.608744
2385.000000;2.616053
2384.000000;2.653641
2383.000000;2.842165
2382.000000;2.987519
2381.000000;2.775627
2380.000000;2.698820
2379.000000;2.810403
2378.000000;3.068221
2377.000000;3.603533
2376.000000;3.092278
2375.000000;2.717565
2374.000000;2.613387
2373.000000;2.661377
2372.000000;2.849757
2371.000000;2.949898
2370.000000;2.820232
2369.000000;2.836844
2368.000000;2.988527
2367.000000;2.930022
2366.000000;2.816423
2365.000000;2.796614
2364.000000;2.869245
2363.000000;3.243703
2362.000000;3.435190
2361.000000;2.920991
2360.000000;2.824878
2359.000000;2.870069
2358.000000;3.019038
2357.000000;3.304506
2356.000000;3.354888
2355.000000;3.158052
2354.000000;3.124266
2353.000000;3.192776
2352.000000;3.221234
2351.000000;3.235098
2350.000000;3.126729
2349.000000;2.953608
2348.000000;2.890492
2347.000000;3.020575
2346.000000;3.302713
2345.000000;3.416643
2344.000000;3.128273
2343.000000;2.937884
2342.000000;2.812936
2341.000000;2.949971
2340.000000;3.553223
2339.000000;2.931365
2338.000000;2.724862
2337.000000;2.813784
2336.000000;2.970635
2335.000000;3.155476
2334.000000;3.286705
2333.000000;3.075043
2332.000000;2.928234
2331.000000;3.274540
2330.000000;3.306972
2329.000000;2.834648
2328.000000;2.745863
2327.000000;2.826352
2326.000000;3.021672
2325.000000;3.131111
2324.000000;3.008994
2323.000000;2.927324
2322.000000;2.876795
2321.000000;2.885043
2320.000000;2.986010
2319.000000;3.094763
2318.000000;2.985666
2317.000000;2.633901
2316.000000;2.402013
2315.000000;2.340366
2314.000000;2.406301
2313.000000;2.557147
2312.000000;2.764105
2311.000000;3.036717
2310.000000;3.021897
2309.000000;2.790502
2308.000000;2.699238
2307.000000;2.682701
2306.000000;2.661102
2305.000000;2.615361
2304.000000;2.576721
2303.000000;2.574728
2302.000000;2.611359
2301.000000;2.743360
2300.000000;3.009542
2299.000000;2.888429
2298.000000;2.648408
2297.000000;2.565420
2296.000000;2.513080
2295.000000;2.477944
2294.000000;2.467693
2293.000000;2.478900
2292.000000;2.515814
2291.000000;2.585439
2290.000000;2.693905
2289.000000;2.903448
2288.000000;2.928121
2287.000000;2.629198
2286.000000;2.508566
2285.000000;2.558523
2284.000000;2.784828
2283.000000;2.875859
2282.000000;2.620362
2281.000000;2.544202
2280.000000;2.618628
2279.000000;2.811280
2278.000000;3.240091
2277.000000;3.776394
2276.000000;3.176260
2275.000000;2.798461
2274.000000;2.631862
2273.000000;2.579531
2272.000000;2.627891
2271.000000;2.808249
2270.000000;2.968764
2269.000000;2.851423
2268.000000;2.651284
2267.000000;2.509268
2266.000000;2.536854
2265.000000;2.786103
2264.000000;3.002384
2263.000000;2.853942
2262.000000;2.620659
2261.000000;2.409698
2260.000000;2.296045
2259.000000;2.287209
2258.000000;2.389490
2257.000000;2.604616
2256.000000;2.875708
2255.000000;3.310734
2254.000000;3.241381
2253.000000;2.990176
2252.000000;3.007129
2251.000000;2.768560
2250.000000;2.644612
2249.000000;2.721753
2248.000000;2.819252
2247.000000;2.920324
2246.000000;3.077381
2245.000000;2.981822
2244.000000;2.770031
2243.000000;2.670581
2242.000000;2.764561
2241.000000;2.929909
2240.000000;2.705242
2239.000000;2.577418
2238.000000;2.619124
2237.000000;2.690420
2236.000000;2.752100
2235.000000;2.924702
2234.000000;3.304695
2233.000000;3.117963
2232.000000;2.796897
2231.000000;2.646726
2230.000000;2.635659
2229.000000;2.703253
2228.000000;2.653552
2227.000000;2.446129
2226.000000;2.258357
2225.000000;2.168528
2224.000000;2.173385
2223.000000;2.246282
2222.000000;2.346213
2221.000000;2.441577
2220.000000;2.513112
2219.000000;2.577389
2218.000000;2.667358
2217.000000;2.785988
2216.000000;2.877059
2215.000000;2.989122
2214.000000;3.165556
2213.000000;3.121613
2212.000000;3.019041
2211.000000;3.072923
2210.000000;2.840690
2209.000000;2.901539
2208.000000;3.538688
2207.000000;3.242962
2206.000000;3.248233
2205.000000;2.859829
2204.000000;2.572773
2203.000000;2.506953
2202.000000;2.484078
2201.000000;2.495256
2200.000000;2.495776
2199.000000;2.464809
2198.000000;2.428401
2197.000000;2.586766
2196.000000;2.798006
2195.000000;2.537816
2194.000000;2.391169
2193.000000;2.458177
2192.000000;2.808690
2191.000000;3.337182
2190.000000;3.111015
2189.000000;2.903510
2188.000000;2.629821
2187.000000;2.513514
2186.000000;2.659948
2185.000000;2.735549
2184.000000;2.428396
2183.000000;2.258771
2182.000000;2.237111
2181.000000;2.307070
2180.000000;2.463435
2179.000000;2.634970
2178.000000;2.711145
2177.000000;2.674252
2176.000000;2.648511
2175.000000;2.682197
2174.000000;3.046395
2173.000000;3.393268
2172.000000;2.871339
2171.000000;2.916444
2170.000000;2.900310
2169.000000;2.702962
2168.000000;2.656135
2167.000000;2.722786
2166.000000;2.894330
2165.000000;3.008063
2164.000000;2.989129
2163.000000;2.911528
2162.000000;2.786811
2161.000000;2.653441
2160.000000;2.563790
2159.000000;2.506370
2158.000000;2.494998
2157.000000;2.507825
2156.000000;2.562783
2155.000000;2.678098
2154.000000;2.794092
2153.000000;2.923236
2152.000000;2.931507
2151.000000;3.046574
2150.000000;3.285521
2149.000000;2.936368
2148.000000;2.708502
2147.000000;2.664434
2146.000000;2.823034
2145.000000;3.021819
2144.000000;2.704147
2143.000000;2.438883
2142.000000;2.336123
2141.000000;2.354126
2140.000000;2.631934
2139.000000;3.085283
2138.000000;2.747630
2137.000000;2.671996
2136.000000;2.972484
2135.000000;3.258300
2134.000000;2.997549
2133.000000;2.692084
2132.000000;2.729182
2131.000000;3.037920
2130.000000;3.118584
2129.000000;3.523400
2128.000000;3.004305
2127.000000;2.590138
2126.000000;2.458454
2125.000000;2.411744
2124.000000;2.457820
2123.000000;2.556483
2122.000000;2.593087
2121.000000;2.515584
2120.000000;2.489623
2119.000000;2.565220
2118.000000;2.748665
2117.000000;3.265082
2116.000000;3.298894
2115.000000;2.758894
2114.000000;2.551950
2113.000000;2.418443
2112.000000;2.347692
2111.000000;2.317405
2110.000000;2.311216
2109.000000;2.354181
2108.000000;2.458506
2107.000000;2.667664
2106.000000;2.833520
2105.000000;2.815944
2104.000000;2.745860
2103.000000;2.826888
2102.000000;2.944101
2101.000000;2.582625
2100.000000;2.368015
2099.000000;2.373767
2098.000000;2.502468
2097.000000;2.839375
2096.000000;3.227434
2095.000000;2.784144
2094.000000;2.626658
2093.000000;2.674193
2092.000000;2.935440
2091.000000;2.939288
2090.000000;2.563152
2089.000000;2.430784
2088.000000;2.399952
2087.000000;2.431064
2086.000000;2.471997
2085.000000;2.460670
2084.000000;2.440911
2083.000000;2.448941
2082.000000;2.491236
2081.000000;2.555545
2080.000000;2.618091
2079.000000;2.641017
2078.000000;2.624115
2077.000000;2.613372
2076.000000;2.629075
2075.000000;2.638788
2074.000000;2.674934
2073.000000;2.850807
2072.000000;3.114540
2071.000000;3.191932
2070.000000;3.002002
2069.000000;2.787617
2068.000000;2.740526
2067.000000;3.050254
2066.000000;3.239377
2065.000000;2.812351
2064.000000;2.743939
2063.000000;2.740600
2062.000000;2.699068
2061.000000;2.708555
2060.000000;3.094384
2059.000000;3.294566
2058.000000;2.611607
2057.000000;2.401905
2056.000000;2.278233
2055.000000;2.218910
2054.000000;2.226978
2053.000000;2.337099
2052.000000;2.737797
2051.000000;2.776986
2050.000000;2.453022
2049.000000;2.410288
2048.000000;2.533405
2047.000000;2.660201
2046.000000;2.582852
2045.000000;2.525035
2044.000000;2.513482
2043.000000;2.488899
2042.000000;2.517592
2041.000000;2.655004
2040.000000;2.922613
2039.000000;3.061875
2038.000000;2.945152
2037.000000;2.844042
2036.000000;2.819703
2035.000000;2.829523
2034.000000;2.707561
2033.000000;2.544145
2032.000000;2.478551
2031.000000;2.511721
2030.000000;2.577848
2029.000000;2.836179
2028.000000;3.137401
2027.000000;2.651622
2026.000000;2.428086
2025.000000;2.420649
2024.000000;2.458284
2023.000000;2.366185
2022.000000;2.266122
2021.000000;2.293128
2020.000000;2.442943
2019.000000;2.642423
2018.000000;2.668102
2017.000000;2.642118
2016.000000;2.612962
2015.000000;2.489903
2014.000000;2.412908
2013.000000;2.477477
2012.000000;2.628224
2011.000000;2.771659
2010.000000;3.130245
2009.000000;2.882873
2008.000000;2.478180
2007.000000;2.367010
2006.000000;2.365507
2005.000000;2.459917
2004.000000;2.715578
2003.000000;3.066806
2002.000000;2.866043
2001.000000;2.687818
2000.000000;2.689987
1999.000000;2.793191
1998.000000;3.093070
1997.000000;3.022764
1996.000000;2.782251
1995.000000;2.790461
1994.000000;2.853901
1993.000000;2.990149
1992.000000;3.104359
1991.000000;2.686128
1990.000000;2.455771
1989.000000;2.417782
1988.000000;2.499753
1987.000000;2.661016
1986.000000;2.774576
1985.000000;2.790451
1984.000000;2.661266
1983.000000;2.453422
1982.000000;2.323551
1981.000000;2.299691
1980.000000;2.365206
1979.000000;2.567506
1978.000000;2.739326
1977.000000;2.548808
1976.000000;2.404073
1975.000000;2.379427
1974.000000;2.421027
1973.000000;2.564177
1972.000000;2.689282
1971.000000;2.700288
1970.000000;2.737695
1969.000000;2.974433
1968.000000;3.559876
1967.000000;2.892650
1966.000000;2.587015
1965.000000;2.523774
1964.000000;2.556702
1963.000000;2.632601
1962.000000;2.681476
1961.000000;2.798532
1960.000000;2.754906
1959.000000;2.506634
1958.000000;2.374961
1957.000000;2.351403
1956.000000;2.393562
1955.000000;2.468778
1954.000000;2.583372
1953.000000;2.884822
1952.000000;3.006071
1951.000000;2.756930
1950.000000;2.685529
1949.000000;2.916580
1948.000000;2.874818
1947.000000;2.532081
1946.000000;2.391788
1945.000000;2.502778
1944.000000;3.318402
1943.000000;2.852636
1942.000000;2.468473
1941.000000;2.373630
1940.000000;2.264459
1939.000000;2.225734
1938.000000;2.255045
1937.000000;2.319280
1936.000000;2.343829
1935.000000;2.356152
1934.000000;2.370686
1933.000000;2.368591
1932.000000;2.406331
1931.000000;2.538216
1930.000000;2.610661
1929.000000;2.535016
1928.000000;2.511757
1927.000000;2.514495
1926.000000;2.446780
1925.000000;2.312984
1924.000000;2.222523
1923.000000;2.236775
1922.000000;2.406115
1921.000000;2.700474
1920.000000;2.641363
1919.000000;2.540792
1918.000000;2.612487
1917.000000;2.579871
1916.000000;2.464083
1915.000000;2.413897
1914.000000;2.353710
1913.000000;2.311832
1912.000000;2.356790
1911.000000;2.601608
1910.000000;3.117638
1909.000000;2.770339
1908.000000;2.664836
1907.000000;2.925776
1906.000000;2.844797
1905.000000;2.577244
1904.000000;2.580185
1903.000000;2.963570
1902.000000;3.351203
1901.000000;2.918605
1900.000000;3.091005
1899.000000;3.526797
1898.000000;3.265393
1897.000000;3.064200
1896.000000;2.943747
1895.000000;2.895995
1894.000000;2.945823
1893.000000;2.953998
1892.000000;2.738995
1891.000000;2.576794
1890.000000;2.509510
1889.000000;2.464598
1888.000000;2.410014
1887.000000;2.365200
1886.000000;2.374057
1885.000000;2.439501
1884.000000;2.589069
1883.000000;2.736770
1882.000000;2.554242
1881.000000;2.410582
1880.000000;2.432363
1879.000000;2.772630
1878.000000;2.949237
1877.000000;2.467562
1876.000000;2.430379
1875.000000;2.730916
1874.000000;3.084221
1873.000000;2.730984
1872.000000;2.674820
1871.000000;2.931289
1870.000000;3.043221
1869.000000;2.742753
1868.000000;2.653679
1867.000000;2.809790
1866.000000;3.152601
1865.000000;3.259276
1864.000000;3.201366
1863.000000;3.180586
1862.000000;2.863835
1861.000000;2.645558
1860.000000;2.598219
1859.000000;2.678151
1858.000000;2.660184
1857.000000;2.555758
1856.000000;2.561679
1855.000000;2.670896
1854.000000;2.787861
1853.000000;2.743104
1852.000000;2.592087
1851.000000;2.526095
1850.000000;2.590481
1849.000000;2.650962
1848.000000;2.581306
1847.000000;2.486684
1846.000000;2.383172
1845.000000;2.306471
1844.000000;2.309725
1843.000000;2.401363
1842.000000;2.514985
1841.000000;2.561229
1840.000000;2.664432
1839.000000;2.742813
1838.000000;2.605110
1837.000000;2.508355
1836.000000;2.603504
1835.000000;3.103642
1834.000000;3.084912
1833.000000;2.783941
1832.000000;2.723983
1831.000000;2.606739
1830.000000;2.519132
1829.000000;2.505448
1828.000000;2.513480
1827.000000;2.430277
1826.000000;2.285368
1825.000000;2.203567
1824.000000;2.232468
1823.000000;2.452969
1822.000000;2.727143
1821.000000;2.549247
1820.000000;2.442136
1819.000000;2.445443
1818.000000;2.459415
1817.000000;2.446124
1816.000000;2.398778
1815.000000;2.377827
1814.000000;2.420314
1813.000000;2.575370
1812.000000;3.012247
1811.000000;3.318270
1810.000000;2.890173
1809.000000;2.803650
1808.000000;2.907580
1807.000000;2.591801
1806.000000;2.320204
1805.000000;2.234023
1804.000000;2.256801
1803.000000;2.333676
1802.000000;2.415120
1801.000000;2.496694
1800.000000;2.596360
1799.000000;2.690426
1798.000000;2.899419
1797.000000;2.981282
1796.000000;2.598076
1795.000000;2.429431
1794.000000;2.424057
1793.000000;2.531947
1792.000000;2.684768
1791.000000;2.733165
1790.000000;2.635618
1789.000000;2.523726
1788.000000;2.441980
1787.000000;2.340624
1786.000000;2.247626
1785.000000;2.218697
1784.000000;2.252092
1783.000000;2.298152
1782.000000;2.352223
1781.000000;2.479247
1780.000000;2.584739
1779.000000;2.471478
1778.000000;2.413781
1777.000000;2.521238
1776.000000;2.821775
1775.000000;3.115099
1774.000000;3.092996
1773.000000;3.106795
1772.000000;2.756068
1771.000000;2.565794
1770.000000;2.589802
1769.000000;2.877059
1768.000000;2.834514
1767.000000;2.511358
1766.000000;2.478671
1765.000000;2.586346
1764.000000;2.684865
1763.000000;2.656913
1762.000000;2.598151
1761.000000;2.557668
1760.000000;2.520473
1759.000000;2.506199
1758.000000;2.531255
1757.000000;2.630204
1756.000000;2.865977
1755.000000;2.728738
1754.000000;2.520449
1753.000000;2.516322
1752.000000;2.585612
1751.000000;2.620119
1750.000000;2.728707
1749.000000;2.976934
1748.000000;2.920873
1747.000000;2.870019
1746.000000;2.798464
1745.000000;2.599124
1744.000000;2.490377
1743.000000;2.462681
1742.000000;2.480026
1741.000000;2.545851
1740.000000;2.636444
1739.000000;3.031921
1738.000000;3.304989
1737.000000;2.676461
1736.000000;2.545806
1735.000000;2.532939
1734.000000;2.554501
1733.000000;2.520513
1732.000000;2.496323
1731.000000;2.612850
1730.000000;2.779914
1729.000000;2.888025
1728.000000;3.059036
1727.000000;2.820275
1726.000000;2.585281
1725.000000;2.484298
1724.000000;2.433507
1723.000000;2.439708
1722.000000;2.444952
1721.000000;2.413109
1720.000000;2.437392
1719.000000;2.678643
1718.000000;3.311339
1717.000000;2.888177
1716.000000;2.630658
1715.000000;2.529533
1714.000000;2.569434
1713.000000;2.745080
1712.000000;2.898810
1711.000000;2.836377
1710.000000;2.745902
1709.000000;2.636269
1708.000000;2.448920
1707.000000;2.299625
1706.000000;2.228305
1705.000000;2.242758
1704.000000;2.365807
1703.000000;2.640301
1702.000000;2.615354
1701.000000;2.421354
1700.000000;2.367500
1699.000000;2.546287
1698.000000;3.040537
1697.000000;2.688244
1696.000000;2.535964
1695.000000;2.527189
1694.000000;2.545915
1693.000000;2.572338
1692.000000;2.517444
1691.000000;2.492615
1690.000000;2.582150
1689.000000;2.806921
1688.000000;3.039599
1687.000000;3.015366
1686.000000;2.983019
1685.000000;2.907191
1684.000000;2.763719
1683.000000;2.705920
1682.000000;2.846776
1681.000000;2.924576
1680.000000;2.715067
1679.000000;2.650782
1678.000000;2.801751
1677.000000;3.057398
1676.000000;2.805116
1675.000000;2.601539
1674.000000;2.548296
1673.000000;2.543366
1672.000000;2.550624
1671.000000;2.552558
1670.000000;2.601293
1669.000000;2.688534
1668.000000;2.638364
1667.000000;2.479336
1666.000000;2.381248
1665.000000;2.382177
1664.000000;2.482673
1663.000000;2.667875
1662.000000;2.669729
1661.000000;2.472317
1660.000000;2.398294
1659.000000;2.452810
1658.000000;2.690320
1657.000000;2.964860
1656.000000;2.778256
1655.000000;2.678835
1654.000000;2.743261
1653.000000;2.876445
1652.000000;2.820396
1651.000000;2.616907
1650.000000;2.540535
1649.000000;2.586892
1648.000000;2.733750
1647.000000;2.792317
1646.000000;2.722904
1645.000000;2.708913
1644.000000;2.817627
1643.000000;3.157020
1642.000000;3.956422
1641.000000;3.226979
1640.000000;3.088786
1639.000000;3.116605
1638.000000;3.118511
1637.000000;3.060815
1636.000000;2.747950
1635.000000;2.526135
1634.000000;2.558511
1633.000000;2.968342
1632.000000;2.781334
1631.000000;2.495307
1630.000000;2.445111
1629.000000;2.433271
1628.000000;2.472610
1627.000000;2.544992
1626.000000;2.574595
1625.000000;2.510506
1624.000000;2.462840
1623.000000;2.628243
1622.000000;2.966176
1621.000000;2.444958
1620.000000;2.241247
1619.000000;2.280123
1618.000000;2.446144
1617.000000;2.672263
1616.000000;2.723612
1615.000000;2.664727
1614.000000;2.612955
1613.000000;2.559204
1612.000000;2.565020
1611.000000;2.584749
1610.000000;2.481245
1609.000000;2.370114
1608.000000;2.321185
1607.000000;2.331122
1606.000000;2.419154
1605.000000;2.548672
1604.000000;2.511270
1603.000000;2.393896
1602.000000;2.340273
1601.000000;2.315388
1600.000000;2.305921
1599.000000;2.328211
1598.000000;2.400720
1597.000000;2.516931
1596.000000;2.584213
1595.000000;2.566333
1594.000000;2.544545
1593.000000;2.500783
1592.000000;2.454241
1591.000000;2.460488
1590.000000;2.515501
1589.000000;2.548217
1588.000000;2.476843
1587.000000;2.356502
1586.000000;2.302405
1585.000000;2.375022
1584.000000;2.585087
1583.000000;2.787599
1582.000000;2.711485
1581.000000;2.577084
1580.000000;2.576859
1579.000000;2.749548
1578.000000;3.107837
1577.000000;3.384957
1576.000000;3.016611
1575.000000;2.634176
1574.000000;2.370674
1573.000000;2.251136
1572.000000;2.282601
1571.000000;2.440555
1570.000000;2.454242
1569.000000;2.362191
1568.000000;2.372313
1567.000000;2.371967
1566.000000;2.410289
1565.000000;2.709464
1564.000000;2.920360
1563.000000;2.573212
1562.000000;2.554670
1561.000000;2.793853
1560.000000;3.019421
1559.000000;2.760928
1558.000000;2.818283
1557.000000;2.973598
1556.000000;2.694094
1555.000000;2.554240
1554.000000;2.514234
1553.000000;2.522353
1552.000000;2.531700
1551.000000;2.530440
1550.000000;2.512857
1549.000000;2.451786
1548.000000;2.386805
1547.000000;2.363236
1546.000000;2.357763
1545.000000;2.329545
1544.000000;2.295417
1543.000000;2.296611
1542.000000;2.290443
1541.000000;2.215918
1540.000000;2.169062
1539.000000;2.223253
1538.000000;2.409028
1537.000000;2.767602
1536.000000;3.134824
1535.000000;3.147647
1534.000000;2.709523
1533.000000;2.603628
1532.000000;2.622704
1531.000000;2.621798
1530.000000;2.564110
1529.000000;2.534463
1528.000000;2.580242
1527.000000;2.740817
1526.000000;2.694286
1525.000000;2.474638
1524.000000;2.420762
1523.000000;2.469448
1522.000000;2.590461
1521.000000;2.751301
1520.000000;2.882843
1519.000000;2.848013
1518.000000;2.702146
1517.000000;2.593644
1516.000000;2.502264
1515.000000;2.370071
1514.000000;2.290725
1513.000000;2.335627
1512.000000;2.517237
1511.000000;2.597360
1510.000000;2.504717
1509.000000;2.531302
1508.000000;2.666272
1507.000000;2.817538
1506.000000;3.115050
1505.000000;3.220573
1504.000000;2.588144
1503.000000;2.440586
1502.000000;2.445936
1501.000000;2.590020
1500.000000;2.962317
1499.000000;3.049208
1498.000000;2.761186
1497.000000;2.849876
1496.000000;2.890949
1495.000000;2.772890
1494.000000;2.729226
1493.000000;2.780822
1492.000000;2.655177
1491.000000;2.438090
1490.000000;2.342479
1489.000000;2.384848
1488.000000;2.511855
1487.000000;2.582444
1486.000000;2.579714
1485.000000;2.539852
1484.000000;2.507779
1483.000000;2.524157
1482.000000;2.572884
1481.000000;2.610041
1480.000000;2.582895
1479.000000;2.568453
1478.000000;2.621446
1477.000000;2.656161
1476.000000;2.749810
1475.000000;3.079364
1474.000000;2.836484
1473.000000;2.699491
1472.000000;2.787834
1471.000000;2.849016
1470.000000;2.788394
1469.000000;2.770931
1468.000000;2.837375
1467.000000;2.648289
1466.000000;2.369216
1465.000000;2.216882
1464.000000;2.169427
1463.000000;2.223162
1462.000000;2.365714
1461.000000;2.570529
1460.000000;2.857788
1459.000000;3.065505
1458.000000;2.612241
1457.000000;2.335656
1456.000000;2.235465
1455.000000;2.315208
1454.000000;2.729354
1453.000000;2.851797
1452.000000;2.691029
1451.000000;3.046376
1450.000000;2.822493
1449.000000;2.417709
1448.000000;2.301361
1447.000000;2.307979
1446.000000;2.407897
1445.000000;2.691354
1444.000000;3.040897
1443.000000;2.644616
1442.000000;2.512687
1441.000000;2.542739
1440.000000;2.820994
1439.000000;2.882817
1438.000000;2.517478
1437.000000;2.354411
1436.000000;2.327724
1435.000000;2.424949
1434.000000;2.526516
1433.000000;2.485063
1432.000000;2.353117
1431.000000;2.229944
1430.000000;2.140669
1429.000000;2.090549
1428.000000;2.101240
1427.000000;2.196376
1426.000000;2.392602
1425.000000;2.726132
1424.000000;3.201068
1423.000000;3.077159
1422.000000;3.348662
1421.000000;3.177295
1420.000000;2.725459
1419.000000;2.560349
1418.000000;2.420506
1417.000000;2.350058
1416.000000;2.385529
1415.000000;2.512587
1414.000000;2.644343
1413.000000;2.660764
1412.000000;2.596909
1411.000000;2.564558
1410.000000;2.580180
1409.000000;2.640551
1408.000000;2.819507
1407.000000;2.908661
1406.000000;2.743733
1405.000000;2.640206
1404.000000;2.610445
1403.000000;2.630265
1402.000000;2.690358
1401.000000;2.769303
1400.000000;2.708784
1399.000000;2.579207
1398.000000;2.574550
1397.000000;2.679471
1396.000000;2.635473
1395.000000;2.478529
1394.000000;2.361479
1393.000000;2.277553
1392.000000;2.232548
1391.000000;2.223068
1390.000000;2.231459
1389.000000;2.234198
1388.000000;2.214554
1387.000000;2.204285
1386.000000;2.270248
1385.000000;2.452289
1384.000000;2.773921
1383.000000;2.922968
1382.000000;3.065320
1381.000000;3.162999
1380.000000;2.806956
1379.000000;2.741465
1378.000000;2.942653
1377.000000;3.596034
1376.000000;3.199627
1375.000000;3.114968
1374.000000;3.701543
1373.000000;3.276383
1372.000000;3.089873
1371.000000;3.025894
1370.000000;2.851968
1369.000000;2.739893
1368.000000;2.753243
1367.000000;3.085325
1366.000000;3.601826
1365.000000;2.808399
1364.000000;2.592082
1363.000000;2.481631
1362.000000;2.549884
1361.000000;2.726297
1360.000000;2.816343
1359.000000;2.911764
1358.000000;3.017171
1357.000000;3.067765
1356.000000;3.139199
1355.000000;2.799991
1354.000000;2.629840
1353.000000;2.682844
1352.000000;2.850410
1351.000000;2.905351
1350.000000;2.872139
1349.000000;2.873610
1348.000000;3.185736
1347.000000;3.052453
1346.000000;2.650077
1345.000000;2.540944
1344.000000;2.460470
1343.000000;2.349532
1342.000000;2.324118
1341.000000;2.366066
1340.000000;2.391152
1339.000000;2.431927
1338.000000;2.534753
1337.000000;2.656006
1336.000000;2.807117
1335.000000;2.920616
1334.000000;2.936186
1333.000000;2.776753
1332.000000;2.564238
1331.000000;2.582095
1330.000000;2.736598
1329.000000;2.600050
1328.000000;2.505035
1327.000000;2.717382
1326.000000;3.033890
1325.000000;2.490031
1324.000000;2.261995
1323.000000;2.259861
1322.000000;2.406039
1321.000000;2.732353
1320.000000;3.148814
1319.000000;2.472479
1318.000000;2.250445
1317.000000;2.204814
1316.000000;2.279763
1315.000000;2.474135
1314.000000;2.832051
1313.000000;2.715387
1312.000000;2.398000
1311.000000;2.294429
1310.000000;2.303042
1309.000000;2.388119
1308.000000;2.517795
1307.000000;2.667395
1306.000000;2.721480
1305.000000;2.567558
1304.000000;2.392177
1303.000000;2.343425
1302.000000;2.449277
1301.000000;2.707787
1300.000000;2.960858
1299.000000;2.913742
1298.000000;2.744234
1297.000000;2.603895
1296.000000;2.485728
1295.000000;2.393038
1294.000000;2.328659
1293.000000;2.295776
1292.000000;2.293953
1291.000000;2.309845
1290.000000;2.326876
1289.000000;2.356110
1288.000000;2.449921
1287.000000;2.739023
1286.000000;3.449644
1285.000000;3.114714
1284.000000;2.808969
1283.000000;2.560578
1282.000000;2.445826
1281.000000;2.363018
1280.000000;2.263218
1279.000000;2.185804
1278.000000;2.186318
1277.000000;2.293140
1276.000000;2.466889
1275.000000;2.594764
1274.000000;2.555520
1273.000000;2.436758
1272.000000;2.375236
1271.000000;2.337343
1270.000000;2.317450
1269.000000;2.359078
1268.000000;2.427170
1267.000000;2.411076
1266.000000;2.379912
1265.000000;2.445065
1264.000000;2.611629
1263.000000;2.753957
1262.000000;2.763942
1261.000000;2.698867
1260.000000;2.605816
1259.000000;2.564162
1258.000000;2.594649
1257.000000;2.722006
1256.000000;2.986191
1255.000000;3.122008
1254.000000;2.759934
1253.000000;2.443181
1252.000000;2.298926
1251.000000;2.302734
1250.000000;2.425707
1249.000000;2.472654
1248.000000;2.352724
1247.000000;2.271202
1246.000000;2.262692
1245.000000;2.294640
1244.000000;2.320701
1243.000000;2.342187
1242.000000;2.431298
1241.000000;2.682701
1240.000000;3.026130
1239.000000;2.880578
1238.000000;2.781932
1237.000000;2.711048
1236.000000;2.679561
1235.000000;2.676745
1234.000000;2.547507
1233.000000;2.376007
1232.000000;2.313025
1231.000000;2.348911
1230.000000;2.443486
1229.000000;2.518231
1228.000000;2.495342
1227.000000;2.467084
1226.000000;2.488543
1225.000000;2.506339
1224.000000;2.547948
1223.000000;2.538043
1222.000000;2.372726
1221.000000;2.277130
1220.000000;2.349240
1219.000000;2.513564
1218.000000;2.472996
1217.000000;2.449368
1216.000000;2.642046
1215.000000;2.545880
1214.000000;2.373147
1213.000000;2.374025
1212.000000;2.491044
1211.000000;2.633770
1210.000000;2.688908
1209.000000;2.734829
1208.000000;2.908058
1207.000000;3.343826
1206.000000;3.227274
1205.000000;2.900612
1204.000000;2.878958
1203.000000;3.180759
1202.000000;3.427016
1201.000000;2.789240
1200.000000;2.527023
