Criado como novo conjunto de dados;"2706_e01_daniel.spp","27543.1 Secs"
cm-1;Abs
10000.000000;0.780345
9999.000000;0.779852
9998.000000;0.779360
9997.000000;0.778869
9996.000000;0.778378
9995.000000;0.777888
9994.000000;0.777399
9993.000000;0.776907
9992.000000;0.776423
9991.000000;0.775928
9990.000000;0.775456
9989.000000;0.774893
9988.000000;0.774279
9987.000000;0.773902
9986.000000;0.774011
9985.000000;0.774696
9984.000000;0.775574
9983.000000;0.775930
9982.000000;0.775375
9981.000000;0.774310
9980.000000;0.773497
9979.000000;0.773334
9978.000000;0.773706
9977.000000;0.774286
9976.000000;0.774703
9975.000000;0.774649
9974.000000;0.774178
9973.000000;0.773753
9972.000000;0.773698
9971.000000;0.773795
9970.000000;0.773775
9969.000000;0.773878
9968.000000;0.774445
9967.000000;0.775142
9966.000000;0.775213
9965.000000;0.774459
9964.000000;0.773449
9963.000000;0.772734
9962.000000;0.772339
9961.000000;0.772089
9960.000000;0.771926
9959.000000;0.771796
9958.000000;0.771642
9957.000000;0.771632
9956.000000;0.772018
9955.000000;0.772664
9954.000000;0.773092
9953.000000;0.773095
9952.000000;0.772969
9951.000000;0.773013
9950.000000;0.773176
9949.000000;0.773327
9948.000000;0.773515
9947.000000;0.773770
9946.000000;0.773913
9945.000000;0.773784
9944.000000;0.773451
9943.000000;0.773036
9942.000000;0.772552
9941.000000;0.772065
9940.000000;0.771799
9939.000000;0.771889
9938.000000;0.772147
9937.000000;0.772197
9936.000000;0.771804
9935.000000;0.771059
9934.000000;0.770344
9933.000000;0.770082
9932.000000;0.770322
9931.000000;0.770579
9930.000000;0.770318
9929.000000;0.769640
9928.000000;0.769217
9927.000000;0.769481
9926.000000;0.770137
9925.000000;0.770566
9924.000000;0.770528
9923.000000;0.770274
9922.000000;0.770139
9921.000000;0.770237
9920.000000;0.770490
9919.000000;0.770761
9918.000000;0.770875
9917.000000;0.770638
9916.000000;0.769958
9915.000000;0.769033
9914.000000;0.768324
9913.000000;0.768204
9912.000000;0.768599
9911.000000;0.769103
9910.000000;0.769458
9909.000000;0.769736
9908.000000;0.770029
9907.000000;0.770216
9906.000000;0.770193
9905.000000;0.770107
9904.000000;0.770131
9903.000000;0.770178
9902.000000;0.770013
9901.000000;0.769555
9900.000000;0.768882
9899.000000;0.768115
9898.000000;0.767485
9897.000000;0.767307
9896.000000;0.767618
9895.000000;0.767979
9894.000000;0.767885
9893.000000;0.767312
9892.000000;0.766652
9891.000000;0.766224
9890.000000;0.766086
9889.000000;0.766186
9888.000000;0.766428
9887.000000;0.766636
9886.000000;0.766658
9885.000000;0.766491
9884.000000;0.766198
9883.000000;0.765860
9882.000000;0.765701
9881.000000;0.766004
9880.000000;0.766682
9879.000000;0.767181
9878.000000;0.767090
9877.000000;0.766600
9876.000000;0.766112
9875.000000;0.765656
9874.000000;0.765093
9873.000000;0.764654
9872.000000;0.764783
9871.000000;0.765487
9870.000000;0.766265
9869.000000;0.766665
9868.000000;0.766620
9867.000000;0.766294
9866.000000;0.765940
9865.000000;0.765862
9864.000000;0.766182
9863.000000;0.766585
9862.000000;0.766629
9861.000000;0.766284
9860.000000;0.765893
9859.000000;0.765672
9858.000000;0.765578
9857.000000;0.765578
9856.000000;0.765655
9855.000000;0.765525
9854.000000;0.764824
9853.000000;0.763666
9852.000000;0.762649
9851.000000;0.762164
9850.000000;0.762022
9849.000000;0.761899
9848.000000;0.761865
9847.000000;0.762238
9846.000000;0.763085
9845.000000;0.764072
9844.000000;0.764741
9843.000000;0.764884
9842.000000;0.764682
9841.000000;0.764510
9840.000000;0.764522
9839.000000;0.764492
9838.000000;0.764165
9837.000000;0.763666
9836.000000;0.763379
9835.000000;0.763471
9834.000000;0.763729
9833.000000;0.763834
9832.000000;0.763624
9831.000000;0.763162
9830.000000;0.762699
9829.000000;0.762483
9828.000000;0.762441
9827.000000;0.762173
9826.000000;0.761494
9825.000000;0.760805
9824.000000;0.760644
9823.000000;0.760989
9822.000000;0.761355
9821.000000;0.761501
9820.000000;0.761611
9819.000000;0.761793
9818.000000;0.761798
9817.000000;0.761402
9816.000000;0.760745
9815.000000;0.760166
9814.000000;0.759897
9813.000000;0.760015
9812.000000;0.760464
9811.000000;0.761002
9810.000000;0.761313
9809.000000;0.761266
9808.000000;0.760926
9807.000000;0.760330
9806.000000;0.759482
9805.000000;0.758598
9804.000000;0.758074
9803.000000;0.758070
9802.000000;0.758312
9801.000000;0.758448
9800.000000;0.758455
9799.000000;0.758598
9798.000000;0.759058
9797.000000;0.759709
9796.000000;0.760184
9795.000000;0.760160
9794.000000;0.759674
9793.000000;0.759157
9792.000000;0.759048
9791.000000;0.759358
9790.000000;0.759683
9789.000000;0.759644
9788.000000;0.759209
9787.000000;0.758621
9786.000000;0.758148
9785.000000;0.757905
9784.000000;0.757795
9783.000000;0.757620
9782.000000;0.757331
9781.000000;0.757126
9780.000000;0.757193
9779.000000;0.757425
9778.000000;0.757544
9777.000000;0.757456
9776.000000;0.757307
9775.000000;0.757242
9774.000000;0.757273
9773.000000;0.757360
9772.000000;0.757410
9771.000000;0.757211
9770.000000;0.756622
9769.000000;0.755880
9768.000000;0.755493
9767.000000;0.755726
9766.000000;0.756322
9765.000000;0.756824
9764.000000;0.757062
9763.000000;0.757220
9762.000000;0.757443
9761.000000;0.757533
9760.000000;0.757122
9759.000000;0.756144
9758.000000;0.755030
9757.000000;0.754303
9756.000000;0.754045
9755.000000;0.753933
9754.000000;0.753779
9753.000000;0.753787
9752.000000;0.754155
9751.000000;0.754661
9750.000000;0.754895
9749.000000;0.754741
9748.000000;0.754428
9747.000000;0.754182
9746.000000;0.754044
9745.000000;0.753958
9744.000000;0.753841
9743.000000;0.753619
9742.000000;0.753371
9741.000000;0.753386
9740.000000;0.753859
9739.000000;0.754547
9738.000000;0.754929
9737.000000;0.754724
9736.000000;0.754147
9735.000000;0.753633
9734.000000;0.753438
9733.000000;0.753530
9732.000000;0.753745
9731.000000;0.753973
9730.000000;0.754200
9729.000000;0.754386
9728.000000;0.754356
9727.000000;0.753965
9726.000000;0.753379
9725.000000;0.753017
9724.000000;0.753101
9723.000000;0.753412
9722.000000;0.753612
9721.000000;0.753641
9720.000000;0.753626
9719.000000;0.753554
9718.000000;0.753301
9717.000000;0.752929
9716.000000;0.752689
9715.000000;0.752708
9714.000000;0.752820
9713.000000;0.752783
9712.000000;0.752573
9711.000000;0.752412
9710.000000;0.752528
9709.000000;0.752873
9708.000000;0.753081
9707.000000;0.752804
9706.000000;0.752095
9705.000000;0.751382
9704.000000;0.751042
9703.000000;0.751109
9702.000000;0.751390
9701.000000;0.751689
9700.000000;0.751847
9699.000000;0.751794
9698.000000;0.751650
9697.000000;0.751641
9696.000000;0.751803
9695.000000;0.751921
9694.000000;0.751831
9693.000000;0.751618
9692.000000;0.751442
9691.000000;0.751365
9690.000000;0.751449
9689.000000;0.751754
9688.000000;0.752086
9687.000000;0.751998
9686.000000;0.751284
9685.000000;0.750311
9684.000000;0.749653
9683.000000;0.749528
9682.000000;0.749744
9681.000000;0.750017
9680.000000;0.750129
9679.000000;0.749964
9678.000000;0.749609
9677.000000;0.749317
9676.000000;0.749223
9675.000000;0.749228
9674.000000;0.749252
9673.000000;0.749397
9672.000000;0.749663
9671.000000;0.749776
9670.000000;0.749571
9669.000000;0.749335
9668.000000;0.749468
9667.000000;0.749903
9666.000000;0.750169
9665.000000;0.749925
9664.000000;0.749226
9663.000000;0.748358
9662.000000;0.747660
9661.000000;0.747404
9660.000000;0.747566
9659.000000;0.747787
9658.000000;0.747766
9657.000000;0.747625
9656.000000;0.747673
9655.000000;0.747939
9654.000000;0.748172
9653.000000;0.748241
9652.000000;0.748266
9651.000000;0.748348
9650.000000;0.748412
9649.000000;0.748304
9648.000000;0.747929
9647.000000;0.747327
9646.000000;0.746719
9645.000000;0.746380
9644.000000;0.746342
9643.000000;0.746363
9642.000000;0.746310
9641.000000;0.746383
9640.000000;0.746765
9639.000000;0.747266
9638.000000;0.747537
9637.000000;0.747497
9636.000000;0.747283
9635.000000;0.746945
9634.000000;0.746483
9633.000000;0.746055
9632.000000;0.745841
9631.000000;0.745750
9630.000000;0.745543
9629.000000;0.745205
9628.000000;0.744945
9627.000000;0.744896
9626.000000;0.745040
9625.000000;0.745355
9624.000000;0.745734
9623.000000;0.745849
9622.000000;0.745428
9621.000000;0.744702
9620.000000;0.744269
9619.000000;0.744437
9618.000000;0.744911
9617.000000;0.745183
9616.000000;0.745064
9615.000000;0.744790
9614.000000;0.744711
9613.000000;0.744945
9612.000000;0.745254
9611.000000;0.745283
9610.000000;0.744955
9609.000000;0.744529
9608.000000;0.744236
9607.000000;0.744038
9606.000000;0.743853
9605.000000;0.743769
9604.000000;0.743824
9603.000000;0.743805
9602.000000;0.743561
9601.000000;0.743343
9600.000000;0.743486
9599.000000;0.743904
9598.000000;0.744237
9597.000000;0.744430
9596.000000;0.744729
9595.000000;0.745109
9594.000000;0.745108
9593.000000;0.744420
9592.000000;0.743355
9591.000000;0.742540
9590.000000;0.742317
9589.000000;0.742561
9588.000000;0.742927
9587.000000;0.743164
9586.000000;0.743249
9585.000000;0.743299
9584.000000;0.743335
9583.000000;0.743204
9582.000000;0.742796
9581.000000;0.742267
9580.000000;0.741889
9579.000000;0.741742
9578.000000;0.741713
9577.000000;0.741780
9576.000000;0.742087
9575.000000;0.742715
9574.000000;0.743476
9573.000000;0.743987
9572.000000;0.743924
9571.000000;0.743253
9570.000000;0.742291
9569.000000;0.741485
9568.000000;0.741039
9567.000000;0.740844
9566.000000;0.740765
9565.000000;0.740844
9564.000000;0.741115
9563.000000;0.741402
9562.000000;0.741510
9561.000000;0.741493
9560.000000;0.741552
9559.000000;0.741738
9558.000000;0.741910
9557.000000;0.741920
9556.000000;0.741697
9555.000000;0.741259
9554.000000;0.740800
9553.000000;0.740605
9552.000000;0.740734
9551.000000;0.740903
9550.000000;0.740858
9549.000000;0.740712
9548.000000;0.740712
9547.000000;0.740841
9546.000000;0.740925
9545.000000;0.740996
9544.000000;0.741219
9543.000000;0.741522
9542.000000;0.741607
9541.000000;0.741330
9540.000000;0.740845
9539.000000;0.740349
9538.000000;0.739924
9537.000000;0.739638
9536.000000;0.739548
9535.000000;0.739567
9534.000000;0.739482
9533.000000;0.739162
9532.000000;0.738653
9531.000000;0.738105
9530.000000;0.737746
9529.000000;0.737815
9528.000000;0.738339
9527.000000;0.739005
9526.000000;0.739437
9525.000000;0.739562
9524.000000;0.739554
9523.000000;0.739481
9522.000000;0.739245
9521.000000;0.738798
9520.000000;0.738217
9519.000000;0.737566
9518.000000;0.736916
9517.000000;0.736466
9516.000000;0.736416
9515.000000;0.736677
9514.000000;0.736938
9513.000000;0.737061
9512.000000;0.737211
9511.000000;0.737535
9510.000000;0.737894
9509.000000;0.738013
9508.000000;0.737802
9507.000000;0.737444
9506.000000;0.737204
9505.000000;0.737189
9504.000000;0.737252
9503.000000;0.737161
9502.000000;0.736888
9501.000000;0.736677
9500.000000;0.736732
9499.000000;0.736938
9498.000000;0.737000
9497.000000;0.736815
9496.000000;0.736569
9495.000000;0.736489
9494.000000;0.736603
9493.000000;0.736731
9492.000000;0.736653
9491.000000;0.736355
9490.000000;0.736119
9489.000000;0.736252
9488.000000;0.736658
9487.000000;0.736855
9486.000000;0.736541
9485.000000;0.735977
9484.000000;0.735614
9483.000000;0.735517
9482.000000;0.735411
9481.000000;0.735175
9480.000000;0.734995
9479.000000;0.735020
9478.000000;0.735143
9477.000000;0.735178
9476.000000;0.735098
9475.000000;0.735019
9474.000000;0.735034
9473.000000;0.735122
9472.000000;0.735161
9471.000000;0.735069
9470.000000;0.734939
9469.000000;0.734946
9468.000000;0.735061
9467.000000;0.735009
9466.000000;0.734601
9465.000000;0.733984
9464.000000;0.733443
9463.000000;0.733107
9462.000000;0.732995
9461.000000;0.733156
9460.000000;0.733540
9459.000000;0.733885
9458.000000;0.733965
9457.000000;0.733886
9456.000000;0.733901
9455.000000;0.734031
9454.000000;0.734073
9453.000000;0.733907
9452.000000;0.733576
9451.000000;0.733154
9450.000000;0.732766
9449.000000;0.732666
9448.000000;0.732985
9447.000000;0.733431
9446.000000;0.733519
9445.000000;0.733130
9444.000000;0.732625
9443.000000;0.732370
9442.000000;0.732394
9441.000000;0.732528
9440.000000;0.732637
9439.000000;0.732629
9438.000000;0.732425
9437.000000;0.732056
9436.000000;0.731672
9435.000000;0.731418
9434.000000;0.731354
9433.000000;0.731494
9432.000000;0.731794
9431.000000;0.732080
9430.000000;0.732137
9429.000000;0.731893
9428.000000;0.731458
9427.000000;0.730977
9426.000000;0.730558
9425.000000;0.730285
9424.000000;0.730192
9423.000000;0.730234
9422.000000;0.730372
9421.000000;0.730624
9420.000000;0.730965
9419.000000;0.731237
9418.000000;0.731314
9417.000000;0.731253
9416.000000;0.731132
9415.000000;0.730843
9414.000000;0.730270
9413.000000;0.729613
9412.000000;0.729267
9411.000000;0.729365
9410.000000;0.729641
9409.000000;0.729791
9408.000000;0.729785
9407.000000;0.729766
9406.000000;0.729807
9405.000000;0.729841
9404.000000;0.729753
9403.000000;0.729465
9402.000000;0.729047
9401.000000;0.728725
9400.000000;0.728697
9399.000000;0.728918
9398.000000;0.729153
9397.000000;0.729220
9396.000000;0.729081
9395.000000;0.728753
9394.000000;0.728293
9393.000000;0.727888
9392.000000;0.727773
9391.000000;0.727999
9390.000000;0.728368
9389.000000;0.728640
9388.000000;0.728727
9387.000000;0.728683
9386.000000;0.728595
9385.000000;0.728529
9384.000000;0.728502
9383.000000;0.728451
9382.000000;0.728272
9381.000000;0.727919
9380.000000;0.727439
9379.000000;0.726972
9378.000000;0.726716
9377.000000;0.726824
9376.000000;0.727234
9375.000000;0.727644
9374.000000;0.727777
9373.000000;0.727666
9372.000000;0.727583
9371.000000;0.727724
9370.000000;0.728015
9369.000000;0.728231
9368.000000;0.728213
9367.000000;0.727959
9366.000000;0.727587
9365.000000;0.727230
9364.000000;0.726959
9363.000000;0.726812
9362.000000;0.726838
9361.000000;0.727020
9360.000000;0.727165
9359.000000;0.727013
9358.000000;0.726539
9357.000000;0.726018
9356.000000;0.725732
9355.000000;0.725704
9354.000000;0.725796
9353.000000;0.725919
9352.000000;0.726027
9351.000000;0.726008
9350.000000;0.725779
9349.000000;0.725451
9348.000000;0.725277
9347.000000;0.725422
9346.000000;0.725832
9345.000000;0.726252
9344.000000;0.726370
9343.000000;0.726062
9342.000000;0.725588
9341.000000;0.725409
9340.000000;0.725703
9339.000000;0.726179
9338.000000;0.726460
9337.000000;0.726489
9336.000000;0.726389
9335.000000;0.726129
9334.000000;0.725595
9333.000000;0.724902
9332.000000;0.724369
9331.000000;0.724174
9330.000000;0.724235
9329.000000;0.724404
9328.000000;0.724606
9327.000000;0.724774
9326.000000;0.724850
9325.000000;0.724878
9324.000000;0.724962
9323.000000;0.725092
9322.000000;0.725154
9321.000000;0.725098
9320.000000;0.724973
9319.000000;0.724792
9318.000000;0.724501
9317.000000;0.724129
9316.000000;0.723820
9315.000000;0.723669
9314.000000;0.723644
9313.000000;0.723715
9312.000000;0.723929
9311.000000;0.724288
9310.000000;0.724601
9309.000000;0.724605
9308.000000;0.724228
9307.000000;0.723688
9306.000000;0.723290
9305.000000;0.723146
9304.000000;0.723106
9303.000000;0.722993
9302.000000;0.722826
9301.000000;0.722742
9300.000000;0.722736
9299.000000;0.722620
9298.000000;0.722283
9297.000000;0.721874
9296.000000;0.721653
9295.000000;0.721721
9294.000000;0.721956
9293.000000;0.722142
9292.000000;0.722116
9291.000000;0.721877
9290.000000;0.721609
9289.000000;0.721500
9288.000000;0.721514
9287.000000;0.721436
9286.000000;0.721200
9285.000000;0.721016
9284.000000;0.721089
9283.000000;0.721329
9282.000000;0.721479
9281.000000;0.721424
9280.000000;0.721261
9279.000000;0.721111
9278.000000;0.721018
9277.000000;0.720958
9276.000000;0.720852
9275.000000;0.720604
9274.000000;0.720235
9273.000000;0.719945
9272.000000;0.719960
9271.000000;0.720304
9270.000000;0.720768
9269.000000;0.721065
9268.000000;0.721017
9267.000000;0.720682
9266.000000;0.720335
9265.000000;0.720210
9264.000000;0.720256
9263.000000;0.720212
9262.000000;0.719972
9261.000000;0.719700
9260.000000;0.719562
9259.000000;0.719501
9258.000000;0.719385
9257.000000;0.719201
9256.000000;0.719010
9255.000000;0.718842
9254.000000;0.718761
9253.000000;0.718879
9252.000000;0.719166
9251.000000;0.719391
9250.000000;0.719378
9249.000000;0.719217
9248.000000;0.719097
9247.000000;0.719053
9246.000000;0.719016
9245.000000;0.718974
9244.000000;0.718916
9243.000000;0.718724
9242.000000;0.718314
9241.000000;0.717797
9240.000000;0.717380
9239.000000;0.717166
9238.000000;0.717174
9237.000000;0.717420
9236.000000;0.717837
9235.000000;0.718219
9234.000000;0.718408
9233.000000;0.718443
9232.000000;0.718394
9231.000000;0.718212
9230.000000;0.717903
9229.000000;0.717684
9228.000000;0.717723
9227.000000;0.717826
9226.000000;0.717664
9225.000000;0.717233
9224.000000;0.716835
9223.000000;0.716634
9222.000000;0.716497
9221.000000;0.716278
9220.000000;0.716005
9219.000000;0.715749
9218.000000;0.715516
9217.000000;0.715341
9216.000000;0.715314
9215.000000;0.715454
9214.000000;0.715681
9213.000000;0.715953
9212.000000;0.716269
9211.000000;0.716526
9210.000000;0.716518
9209.000000;0.716149
9208.000000;0.715578
9207.000000;0.715096
9206.000000;0.714934
9205.000000;0.715159
9204.000000;0.715623
9203.000000;0.716014
9202.000000;0.716094
9201.000000;0.715906
9200.000000;0.715685
9199.000000;0.715565
9198.000000;0.715495
9197.000000;0.715429
9196.000000;0.715447
9195.000000;0.715612
9194.000000;0.715809
9193.000000;0.715808
9192.000000;0.715476
9191.000000;0.714908
9190.000000;0.714393
9189.000000;0.714214
9188.000000;0.714438
9187.000000;0.714862
9186.000000;0.715213
9185.000000;0.715369
9184.000000;0.715377
9183.000000;0.715327
9182.000000;0.715256
9181.000000;0.715161
9180.000000;0.715018
9179.000000;0.714806
9178.000000;0.714562
9177.000000;0.714364
9176.000000;0.714245
9175.000000;0.714174
9174.000000;0.714135
9173.000000;0.714150
9172.000000;0.714170
9171.000000;0.714059
9170.000000;0.713759
9169.000000;0.713409
9168.000000;0.713213
9167.000000;0.713226
9166.000000;0.713360
9165.000000;0.713512
9164.000000;0.713628
9163.000000;0.713700
9162.000000;0.713780
9161.000000;0.713914
9160.000000;0.714021
9159.000000;0.713919
9158.000000;0.713543
9157.000000;0.713051
9156.000000;0.712624
9155.000000;0.712311
9154.000000;0.712124
9153.000000;0.712148
9152.000000;0.712384
9151.000000;0.712619
9150.000000;0.712630
9149.000000;0.712457
9148.000000;0.712333
9147.000000;0.712379
9146.000000;0.712529
9145.000000;0.712690
9144.000000;0.712805
9143.000000;0.712803
9142.000000;0.712607
9141.000000;0.712217
9140.000000;0.711697
9139.000000;0.711146
9138.000000;0.710736
9137.000000;0.710673
9136.000000;0.710953
9135.000000;0.711261
9134.000000;0.711280
9133.000000;0.711060
9132.000000;0.710925
9131.000000;0.711042
9130.000000;0.711258
9129.000000;0.711358
9128.000000;0.711306
9127.000000;0.711215
9126.000000;0.711194
9125.000000;0.711260
9124.000000;0.711339
9123.000000;0.711333
9122.000000;0.711259
9121.000000;0.711256
9120.000000;0.711368
9119.000000;0.711416
9118.000000;0.711199
9117.000000;0.710766
9116.000000;0.710345
9115.000000;0.710047
9114.000000;0.709794
9113.000000;0.709501
9112.000000;0.709197
9111.000000;0.708965
9110.000000;0.708896
9109.000000;0.709081
9108.000000;0.709510
9107.000000;0.709961
9106.000000;0.710133
9105.000000;0.709903
9104.000000;0.709378
9103.000000;0.708731
9102.000000;0.708104
9101.000000;0.707649
9100.000000;0.707471
9099.000000;0.707502
9098.000000;0.707560
9097.000000;0.707567
9096.000000;0.707612
9095.000000;0.707787
9094.000000;0.708074
9093.000000;0.708402
9092.000000;0.708708
9091.000000;0.708908
9090.000000;0.708948
9089.000000;0.708896
9088.000000;0.708895
9087.000000;0.708970
9086.000000;0.708997
9085.000000;0.708877
9084.000000;0.708662
9083.000000;0.708448
9082.000000;0.708254
9081.000000;0.708048
9080.000000;0.707845
9079.000000;0.707705
9078.000000;0.707680
9077.000000;0.707779
9076.000000;0.707937
9075.000000;0.708017
9074.000000;0.707901
9073.000000;0.707607
9072.000000;0.707281
9071.000000;0.707045
9070.000000;0.706907
9069.000000;0.706821
9068.000000;0.706773
9067.000000;0.706764
9066.000000;0.706759
9065.000000;0.706703
9064.000000;0.706578
9063.000000;0.706448
9062.000000;0.706423
9061.000000;0.706578
9060.000000;0.706850
9059.000000;0.707055
9058.000000;0.707044
9057.000000;0.706846
9056.000000;0.706632
9055.000000;0.706549
9054.000000;0.706618
9053.000000;0.706761
9052.000000;0.706860
9051.000000;0.706799
9050.000000;0.706536
9049.000000;0.706146
9048.000000;0.705759
9047.000000;0.705425
9046.000000;0.705096
9045.000000;0.704745
9044.000000;0.704498
9043.000000;0.704561
9042.000000;0.705005
9041.000000;0.705626
9040.000000;0.706075
9039.000000;0.706139
9038.000000;0.705884
9037.000000;0.705511
9036.000000;0.705149
9035.000000;0.704822
9034.000000;0.704579
9033.000000;0.704506
9032.000000;0.704605
9031.000000;0.704760
9030.000000;0.704882
9029.000000;0.705012
9028.000000;0.705221
9027.000000;0.705464
9026.000000;0.705596
9025.000000;0.705529
9024.000000;0.705314
9023.000000;0.705082
9022.000000;0.704928
9021.000000;0.704821
9020.000000;0.704645
9019.000000;0.704352
9018.000000;0.704033
9017.000000;0.703800
9016.000000;0.703623
9015.000000;0.703396
9014.000000;0.703147
9013.000000;0.703063
9012.000000;0.703250
9011.000000;0.703563
9010.000000;0.703736
9009.000000;0.703642
9008.000000;0.703374
9007.000000;0.703145
9006.000000;0.703120
9005.000000;0.703276
9004.000000;0.703378
9003.000000;0.703199
9002.000000;0.702793
9001.000000;0.702489
9000.000000;0.702531
8999.000000;0.702817
8998.000000;0.703016
8997.000000;0.702894
8996.000000;0.702470
8995.000000;0.701958
8994.000000;0.701622
8993.000000;0.701618
8992.000000;0.701880
8991.000000;0.702165
8990.000000;0.702282
8989.000000;0.702211
8988.000000;0.702025
8987.000000;0.701762
8986.000000;0.701454
8985.000000;0.701196
8984.000000;0.701070
8983.000000;0.701067
8982.000000;0.701137
8981.000000;0.701268
8980.000000;0.701467
8979.000000;0.701692
8978.000000;0.701881
8977.000000;0.701990
8976.000000;0.701968
8975.000000;0.701744
8974.000000;0.701328
8973.000000;0.700870
8972.000000;0.700553
8971.000000;0.700458
8970.000000;0.700559
8969.000000;0.700791
8968.000000;0.701056
8967.000000;0.701210
8966.000000;0.701146
8965.000000;0.700900
8964.000000;0.700624
8963.000000;0.700445
8962.000000;0.700391
8961.000000;0.700428
8960.000000;0.700534
8959.000000;0.700701
8958.000000;0.700892
8957.000000;0.700997
8956.000000;0.700892
8955.000000;0.700553
8954.000000;0.700093
8953.000000;0.699659
8952.000000;0.699331
8951.000000;0.699159
8950.000000;0.699202
8949.000000;0.699434
8948.000000;0.699666
8947.000000;0.699705
8946.000000;0.699599
8945.000000;0.699557
8944.000000;0.699634
8943.000000;0.699664
8942.000000;0.699545
8941.000000;0.699410
8940.000000;0.699412
8939.000000;0.699468
8938.000000;0.699368
8937.000000;0.699063
8936.000000;0.698718
8935.000000;0.698515
8934.000000;0.698482
8933.000000;0.698514
8932.000000;0.698496
8931.000000;0.698432
8930.000000;0.698444
8929.000000;0.698630
8928.000000;0.698918
8927.000000;0.699126
8926.000000;0.699139
8925.000000;0.698960
8924.000000;0.698621
8923.000000;0.698181
8922.000000;0.697802
8921.000000;0.697669
8920.000000;0.697775
8919.000000;0.697924
8918.000000;0.697978
8917.000000;0.697984
8916.000000;0.697988
8915.000000;0.697921
8914.000000;0.697746
8913.000000;0.697578
8912.000000;0.697522
8911.000000;0.697492
8910.000000;0.697338
8909.000000;0.697070
8908.000000;0.696838
8907.000000;0.696734
8906.000000;0.696736
8905.000000;0.696816
8904.000000;0.696962
8903.000000;0.697120
8902.000000;0.697200
8901.000000;0.697159
8900.000000;0.697034
8899.000000;0.696890
8898.000000;0.696786
8897.000000;0.696738
8896.000000;0.696689
8895.000000;0.696565
8894.000000;0.696385
8893.000000;0.696257
8892.000000;0.696228
8891.000000;0.696211
8890.000000;0.696123
8889.000000;0.696027
8888.000000;0.696057
8887.000000;0.696217
8886.000000;0.696353
8885.000000;0.696317
8884.000000;0.696129
8883.000000;0.695952
8882.000000;0.695915
8881.000000;0.695933
8880.000000;0.695765
8879.000000;0.695281
8878.000000;0.694665
8877.000000;0.694254
8876.000000;0.694199
8875.000000;0.694382
8874.000000;0.694633
8873.000000;0.694893
8872.000000;0.695149
8871.000000;0.695350
8870.000000;0.695465
8869.000000;0.695527
8868.000000;0.695553
8867.000000;0.695516
8866.000000;0.695416
8865.000000;0.695285
8864.000000;0.695100
8863.000000;0.694801
8862.000000;0.694444
8861.000000;0.694202
8860.000000;0.694150
8859.000000;0.694173
8858.000000;0.694154
8857.000000;0.694122
8856.000000;0.694118
8855.000000;0.694064
8854.000000;0.693898
8853.000000;0.693750
8852.000000;0.693827
8851.000000;0.694140
8850.000000;0.694469
8849.000000;0.694589
8848.000000;0.694459
8847.000000;0.694196
8846.000000;0.693952
8845.000000;0.693819
8844.000000;0.693821
8843.000000;0.693941
8842.000000;0.694130
8841.000000;0.694276
8840.000000;0.694229
8839.000000;0.693954
8838.000000;0.693630
8837.000000;0.693500
8836.000000;0.693600
8835.000000;0.693751
8834.000000;0.693798
8833.000000;0.693739
8832.000000;0.693628
8831.000000;0.693485
8830.000000;0.693349
8829.000000;0.693268
8828.000000;0.693184
8827.000000;0.692962
8826.000000;0.692619
8825.000000;0.692381
8824.000000;0.692430
8823.000000;0.692692
8822.000000;0.692967
8821.000000;0.693164
8820.000000;0.693307
8819.000000;0.693396
8818.000000;0.693372
8817.000000;0.693175
8816.000000;0.692799
8815.000000;0.692354
8814.000000;0.692082
8813.000000;0.692184
8812.000000;0.692571
8811.000000;0.692893
8810.000000;0.692900
8809.000000;0.692642
8808.000000;0.692296
8807.000000;0.691932
8806.000000;0.691584
8805.000000;0.691372
8804.000000;0.691404
8803.000000;0.691621
8802.000000;0.691875
8801.000000;0.692092
8800.000000;0.692253
8799.000000;0.692297
8798.000000;0.692186
8797.000000;0.692007
8796.000000;0.691891
8795.000000;0.691841
8794.000000;0.691754
8793.000000;0.691593
8792.000000;0.691434
8791.000000;0.691378
8790.000000;0.691463
8789.000000;0.691647
8788.000000;0.691814
8787.000000;0.691843
8786.000000;0.691712
8785.000000;0.691512
8784.000000;0.691330
8783.000000;0.691184
8782.000000;0.691098
8781.000000;0.691127
8780.000000;0.691248
8779.000000;0.691328
8778.000000;0.691290
8777.000000;0.691227
8776.000000;0.691243
8775.000000;0.691248
8774.000000;0.691044
8773.000000;0.690600
8772.000000;0.690131
8771.000000;0.689897
8770.000000;0.689974
8769.000000;0.690201
8768.000000;0.690333
8767.000000;0.690240
8766.000000;0.690009
8765.000000;0.689823
8764.000000;0.689786
8763.000000;0.689889
8762.000000;0.690126
8761.000000;0.690488
8760.000000;0.690877
8759.000000;0.691127
8758.000000;0.691167
8757.000000;0.691061
8756.000000;0.690877
8755.000000;0.690624
8754.000000;0.690360
8753.000000;0.690212
8752.000000;0.690221
8751.000000;0.690289
8750.000000;0.690325
8749.000000;0.690332
8748.000000;0.690307
8747.000000;0.690194
8746.000000;0.690034
8745.000000;0.689977
8744.000000;0.690069
8743.000000;0.690147
8742.000000;0.690080
8741.000000;0.689962
8740.000000;0.689951
8739.000000;0.690011
8738.000000;0.689973
8737.000000;0.689776
8736.000000;0.689525
8735.000000;0.689362
8734.000000;0.689380
8733.000000;0.689591
8732.000000;0.689879
8731.000000;0.690037
8730.000000;0.689975
8729.000000;0.689829
8728.000000;0.689779
8727.000000;0.689836
8726.000000;0.689885
8725.000000;0.689845
8724.000000;0.689696
8723.000000;0.689444
8722.000000;0.689187
8721.000000;0.689121
8720.000000;0.689337
8719.000000;0.689677
8718.000000;0.689895
8717.000000;0.689923
8716.000000;0.689839
8715.000000;0.689679
8714.000000;0.689423
8713.000000;0.689130
8712.000000;0.688920
8711.000000;0.688834
8710.000000;0.688835
8709.000000;0.688920
8708.000000;0.689104
8707.000000;0.689298
8706.000000;0.689353
8705.000000;0.689252
8704.000000;0.689150
8703.000000;0.689166
8702.000000;0.689237
8701.000000;0.689202
8700.000000;0.689002
8699.000000;0.688753
8698.000000;0.688636
8697.000000;0.688737
8696.000000;0.688986
8695.000000;0.689254
8694.000000;0.689484
8693.000000;0.689676
8692.000000;0.689768
8691.000000;0.689646
8690.000000;0.689303
8689.000000;0.688902
8688.000000;0.688604
8687.000000;0.688428
8686.000000;0.688305
8685.000000;0.688222
8684.000000;0.688204
8683.000000;0.688241
8682.000000;0.688284
8681.000000;0.688311
8680.000000;0.688328
8679.000000;0.688346
8678.000000;0.688380
8677.000000;0.688402
8676.000000;0.688319
8675.000000;0.688082
8674.000000;0.687821
8673.000000;0.687749
8672.000000;0.687880
8671.000000;0.687998
8670.000000;0.687957
8669.000000;0.687858
8668.000000;0.687818
8667.000000;0.687728
8666.000000;0.687419
8665.000000;0.686947
8664.000000;0.686550
8663.000000;0.686350
8662.000000;0.686295
8661.000000;0.686328
8660.000000;0.686457
8659.000000;0.686623
8658.000000;0.686681
8657.000000;0.686546
8656.000000;0.686286
8655.000000;0.686035
8654.000000;0.685875
8653.000000;0.685824
8652.000000;0.685868
8651.000000;0.685996
8650.000000;0.686193
8649.000000;0.686408
8648.000000;0.686502
8647.000000;0.686314
8646.000000;0.685848
8645.000000;0.685330
8644.000000;0.685008
8643.000000;0.684913
8642.000000;0.684891
8641.000000;0.684818
8640.000000;0.684721
8639.000000;0.684685
8638.000000;0.684732
8637.000000;0.684803
8636.000000;0.684822
8635.000000;0.684760
8634.000000;0.684654
8633.000000;0.684556
8632.000000;0.684450
8631.000000;0.684272
8630.000000;0.684022
8629.000000;0.683798
8628.000000;0.683684
8627.000000;0.683654
8626.000000;0.683625
8625.000000;0.683543
8624.000000;0.683401
8623.000000;0.683231
8622.000000;0.683112
8621.000000;0.683130
8620.000000;0.683256
8619.000000;0.683338
8618.000000;0.683266
8617.000000;0.683091
8616.000000;0.682914
8615.000000;0.682731
8614.000000;0.682450
8613.000000;0.682056
8612.000000;0.681678
8611.000000;0.681493
8610.000000;0.681572
8609.000000;0.681817
8608.000000;0.682028
8607.000000;0.682068
8606.000000;0.681968
8605.000000;0.681862
8604.000000;0.681822
8603.000000;0.681806
8602.000000;0.681755
8601.000000;0.681639
8600.000000;0.681434
8599.000000;0.681126
8598.000000;0.680753
8597.000000;0.680384
8596.000000;0.680051
8595.000000;0.679790
8594.000000;0.679703
8593.000000;0.679865
8592.000000;0.680150
8591.000000;0.680295
8590.000000;0.680187
8589.000000;0.679957
8588.000000;0.679774
8587.000000;0.679672
8586.000000;0.679650
8585.000000;0.679742
8584.000000;0.679904
8583.000000;0.679954
8582.000000;0.679747
8581.000000;0.679329
8580.000000;0.678835
8579.000000;0.678355
8578.000000;0.677985
8577.000000;0.677876
8576.000000;0.678068
8575.000000;0.678367
8574.000000;0.678515
8573.000000;0.678445
8572.000000;0.678260
8571.000000;0.678042
8570.000000;0.677821
8569.000000;0.677667
8568.000000;0.677659
8567.000000;0.677757
8566.000000;0.677810
8565.000000;0.677703
8564.000000;0.677433
8563.000000;0.677065
8562.000000;0.676677
8561.000000;0.676345
8560.000000;0.676100
8559.000000;0.675927
8558.000000;0.675812
8557.000000;0.675775
8556.000000;0.675817
8555.000000;0.675905
8554.000000;0.676026
8553.000000;0.676175
8552.000000;0.676265
8551.000000;0.676137
8550.000000;0.675778
8549.000000;0.675412
8548.000000;0.675269
8547.000000;0.675310
8546.000000;0.675313
8545.000000;0.675179
8544.000000;0.675031
8543.000000;0.675003
8542.000000;0.675052
8541.000000;0.675026
8540.000000;0.674848
8539.000000;0.674590
8538.000000;0.674379
8537.000000;0.674251
8536.000000;0.674130
8535.000000;0.673938
8534.000000;0.673724
8533.000000;0.673597
8532.000000;0.673558
8531.000000;0.673483
8530.000000;0.673306
8529.000000;0.673101
8528.000000;0.672958
8527.000000;0.672852
8526.000000;0.672715
8525.000000;0.672551
8524.000000;0.672411
8523.000000;0.672307
8522.000000;0.672238
8521.000000;0.672228
8520.000000;0.672286
8519.000000;0.672353
8518.000000;0.672366
8517.000000;0.672327
8516.000000;0.672255
8515.000000;0.672130
8514.000000;0.671936
8513.000000;0.671723
8512.000000;0.671562
8511.000000;0.671482
8510.000000;0.671476
8509.000000;0.671541
8508.000000;0.671653
8507.000000;0.671750
8506.000000;0.671786
8505.000000;0.671756
8504.000000;0.671637
8503.000000;0.671396
8502.000000;0.671078
8501.000000;0.670824
8500.000000;0.670707
8499.000000;0.670642
8498.000000;0.670510
8497.000000;0.670320
8496.000000;0.670151
8495.000000;0.670013
8494.000000;0.669851
8493.000000;0.669677
8492.000000;0.669592
8491.000000;0.669644
8490.000000;0.669742
8489.000000;0.669731
8488.000000;0.669543
8487.000000;0.669281
8486.000000;0.669124
8485.000000;0.669132
8484.000000;0.669161
8483.000000;0.669033
8482.000000;0.668765
8481.000000;0.668537
8480.000000;0.668446
8479.000000;0.668425
8478.000000;0.668402
8477.000000;0.668408
8476.000000;0.668444
8475.000000;0.668379
8474.000000;0.668103
8473.000000;0.667704
8472.000000;0.667392
8471.000000;0.667290
8470.000000;0.667367
8469.000000;0.667523
8468.000000;0.667661
8467.000000;0.667726
8466.000000;0.667755
8465.000000;0.667828
8464.000000;0.667929
8463.000000;0.667917
8462.000000;0.667699
8461.000000;0.667366
8460.000000;0.667069
8459.000000;0.666844
8458.000000;0.666624
8457.000000;0.666385
8456.000000;0.666182
8455.000000;0.666058
8454.000000;0.665993
8453.000000;0.665927
8452.000000;0.665799
8451.000000;0.665594
8450.000000;0.665396
8449.000000;0.665325
8448.000000;0.665395
8447.000000;0.665480
8446.000000;0.665483
8445.000000;0.665451
8444.000000;0.665456
8443.000000;0.665457
8442.000000;0.665363
8441.000000;0.665168
8440.000000;0.664930
8439.000000;0.664659
8438.000000;0.664352
8437.000000;0.664089
8436.000000;0.663984
8435.000000;0.664040
8434.000000;0.664131
8433.000000;0.664144
8432.000000;0.664078
8431.000000;0.663994
8430.000000;0.663936
8429.000000;0.663898
8428.000000;0.663838
8427.000000;0.663720
8426.000000;0.663575
8425.000000;0.663495
8424.000000;0.663532
8423.000000;0.663606
8422.000000;0.663585
8421.000000;0.663416
8420.000000;0.663172
8419.000000;0.662952
8418.000000;0.662786
8417.000000;0.662616
8416.000000;0.662362
8415.000000;0.662028
8414.000000;0.661742
8413.000000;0.661645
8412.000000;0.661746
8411.000000;0.661914
8410.000000;0.662031
8409.000000;0.662091
8408.000000;0.662130
8407.000000;0.662126
8406.000000;0.662017
8405.000000;0.661784
8404.000000;0.661487
8403.000000;0.661234
8402.000000;0.661131
8401.000000;0.661199
8400.000000;0.661342
8399.000000;0.661423
8398.000000;0.661390
8397.000000;0.661266
8396.000000;0.661069
8395.000000;0.660837
8394.000000;0.660700
8393.000000;0.660800
8392.000000;0.661090
8391.000000;0.661311
8390.000000;0.661257
8389.000000;0.660949
8388.000000;0.660547
8387.000000;0.660167
8386.000000;0.659867
8385.000000;0.659681
8384.000000;0.659567
8383.000000;0.659411
8382.000000;0.659166
8381.000000;0.658939
8380.000000;0.658849
8379.000000;0.658871
8378.000000;0.658904
8377.000000;0.658913
8376.000000;0.658927
8375.000000;0.658941
8374.000000;0.658946
8373.000000;0.658976
8372.000000;0.659045
8371.000000;0.659072
8370.000000;0.658963
8369.000000;0.658757
8368.000000;0.658577
8367.000000;0.658457
8366.000000;0.658324
8365.000000;0.658134
8364.000000;0.657952
8363.000000;0.657855
8362.000000;0.657840
8361.000000;0.657837
8360.000000;0.657781
8359.000000;0.657655
8358.000000;0.657503
8357.000000;0.657398
8356.000000;0.657364
8355.000000;0.657356
8354.000000;0.657320
8353.000000;0.657268
8352.000000;0.657244
8351.000000;0.657241
8350.000000;0.657187
8349.000000;0.657013
8348.000000;0.656716
8347.000000;0.656370
8346.000000;0.656078
8345.000000;0.655908
8344.000000;0.655849
8343.000000;0.655854
8342.000000;0.655892
8341.000000;0.655939
8340.000000;0.655944
8339.000000;0.655867
8338.000000;0.655753
8337.000000;0.655691
8336.000000;0.655692
8335.000000;0.655678
8334.000000;0.655625
8333.000000;0.655602
8332.000000;0.655647
8331.000000;0.655677
8330.000000;0.655564
8329.000000;0.655272
8328.000000;0.654877
8327.000000;0.654505
8326.000000;0.654273
8325.000000;0.654209
8324.000000;0.654219
8323.000000;0.654190
8322.000000;0.654153
8321.000000;0.654249
8320.000000;0.654508
8319.000000;0.654763
8318.000000;0.654826
8317.000000;0.654671
8316.000000;0.654384
8315.000000;0.654036
8314.000000;0.653705
8313.000000;0.653514
8312.000000;0.653532
8311.000000;0.653655
8310.000000;0.653684
8309.000000;0.653528
8308.000000;0.653269
8307.000000;0.653060
8306.000000;0.652996
8305.000000;0.653056
8304.000000;0.653105
8303.000000;0.653001
8302.000000;0.652755
8301.000000;0.652537
8300.000000;0.652495
8299.000000;0.652608
8298.000000;0.652745
8297.000000;0.652800
8296.000000;0.652713
8295.000000;0.652456
8294.000000;0.652093
8293.000000;0.651811
8292.000000;0.651779
8291.000000;0.651969
8290.000000;0.652189
8289.000000;0.652266
8288.000000;0.652148
8287.000000;0.651867
8286.000000;0.651502
8285.000000;0.651166
8284.000000;0.650944
8283.000000;0.650839
8282.000000;0.650807
8281.000000;0.650826
8280.000000;0.650885
8279.000000;0.650921
8278.000000;0.650863
8277.000000;0.650720
8276.000000;0.650589
8275.000000;0.650552
8274.000000;0.650600
8273.000000;0.650658
8272.000000;0.650647
8271.000000;0.650516
8270.000000;0.650271
8269.000000;0.649972
8268.000000;0.649709
8267.000000;0.649564
8266.000000;0.649569
8265.000000;0.649684
8264.000000;0.649812
8263.000000;0.649883
8262.000000;0.649925
8261.000000;0.650009
8260.000000;0.650111
8259.000000;0.650118
8258.000000;0.649971
8257.000000;0.649736
8256.000000;0.649499
8255.000000;0.649260
8254.000000;0.648995
8253.000000;0.648756
8252.000000;0.648621
8251.000000;0.648593
8250.000000;0.648608
8249.000000;0.648626
8248.000000;0.648649
8247.000000;0.648679
8246.000000;0.648700
8245.000000;0.648696
8244.000000;0.648640
8243.000000;0.648506
8242.000000;0.648320
8241.000000;0.648174
8240.000000;0.648125
8239.000000;0.648119
8238.000000;0.648065
8237.000000;0.647929
8236.000000;0.647729
8235.000000;0.647492
8234.000000;0.647274
8233.000000;0.647183
8232.000000;0.647272
8231.000000;0.647427
8230.000000;0.647451
8229.000000;0.647279
8228.000000;0.647043
8227.000000;0.646891
8226.000000;0.646816
8225.000000;0.646700
8224.000000;0.646474
8223.000000;0.646215
8222.000000;0.646076
8221.000000;0.646146
8220.000000;0.646360
8219.000000;0.646547
8218.000000;0.646576
8217.000000;0.646444
8216.000000;0.646234
8215.000000;0.646014
8214.000000;0.645808
8213.000000;0.645643
8212.000000;0.645553
8211.000000;0.645522
8210.000000;0.645477
8209.000000;0.645359
8208.000000;0.645191
8207.000000;0.645051
8206.000000;0.644982
8205.000000;0.644961
8204.000000;0.644961
8203.000000;0.644985
8202.000000;0.645042
8201.000000;0.645089
8200.000000;0.645069
8199.000000;0.644991
8198.000000;0.644922
8197.000000;0.644890
8196.000000;0.644839
8195.000000;0.644724
8194.000000;0.644589
8193.000000;0.644487
8192.000000;0.644379
8191.000000;0.644181
8190.000000;0.643915
8189.000000;0.643697
8188.000000;0.643601
8187.000000;0.643581
8186.000000;0.643558
8185.000000;0.643524
8184.000000;0.643518
8183.000000;0.643546
8182.000000;0.643566
8181.000000;0.643531
8180.000000;0.643440
8179.000000;0.643347
8178.000000;0.643327
8177.000000;0.643386
8176.000000;0.643438
8175.000000;0.643394
8174.000000;0.643254
8173.000000;0.643076
8172.000000;0.642879
8171.000000;0.642653
8170.000000;0.642447
8169.000000;0.642344
8168.000000;0.642347
8167.000000;0.642353
8166.000000;0.642275
8165.000000;0.642135
8164.000000;0.641997
8163.000000;0.641889
8162.000000;0.641823
8161.000000;0.641841
8160.000000;0.641984
8159.000000;0.642220
8158.000000;0.642430
8157.000000;0.642469
8156.000000;0.642263
8155.000000;0.641877
8154.000000;0.641477
8153.000000;0.641195
8152.000000;0.641033
8151.000000;0.640930
8150.000000;0.640874
8149.000000;0.640893
8148.000000;0.640948
8147.000000;0.640939
8146.000000;0.640829
8145.000000;0.640695
8144.000000;0.640635
8143.000000;0.640677
8142.000000;0.640792
8141.000000;0.640925
8140.000000;0.641002
8139.000000;0.640972
8138.000000;0.640852
8137.000000;0.640699
8136.000000;0.640537
8135.000000;0.640380
8134.000000;0.640293
8133.000000;0.640332
8132.000000;0.640415
8131.000000;0.640358
8130.000000;0.640089
8129.000000;0.639751
8128.000000;0.639538
8127.000000;0.639513
8126.000000;0.639615
8125.000000;0.639761
8124.000000;0.639881
8123.000000;0.639929
8122.000000;0.639897
8121.000000;0.639820
8120.000000;0.639716
8119.000000;0.639573
8118.000000;0.639400
8117.000000;0.639235
8116.000000;0.639074
8115.000000;0.638871
8114.000000;0.638641
8113.000000;0.638477
8112.000000;0.638443
8111.000000;0.638495
8110.000000;0.638565
8109.000000;0.638630
8108.000000;0.638667
8107.000000;0.638618
8106.000000;0.638472
8105.000000;0.638312
8104.000000;0.638223
8103.000000;0.638189
8102.000000;0.638152
8101.000000;0.638110
8100.000000;0.638096
8099.000000;0.638110
8098.000000;0.638117
8097.000000;0.638098
8096.000000;0.638051
8095.000000;0.637966
8094.000000;0.637857
8093.000000;0.637765
8092.000000;0.637701
8091.000000;0.637612
8090.000000;0.637463
8089.000000;0.637315
8088.000000;0.637265
8087.000000;0.637312
8086.000000;0.637347
8085.000000;0.637266
8084.000000;0.637058
8083.000000;0.636802
8082.000000;0.636607
8081.000000;0.636547
8080.000000;0.636596
8079.000000;0.636645
8078.000000;0.636606
8077.000000;0.636488
8076.000000;0.636346
8075.000000;0.636195
8074.000000;0.636018
8073.000000;0.635848
8072.000000;0.635786
8071.000000;0.635912
8070.000000;0.636178
8069.000000;0.636401
8068.000000;0.636391
8067.000000;0.636111
8066.000000;0.635722
8065.000000;0.635462
8064.000000;0.635450
8063.000000;0.635605
8062.000000;0.635741
8061.000000;0.635719
8060.000000;0.635533
8059.000000;0.635286
8058.000000;0.635102
8057.000000;0.635016
8056.000000;0.634955
8055.000000;0.634838
8054.000000;0.634678
8053.000000;0.634557
8052.000000;0.634529
8051.000000;0.634581
8050.000000;0.634688
8049.000000;0.634825
8048.000000;0.634927
8047.000000;0.634926
8046.000000;0.634830
8045.000000;0.634728
8044.000000;0.634684
8043.000000;0.634688
8042.000000;0.634699
8041.000000;0.634694
8040.000000;0.634630
8039.000000;0.634446
8038.000000;0.634144
8037.000000;0.633817
8036.000000;0.633571
8035.000000;0.633439
8034.000000;0.633394
8033.000000;0.633403
8032.000000;0.633434
8031.000000;0.633458
8030.000000;0.633458
8029.000000;0.633432
8028.000000;0.633389
8027.000000;0.633339
8026.000000;0.633313
8025.000000;0.633337
8024.000000;0.633393
8023.000000;0.633427
8022.000000;0.633391
8021.000000;0.633259
8020.000000;0.633032
8019.000000;0.632773
8018.000000;0.632606
8017.000000;0.632614
8016.000000;0.632736
8015.000000;0.632832
8014.000000;0.632845
8013.000000;0.632825
8012.000000;0.632814
8011.000000;0.632780
8010.000000;0.632688
8009.000000;0.632548
8008.000000;0.632377
8007.000000;0.632195
8006.000000;0.632083
8005.000000;0.632135
8004.000000;0.632316
8003.000000;0.632448
8002.000000;0.632382
8001.000000;0.632153
8000.000000;0.631918
7999.000000;0.631799
7998.000000;0.631825
7997.000000;0.631946
7996.000000;0.632056
7995.000000;0.632044
7994.000000;0.631892
7993.000000;0.631678
7992.000000;0.631465
7991.000000;0.631228
7990.000000;0.630951
7989.000000;0.630716
7988.000000;0.630632
7987.000000;0.630701
7986.000000;0.630815
7985.000000;0.630868
7984.000000;0.630827
7983.000000;0.630732
7982.000000;0.630647
7981.000000;0.630608
7980.000000;0.630581
7979.000000;0.630491
7978.000000;0.630321
7977.000000;0.630147
7976.000000;0.630059
7975.000000;0.630073
7974.000000;0.630147
7973.000000;0.630234
7972.000000;0.630305
7971.000000;0.630343
7970.000000;0.630367
7969.000000;0.630419
7968.000000;0.630500
7967.000000;0.630546
7966.000000;0.630493
7965.000000;0.630352
7964.000000;0.630187
7963.000000;0.630052
7962.000000;0.629965
7961.000000;0.629911
7960.000000;0.629853
7959.000000;0.629746
7958.000000;0.629590
7957.000000;0.629431
7956.000000;0.629307
7955.000000;0.629209
7954.000000;0.629115
7953.000000;0.629021
7952.000000;0.628923
7951.000000;0.628808
7950.000000;0.628691
7949.000000;0.628631
7948.000000;0.628676
7947.000000;0.628780
7946.000000;0.628826
7945.000000;0.628727
7944.000000;0.628503
7943.000000;0.628266
7942.000000;0.628122
7941.000000;0.628091
7940.000000;0.628100
7939.000000;0.628077
7938.000000;0.628022
7937.000000;0.627988
7936.000000;0.628001
7935.000000;0.628035
7934.000000;0.628046
7933.000000;0.628013
7932.000000;0.627933
7931.000000;0.627812
7930.000000;0.627674
7929.000000;0.627540
7928.000000;0.627422
7927.000000;0.627330
7926.000000;0.627287
7925.000000;0.627302
7924.000000;0.627349
7923.000000;0.627410
7922.000000;0.627494
7921.000000;0.627588
7920.000000;0.627608
7919.000000;0.627473
7918.000000;0.627209
7917.000000;0.626934
7916.000000;0.626750
7915.000000;0.626685
7914.000000;0.626711
7913.000000;0.626773
7912.000000;0.626813
7911.000000;0.626821
7910.000000;0.626858
7909.000000;0.626955
7908.000000;0.627038
7907.000000;0.626997
7906.000000;0.626828
7905.000000;0.626622
7904.000000;0.626440
7903.000000;0.626278
7902.000000;0.626144
7901.000000;0.626063
7900.000000;0.626017
7899.000000;0.625948
7898.000000;0.625852
7897.000000;0.625784
7896.000000;0.625756
7895.000000;0.625712
7894.000000;0.625635
7893.000000;0.625581
7892.000000;0.625575
7891.000000;0.625553
7890.000000;0.625444
7889.000000;0.625254
7888.000000;0.625046
7887.000000;0.624872
7886.000000;0.624770
7885.000000;0.624755
7884.000000;0.624791
7883.000000;0.624821
7882.000000;0.624824
7881.000000;0.624822
7880.000000;0.624824
7879.000000;0.624820
7878.000000;0.624829
7877.000000;0.624877
7876.000000;0.624925
7875.000000;0.624902
7874.000000;0.624827
7873.000000;0.624791
7872.000000;0.624816
7871.000000;0.624807
7870.000000;0.624693
7869.000000;0.624517
7868.000000;0.624332
7867.000000;0.624123
7866.000000;0.623869
7865.000000;0.623637
7864.000000;0.623516
7863.000000;0.623530
7862.000000;0.623646
7861.000000;0.623832
7860.000000;0.624025
7859.000000;0.624120
7858.000000;0.624068
7857.000000;0.623941
7856.000000;0.623844
7855.000000;0.623790
7854.000000;0.623703
7853.000000;0.623546
7852.000000;0.623365
7851.000000;0.623233
7850.000000;0.623181
7849.000000;0.623184
7848.000000;0.623186
7847.000000;0.623140
7846.000000;0.623041
7845.000000;0.622911
7844.000000;0.622767
7843.000000;0.622614
7842.000000;0.622486
7841.000000;0.622428
7840.000000;0.622441
7839.000000;0.622475
7838.000000;0.622499
7837.000000;0.622527
7836.000000;0.622566
7835.000000;0.622597
7834.000000;0.622614
7833.000000;0.622635
7832.000000;0.622650
7831.000000;0.622616
7830.000000;0.622521
7829.000000;0.622410
7828.000000;0.622318
7827.000000;0.622241
7826.000000;0.622191
7825.000000;0.622206
7824.000000;0.622278
7823.000000;0.622318
7822.000000;0.622249
7821.000000;0.622094
7820.000000;0.621936
7819.000000;0.621830
7818.000000;0.621787
7817.000000;0.621800
7816.000000;0.621828
7815.000000;0.621783
7814.000000;0.621603
7813.000000;0.621320
7812.000000;0.621035
7811.000000;0.620842
7810.000000;0.620782
7809.000000;0.620845
7808.000000;0.620971
7807.000000;0.621085
7806.000000;0.621142
7805.000000;0.621130
7804.000000;0.621027
7803.000000;0.620821
7802.000000;0.620569
7801.000000;0.620387
7800.000000;0.620353
7799.000000;0.620439
7798.000000;0.620572
7797.000000;0.620701
7796.000000;0.620785
7795.000000;0.620771
7794.000000;0.620640
7793.000000;0.620437
7792.000000;0.620225
7791.000000;0.620035
7790.000000;0.619882
7789.000000;0.619799
7788.000000;0.619814
7787.000000;0.619907
7786.000000;0.620032
7785.000000;0.620150
7784.000000;0.620232
7783.000000;0.620244
7782.000000;0.620183
7781.000000;0.620083
7780.000000;0.619971
7779.000000;0.619828
7778.000000;0.619620
7777.000000;0.619357
7776.000000;0.619104
7775.000000;0.618945
7774.000000;0.618913
7773.000000;0.618958
7772.000000;0.618974
7771.000000;0.618897
7770.000000;0.618781
7769.000000;0.618739
7768.000000;0.618806
7767.000000;0.618907
7766.000000;0.618950
7765.000000;0.618919
7764.000000;0.618847
7763.000000;0.618760
7762.000000;0.618669
7761.000000;0.618578
7760.000000;0.618485
7759.000000;0.618390
7758.000000;0.618316
7757.000000;0.618277
7756.000000;0.618230
7755.000000;0.618114
7754.000000;0.617936
7753.000000;0.617784
7752.000000;0.617726
7751.000000;0.617744
7750.000000;0.617776
7749.000000;0.617776
7748.000000;0.617730
7747.000000;0.617638
7746.000000;0.617524
7745.000000;0.617414
7744.000000;0.617304
7743.000000;0.617192
7742.000000;0.617128
7741.000000;0.617182
7740.000000;0.617343
7739.000000;0.617503
7738.000000;0.617565
7737.000000;0.617518
7736.000000;0.617404
7735.000000;0.617259
7734.000000;0.617134
7733.000000;0.617100
7732.000000;0.617179
7731.000000;0.617294
7730.000000;0.617328
7729.000000;0.617218
7728.000000;0.616987
7727.000000;0.616723
7726.000000;0.616544
7725.000000;0.616516
7724.000000;0.616602
7723.000000;0.616697
7722.000000;0.616746
7721.000000;0.616772
7720.000000;0.616802
7719.000000;0.616799
7718.000000;0.616720
7717.000000;0.616575
7716.000000;0.616408
7715.000000;0.616250
7714.000000;0.616106
7713.000000;0.615978
7712.000000;0.615849
7711.000000;0.615701
7710.000000;0.615549
7709.000000;0.615444
7708.000000;0.615415
7707.000000;0.615458
7706.000000;0.615561
7705.000000;0.615698
7704.000000;0.615802
7703.000000;0.615790
7702.000000;0.615662
7701.000000;0.615495
7700.000000;0.615343
7699.000000;0.615185
7698.000000;0.615013
7697.000000;0.614883
7696.000000;0.614852
7695.000000;0.614899
7694.000000;0.614967
7693.000000;0.615036
7692.000000;0.615102
7691.000000;0.615133
7690.000000;0.615096
7689.000000;0.615001
7688.000000;0.614891
7687.000000;0.614791
7686.000000;0.614704
7685.000000;0.614636
7684.000000;0.614580
7683.000000;0.614518
7682.000000;0.614440
7681.000000;0.614360
7680.000000;0.614290
7679.000000;0.614227
7678.000000;0.614168
7677.000000;0.614116
7676.000000;0.614046
7675.000000;0.613941
7674.000000;0.613848
7673.000000;0.613848
7672.000000;0.613935
7671.000000;0.613989
7670.000000;0.613910
7669.000000;0.613726
7668.000000;0.613533
7667.000000;0.613383
7666.000000;0.613271
7665.000000;0.613191
7664.000000;0.613139
7663.000000;0.613086
7662.000000;0.613019
7661.000000;0.612990
7660.000000;0.613062
7659.000000;0.613221
7658.000000;0.613367
7657.000000;0.613397
7656.000000;0.613267
7655.000000;0.613013
7654.000000;0.612729
7653.000000;0.612521
7652.000000;0.612437
7651.000000;0.612429
7650.000000;0.612417
7649.000000;0.612372
7648.000000;0.612330
7647.000000;0.612336
7646.000000;0.612391
7645.000000;0.612465
7644.000000;0.612518
7643.000000;0.612524
7642.000000;0.612478
7641.000000;0.612394
7640.000000;0.612298
7639.000000;0.612224
7638.000000;0.612201
7637.000000;0.612209
7636.000000;0.612172
7635.000000;0.612019
7634.000000;0.611776
7633.000000;0.611543
7632.000000;0.611406
7631.000000;0.611366
7630.000000;0.611365
7629.000000;0.611344
7628.000000;0.611278
7627.000000;0.611203
7626.000000;0.611199
7625.000000;0.611315
7624.000000;0.611491
7623.000000;0.611598
7622.000000;0.611572
7621.000000;0.611456
7620.000000;0.611334
7619.000000;0.611242
7618.000000;0.611169
7617.000000;0.611080
7616.000000;0.610946
7615.000000;0.610779
7614.000000;0.610646
7613.000000;0.610610
7612.000000;0.610655
7611.000000;0.610705
7610.000000;0.610725
7609.000000;0.610747
7608.000000;0.610800
7607.000000;0.610876
7606.000000;0.610963
7605.000000;0.611050
7604.000000;0.611089
7603.000000;0.611018
7602.000000;0.610848
7601.000000;0.610667
7600.000000;0.610535
7599.000000;0.610424
7598.000000;0.610292
7597.000000;0.610155
7596.000000;0.610051
7595.000000;0.609992
7594.000000;0.609975
7593.000000;0.610016
7592.000000;0.610112
7591.000000;0.610221
7590.000000;0.610294
7589.000000;0.610322
7588.000000;0.610305
7587.000000;0.610226
7586.000000;0.610086
7585.000000;0.609916
7584.000000;0.609734
7583.000000;0.609535
7582.000000;0.609346
7581.000000;0.609235
7580.000000;0.609238
7579.000000;0.609309
7578.000000;0.609384
7577.000000;0.609447
7576.000000;0.609517
7575.000000;0.609586
7574.000000;0.609631
7573.000000;0.609639
7572.000000;0.609608
7571.000000;0.609543
7570.000000;0.609481
7569.000000;0.609470
7568.000000;0.609499
7567.000000;0.609491
7566.000000;0.609397
7565.000000;0.609260
7564.000000;0.609146
7563.000000;0.609053
7562.000000;0.608942
7561.000000;0.608821
7560.000000;0.608718
7559.000000;0.608629
7558.000000;0.608531
7557.000000;0.608445
7556.000000;0.608432
7555.000000;0.608513
7554.000000;0.608641
7553.000000;0.608739
7552.000000;0.608752
7551.000000;0.608665
7550.000000;0.608506
7549.000000;0.608348
7548.000000;0.608261
7547.000000;0.608277
7546.000000;0.608387
7545.000000;0.608559
7544.000000;0.608735
7543.000000;0.608845
7542.000000;0.608848
7541.000000;0.608764
7540.000000;0.608647
7539.000000;0.608549
7538.000000;0.608501
7537.000000;0.608504
7536.000000;0.608507
7535.000000;0.608439
7534.000000;0.608280
7533.000000;0.608093
7532.000000;0.607964
7531.000000;0.607923
7530.000000;0.607945
7529.000000;0.608007
7528.000000;0.608102
7527.000000;0.608211
7526.000000;0.608296
7525.000000;0.608325
7524.000000;0.608281
7523.000000;0.608178
7522.000000;0.608049
7521.000000;0.607940
7520.000000;0.607879
7519.000000;0.607868
7518.000000;0.607896
7517.000000;0.607939
7516.000000;0.607962
7515.000000;0.607941
7514.000000;0.607894
7513.000000;0.607863
7512.000000;0.607861
7511.000000;0.607861
7510.000000;0.607836
7509.000000;0.607791
7508.000000;0.607742
7507.000000;0.607713
7506.000000;0.607736
7505.000000;0.607816
7504.000000;0.607887
7503.000000;0.607856
7502.000000;0.607702
7501.000000;0.607504
7500.000000;0.607364
7499.000000;0.607315
7498.000000;0.607354
7497.000000;0.607472
7496.000000;0.607642
7495.000000;0.607789
7494.000000;0.607840
7493.000000;0.607782
7492.000000;0.607652
7491.000000;0.607483
7490.000000;0.607274
7489.000000;0.607102
7488.000000;0.607015
7487.000000;0.607047
7486.000000;0.607169
7485.000000;0.607323
7484.000000;0.607462
7483.000000;0.607568
7482.000000;0.607623
7481.000000;0.607605
7480.000000;0.607507
7479.000000;0.607365
7478.000000;0.607240
7477.000000;0.607166
7476.000000;0.607133
7475.000000;0.607133
7474.000000;0.607180
7473.000000;0.607281
7472.000000;0.607387
7471.000000;0.607437
7470.000000;0.607422
7469.000000;0.607388
7468.000000;0.607372
7467.000000;0.607373
7466.000000;0.607379
7465.000000;0.607384
7464.000000;0.607383
7463.000000;0.607367
7462.000000;0.607340
7461.000000;0.607305
7460.000000;0.607249
7459.000000;0.607164
7458.000000;0.607079
7457.000000;0.607034
7456.000000;0.607027
7455.000000;0.607041
7454.000000;0.607082
7453.000000;0.607170
7452.000000;0.607282
7451.000000;0.607366
7450.000000;0.607407
7449.000000;0.607440
7448.000000;0.607489
7447.000000;0.607550
7446.000000;0.607616
7445.000000;0.607676
7444.000000;0.607690
7443.000000;0.607625
7442.000000;0.607513
7441.000000;0.607434
7440.000000;0.607408
7439.000000;0.607386
7438.000000;0.607346
7437.000000;0.607341
7436.000000;0.607429
7435.000000;0.607592
7434.000000;0.607760
7433.000000;0.607868
7432.000000;0.607881
7431.000000;0.607807
7430.000000;0.607689
7429.000000;0.607579
7428.000000;0.607497
7427.000000;0.607451
7426.000000;0.607469
7425.000000;0.607569
7424.000000;0.607691
7423.000000;0.607741
7422.000000;0.607701
7421.000000;0.607635
7420.000000;0.607587
7419.000000;0.607526
7418.000000;0.607430
7417.000000;0.607352
7416.000000;0.607350
7415.000000;0.607410
7414.000000;0.607471
7413.000000;0.607507
7412.000000;0.607519
7411.000000;0.607506
7410.000000;0.607464
7409.000000;0.607418
7408.000000;0.607401
7407.000000;0.607424
7406.000000;0.607464
7405.000000;0.607483
7404.000000;0.607454
7403.000000;0.607381
7402.000000;0.607303
7401.000000;0.607245
7400.000000;0.607181
7399.000000;0.607084
7398.000000;0.607008
7397.000000;0.607052
7396.000000;0.607237
7395.000000;0.607484
7394.000000;0.607716
7393.000000;0.607922
7392.000000;0.608083
7391.000000;0.608120
7390.000000;0.607985
7389.000000;0.607758
7388.000000;0.607571
7387.000000;0.607467
7386.000000;0.607398
7385.000000;0.607337
7384.000000;0.607313
7383.000000;0.607341
7382.000000;0.607384
7381.000000;0.607408
7380.000000;0.607415
7379.000000;0.607398
7378.000000;0.607298
7377.000000;0.607063
7376.000000;0.606745
7375.000000;0.606506
7374.000000;0.606499
7373.000000;0.606732
7372.000000;0.607077
7371.000000;0.607384
7370.000000;0.607575
7369.000000;0.607659
7368.000000;0.607714
7367.000000;0.607836
7366.000000;0.608051
7365.000000;0.608272
7364.000000;0.608358
7363.000000;0.608255
7362.000000;0.608046
7361.000000;0.607876
7360.000000;0.607828
7359.000000;0.607888
7358.000000;0.607977
7357.000000;0.608002
7356.000000;0.607946
7355.000000;0.607911
7354.000000;0.608043
7353.000000;0.608346
7352.000000;0.608640
7351.000000;0.608747
7350.000000;0.608673
7349.000000;0.608557
7348.000000;0.608504
7347.000000;0.608510
7346.000000;0.608523
7345.000000;0.608499
7344.000000;0.608412
7343.000000;0.608265
7342.000000;0.608076
7341.000000;0.607862
7340.000000;0.607657
7339.000000;0.607559
7338.000000;0.607681
7337.000000;0.608006
7336.000000;0.608365
7335.000000;0.608622
7334.000000;0.608811
7333.000000;0.609048
7332.000000;0.609343
7331.000000;0.609609
7330.000000;0.609794
7329.000000;0.609902
7328.000000;0.609942
7327.000000;0.609927
7326.000000;0.609923
7325.000000;0.609982
7324.000000;0.610062
7323.000000;0.610078
7322.000000;0.610027
7321.000000;0.609983
7320.000000;0.609988
7319.000000;0.610036
7318.000000;0.610144
7317.000000;0.610358
7316.000000;0.610664
7315.000000;0.610992
7314.000000;0.611298
7313.000000;0.611586
7312.000000;0.611854
7311.000000;0.612077
7310.000000;0.612238
7309.000000;0.612307
7308.000000;0.612216
7307.000000;0.611963
7306.000000;0.611696
7305.000000;0.611602
7304.000000;0.611708
7303.000000;0.611903
7302.000000;0.612119
7301.000000;0.612373
7300.000000;0.612670
7299.000000;0.612999
7298.000000;0.613395
7297.000000;0.613869
7296.000000;0.614279
7295.000000;0.614429
7294.000000;0.614332
7293.000000;0.614261
7292.000000;0.614439
7291.000000;0.614795
7290.000000;0.615116
7289.000000;0.615290
7288.000000;0.615347
7287.000000;0.615351
7286.000000;0.615375
7285.000000;0.615503
7284.000000;0.615754
7283.000000;0.616034
7282.000000;0.616239
7281.000000;0.616373
7280.000000;0.616519
7279.000000;0.616716
7278.000000;0.616932
7277.000000;0.617117
7276.000000;0.617254
7275.000000;0.617361
7274.000000;0.617497
7273.000000;0.617726
7272.000000;0.618045
7271.000000;0.618365
7270.000000;0.618610
7269.000000;0.618785
7268.000000;0.618949
7267.000000;0.619147
7266.000000;0.619400
7265.000000;0.619707
7264.000000;0.620027
7263.000000;0.620297
7262.000000;0.620512
7261.000000;0.620744
7260.000000;0.621054
7259.000000;0.621409
7258.000000;0.621736
7257.000000;0.622004
7256.000000;0.622229
7255.000000;0.622418
7254.000000;0.622591
7253.000000;0.622792
7252.000000;0.623057
7251.000000;0.623357
7250.000000;0.623635
7249.000000;0.623875
7248.000000;0.624134
7247.000000;0.624481
7246.000000;0.624931
7245.000000;0.625406
7244.000000;0.625794
7243.000000;0.626070
7242.000000;0.626328
7241.000000;0.626650
7240.000000;0.626957
7239.000000;0.627094
7238.000000;0.627065
7237.000000;0.627070
7236.000000;0.627298
7235.000000;0.627740
7234.000000;0.628230
7233.000000;0.628624
7232.000000;0.628903
7231.000000;0.629162
7230.000000;0.629505
7229.000000;0.629919
7228.000000;0.630254
7227.000000;0.630388
7226.000000;0.630424
7225.000000;0.630644
7224.000000;0.631217
7223.000000;0.632048
7222.000000;0.632913
7221.000000;0.633660
7220.000000;0.634245
7219.000000;0.634683
7218.000000;0.635024
7217.000000;0.635343
7216.000000;0.635683
7215.000000;0.636024
7214.000000;0.636346
7213.000000;0.636694
7212.000000;0.637151
7211.000000;0.637763
7210.000000;0.638498
7209.000000;0.639248
7208.000000;0.639859
7207.000000;0.640226
7206.000000;0.640414
7205.000000;0.640645
7204.000000;0.641119
7203.000000;0.641847
7202.000000;0.642680
7201.000000;0.643446
7200.000000;0.644042
7199.000000;0.644455
7198.000000;0.644769
7197.000000;0.645125
7196.000000;0.645624
7195.000000;0.646267
7194.000000;0.646979
7193.000000;0.647656
7192.000000;0.648200
7191.000000;0.648572
7190.000000;0.648835
7189.000000;0.649125
7188.000000;0.649545
7187.000000;0.650129
7186.000000;0.650882
7185.000000;0.651759
7184.000000;0.652603
7183.000000;0.653216
7182.000000;0.653561
7181.000000;0.653826
7180.000000;0.654231
7179.000000;0.654815
7178.000000;0.655443
7177.000000;0.655950
7176.000000;0.656246
7175.000000;0.656416
7174.000000;0.656734
7173.000000;0.657454
7172.000000;0.658527
7171.000000;0.659631
7170.000000;0.660526
7169.000000;0.661237
7168.000000;0.661846
7167.000000;0.662309
7166.000000;0.662603
7165.000000;0.662884
7164.000000;0.663297
7163.000000;0.663744
7162.000000;0.664043
7161.000000;0.664253
7160.000000;0.664649
7159.000000;0.665377
7158.000000;0.666288
7157.000000;0.667151
7156.000000;0.667879
7155.000000;0.668530
7154.000000;0.669201
7153.000000;0.669966
7152.000000;0.670873
7151.000000;0.671960
7150.000000;0.673240
7149.000000;0.674626
7148.000000;0.675883
7147.000000;0.676745
7146.000000;0.677145
7145.000000;0.677264
7144.000000;0.677317
7143.000000;0.677390
7142.000000;0.677484
7141.000000;0.677601
7140.000000;0.677741
7139.000000;0.677914
7138.000000;0.678190
7137.000000;0.678624
7136.000000;0.679129
7135.000000;0.679560
7134.000000;0.679903
7133.000000;0.680224
7132.000000;0.680491
7131.000000;0.680660
7130.000000;0.680927
7129.000000;0.681617
7128.000000;0.682717
7127.000000;0.683778
7126.000000;0.684363
7125.000000;0.684412
7124.000000;0.684127
7123.000000;0.683749
7122.000000;0.683517
7121.000000;0.683547
7120.000000;0.683679
7119.000000;0.683708
7118.000000;0.683819
7117.000000;0.684438
7116.000000;0.685523
7115.000000;0.686440
7114.000000;0.686763
7113.000000;0.686786
7112.000000;0.686989
7111.000000;0.687404
7110.000000;0.687804
7109.000000;0.688143
7108.000000;0.688408
7107.000000;0.688319
7106.000000;0.687609
7105.000000;0.686415
7104.000000;0.685076
7103.000000;0.683757
7102.000000;0.682594
7101.000000;0.681915
7100.000000;0.681944
7099.000000;0.682414
7098.000000;0.682816
7097.000000;0.682917
7096.000000;0.682775
7095.000000;0.682444
7094.000000;0.681948
7093.000000;0.681356
7092.000000;0.680599
7091.000000;0.679416
7090.000000;0.677767
7089.000000;0.676067
7088.000000;0.674773
7087.000000;0.673984
7086.000000;0.673616
7085.000000;0.673609
7084.000000;0.673662
7083.000000;0.673182
7082.000000;0.671928
7081.000000;0.670433
7080.000000;0.669358
7079.000000;0.668702
7078.000000;0.668013
7077.000000;0.667103
7076.000000;0.666048
7075.000000;0.664775
7074.000000;0.663173
7073.000000;0.661518
7072.000000;0.660260
7071.000000;0.659434
7070.000000;0.658696
7069.000000;0.657853
7068.000000;0.656937
7067.000000;0.655824
7066.000000;0.654216
7065.000000;0.652024
7064.000000;0.649510
7063.000000;0.647083
7062.000000;0.645193
7061.000000;0.644182
7060.000000;0.643890
7059.000000;0.643558
7058.000000;0.642496
7057.000000;0.640775
7056.000000;0.638935
7055.000000;0.637209
7054.000000;0.635418
7053.000000;0.633480
7052.000000;0.631559
7051.000000;0.629752
7050.000000;0.628021
7049.000000;0.626380
7048.000000;0.624815
7047.000000;0.623071
7046.000000;0.620828
7045.000000;0.618107
7044.000000;0.615238
7043.000000;0.612495
7042.000000;0.610055
7041.000000;0.608140
7040.000000;0.606823
7039.000000;0.605715
7038.000000;0.604225
7037.000000;0.602214
7036.000000;0.600138
7035.000000;0.598425
7034.000000;0.596919
7033.000000;0.594985
7032.000000;0.592070
7031.000000;0.588197
7030.000000;0.584086
7029.000000;0.580726
7028.000000;0.578598
7027.000000;0.577221
7026.000000;0.575573
7025.000000;0.572997
7024.000000;0.569709
7023.000000;0.566486
7022.000000;0.563987
7021.000000;0.562295
7020.000000;0.560972
7019.000000;0.559498
7018.000000;0.557693
7017.000000;0.555804
7016.000000;0.554243
7015.000000;0.553237
7014.000000;0.552535
7013.000000;0.551407
7012.000000;0.549114
7011.000000;0.545601
7010.000000;0.541549
7009.000000;0.537637
7008.000000;0.533945
7007.000000;0.530280
7006.000000;0.526766
7005.000000;0.523657
7004.000000;0.520771
7003.000000;0.517653
7002.000000;0.514300
7001.000000;0.511282
7000.000000;0.509044
6999.000000;0.507470
6998.000000;0.506143
6997.000000;0.504684
6996.000000;0.502779
6995.000000;0.500265
6994.000000;0.497335
6993.000000;0.494387
6992.000000;0.491615
6991.000000;0.488969
6990.000000;0.486504
6989.000000;0.484460
6988.000000;0.482923
6987.000000;0.481593
6986.000000;0.479900
6985.000000;0.477297
6984.000000;0.473648
6983.000000;0.469536
6982.000000;0.465963
6981.000000;0.463409
6980.000000;0.461305
6979.000000;0.458727
6978.000000;0.455408
6977.000000;0.451712
6976.000000;0.447967
6975.000000;0.444357
6974.000000;0.441198
6973.000000;0.438701
6972.000000;0.436551
6971.000000;0.434260
6970.000000;0.431855
6969.000000;0.429720
6968.000000;0.427903
6967.000000;0.426124
6966.000000;0.424409
6965.000000;0.423128
6964.000000;0.422320
6963.000000;0.421396
6962.000000;0.419586
6961.000000;0.416450
6960.000000;0.412081
6959.000000;0.407126
6958.000000;0.402438
6957.000000;0.398440
6956.000000;0.395075
6955.000000;0.392534
6954.000000;0.391403
6953.000000;0.391547
6952.000000;0.391500
6951.000000;0.389775
6950.000000;0.386484
6949.000000;0.382849
6948.000000;0.379521
6947.000000;0.376331
6946.000000;0.373317
6945.000000;0.370830
6944.000000;0.368643
6943.000000;0.366004
6942.000000;0.362807
6941.000000;0.359865
6940.000000;0.357810
6939.000000;0.356395
6938.000000;0.355024
6937.000000;0.353376
6936.000000;0.351379
6935.000000;0.349174
6934.000000;0.347193
6933.000000;0.345764
6932.000000;0.344554
6931.000000;0.342888
6930.000000;0.340588
6929.000000;0.337993
6928.000000;0.335267
6927.000000;0.332316
6926.000000;0.329311
6925.000000;0.326642
6924.000000;0.324353
6923.000000;0.322213
6922.000000;0.320323
6921.000000;0.319057
6920.000000;0.318373
6919.000000;0.317721
6918.000000;0.316631
6917.000000;0.314990
6916.000000;0.312849
6915.000000;0.310411
6914.000000;0.308118
6913.000000;0.306243
6912.000000;0.304581
6911.000000;0.302961
6910.000000;0.301752
6909.000000;0.301251
6908.000000;0.300881
6907.000000;0.299778
6906.000000;0.297929
6905.000000;0.295994
6904.000000;0.294210
6903.000000;0.292330
6902.000000;0.290520
6901.000000;0.289340
6900.000000;0.288725
6899.000000;0.287788
6898.000000;0.285822
6897.000000;0.282992
6896.000000;0.279989
6895.000000;0.277549
6894.000000;0.276274
6893.000000;0.276247
6892.000000;0.276714
6891.000000;0.276644
6890.000000;0.275595
6889.000000;0.273692
6888.000000;0.271065
6887.000000;0.267936
6886.000000;0.265029
6885.000000;0.263139
6884.000000;0.262323
6883.000000;0.262074
6882.000000;0.262072
6881.000000;0.262212
6880.000000;0.262172
6879.000000;0.261726
6878.000000;0.261308
6877.000000;0.261517
6876.000000;0.262095
6875.000000;0.262142
6874.000000;0.261291
6873.000000;0.259999
6872.000000;0.258754
6871.000000;0.257646
6870.000000;0.256638
6869.000000;0.255608
6868.000000;0.254211
6867.000000;0.252344
6866.000000;0.250582
6865.000000;0.249531
6864.000000;0.248982
6863.000000;0.248418
6862.000000;0.248007
6861.000000;0.248199
6860.000000;0.248597
6859.000000;0.248249
6858.000000;0.247066
6857.000000;0.246043
6856.000000;0.245960
6855.000000;0.246583
6854.000000;0.247169
6853.000000;0.247011
6852.000000;0.245554
6851.000000;0.242859
6850.000000;0.240091
6849.000000;0.238775
6848.000000;0.239334
6847.000000;0.240906
6846.000000;0.242535
6845.000000;0.243786
6844.000000;0.244270
6843.000000;0.243599
6842.000000;0.242133
6841.000000;0.240977
6840.000000;0.240758
6839.000000;0.240954
6838.000000;0.240741
6837.000000;0.239973
6836.000000;0.239124
6835.000000;0.238765
6834.000000;0.239273
6833.000000;0.240569
6832.000000;0.242013
6831.000000;0.242931
6830.000000;0.243311
6829.000000;0.243581
6828.000000;0.243776
6827.000000;0.243495
6826.000000;0.242668
6825.000000;0.241709
6824.000000;0.240827
6823.000000;0.239795
6822.000000;0.238599
6821.000000;0.237785
6820.000000;0.237925
6819.000000;0.239077
6818.000000;0.240872
6817.000000;0.242759
6816.000000;0.244174
6815.000000;0.244894
6814.000000;0.245293
6813.000000;0.245915
6812.000000;0.246788
6811.000000;0.247507
6810.000000;0.247921
6809.000000;0.248232
6808.000000;0.248425
6807.000000;0.248199
6806.000000;0.247623
6805.000000;0.247317
6804.000000;0.247742
6803.000000;0.248635
6802.000000;0.249307
6801.000000;0.249287
6800.000000;0.248672
6799.000000;0.248166
6798.000000;0.248708
6797.000000;0.250632
6796.000000;0.253139
6795.000000;0.254986
6794.000000;0.255716
6793.000000;0.255884
6792.000000;0.256176
6791.000000;0.256801
6790.000000;0.257741
6789.000000;0.258937
6788.000000;0.260030
6787.000000;0.260441
6786.000000;0.260098
6785.000000;0.259727
6784.000000;0.260110
6783.000000;0.261254
6782.000000;0.262529
6781.000000;0.263413
6780.000000;0.263892
6779.000000;0.264252
6778.000000;0.264726
6777.000000;0.265331
6776.000000;0.265925
6775.000000;0.266429
6774.000000;0.266927
6773.000000;0.267466
6772.000000;0.267871
6771.000000;0.267961
6770.000000;0.267913
6769.000000;0.268173
6768.000000;0.269002
6767.000000;0.270288
6766.000000;0.271770
6765.000000;0.273230
6764.000000;0.274464
6763.000000;0.275313
6762.000000;0.275772
6761.000000;0.275964
6760.000000;0.276016
6759.000000;0.276096
6758.000000;0.276469
6757.000000;0.277273
6756.000000;0.278276
6755.000000;0.279084
6754.000000;0.279625
6753.000000;0.280219
6752.000000;0.281148
6751.000000;0.282314
6750.000000;0.283340
6749.000000;0.283919
6748.000000;0.284076
6747.000000;0.284166
6746.000000;0.284588
6745.000000;0.285430
6744.000000;0.286487
6743.000000;0.287650
6742.000000;0.289049
6741.000000;0.290661
6740.000000;0.292055
6739.000000;0.292792
6738.000000;0.292975
6737.000000;0.293120
6736.000000;0.293565
6735.000000;0.294230
6734.000000;0.294851
6733.000000;0.295229
6732.000000;0.295310
6731.000000;0.295291
6730.000000;0.295593
6729.000000;0.296461
6728.000000;0.297629
6727.000000;0.298596
6726.000000;0.299216
6725.000000;0.299806
6724.000000;0.300676
6723.000000;0.301740
6722.000000;0.302619
6721.000000;0.303002
6720.000000;0.302948
6719.000000;0.302908
6718.000000;0.303366
6717.000000;0.304347
6716.000000;0.305401
6715.000000;0.306212
6714.000000;0.307001
6713.000000;0.308108
6712.000000;0.309402
6711.000000;0.310446
6710.000000;0.311117
6709.000000;0.311708
6708.000000;0.312426
6707.000000;0.313150
6706.000000;0.313717
6705.000000;0.314140
6704.000000;0.314463
6703.000000;0.314664
6702.000000;0.314793
6701.000000;0.315021
6700.000000;0.315451
6699.000000;0.316072
6698.000000;0.316824
6697.000000;0.317727
6696.000000;0.318579
6695.000000;0.319254
6694.000000;0.319882
6693.000000;0.320693
6692.000000;0.321783
6691.000000;0.322987
6690.000000;0.324102
6689.000000;0.324992
6688.000000;0.325531
6687.000000;0.325663
6686.000000;0.325571
6685.000000;0.325601
6684.000000;0.325934
6683.000000;0.326465
6682.000000;0.327049
6681.000000;0.327718
6680.000000;0.328592
6679.000000;0.329696
6678.000000;0.330908
6677.000000;0.332016
6676.000000;0.332827
6675.000000;0.333316
6674.000000;0.333649
6673.000000;0.333989
6672.000000;0.334313
6671.000000;0.334551
6670.000000;0.334827
6669.000000;0.335371
6668.000000;0.336199
6667.000000;0.337049
6666.000000;0.337683
6665.000000;0.338116
6664.000000;0.338514
6663.000000;0.339034
6662.000000;0.339773
6661.000000;0.340744
6660.000000;0.341817
6659.000000;0.342775
6658.000000;0.343470
6657.000000;0.343874
6656.000000;0.344000
6655.000000;0.343910
6654.000000;0.343806
6653.000000;0.343968
6652.000000;0.344532
6651.000000;0.345391
6650.000000;0.346345
6649.000000;0.347284
6648.000000;0.348203
6647.000000;0.349114
6646.000000;0.349989
6645.000000;0.350749
6644.000000;0.351292
6643.000000;0.351596
6642.000000;0.351773
6641.000000;0.351990
6640.000000;0.352322
6639.000000;0.352733
6638.000000;0.353162
6637.000000;0.353582
6636.000000;0.353998
6635.000000;0.354465
6634.000000;0.355079
6633.000000;0.355889
6632.000000;0.356806
6631.000000;0.357666
6630.000000;0.358371
6629.000000;0.358956
6628.000000;0.359520
6627.000000;0.360149
6626.000000;0.360823
6625.000000;0.361402
6624.000000;0.361742
6623.000000;0.361880
6622.000000;0.362034
6621.000000;0.362359
6620.000000;0.362803
6619.000000;0.363257
6618.000000;0.363734
6617.000000;0.364309
6616.000000;0.364966
6615.000000;0.365633
6614.000000;0.366278
6613.000000;0.366876
6612.000000;0.367332
6611.000000;0.367593
6610.000000;0.367786
6609.000000;0.368138
6608.000000;0.368750
6607.000000;0.369551
6606.000000;0.370399
6605.000000;0.371142
6604.000000;0.371652
6603.000000;0.371939
6602.000000;0.372201
6601.000000;0.372643
6600.000000;0.373258
6599.000000;0.373890
6598.000000;0.374450
6597.000000;0.374951
6596.000000;0.375393
6595.000000;0.375776
6594.000000;0.376198
6593.000000;0.376795
6592.000000;0.377536
6591.000000;0.378214
6590.000000;0.378660
6589.000000;0.378883
6588.000000;0.378987
6587.000000;0.379082
6586.000000;0.379287
6585.000000;0.379707
6584.000000;0.380350
6583.000000;0.381101
6582.000000;0.381833
6581.000000;0.382495
6580.000000;0.383097
6579.000000;0.383670
6578.000000;0.384212
6577.000000;0.384653
6576.000000;0.384887
6575.000000;0.384911
6574.000000;0.384879
6573.000000;0.384983
6572.000000;0.385290
6571.000000;0.385763
6570.000000;0.386355
6569.000000;0.386997
6568.000000;0.387559
6567.000000;0.387953
6566.000000;0.388253
6565.000000;0.388610
6564.000000;0.389080
6563.000000;0.389619
6562.000000;0.390227
6561.000000;0.390947
6560.000000;0.391738
6559.000000;0.392453
6558.000000;0.392984
6557.000000;0.393337
6556.000000;0.393576
6555.000000;0.393783
6554.000000;0.394056
6553.000000;0.394438
6552.000000;0.394846
6551.000000;0.395159
6550.000000;0.395376
6549.000000;0.395610
6548.000000;0.395925
6547.000000;0.396303
6546.000000;0.396733
6545.000000;0.397230
6544.000000;0.397752
6543.000000;0.398212
6542.000000;0.398621
6541.000000;0.399095
6540.000000;0.399678
6539.000000;0.400271
6538.000000;0.400763
6537.000000;0.401176
6536.000000;0.401601
6535.000000;0.402060
6534.000000;0.402488
6533.000000;0.402806
6532.000000;0.402981
6531.000000;0.403052
6530.000000;0.403135
6529.000000;0.403363
6528.000000;0.403785
6527.000000;0.404340
6526.000000;0.404920
6525.000000;0.405455
6524.000000;0.405928
6523.000000;0.406363
6522.000000;0.406807
6521.000000;0.407293
6520.000000;0.407797
6519.000000;0.408252
6518.000000;0.408594
6517.000000;0.408793
6516.000000;0.408866
6515.000000;0.408895
6514.000000;0.409013
6513.000000;0.409312
6512.000000;0.409767
6511.000000;0.410269
6510.000000;0.410708
6509.000000;0.411033
6508.000000;0.411264
6507.000000;0.411487
6506.000000;0.411806
6505.000000;0.412247
6504.000000;0.412748
6503.000000;0.413261
6502.000000;0.413804
6501.000000;0.414364
6500.000000;0.414831
6499.000000;0.415116
6498.000000;0.415281
6497.000000;0.415469
6496.000000;0.415738
6495.000000;0.416036
6494.000000;0.416311
6493.000000;0.416581
6492.000000;0.416877
6491.000000;0.417214
6490.000000;0.417589
6489.000000;0.417972
6488.000000;0.418311
6487.000000;0.418606
6486.000000;0.418938
6485.000000;0.419365
6484.000000;0.419822
6483.000000;0.420213
6482.000000;0.420543
6481.000000;0.420870
6480.000000;0.421166
6479.000000;0.421341
6478.000000;0.421406
6477.000000;0.421491
6476.000000;0.421699
6475.000000;0.422018
6474.000000;0.422398
6473.000000;0.422820
6472.000000;0.423256
6471.000000;0.423651
6470.000000;0.423963
6469.000000;0.424192
6468.000000;0.424364
6467.000000;0.424519
6466.000000;0.424722
6465.000000;0.425013
6464.000000;0.425355
6463.000000;0.425677
6462.000000;0.425972
6461.000000;0.426278
6460.000000;0.426596
6459.000000;0.426879
6458.000000;0.427119
6457.000000;0.427362
6456.000000;0.427647
6455.000000;0.427971
6454.000000;0.428315
6453.000000;0.428661
6452.000000;0.428981
6451.000000;0.429271
6450.000000;0.429572
6449.000000;0.429906
6448.000000;0.430212
6447.000000;0.430419
6446.000000;0.430549
6445.000000;0.430699
6444.000000;0.430918
6443.000000;0.431182
6442.000000;0.431477
6441.000000;0.431804
6440.000000;0.432136
6439.000000;0.432418
6438.000000;0.432648
6437.000000;0.432874
6436.000000;0.433118
6435.000000;0.433364
6434.000000;0.433621
6433.000000;0.433927
6432.000000;0.434280
6431.000000;0.434627
6430.000000;0.434937
6429.000000;0.435215
6428.000000;0.435445
6427.000000;0.435592
6426.000000;0.435665
6425.000000;0.435714
6424.000000;0.435761
6423.000000;0.435798
6422.000000;0.435862
6421.000000;0.436037
6420.000000;0.436357
6419.000000;0.436777
6418.000000;0.437238
6417.000000;0.437695
6416.000000;0.438091
6415.000000;0.438367
6414.000000;0.438536
6413.000000;0.438670
6412.000000;0.438801
6411.000000;0.438888
6410.000000;0.438914
6409.000000;0.438931
6408.000000;0.438992
6407.000000;0.439089
6406.000000;0.439209
6405.000000;0.439399
6404.000000;0.439722
6403.000000;0.440187
6402.000000;0.440736
6401.000000;0.441279
6400.000000;0.441724
6399.000000;0.442011
6398.000000;0.442162
6397.000000;0.442263
6396.000000;0.442383
6395.000000;0.442521
6394.000000;0.442633
6393.000000;0.442684
6392.000000;0.442684
6391.000000;0.442691
6390.000000;0.442789
6389.000000;0.443021
6388.000000;0.443342
6387.000000;0.443667
6386.000000;0.443949
6385.000000;0.444192
6384.000000;0.444397
6383.000000;0.444566
6382.000000;0.444730
6381.000000;0.444930
6380.000000;0.445160
6379.000000;0.445379
6378.000000;0.445571
6377.000000;0.445747
6376.000000;0.445896
6375.000000;0.446002
6374.000000;0.446097
6373.000000;0.446232
6372.000000;0.446397
6371.000000;0.446538
6370.000000;0.446646
6369.000000;0.446774
6368.000000;0.446942
6367.000000;0.447116
6366.000000;0.447276
6365.000000;0.447458
6364.000000;0.447685
6363.000000;0.447914
6362.000000;0.448083
6361.000000;0.448176
6360.000000;0.448221
6359.000000;0.448259
6358.000000;0.448326
6357.000000;0.448443
6356.000000;0.448596
6355.000000;0.448765
6354.000000;0.448974
6353.000000;0.449253
6352.000000;0.449565
6351.000000;0.449813
6350.000000;0.449944
6349.000000;0.449993
6348.000000;0.450018
6347.000000;0.450047
6346.000000;0.450099
6345.000000;0.450196
6344.000000;0.450335
6343.000000;0.450488
6342.000000;0.450648
6341.000000;0.450824
6340.000000;0.451002
6339.000000;0.451139
6338.000000;0.451226
6337.000000;0.451291
6336.000000;0.451355
6335.000000;0.451416
6334.000000;0.451499
6333.000000;0.451646
6332.000000;0.451846
6331.000000;0.452018
6330.000000;0.452105
6329.000000;0.452127
6328.000000;0.452134
6327.000000;0.452144
6326.000000;0.452171
6325.000000;0.452252
6324.000000;0.452414
6323.000000;0.452653
6322.000000;0.452946
6321.000000;0.453259
6320.000000;0.453523
6319.000000;0.453664
6318.000000;0.453688
6317.000000;0.453691
6316.000000;0.453758
6315.000000;0.453886
6314.000000;0.454035
6313.000000;0.454191
6312.000000;0.454350
6311.000000;0.454478
6310.000000;0.454542
6309.000000;0.454545
6308.000000;0.454507
6307.000000;0.454451
6306.000000;0.454419
6305.000000;0.454479
6304.000000;0.454668
6303.000000;0.454947
6302.000000;0.455250
6301.000000;0.455537
6300.000000;0.455767
6299.000000;0.455875
6298.000000;0.455824
6297.000000;0.455659
6296.000000;0.455470
6295.000000;0.455316
6294.000000;0.455228
6293.000000;0.455224
6292.000000;0.455304
6291.000000;0.455425
6290.000000;0.455547
6289.000000;0.455687
6288.000000;0.455884
6287.000000;0.456127
6286.000000;0.456355
6285.000000;0.456524
6284.000000;0.456633
6283.000000;0.456692
6282.000000;0.456708
6281.000000;0.456701
6280.000000;0.456712
6279.000000;0.456767
6278.000000;0.456865
6277.000000;0.456989
6276.000000;0.457126
6275.000000;0.457250
6274.000000;0.457325
6273.000000;0.457338
6272.000000;0.457324
6271.000000;0.457335
6270.000000;0.457395
6269.000000;0.457485
6268.000000;0.457574
6267.000000;0.457657
6266.000000;0.457744
6265.000000;0.457825
6264.000000;0.457866
6263.000000;0.457851
6262.000000;0.457813
6261.000000;0.457799
6260.000000;0.457809
6259.000000;0.457804
6258.000000;0.457768
6257.000000;0.457736
6256.000000;0.457761
6255.000000;0.457874
6254.000000;0.458066
6253.000000;0.458289
6252.000000;0.458469
6251.000000;0.458542
6250.000000;0.458512
6249.000000;0.458443
6248.000000;0.458396
6247.000000;0.458375
6246.000000;0.458359
6245.000000;0.458350
6244.000000;0.458373
6243.000000;0.458437
6242.000000;0.458524
6241.000000;0.458617
6240.000000;0.458713
6239.000000;0.458804
6238.000000;0.458874
6237.000000;0.458909
6236.000000;0.458912
6235.000000;0.458910
6234.000000;0.458939
6233.000000;0.459021
6232.000000;0.459146
6231.000000;0.459276
6230.000000;0.459369
6229.000000;0.459405
6228.000000;0.459396
6227.000000;0.459360
6226.000000;0.459305
6225.000000;0.459228
6224.000000;0.459138
6223.000000;0.459066
6222.000000;0.459063
6221.000000;0.459161
6220.000000;0.459344
6219.000000;0.459550
6218.000000;0.459710
6217.000000;0.459791
6216.000000;0.459805
6215.000000;0.459779
6214.000000;0.459713
6213.000000;0.459591
6212.000000;0.459421
6211.000000;0.459258
6210.000000;0.459178
6209.000000;0.459217
6208.000000;0.459362
6207.000000;0.459576
6206.000000;0.459811
6205.000000;0.460011
6204.000000;0.460122
6203.000000;0.460134
6202.000000;0.460090
6201.000000;0.460044
6200.000000;0.460024
6199.000000;0.460027
6198.000000;0.460040
6197.000000;0.460052
6196.000000;0.460055
6195.000000;0.460053
6194.000000;0.460045
6193.000000;0.460008
6192.000000;0.459928
6191.000000;0.459840
6190.000000;0.459824
6189.000000;0.459918
6188.000000;0.460068
6187.000000;0.460179
6186.000000;0.460204
6185.000000;0.460163
6184.000000;0.460104
6183.000000;0.460065
6182.000000;0.460065
6181.000000;0.460100
6180.000000;0.460137
6179.000000;0.460129
6178.000000;0.460051
6177.000000;0.459919
6176.000000;0.459783
6175.000000;0.459700
6174.000000;0.459705
6173.000000;0.459791
6172.000000;0.459915
6171.000000;0.460042
6170.000000;0.460151
6169.000000;0.460219
6168.000000;0.460236
6167.000000;0.460228
6166.000000;0.460241
6165.000000;0.460286
6164.000000;0.460326
6163.000000;0.460323
6162.000000;0.460269
6161.000000;0.460175
6160.000000;0.460057
6159.000000;0.459969
6158.000000;0.459972
6157.000000;0.460070
6156.000000;0.460187
6155.000000;0.460259
6154.000000;0.460297
6153.000000;0.460339
6152.000000;0.460378
6151.000000;0.460369
6150.000000;0.460298
6149.000000;0.460204
6148.000000;0.460136
6147.000000;0.460115
6146.000000;0.460135
6145.000000;0.460154
6144.000000;0.460132
6143.000000;0.460080
6142.000000;0.460060
6141.000000;0.460111
6140.000000;0.460208
6139.000000;0.460299
6138.000000;0.460358
6137.000000;0.460373
6136.000000;0.460315
6135.000000;0.460180
6134.000000;0.460032
6133.000000;0.459948
6132.000000;0.459940
6131.000000;0.459964
6130.000000;0.459998
6129.000000;0.460048
6128.000000;0.460111
6127.000000;0.460163
6126.000000;0.460198
6125.000000;0.460234
6124.000000;0.460278
6123.000000;0.460321
6122.000000;0.460345
6121.000000;0.460334
6120.000000;0.460266
6119.000000;0.460145
6118.000000;0.460012
6117.000000;0.459908
6116.000000;0.459822
6115.000000;0.459728
6114.000000;0.459637
6113.000000;0.459584
6112.000000;0.459580
6111.000000;0.459617
6110.000000;0.459710
6109.000000;0.459883
6108.000000;0.460115
6107.000000;0.460329
6106.000000;0.460445
6105.000000;0.460429
6104.000000;0.460294
6103.000000;0.460088
6102.000000;0.459883
6101.000000;0.459736
6100.000000;0.459662
6099.000000;0.459651
6098.000000;0.459700
6097.000000;0.459797
6096.000000;0.459891
6095.000000;0.459929
6094.000000;0.459912
6093.000000;0.459891
6092.000000;0.459909
6091.000000;0.459963
6090.000000;0.460032
6089.000000;0.460096
6088.000000;0.460140
6087.000000;0.460168
6086.000000;0.460205
6085.000000;0.460261
6084.000000;0.460300
6083.000000;0.460286
6082.000000;0.460235
6081.000000;0.460188
6080.000000;0.460146
6079.000000;0.460067
6078.000000;0.459935
6077.000000;0.459777
6076.000000;0.459634
6075.000000;0.459534
6074.000000;0.459501
6073.000000;0.459547
6072.000000;0.459646
6071.000000;0.459754
6070.000000;0.459845
6069.000000;0.459923
6068.000000;0.459981
6067.000000;0.460000
6066.000000;0.459975
6065.000000;0.459928
6064.000000;0.459883
6063.000000;0.459847
6062.000000;0.459819
6061.000000;0.459796
6060.000000;0.459777
6059.000000;0.459771
6058.000000;0.459796
6057.000000;0.459841
6056.000000;0.459857
6055.000000;0.459804
6054.000000;0.459709
6053.000000;0.459636
6052.000000;0.459621
6051.000000;0.459655
6050.000000;0.459720
6049.000000;0.459802
6048.000000;0.459880
6047.000000;0.459932
6046.000000;0.459956
6045.000000;0.459955
6044.000000;0.459928
6043.000000;0.459874
6042.000000;0.459822
6041.000000;0.459795
6040.000000;0.459784
6039.000000;0.459767
6038.000000;0.459760
6037.000000;0.459790
6036.000000;0.459844
6035.000000;0.459880
6034.000000;0.459885
6033.000000;0.459883
6032.000000;0.459879
6031.000000;0.459844
6030.000000;0.459766
6029.000000;0.459672
6028.000000;0.459603
6027.000000;0.459582
6026.000000;0.459618
6025.000000;0.459698
6024.000000;0.459785
6023.000000;0.459835
6022.000000;0.459837
6021.000000;0.459816
6020.000000;0.459800
6019.000000;0.459803
6018.000000;0.459844
6017.000000;0.459938
6016.000000;0.460077
6015.000000;0.460221
6014.000000;0.460328
6013.000000;0.460367
6012.000000;0.460325
6011.000000;0.460212
6010.000000;0.460070
6009.000000;0.459942
6008.000000;0.459859
6007.000000;0.459831
6006.000000;0.459862
6005.000000;0.459933
6004.000000;0.459993
6003.000000;0.460005
6002.000000;0.459984
6001.000000;0.459974
6000.000000;0.460002
5999.000000;0.460056
5998.000000;0.460117
5997.000000;0.460164
5996.000000;0.460178
5995.000000;0.460159
5994.000000;0.460134
5993.000000;0.460128
5992.000000;0.460138
5991.000000;0.460144
5990.000000;0.460140
5989.000000;0.460126
5988.000000;0.460087
5987.000000;0.460015
5986.000000;0.459932
5985.000000;0.459866
5984.000000;0.459820
5983.000000;0.459795
5982.000000;0.459807
5981.000000;0.459863
5980.000000;0.459929
5979.000000;0.459977
5978.000000;0.460030
5977.000000;0.460118
5976.000000;0.460217
5975.000000;0.460279
5974.000000;0.460305
5973.000000;0.460342
5972.000000;0.460415
5971.000000;0.460492
5970.000000;0.460536
5969.000000;0.460531
5968.000000;0.460481
5967.000000;0.460412
5966.000000;0.460367
5965.000000;0.460374
5964.000000;0.460416
5963.000000;0.460466
5962.000000;0.460529
5961.000000;0.460609
5960.000000;0.460666
5959.000000;0.460644
5958.000000;0.460558
5957.000000;0.460467
5956.000000;0.460394
5955.000000;0.460313
5954.000000;0.460226
5953.000000;0.460182
5952.000000;0.460217
5951.000000;0.460308
5950.000000;0.460412
5949.000000;0.460508
5948.000000;0.460576
5947.000000;0.460596
5946.000000;0.460573
5945.000000;0.460555
5944.000000;0.460574
5943.000000;0.460607
5942.000000;0.460608
5941.000000;0.460562
5940.000000;0.460502
5939.000000;0.460482
5938.000000;0.460534
5937.000000;0.460655
5936.000000;0.460810
5935.000000;0.460954
5934.000000;0.461063
5933.000000;0.461126
5932.000000;0.461147
5931.000000;0.461144
5930.000000;0.461151
5929.000000;0.461185
5928.000000;0.461240
5927.000000;0.461317
5926.000000;0.461422
5925.000000;0.461532
5924.000000;0.461584
5923.000000;0.461537
5922.000000;0.461429
5921.000000;0.461317
5920.000000;0.461212
5919.000000;0.461103
5918.000000;0.461015
5917.000000;0.460991
5916.000000;0.461033
5915.000000;0.461106
5914.000000;0.461194
5913.000000;0.461303
5912.000000;0.461404
5911.000000;0.461440
5910.000000;0.461401
5909.000000;0.461338
5908.000000;0.461303
5907.000000;0.461307
5906.000000;0.461341
5905.000000;0.461403
5904.000000;0.461484
5903.000000;0.461571
5902.000000;0.461657
5901.000000;0.461731
5900.000000;0.461751
5899.000000;0.461684
5898.000000;0.461563
5897.000000;0.461470
5896.000000;0.461457
5895.000000;0.461507
5894.000000;0.461565
5893.000000;0.461591
5892.000000;0.461581
5891.000000;0.461555
5890.000000;0.461543
5889.000000;0.461556
5888.000000;0.461576
5887.000000;0.461590
5886.000000;0.461614
5885.000000;0.461665
5884.000000;0.461720
5883.000000;0.461740
5882.000000;0.461720
5881.000000;0.461686
5880.000000;0.461658
5879.000000;0.461646
5878.000000;0.461664
5877.000000;0.461717
5876.000000;0.461773
5875.000000;0.461814
5874.000000;0.461874
5873.000000;0.461990
5872.000000;0.462126
5871.000000;0.462198
5870.000000;0.462173
5869.000000;0.462091
5868.000000;0.461999
5867.000000;0.461917
5866.000000;0.461858
5865.000000;0.461836
5864.000000;0.461838
5863.000000;0.461839
5862.000000;0.461842
5861.000000;0.461863
5860.000000;0.461887
5859.000000;0.461876
5858.000000;0.461844
5857.000000;0.461848
5856.000000;0.461919
5855.000000;0.462031
5854.000000;0.462152
5853.000000;0.462280
5852.000000;0.462405
5851.000000;0.462489
5850.000000;0.462493
5849.000000;0.462420
5848.000000;0.462304
5847.000000;0.462195
5846.000000;0.462150
5845.000000;0.462199
5844.000000;0.462309
5843.000000;0.462410
5842.000000;0.462464
5841.000000;0.462475
5840.000000;0.462458
5839.000000;0.462424
5838.000000;0.462395
5837.000000;0.462386
5836.000000;0.462378
5835.000000;0.462343
5834.000000;0.462293
5833.000000;0.462275
5832.000000;0.462293
5831.000000;0.462315
5830.000000;0.462331
5829.000000;0.462368
5828.000000;0.462437
5827.000000;0.462512
5826.000000;0.462563
5825.000000;0.462586
5824.000000;0.462582
5823.000000;0.462552
5822.000000;0.462537
5821.000000;0.462588
5820.000000;0.462700
5819.000000;0.462807
5818.000000;0.462864
5817.000000;0.462896
5816.000000;0.462948
5815.000000;0.463024
5814.000000;0.463105
5813.000000;0.463177
5812.000000;0.463224
5811.000000;0.463216
5810.000000;0.463139
5809.000000;0.463028
5808.000000;0.462946
5807.000000;0.462934
5806.000000;0.462996
5805.000000;0.463096
5804.000000;0.463178
5803.000000;0.463201
5802.000000;0.463170
5801.000000;0.463129
5800.000000;0.463121
5799.000000;0.463171
5798.000000;0.463281
5797.000000;0.463423
5796.000000;0.463535
5795.000000;0.463561
5794.000000;0.463498
5793.000000;0.463378
5792.000000;0.463233
5791.000000;0.463084
5790.000000;0.462969
5789.000000;0.462928
5788.000000;0.462965
5787.000000;0.463056
5786.000000;0.463189
5785.000000;0.463356
5784.000000;0.463522
5783.000000;0.463632
5782.000000;0.463670
5781.000000;0.463658
5780.000000;0.463623
5779.000000;0.463580
5778.000000;0.463546
5777.000000;0.463534
5776.000000;0.463525
5775.000000;0.463500
5774.000000;0.463472
5773.000000;0.463472
5772.000000;0.463492
5771.000000;0.463505
5770.000000;0.463514
5769.000000;0.463547
5768.000000;0.463592
5767.000000;0.463617
5766.000000;0.463627
5765.000000;0.463662
5764.000000;0.463721
5763.000000;0.463754
5762.000000;0.463740
5761.000000;0.463715
5760.000000;0.463711
5759.000000;0.463708
5758.000000;0.463673
5757.000000;0.463613
5756.000000;0.463560
5755.000000;0.463545
5754.000000;0.463587
5753.000000;0.463679
5752.000000;0.463767
5751.000000;0.463794
5750.000000;0.463767
5749.000000;0.463741
5748.000000;0.463741
5747.000000;0.463736
5746.000000;0.463697
5745.000000;0.463641
5744.000000;0.463588
5743.000000;0.463535
5742.000000;0.463479
5741.000000;0.463431
5740.000000;0.463396
5739.000000;0.463367
5738.000000;0.463358
5737.000000;0.463411
5736.000000;0.463530
5735.000000;0.463659
5734.000000;0.463740
5733.000000;0.463755
5732.000000;0.463721
5731.000000;0.463662
5730.000000;0.463606
5729.000000;0.463578
5728.000000;0.463585
5727.000000;0.463616
5726.000000;0.463669
5725.000000;0.463737
5724.000000;0.463768
5723.000000;0.463711
5722.000000;0.463588
5721.000000;0.463483
5720.000000;0.463442
5719.000000;0.463427
5718.000000;0.463396
5717.000000;0.463368
5716.000000;0.463382
5715.000000;0.463436
5714.000000;0.463492
5713.000000;0.463513
5712.000000;0.463472
5711.000000;0.463357
5710.000000;0.463204
5709.000000;0.463090
5708.000000;0.463065
5707.000000;0.463105
5706.000000;0.463162
5705.000000;0.463212
5704.000000;0.463262
5703.000000;0.463321
5702.000000;0.463393
5701.000000;0.463480
5700.000000;0.463556
5699.000000;0.463588
5698.000000;0.463568
5697.000000;0.463519
5696.000000;0.463459
5695.000000;0.463383
5694.000000;0.463314
5693.000000;0.463277
5692.000000;0.463313
5691.000000;0.463412
5690.000000;0.463536
5689.000000;0.463678
5688.000000;0.463808
5687.000000;0.463868
5686.000000;0.463822
5685.000000;0.463698
5684.000000;0.463564
5683.000000;0.463475
5682.000000;0.463444
5681.000000;0.463433
5680.000000;0.463386
5679.000000;0.463277
5678.000000;0.463164
5677.000000;0.463133
5676.000000;0.463210
5675.000000;0.463335
5674.000000;0.463449
5673.000000;0.463542
5672.000000;0.463620
5671.000000;0.463668
5670.000000;0.463674
5669.000000;0.463657
5668.000000;0.463665
5667.000000;0.463730
5666.000000;0.463853
5665.000000;0.463988
5664.000000;0.464053
5663.000000;0.464006
5662.000000;0.463905
5661.000000;0.463857
5660.000000;0.463900
5659.000000;0.463972
5658.000000;0.464013
5657.000000;0.464044
5656.000000;0.464116
5655.000000;0.464236
5654.000000;0.464374
5653.000000;0.464495
5652.000000;0.464569
5651.000000;0.464571
5650.000000;0.464519
5649.000000;0.464485
5648.000000;0.464523
5647.000000;0.464625
5646.000000;0.464745
5645.000000;0.464869
5644.000000;0.465013
5643.000000;0.465174
5642.000000;0.465320
5641.000000;0.465416
5640.000000;0.465453
5639.000000;0.465447
5638.000000;0.465442
5637.000000;0.465480
5636.000000;0.465581
5635.000000;0.465738
5634.000000;0.465930
5633.000000;0.466126
5632.000000;0.466270
5631.000000;0.466314
5630.000000;0.466267
5629.000000;0.466195
5628.000000;0.466164
5627.000000;0.466196
5626.000000;0.466284
5625.000000;0.466420
5624.000000;0.466588
5623.000000;0.466771
5622.000000;0.466957
5621.000000;0.467146
5620.000000;0.467325
5619.000000;0.467484
5618.000000;0.467626
5617.000000;0.467759
5616.000000;0.467875
5615.000000;0.467965
5614.000000;0.468053
5613.000000;0.468176
5612.000000;0.468325
5611.000000;0.468457
5610.000000;0.468553
5609.000000;0.468637
5608.000000;0.468739
5607.000000;0.468866
5606.000000;0.469033
5605.000000;0.469263
5604.000000;0.469546
5603.000000;0.469820
5602.000000;0.470029
5601.000000;0.470167
5600.000000;0.470256
5599.000000;0.470315
5598.000000;0.470357
5597.000000;0.470404
5596.000000;0.470472
5595.000000;0.470554
5594.000000;0.470631
5593.000000;0.470691
5592.000000;0.470734
5591.000000;0.470778
5590.000000;0.470856
5589.000000;0.470996
5588.000000;0.471200
5587.000000;0.471444
5586.000000;0.471704
5585.000000;0.471965
5584.000000;0.472211
5583.000000;0.472422
5582.000000;0.472584
5581.000000;0.472690
5580.000000;0.472745
5579.000000;0.472787
5578.000000;0.472866
5577.000000;0.472992
5576.000000;0.473117
5575.000000;0.473208
5574.000000;0.473308
5573.000000;0.473493
5572.000000;0.473785
5571.000000;0.474132
5570.000000;0.474455
5569.000000;0.474684
5568.000000;0.474779
5567.000000;0.474760
5566.000000;0.474707
5565.000000;0.474696
5564.000000;0.474732
5563.000000;0.474776
5562.000000;0.474823
5561.000000;0.474898
5560.000000;0.475022
5559.000000;0.475202
5558.000000;0.475446
5557.000000;0.475733
5556.000000;0.475989
5555.000000;0.476152
5554.000000;0.476235
5553.000000;0.476281
5552.000000;0.476281
5551.000000;0.476203
5550.000000;0.476080
5549.000000;0.476002
5548.000000;0.476007
5547.000000;0.476060
5546.000000;0.476147
5545.000000;0.476302
5544.000000;0.476543
5543.000000;0.476837
5542.000000;0.477151
5541.000000;0.477470
5540.000000;0.477752
5539.000000;0.477922
5538.000000;0.477961
5537.000000;0.477929
5536.000000;0.477884
5535.000000;0.477822
5534.000000;0.477748
5533.000000;0.477725
5532.000000;0.477817
5531.000000;0.478017
5530.000000;0.478269
5529.000000;0.478529
5528.000000;0.478771
5527.000000;0.478957
5526.000000;0.479061
5525.000000;0.479089
5524.000000;0.479055
5523.000000;0.478976
5522.000000;0.478889
5521.000000;0.478834
5520.000000;0.478810
5519.000000;0.478780
5518.000000;0.478744
5517.000000;0.478757
5516.000000;0.478856
5515.000000;0.479010
5514.000000;0.479165
5513.000000;0.479313
5512.000000;0.479489
5511.000000;0.479727
5510.000000;0.480033
5509.000000;0.480384
5508.000000;0.480666
5507.000000;0.480811
5506.000000;0.480720
5505.000000;0.480568
5504.000000;0.480228
5503.000000;0.481234
5502.000000;0.481760
5501.000000;0.480431
5500.000000;0.480475
5499.000000;0.480928
5498.000000;0.481174
5497.000000;0.481362
5496.000000;0.481403
5495.000000;0.481414
5494.000000;0.481408
5493.000000;0.481426
5492.000000;0.481442
5491.000000;0.481383
5490.000000;0.481177
5489.000000;0.480824
5488.000000;0.480445
5487.000000;0.480236
5486.000000;0.480347
5485.000000;0.480761
5484.000000;0.481316
5483.000000;0.481868
5482.000000;0.482401
5481.000000;0.482960
5480.000000;0.483507
5479.000000;0.483914
5478.000000;0.484076
5477.000000;0.483994
5476.000000;0.483751
5475.000000;0.483465
5474.000000;0.483229
5473.000000;0.483050
5472.000000;0.482859
5471.000000;0.482656
5470.000000;0.482594
5469.000000;0.482845
5468.000000;0.483391
5467.000000;0.484007
5466.000000;0.484456
5465.000000;0.484648
5464.000000;0.484635
5463.000000;0.484540
5462.000000;0.484503
5461.000000;0.484594
5460.000000;0.484749
5459.000000;0.484846
5458.000000;0.484842
5457.000000;0.484808
5456.000000;0.484834
5455.000000;0.484950
5454.000000;0.485153
5453.000000;0.485420
5452.000000;0.485682
5451.000000;0.485871
5450.000000;0.486016
5449.000000;0.486198
5448.000000;0.486413
5447.000000;0.486563
5446.000000;0.486609
5445.000000;0.486627
5444.000000;0.486678
5443.000000;0.486712
5442.000000;0.486653
5441.000000;0.486533
5440.000000;0.486477
5439.000000;0.486591
5438.000000;0.486856
5437.000000;0.487160
5436.000000;0.487414
5435.000000;0.487669
5434.000000;0.488078
5433.000000;0.488668
5432.000000;0.489208
5431.000000;0.489415
5430.000000;0.489269
5429.000000;0.489036
5428.000000;0.488988
5427.000000;0.489149
5426.000000;0.489336
5425.000000;0.489418
5424.000000;0.489451
5423.000000;0.489619
5422.000000;0.490064
5421.000000;0.490761
5420.000000;0.491538
5419.000000;0.492227
5418.000000;0.492782
5417.000000;0.493239
5416.000000;0.493591
5415.000000;0.493781
5414.000000;0.493803
5413.000000;0.493735
5412.000000;0.493626
5411.000000;0.493466
5410.000000;0.493277
5409.000000;0.493171
5408.000000;0.493256
5407.000000;0.493557
5406.000000;0.494054
5405.000000;0.494724
5404.000000;0.495508
5403.000000;0.496308
5402.000000;0.497055
5401.000000;0.497762
5400.000000;0.498466
5399.000000;0.499169
5398.000000;0.499845
5397.000000;0.500438
5396.000000;0.500853
5395.000000;0.501013
5394.000000;0.500958
5393.000000;0.500858
5392.000000;0.500890
5391.000000;0.501108
5390.000000;0.501478
5389.000000;0.501970
5388.000000;0.502567
5387.000000;0.503241
5386.000000;0.503970
5385.000000;0.504758
5384.000000;0.505577
5383.000000;0.506367
5382.000000;0.507111
5381.000000;0.507846
5380.000000;0.508580
5379.000000;0.509251
5378.000000;0.509807
5377.000000;0.510279
5376.000000;0.510748
5375.000000;0.511252
5374.000000;0.511793
5373.000000;0.512385
5372.000000;0.513069
5371.000000;0.513905
5370.000000;0.514935
5369.000000;0.516139
5368.000000;0.517411
5367.000000;0.518603
5366.000000;0.519628
5365.000000;0.520520
5364.000000;0.521391
5363.000000;0.522327
5362.000000;0.523342
5361.000000;0.524381
5360.000000;0.525366
5359.000000;0.526278
5358.000000;0.527190
5357.000000;0.528160
5356.000000;0.529132
5355.000000;0.530028
5354.000000;0.530935
5353.000000;0.532066
5352.000000;0.533487
5351.000000;0.535014
5350.000000;0.536481
5349.000000;0.537952
5348.000000;0.539534
5347.000000;0.541145
5346.000000;0.542611
5345.000000;0.543931
5344.000000;0.545276
5343.000000;0.546748
5342.000000;0.548256
5341.000000;0.549646
5340.000000;0.550855
5339.000000;0.551941
5338.000000;0.553070
5337.000000;0.554434
5336.000000;0.556060
5335.000000;0.557768
5334.000000;0.559392
5333.000000;0.560978
5332.000000;0.562707
5331.000000;0.564651
5330.000000;0.566658
5329.000000;0.568481
5328.000000;0.570017
5327.000000;0.571455
5326.000000;0.573105
5325.000000;0.574905
5324.000000;0.576219
5323.000000;0.576386
5322.000000;0.575411
5321.000000;0.573911
5320.000000;0.572393
5319.000000;0.570932
5318.000000;0.569476
5317.000000;0.567944
5316.000000;0.565869
5315.000000;0.562464
5314.000000;0.557371
5313.000000;0.550994
5312.000000;0.543818
5311.000000;0.535715
5310.000000;0.526132
5309.000000;0.514721
5308.000000;0.501695
5307.000000;0.487845
5306.000000;0.474082
5305.000000;0.460557
5304.000000;0.446242
5303.000000;0.429610
5302.000000;0.410069
5301.000000;0.388956
5300.000000;0.369319
5299.000000;0.355090
5298.000000;0.350550
5297.000000;0.358772
5296.000000;0.378132
5295.000000;0.403238
5294.000000;0.432402
5293.000000;0.468570
5292.000000;0.511128
5291.000000;0.554171
5290.000000;0.593809
5289.000000;0.630189
5288.000000;0.663110
5287.000000;0.692377
5286.000000;0.720473
5285.000000;0.748668
5284.000000;0.773388
5283.000000;0.792684
5282.000000;0.811372
5281.000000;0.832092
5280.000000;0.847226
5279.000000;0.848920
5278.000000;0.842275
5277.000000;0.838544
5276.000000;0.841659
5275.000000;0.849178
5274.000000;0.859600
5273.000000;0.871373
5272.000000;0.879369
5271.000000;0.880290
5270.000000;0.877779
5269.000000;0.875559
5268.000000;0.870968
5267.000000;0.861148
5266.000000;0.849440
5265.000000;0.840678
5264.000000;0.837666
5263.000000;0.845438
5262.000000;0.870393
5261.000000;0.909038
5260.000000;0.942377
5259.000000;0.953874
5258.000000;0.949727
5257.000000;0.943937
5256.000000;0.937086
5255.000000;0.925178
5254.000000;0.913254
5253.000000;0.906735
5252.000000;0.901738
5251.000000;0.894002
5250.000000;0.888979
5249.000000;0.892939
5248.000000;0.900957
5247.000000;0.903698
5246.000000;0.901289
5245.000000;0.898154
5244.000000;0.891203
5243.000000;0.877522
5242.000000;0.866033
5241.000000;0.867065
5240.000000;0.877440
5239.000000;0.885592
5238.000000;0.888333
5237.000000;0.892738
5236.000000;0.902112
5235.000000;0.911853
5234.000000;0.919235
5233.000000;0.924652
5232.000000;0.922779
5231.000000;0.907040
5230.000000;0.883111
5229.000000;0.864552
5228.000000;0.858498
5227.000000;0.865048
5226.000000;0.884555
5225.000000;0.914976
5224.000000;0.942289
5223.000000;0.948336
5222.000000;0.934281
5221.000000;0.918583
5220.000000;0.911896
5219.000000;0.909683
5218.000000;0.906115
5217.000000;0.902956
5216.000000;0.902657
5215.000000;0.902547
5214.000000;0.899498
5213.000000;0.894642
5212.000000;0.890841
5211.000000;0.889655
5210.000000;0.892518
5209.000000;0.900322
5208.000000;0.909581
5207.000000;0.913852
5206.000000;0.910135
5205.000000;0.900523
5204.000000;0.889211
5203.000000;0.881400
5202.000000;0.882723
5201.000000;0.895705
5200.000000;0.915640
5199.000000;0.932055
5198.000000;0.936935
5197.000000;0.930276
5196.000000;0.916626
5195.000000;0.901364
5194.000000;0.890833
5193.000000;0.888956
5192.000000;0.892991
5191.000000;0.897566
5190.000000;0.901322
5189.000000;0.904819
5188.000000;0.905410
5187.000000;0.900651
5186.000000;0.894539
5185.000000;0.894022
5184.000000;0.901045
5183.000000;0.913184
5182.000000;0.929646
5181.000000;0.948955
5180.000000;0.962452
5179.000000;0.960249
5178.000000;0.942962
5177.000000;0.918269
5176.000000;0.890765
5175.000000;0.864081
5174.000000;0.846130
5173.000000;0.844182
5172.000000;0.857936
5171.000000;0.881012
5170.000000;0.907476
5169.000000;0.932787
5168.000000;0.949381
5167.000000;0.949486
5166.000000;0.935099
5165.000000;0.916983
5164.000000;0.902406
5163.000000;0.892504
5162.000000;0.888695
5161.000000;0.892590
5160.000000;0.901100
5159.000000;0.908575
5158.000000;0.913637
5157.000000;0.919104
5156.000000;0.925469
5155.000000;0.929275
5154.000000;0.929429
5153.000000;0.929129
5152.000000;0.928394
5151.000000;0.922653
5150.000000;0.910827
5149.000000;0.897453
5148.000000;0.886462
5147.000000;0.878773
5146.000000;0.874313
5145.000000;0.871815
5144.000000;0.868572
5143.000000;0.863296
5142.000000;0.857978
5141.000000;0.855603
5140.000000;0.856732
5139.000000;0.860686
5138.000000;0.868531
5137.000000;0.880842
5136.000000;0.893784
5135.000000;0.902025
5134.000000;0.905126
5133.000000;0.906561
5132.000000;0.907561
5131.000000;0.906273
5130.000000;0.902227
5129.000000;0.898314
5128.000000;0.898004
5127.000000;0.903696
5126.000000;0.916856
5125.000000;0.934924
5124.000000;0.948595
5123.000000;0.948300
5122.000000;0.934704
5121.000000;0.916969
5120.000000;0.902296
5119.000000;0.892553
5118.000000;0.887914
5117.000000;0.888475
5116.000000;0.892460
5115.000000;0.896833
5114.000000;0.899931
5113.000000;0.901025
5112.000000;0.899388
5111.000000;0.896691
5110.000000;0.897386
5109.000000;0.903278
5108.000000;0.909727
5107.000000;0.910776
5106.000000;0.907262
5105.000000;0.906030
5104.000000;0.911870
5103.000000;0.923294
5102.000000;0.934553
5101.000000;0.938967
5100.000000;0.932514
5099.000000;0.918069
5098.000000;0.902776
5097.000000;0.889529
5096.000000;0.875953
5095.000000;0.862335
5094.000000;0.854919
5093.000000;0.858558
5092.000000;0.870475
5091.000000;0.884104
5090.000000;0.896599
5089.000000;0.909307
5088.000000;0.922912
5087.000000;0.936139
5086.000000;0.947526
5085.000000;0.953725
5084.000000;0.947839
5083.000000;0.927275
5082.000000;0.900800
5081.000000;0.880108
5080.000000;0.869552
5079.000000;0.867688
5078.000000;0.873298
5077.000000;0.885933
5076.000000;0.902126
5075.000000;0.914403
5074.000000;0.915305
5073.000000;0.902517
5072.000000;0.880783
5071.000000;0.859687
5070.000000;0.848260
5069.000000;0.848878
5068.000000;0.857034
5067.000000;0.868616
5066.000000;0.884236
5065.000000;0.903738
5064.000000;0.921386
5063.000000;0.931300
5062.000000;0.934147
5061.000000;0.934257
5060.000000;0.933359
5059.000000;0.931425
5058.000000;0.930154
5057.000000;0.929716
5056.000000;0.924804
5055.000000;0.909835
5054.000000;0.886591
5053.000000;0.861707
5052.000000;0.839887
5051.000000;0.824099
5050.000000;0.818464
5049.000000;0.825642
5048.000000;0.842387
5047.000000;0.861659
5046.000000;0.879281
5045.000000;0.895401
5044.000000;0.910258
5043.000000;0.922402
5042.000000;0.930080
5041.000000;0.931097
5040.000000;0.922634
5039.000000;0.904338
5038.000000;0.880154
5037.000000;0.855356
5036.000000;0.833805
5035.000000;0.818253
5034.000000;0.809734
5033.000000;0.805202
5032.000000;0.799187
5031.000000;0.790416
5030.000000;0.783931
5029.000000;0.785044
5028.000000;0.794580
5027.000000;0.810768
5026.000000;0.831763
5025.000000;0.853649
5024.000000;0.869662
5023.000000;0.875941
5022.000000;0.875085
5021.000000;0.870242
5020.000000;0.861225
5019.000000;0.849640
5018.000000;0.840573
5017.000000;0.835647
5016.000000;0.830178
5015.000000;0.820399
5014.000000;0.808876
5013.000000;0.799035
5012.000000;0.789641
5011.000000;0.778291
5010.000000;0.766169
5009.000000;0.755864
5008.000000;0.748565
5007.000000;0.746266
5006.000000;0.751443
5005.000000;0.761606
5004.000000;0.768646
5003.000000;0.767403
5002.000000;0.761866
5001.000000;0.758334
5000.000000;0.756823
4999.000000;0.755068
4998.000000;0.756153
4997.000000;0.763216
4996.000000;0.769987
4995.000000;0.764985
4994.000000;0.744824
4993.000000;0.717152
4992.000000;0.691483
4991.000000;0.673341
4990.000000;0.664782
4989.000000;0.665046
4988.000000;0.670789
4987.000000;0.678796
4986.000000;0.688369
4985.000000;0.698881
4984.000000;0.706457
4983.000000;0.706255
4982.000000;0.697632
4981.000000;0.683788
4980.000000;0.667461
4979.000000;0.650616
4978.000000;0.636045
4977.000000;0.625544
4976.000000;0.617854
4975.000000;0.610781
4974.000000;0.604037
4973.000000;0.598302
4972.000000;0.593521
4971.000000;0.589756
4970.000000;0.587379
4969.000000;0.584891
4968.000000;0.579331
4967.000000;0.570790
4966.000000;0.563868
4965.000000;0.562354
4964.000000;0.564644
4963.000000;0.566167
4962.000000;0.563995
4961.000000;0.556851
4960.000000;0.543696
4959.000000;0.525875
4958.000000;0.508202
4957.000000;0.495103
4956.000000;0.487514
4955.000000;0.484588
4954.000000;0.485488
4953.000000;0.487638
4952.000000;0.485936
4951.000000;0.476944
4950.000000;0.462423
4949.000000;0.446613
4948.000000;0.432518
4947.000000;0.422421
4946.000000;0.418565
4945.000000;0.420480
4944.000000;0.423912
4943.000000;0.425023
4942.000000;0.423919
4941.000000;0.421393
4940.000000;0.414688
4939.000000;0.400940
4938.000000;0.382857
4937.000000;0.366278
4936.000000;0.353953
4935.000000;0.344922
4934.000000;0.337948
4933.000000;0.332692
4932.000000;0.328324
4931.000000;0.323694
4930.000000;0.318905
4929.000000;0.314797
4928.000000;0.311154
4927.000000;0.307106
4926.000000;0.302275
4925.000000;0.296025
4924.000000;0.287279
4923.000000;0.276798
4922.000000;0.267649
4921.000000;0.261288
4920.000000;0.255188
4919.000000;0.246347
4918.000000;0.235077
4917.000000;0.223389
4916.000000;0.211760
4915.000000;0.200094
4914.000000;0.190097
4913.000000;0.183765
4912.000000;0.180570
4911.000000;0.178325
4910.000000;0.175896
4909.000000;0.172849
4908.000000;0.167463
4907.000000;0.157990
4906.000000;0.145539
4905.000000;0.133227
4904.000000;0.122969
4903.000000;0.115002
4902.000000;0.109599
4901.000000;0.106710
4900.000000;0.104245
4899.000000;0.099178
4898.000000;0.090605
4897.000000;0.079996
4896.000000;0.068663
4895.000000;0.056848
4894.000000;0.045171
4893.000000;0.035162
4892.000000;0.027929
4891.000000;0.023370
4890.000000;0.020812
4889.000000;0.019497
4888.000000;0.018439
4887.000000;0.016752
4886.000000;0.014209
4885.000000;0.010917
4884.000000;0.006684
4883.000000;0.001382
4882.000000;-0.004306
4881.000000;-0.009350
4880.000000;-0.013458
4879.000000;-0.017013
4878.000000;-0.020323
4877.000000;-0.023670
4876.000000;-0.027706
4875.000000;-0.032861
4874.000000;-0.038448
4873.000000;-0.043143
4872.000000;-0.046276
4871.000000;-0.047958
4870.000000;-0.048101
4869.000000;-0.046186
4868.000000;-0.042276
4867.000000;-0.037627
4866.000000;-0.033872
4865.000000;-0.031998
4864.000000;-0.032369
4863.000000;-0.034937
4862.000000;-0.038902
4861.000000;-0.042661
4860.000000;-0.044704
4859.000000;-0.044707
4858.000000;-0.043542
4857.000000;-0.042129
4856.000000;-0.040385
4855.000000;-0.037479
4854.000000;-0.033218
4853.000000;-0.028849
4852.000000;-0.025974
4851.000000;-0.024690
4850.000000;-0.023433
4849.000000;-0.020902
4848.000000;-0.017529
4847.000000;-0.014570
4846.000000;-0.012318
4845.000000;-0.010057
4844.000000;-0.007361
4843.000000;-0.004442
4842.000000;-0.001351
4841.000000;0.002145
4840.000000;0.005792
4839.000000;0.008897
4838.000000;0.011364
4837.000000;0.013896
4836.000000;0.016888
4835.000000;0.019951
4834.000000;0.022796
4833.000000;0.025816
4832.000000;0.029335
4831.000000;0.032924
4830.000000;0.035999
4829.000000;0.038612
4828.000000;0.041129
4827.000000;0.043568
4826.000000;0.045770
4825.000000;0.047905
4824.000000;0.050298
4823.000000;0.052997
4822.000000;0.055887
4821.000000;0.059040
4820.000000;0.062623
4819.000000;0.066646
4818.000000;0.071050
4817.000000;0.075850
4816.000000;0.080944
4815.000000;0.085964
4814.000000;0.090562
4813.000000;0.094670
4812.000000;0.098337
4811.000000;0.101570
4810.000000;0.104503
4809.000000;0.107375
4808.000000;0.110193
4807.000000;0.112632
4806.000000;0.114552
4805.000000;0.116259
4804.000000;0.118157
4803.000000;0.120403
4802.000000;0.123005
4801.000000;0.125954
4800.000000;0.129060
4799.000000;0.132044
4798.000000;0.134889
4797.000000;0.137746
4796.000000;0.140404
4795.000000;0.142288
4794.000000;0.143287
4793.000000;0.144147
4792.000000;0.145658
4791.000000;0.147793
4790.000000;0.149981
4789.000000;0.151922
4788.000000;0.153786
4787.000000;0.155890
4786.000000;0.158547
4785.000000;0.162036
4784.000000;0.166336
4783.000000;0.170902
4782.000000;0.174988
4781.000000;0.178188
4780.000000;0.180586
4779.000000;0.182526
4778.000000;0.184453
4777.000000;0.186720
4776.000000;0.189273
4775.000000;0.191606
4774.000000;0.193329
4773.000000;0.194695
4772.000000;0.196331
4771.000000;0.198474
4770.000000;0.200721
4769.000000;0.202513
4768.000000;0.203684
4767.000000;0.204531
4766.000000;0.205556
4765.000000;0.207165
4764.000000;0.209461
4763.000000;0.212192
4762.000000;0.214941
4761.000000;0.217397
4760.000000;0.219471
4759.000000;0.221250
4758.000000;0.222943
4757.000000;0.224798
4756.000000;0.226968
4755.000000;0.229434
4754.000000;0.232085
4753.000000;0.234831
4752.000000;0.237579
4751.000000;0.240148
4750.000000;0.242335
4749.000000;0.244065
4748.000000;0.245418
4747.000000;0.246470
4746.000000;0.247144
4745.000000;0.247280
4744.000000;0.246921
4743.000000;0.246514
4742.000000;0.246767
4741.000000;0.248201
4740.000000;0.250799
4739.000000;0.254069
4738.000000;0.257473
4737.000000;0.260790
4736.000000;0.264077
4735.000000;0.267317
4734.000000;0.270149
4733.000000;0.272010
4732.000000;0.272618
4731.000000;0.272315
4730.000000;0.271867
4729.000000;0.271897
4728.000000;0.272548
4727.000000;0.273598
4726.000000;0.274723
4725.000000;0.275704
4724.000000;0.276583
4723.000000;0.277676
4722.000000;0.279273
4721.000000;0.281259
4720.000000;0.283177
4719.000000;0.284702
4718.000000;0.285898
4717.000000;0.286977
4716.000000;0.288040
4715.000000;0.289174
4714.000000;0.290538
4713.000000;0.292133
4712.000000;0.293641
4711.000000;0.294709
4710.000000;0.295306
4709.000000;0.295668
4708.000000;0.296066
4707.000000;0.296747
4706.000000;0.297918
4705.000000;0.299536
4704.000000;0.301235
4703.000000;0.302713
4702.000000;0.304086
4701.000000;0.305655
4700.000000;0.307430
4699.000000;0.309133
4698.000000;0.310581
4697.000000;0.311803
4696.000000;0.312829
4695.000000;0.313644
4694.000000;0.314367
4693.000000;0.315222
4692.000000;0.316275
4691.000000;0.317344
4690.000000;0.318155
4689.000000;0.318492
4688.000000;0.318293
4687.000000;0.317820
4686.000000;0.317649
4685.000000;0.318265
4684.000000;0.319635
4683.000000;0.321334
4682.000000;0.323053
4681.000000;0.324777
4680.000000;0.326524
4679.000000;0.328159
4678.000000;0.329570
4677.000000;0.330791
4676.000000;0.331905
4675.000000;0.332919
4674.000000;0.333783
4673.000000;0.334391
4672.000000;0.334582
4671.000000;0.334321
4670.000000;0.333899
4669.000000;0.333786
4668.000000;0.334239
4667.000000;0.335144
4666.000000;0.336244
4665.000000;0.337387
4664.000000;0.338550
4663.000000;0.339768
4662.000000;0.341089
4661.000000;0.342461
4660.000000;0.343666
4659.000000;0.344466
4658.000000;0.344854
4657.000000;0.345052
4656.000000;0.345290
4655.000000;0.345714
4654.000000;0.346471
4653.000000;0.347677
4652.000000;0.349236
4651.000000;0.350836
4650.000000;0.352183
4649.000000;0.353188
4648.000000;0.353869
4647.000000;0.354242
4646.000000;0.354360
4645.000000;0.354338
4644.000000;0.354229
4643.000000;0.353978
4642.000000;0.353591
4641.000000;0.353342
4640.000000;0.353676
4639.000000;0.354839
4638.000000;0.356585
4637.000000;0.358293
4636.000000;0.359431
4635.000000;0.359930
4634.000000;0.360118
4633.000000;0.360339
4632.000000;0.360723
4631.000000;0.361280
4630.000000;0.362018
4629.000000;0.362875
4628.000000;0.363655
4627.000000;0.364159
4626.000000;0.364361
4625.000000;0.364388
4624.000000;0.364423
4623.000000;0.364673
4622.000000;0.365310
4621.000000;0.366310
4620.000000;0.367415
4619.000000;0.368336
4618.000000;0.368973
4617.000000;0.369396
4616.000000;0.369723
4615.000000;0.370083
4614.000000;0.370583
4613.000000;0.371194
4612.000000;0.371750
4611.000000;0.372118
4610.000000;0.372304
4609.000000;0.372355
4608.000000;0.372308
4607.000000;0.372336
4606.000000;0.372763
4605.000000;0.373780
4604.000000;0.375189
4603.000000;0.376543
4602.000000;0.377469
4601.000000;0.377807
4600.000000;0.377593
4599.000000;0.377073
4598.000000;0.376629
4597.000000;0.376544
4596.000000;0.376843
4595.000000;0.377402
4594.000000;0.378096
4593.000000;0.378801
4592.000000;0.379415
4591.000000;0.380000
4590.000000;0.380734
4589.000000;0.381633
4588.000000;0.382454
4587.000000;0.382981
4586.000000;0.383209
4585.000000;0.383160
4584.000000;0.382806
4583.000000;0.382356
4582.000000;0.382340
4581.000000;0.383073
4580.000000;0.384188
4579.000000;0.384967
4578.000000;0.385047
4577.000000;0.384579
4576.000000;0.383882
4575.000000;0.383234
4574.000000;0.382925
4573.000000;0.383151
4572.000000;0.383859
4571.000000;0.384851
4570.000000;0.385992
4569.000000;0.387129
4568.000000;0.387960
4567.000000;0.388297
4566.000000;0.388364
4565.000000;0.388559
4564.000000;0.388947
4563.000000;0.389257
4562.000000;0.389293
4561.000000;0.389072
4560.000000;0.388627
4559.000000;0.388030
4558.000000;0.387567
4557.000000;0.387578
4556.000000;0.388063
4555.000000;0.388688
4554.000000;0.389170
4553.000000;0.389449
4552.000000;0.389509
4551.000000;0.389346
4550.000000;0.389138
4549.000000;0.389162
4548.000000;0.389492
4547.000000;0.389966
4546.000000;0.390451
4545.000000;0.390920
4544.000000;0.391303
4543.000000;0.391531
4542.000000;0.391742
4541.000000;0.392162
4540.000000;0.392764
4539.000000;0.393270
4538.000000;0.393500
4537.000000;0.393447
4536.000000;0.393052
4535.000000;0.392249
4534.000000;0.391316
4533.000000;0.390823
4532.000000;0.391089
4531.000000;0.391917
4530.000000;0.392923
4529.000000;0.393861
4528.000000;0.394542
4527.000000;0.394775
4526.000000;0.394581
4525.000000;0.394260
4524.000000;0.394031
4523.000000;0.393791
4522.000000;0.393369
4521.000000;0.392858
4520.000000;0.392506
4519.000000;0.392429
4518.000000;0.392603
4517.000000;0.393041
4516.000000;0.393808
4515.000000;0.394882
4514.000000;0.396099
4513.000000;0.397234
4512.000000;0.398113
4511.000000;0.398687
4510.000000;0.399013
4509.000000;0.399093
4508.000000;0.398782
4507.000000;0.397963
4506.000000;0.396773
4505.000000;0.395524
4504.000000;0.394468
4503.000000;0.393786
4502.000000;0.393710
4501.000000;0.394372
4500.000000;0.395537
4499.000000;0.396724
4498.000000;0.397646
4497.000000;0.398338
4496.000000;0.398801
4495.000000;0.398802
4494.000000;0.398148
4493.000000;0.396990
4492.000000;0.395711
4491.000000;0.394654
4490.000000;0.394020
4489.000000;0.393882
4488.000000;0.394161
4487.000000;0.394653
4486.000000;0.395169
4485.000000;0.395643
4484.000000;0.396124
4483.000000;0.396702
4482.000000;0.397408
4481.000000;0.398090
4480.000000;0.398460
4479.000000;0.398392
4478.000000;0.398096
4477.000000;0.397846
4476.000000;0.397650
4475.000000;0.397385
4474.000000;0.397148
4473.000000;0.397164
4472.000000;0.397403
4471.000000;0.397596
4470.000000;0.397649
4469.000000;0.397760
4468.000000;0.398049
4467.000000;0.398343
4466.000000;0.398433
4465.000000;0.398303
4464.000000;0.398036
4463.000000;0.397744
4462.000000;0.397688
4461.000000;0.398177
4460.000000;0.399169
4459.000000;0.400149
4458.000000;0.400574
4457.000000;0.400301
4456.000000;0.399521
4455.000000;0.398481
4454.000000;0.397452
4453.000000;0.396759
4452.000000;0.396604
4451.000000;0.396886
4450.000000;0.397295
4449.000000;0.397550
4448.000000;0.397520
4447.000000;0.397223
4446.000000;0.396827
4445.000000;0.396542
4444.000000;0.396421
4443.000000;0.396335
4442.000000;0.396194
4441.000000;0.396141
4440.000000;0.396467
4439.000000;0.397395
4438.000000;0.398905
4437.000000;0.400647
4436.000000;0.401997
4435.000000;0.402401
4434.000000;0.401797
4433.000000;0.400667
4432.000000;0.399607
4431.000000;0.398879
4430.000000;0.398341
4429.000000;0.397685
4428.000000;0.396710
4427.000000;0.395488
4426.000000;0.394384
4425.000000;0.393885
4424.000000;0.394320
4423.000000;0.395633
4422.000000;0.397345
4421.000000;0.398740
4420.000000;0.399195
4419.000000;0.398513
4418.000000;0.396992
4417.000000;0.395211
4416.000000;0.393759
4415.000000;0.393056
4414.000000;0.393215
4413.000000;0.394002
4412.000000;0.395039
4411.000000;0.396060
4410.000000;0.396872
4409.000000;0.397160
4408.000000;0.396680
4407.000000;0.395684
4406.000000;0.394830
4405.000000;0.394502
4404.000000;0.394480
4403.000000;0.394351
4402.000000;0.393934
4401.000000;0.393163
4400.000000;0.391958
4399.000000;0.390516
4398.000000;0.389372
4397.000000;0.388875
4396.000000;0.388799
4395.000000;0.388730
4394.000000;0.388558
4393.000000;0.388332
4392.000000;0.387966
4391.000000;0.387423
4390.000000;0.386821
4389.000000;0.386009
4388.000000;0.384502
4387.000000;0.382319
4386.000000;0.380474
4385.000000;0.380009
4384.000000;0.380826
4383.000000;0.382020
4382.000000;0.383154
4381.000000;0.384486
4380.000000;0.386043
4379.000000;0.387213
4378.000000;0.387378
4377.000000;0.386421
4376.000000;0.384533
4375.000000;0.382097
4374.000000;0.379779
4373.000000;0.378078
4372.000000;0.376630
4371.000000;0.374489
4370.000000;0.371277
4369.000000;0.367663
4368.000000;0.364676
4367.000000;0.362926
4366.000000;0.362494
4365.000000;0.363068
4364.000000;0.363923
4363.000000;0.364202
4362.000000;0.363518
4361.000000;0.362128
4360.000000;0.360548
4359.000000;0.359282
4358.000000;0.358819
4357.000000;0.359379
4356.000000;0.360547
4355.000000;0.361479
4354.000000;0.361608
4353.000000;0.360906
4352.000000;0.359515
4351.000000;0.357548
4350.000000;0.355234
4349.000000;0.352817
4348.000000;0.350203
4347.000000;0.347037
4346.000000;0.343194
4345.000000;0.339079
4344.000000;0.335519
4343.000000;0.333458
4342.000000;0.333384
4341.000000;0.334642
4340.000000;0.335506
4339.000000;0.334494
4338.000000;0.331702
4337.000000;0.328624
4336.000000;0.326882
4335.000000;0.327269
4334.000000;0.329412
4333.000000;0.331769
4332.000000;0.332433
4331.000000;0.330794
4330.000000;0.328218
4329.000000;0.326506
4328.000000;0.326051
4327.000000;0.326043
4326.000000;0.325937
4325.000000;0.325739
4324.000000;0.325077
4323.000000;0.323025
4322.000000;0.318876
4321.000000;0.312487
4320.000000;0.304240
4319.000000;0.295524
4318.000000;0.288911
4317.000000;0.286673
4316.000000;0.288994
4315.000000;0.294209
4314.000000;0.300742
4313.000000;0.307919
4312.000000;0.314712
4311.000000;0.318720
4310.000000;0.317383
4309.000000;0.310182
4308.000000;0.299466
4307.000000;0.289532
4306.000000;0.284763
4305.000000;0.287311
4304.000000;0.295688
4303.000000;0.305424
4302.000000;0.311305
4301.000000;0.309916
4300.000000;0.301577
4299.000000;0.290453
4298.000000;0.281889
4297.000000;0.278682
4296.000000;0.279795
4295.000000;0.282681
4294.000000;0.286024
4293.000000;0.289575
4292.000000;0.292667
4291.000000;0.294500
4290.000000;0.295191
4289.000000;0.295169
4288.000000;0.294262
4287.000000;0.292702
4286.000000;0.292048
4285.000000;0.293566
4284.000000;0.296544
4283.000000;0.299546
4282.000000;0.302536
4281.000000;0.306160
4280.000000;0.309561
4279.000000;0.310872
4278.000000;0.309578
4277.000000;0.306868
4276.000000;0.304260
4275.000000;0.303388
4274.000000;0.306475
4273.000000;0.315030
4272.000000;0.328291
4271.000000;0.343955
4270.000000;0.358986
4269.000000;0.368614
4268.000000;0.367561
4267.000000;0.356166
4266.000000;0.343078
4265.000000;0.338234
4264.000000;0.345195
4263.000000;0.361639
4262.000000;0.383907
4261.000000;0.407007
4260.000000;0.422931
4259.000000;0.426231
4258.000000;0.420224
4257.000000;0.412574
4256.000000;0.407132
4255.000000;0.403848
4254.000000;0.403781
4253.000000;0.409411
4252.000000;0.420844
4251.000000;0.435679
4250.000000;0.452958
4249.000000;0.473522
4248.000000;0.495341
4247.000000;0.512444
4246.000000;0.520968
4245.000000;0.522730
4244.000000;0.521139
4243.000000;0.518382
4242.000000;0.517248
4241.000000;0.520950
4240.000000;0.530509
4239.000000;0.544790
4238.000000;0.562548
4237.000000;0.581905
4236.000000;0.598503
4235.000000;0.608323
4234.000000;0.613211
4233.000000;0.618631
4232.000000;0.626445
4231.000000;0.635484
4230.000000;0.647565
4229.000000;0.666133
4228.000000;0.688972
4227.000000;0.708768
4226.000000;0.723015
4225.000000;0.736967
4224.000000;0.753932
4223.000000;0.770923
4222.000000;0.785267
4221.000000;0.795108
4220.000000;0.794991
4219.000000;0.781201
4218.000000;0.759450
4217.000000;0.740644
4216.000000;0.731624
4215.000000;0.733846
4214.000000;0.748397
4213.000000;0.776941
4212.000000;0.816525
4211.000000;0.858130
4210.000000;0.894579
4209.000000;0.926989
4208.000000;0.957826
4207.000000;0.982383
4206.000000;0.994855
4205.000000;0.996728
4204.000000;0.990621
4203.000000;0.973993
4202.000000;0.947220
4201.000000;0.919253
4200.000000;0.900639
4199.000000;0.899205
4198.000000;0.918182
4197.000000;0.950453
4196.000000;0.980616
4195.000000;0.999317
4194.000000;1.008622
4193.000000;1.017487
4192.000000;1.036406
4191.000000;1.071414
4190.000000;1.121099
4189.000000;1.174730
4188.000000;1.211912
4187.000000;1.215027
4186.000000;1.189906
4185.000000;1.157611
4184.000000;1.129258
4183.000000;1.105540
4182.000000;1.091253
4181.000000;1.096133
4180.000000;1.123162
4179.000000;1.163671
4178.000000;1.204143
4177.000000;1.236366
4176.000000;1.259375
4175.000000;1.273434
4174.000000;1.279058
4173.000000;1.276259
4172.000000;1.261598
4171.000000;1.240209
4170.000000;1.232453
4169.000000;1.255487
4168.000000;1.307036
4167.000000;1.364470
4166.000000;1.404581
4165.000000;1.427273
4164.000000;1.446442
4163.000000;1.469111
4162.000000;1.491029
4161.000000;1.497295
4160.000000;1.475142
4159.000000;1.436016
4158.000000;1.396272
4157.000000;1.358300
4156.000000;1.319165
4155.000000;1.279426
4154.000000;1.249074
4153.000000;1.240683
4152.000000;1.259213
4151.000000;1.302867
4150.000000;1.369765
4149.000000;1.458299
4148.000000;1.552491
4147.000000;1.618114
4146.000000;1.638463
4145.000000;1.639703
4144.000000;1.651060
4143.000000;1.645520
4142.000000;1.607969
4141.000000;1.571151
4140.000000;1.542335
4139.000000;1.519365
4138.000000;1.509992
4137.000000;1.517016
4136.000000;1.527081
4135.000000;1.524476
4134.000000;1.521134
4133.000000;1.532904
4132.000000;1.535407
4131.000000;1.492690
4130.000000;1.428977
4129.000000;1.395859
4128.000000;1.412758
4127.000000;1.473893
4126.000000;1.571859
4125.000000;1.708218
4124.000000;1.902065
4123.000000;2.173365
4122.000000;2.356117
4121.000000;2.306164
4120.000000;2.226576
4119.000000;2.117220
4118.000000;2.039802
4117.000000;2.059943
4116.000000;2.104133
4115.000000;2.125239
4114.000000;2.099882
4113.000000;1.957003
4112.000000;1.767730
4111.000000;1.606237
4110.000000;1.506762
4109.000000;1.474878
4108.000000;1.476600
4107.000000;1.464941
4106.000000;1.438883
4105.000000;1.428527
4104.000000;1.445052
4103.000000;1.467059
4102.000000;1.477670
4101.000000;1.512183
4100.000000;1.614519
4099.000000;1.780456
4098.000000;1.927543
4097.000000;1.982741
4096.000000;1.961868
4095.000000;1.754375
4094.000000;1.533607
4093.000000;1.423418
4092.000000;1.433838
4091.000000;1.575374
4090.000000;1.952775
4089.000000;2.394873
4088.000000;1.841938
4087.000000;1.728302
4086.000000;1.723589
4085.000000;1.731539
4084.000000;1.740828
4083.000000;1.769963
4082.000000;1.810722
4081.000000;1.854540
4080.000000;1.899400
4079.000000;1.937335
4078.000000;1.917665
4077.000000;1.843388
4076.000000;1.809793
4075.000000;1.822694
4074.000000;1.870155
4073.000000;1.971279
4072.000000;2.327883
4071.000000;2.418811
4070.000000;2.024726
4069.000000;1.907473
4068.000000;1.982223
4067.000000;2.503350
4066.000000;2.115432
4065.000000;1.758241
4064.000000;1.614179
4063.000000;1.547818
4062.000000;1.567294
4061.000000;1.688672
4060.000000;1.993023
4059.000000;2.703474
4058.000000;2.169759
4057.000000;1.934697
4056.000000;1.924707
4055.000000;2.227817
4054.000000;2.586418
4053.000000;2.059796
4052.000000;1.886271
4051.000000;1.802587
4050.000000;1.797941
4049.000000;1.851906
4048.000000;1.918331
4047.000000;1.938772
4046.000000;1.883280
4045.000000;1.766198
4044.000000;1.643463
4043.000000;1.564473
4042.000000;1.539148
4041.000000;1.554614
4040.000000;1.602925
4039.000000;1.696243
4038.000000;1.936532
4037.000000;2.193684
4036.000000;1.818072
4035.000000;1.677068
4034.000000;1.701411
4033.000000;1.748256
4032.000000;1.708470
4031.000000;1.656562
4030.000000;1.663360
4029.000000;1.712015
4028.000000;1.784889
4027.000000;1.896025
4026.000000;1.960959
4025.000000;1.819187
4024.000000;1.676289
4023.000000;1.625273
4022.000000;1.649467
4021.000000;1.738883
4020.000000;1.877453
4019.000000;2.290648
4018.000000;2.345142
4017.000000;1.840758
4016.000000;1.673483
4015.000000;1.691601
4014.000000;1.918801
4013.000000;2.477106
4012.000000;1.903999
4011.000000;1.606579
4010.000000;1.482920
4009.000000;1.440229
4008.000000;1.491315
4007.000000;1.663151
4006.000000;2.088164
4005.000000;2.145381
4004.000000;1.767805
4003.000000;1.688758
4002.000000;1.703960
4001.000000;1.963099
4000.000000;2.376101
3999.000000;1.809147
3998.000000;1.604256
3997.000000;1.586965
3996.000000;1.670085
3995.000000;1.779942
3994.000000;1.758028
3993.000000;1.657025
3992.000000;1.581660
3991.000000;1.540763
3990.000000;1.538714
3989.000000;1.591506
3988.000000;1.700010
3987.000000;1.828842
3986.000000;1.899033
3985.000000;1.890371
3984.000000;1.870763
3983.000000;1.853178
3982.000000;1.863749
3981.000000;1.932828
3980.000000;2.213148
3979.000000;2.981061
3978.000000;2.382352
3977.000000;2.313843
3976.000000;2.418724
3975.000000;2.612898
3974.000000;2.970768
3973.000000;2.492097
3972.000000;2.256836
3971.000000;2.223761
3970.000000;2.119127
3969.000000;1.970521
3968.000000;1.852499
3967.000000;1.793226
3966.000000;1.830686
3965.000000;2.099641
3964.000000;2.439848
3963.000000;2.283149
3962.000000;2.598635
3961.000000;2.181818
3960.000000;1.765908
3959.000000;1.601668
3958.000000;1.546772
3957.000000;1.583423
3956.000000;1.696547
3955.000000;1.806184
3954.000000;1.706092
3953.000000;1.544340
3952.000000;1.468452
3951.000000;1.483140
3950.000000;1.627090
3949.000000;2.057942
3948.000000;1.982441
3947.000000;1.551218
3946.000000;1.459158
3945.000000;1.496024
3944.000000;1.663805
3943.000000;2.220412
3942.000000;2.075853
3941.000000;1.647039
3940.000000;1.572805
3939.000000;1.588590
3938.000000;1.700312
3937.000000;1.939196
3936.000000;2.095305
3935.000000;1.948027
3934.000000;1.826649
3933.000000;1.826957
3932.000000;1.924743
3931.000000;2.092660
3930.000000;2.119566
3929.000000;2.018537
3928.000000;1.941966
3927.000000;1.883307
3926.000000;1.836480
3925.000000;1.826418
3924.000000;1.866173
3923.000000;1.908207
3922.000000;1.878741
3921.000000;1.846902
3920.000000;1.916101
3919.000000;2.003398
3918.000000;1.885602
3917.000000;1.709099
3916.000000;1.623372
3915.000000;1.649494
3914.000000;1.804977
3913.000000;1.974698
3912.000000;1.955175
3911.000000;1.877786
3910.000000;1.811107
3909.000000;1.769009
3908.000000;1.814616
3907.000000;1.945340
3906.000000;1.792005
3905.000000;1.621407
3904.000000;1.584099
3903.000000;1.717599
3902.000000;2.136979
3901.000000;1.809693
3900.000000;1.526383
3899.000000;1.491507
3898.000000;1.542190
3897.000000;1.760596
3896.000000;1.887659
3895.000000;1.616282
3894.000000;1.570112
3893.000000;1.708156
3892.000000;1.980859
3891.000000;2.004582
3890.000000;1.728473
3889.000000;1.611033
3888.000000;1.672215
3887.000000;1.987865
3886.000000;2.067721
3885.000000;1.840248
3884.000000;1.704748
3883.000000;1.566805
3882.000000;1.513629
3881.000000;1.585281
3880.000000;1.714023
3879.000000;1.787180
3878.000000;1.774745
3877.000000;1.758805
3876.000000;1.831071
3875.000000;1.971609
3874.000000;2.066058
3873.000000;2.045964
3872.000000;1.961661
3871.000000;1.955093
3870.000000;2.224911
3869.000000;2.747634
3868.000000;2.336669
3867.000000;2.029314
3866.000000;1.921668
3865.000000;2.070595
3864.000000;2.456040
3863.000000;2.270574
3862.000000;1.872364
3861.000000;1.666054
3860.000000;1.591763
3859.000000;1.602153
3858.000000;1.657520
3857.000000;1.811412
3856.000000;2.046928
3855.000000;1.949781
3854.000000;1.879643
3853.000000;1.991916
3852.000000;2.116977
3851.000000;2.166154
3850.000000;2.242298
3849.000000;2.427769
3848.000000;2.407987
3847.000000;2.194337
3846.000000;1.931752
3845.000000;1.720138
3844.000000;1.609268
3843.000000;1.583786
3842.000000;1.601476
3841.000000;1.643337
3840.000000;1.627332
3839.000000;1.555360
3838.000000;1.567135
3837.000000;1.708581
3836.000000;2.084699
3835.000000;2.542710
3834.000000;2.208135
3833.000000;2.072001
3832.000000;2.083338
3831.000000;2.168127
3830.000000;2.119384
3829.000000;2.040749
3828.000000;2.224398
3827.000000;2.132776
3826.000000;1.894621
3825.000000;1.822363
3824.000000;1.897060
3823.000000;1.970608
3822.000000;1.776673
3821.000000;1.707643
3820.000000;1.731859
3819.000000;1.835385
3818.000000;2.178392
3817.000000;2.091567
3816.000000;1.974157
3815.000000;2.086962
3814.000000;2.086762
3813.000000;2.064220
3812.000000;2.042195
3811.000000;2.040356
3810.000000;1.985970
3809.000000;1.921490
3808.000000;1.906040
3807.000000;1.961802
3806.000000;1.969798
3805.000000;1.851117
3804.000000;1.731927
3803.000000;1.731417
3802.000000;1.863118
3801.000000;2.033465
3800.000000;2.157758
3799.000000;2.257461
3798.000000;2.598351
3797.000000;2.829629
3796.000000;2.377377
3795.000000;2.137188
3794.000000;1.904293
3793.000000;1.721580
3792.000000;1.690632
3791.000000;1.821024
3790.000000;1.877484
3789.000000;1.741640
3788.000000;1.672353
3787.000000;1.721756
3786.000000;1.960798
3785.000000;2.282272
3784.000000;2.005209
3783.000000;1.762811
3782.000000;1.659133
3781.000000;1.641944
3780.000000;1.696992
3779.000000;1.767419
3778.000000;1.833474
3777.000000;1.874581
3776.000000;1.844137
3775.000000;1.834182
3774.000000;1.872956
3773.000000;1.852876
3772.000000;1.844307
3771.000000;1.870356
3770.000000;1.712843
3769.000000;1.506428
3768.000000;1.380584
3767.000000;1.370369
3766.000000;1.502208
3765.000000;1.578388
3764.000000;1.484379
3763.000000;1.373809
3762.000000;1.289470
3761.000000;1.306022
3760.000000;1.453880
3759.000000;1.657091
3758.000000;1.615834
3757.000000;1.417412
3756.000000;1.345364
3755.000000;1.415506
3754.000000;1.589609
3753.000000;1.885612
3752.000000;2.242218
3751.000000;2.498242
3750.000000;3.203016
3749.000000;2.862098
3748.000000;2.457319
3747.000000;2.384709
3746.000000;2.334730
3745.000000;2.349500
3744.000000;2.380991
3743.000000;2.361660
3742.000000;2.292057
3741.000000;2.124027
3740.000000;1.962022
3739.000000;1.929182
3738.000000;1.890351
3737.000000;1.811573
3736.000000;1.811678
3735.000000;1.986747
3734.000000;2.453303
3733.000000;2.090172
3732.000000;1.689018
3731.000000;1.567749
3730.000000;1.564869
3729.000000;1.667811
3728.000000;1.838329
3727.000000;1.973159
3726.000000;2.064064
3725.000000;2.032604
3724.000000;1.954558
3723.000000;2.074966
3722.000000;2.309323
3721.000000;2.186263
3720.000000;2.044989
3719.000000;1.942176
3718.000000;1.835118
3717.000000;1.779843
3716.000000;1.818411
3715.000000;1.912653
3714.000000;1.841875
3713.000000;1.699527
3712.000000;1.640665
3711.000000;1.659760
3710.000000;1.748600
3709.000000;2.099100
3708.000000;2.245407
3707.000000;1.838984
3706.000000;1.846495
3705.000000;1.838674
3704.000000;1.668048
3703.000000;1.633543
3702.000000;1.699389
3701.000000;1.896448
3700.000000;1.798792
3699.000000;1.558164
3698.000000;1.486109
3697.000000;1.634872
3696.000000;2.386614
3695.000000;1.972967
3694.000000;1.566766
3693.000000;1.522575
3692.000000;1.669503
3691.000000;2.121557
3690.000000;2.097676
3689.000000;1.806491
3688.000000;1.940570
3687.000000;2.381736
3686.000000;1.940698
3685.000000;1.740703
3684.000000;1.774005
3683.000000;1.873717
3682.000000;2.015880
3681.000000;1.926506
3680.000000;1.661401
3679.000000;1.512101
3678.000000;1.480047
3677.000000;1.564525
3676.000000;1.694995
3675.000000;1.713290
3674.000000;1.697741
3673.000000;1.729745
3672.000000;2.113271
3671.000000;2.462379
3670.000000;2.096903
3669.000000;2.086912
3668.000000;1.991389
3667.000000;1.992302
3666.000000;2.330033
3665.000000;1.984413
3664.000000;1.690072
3663.000000;1.650455
3662.000000;1.732849
3661.000000;2.112038
3660.000000;2.095275
3659.000000;1.677562
3658.000000;1.519380
3657.000000;1.504224
3656.000000;1.578938
3655.000000;1.609710
3654.000000;1.498540
3653.000000;1.417611
3652.000000;1.473631
3651.000000;1.604127
3650.000000;1.626422
3649.000000;1.512697
3648.000000;1.391783
3647.000000;1.391225
3646.000000;1.549262
3645.000000;1.756964
3644.000000;1.822970
3643.000000;1.761707
3642.000000;1.675756
3641.000000;1.596123
3640.000000;1.537668
3639.000000;1.532500
3638.000000;1.616592
3637.000000;1.732870
3636.000000;1.705651
3635.000000;1.597833
3634.000000;1.541448
3633.000000;1.556510
3632.000000;1.658201
3631.000000;1.878779
3630.000000;2.041654
3629.000000;2.080387
3628.000000;2.283505
3627.000000;2.698870
3626.000000;2.715570
3625.000000;2.270289
3624.000000;2.189283
3623.000000;2.376166
3622.000000;2.631962
3621.000000;2.270684
3620.000000;1.952956
3619.000000;1.787063
3618.000000;1.677264
3617.000000;1.598071
3616.000000;1.635025
3615.000000;2.080773
3614.000000;2.262703
3613.000000;1.828362
3612.000000;1.688186
3611.000000;1.607941
3610.000000;1.622166
3609.000000;1.784818
3608.000000;2.157008
3607.000000;2.089575
3606.000000;1.755272
3605.000000;1.649634
3604.000000;1.706973
3603.000000;1.829586
3602.000000;1.941179
3601.000000;2.046391
3600.000000;2.059952
3599.000000;1.953630
3598.000000;1.826410
3597.000000;1.764361
3596.000000;1.803529
3595.000000;2.064149
3594.000000;2.122189
3593.000000;1.703044
3592.000000;1.495863
3591.000000;1.431077
3590.000000;1.470856
3589.000000;1.571854
3588.000000;1.673627
3587.000000;1.785383
3586.000000;1.960314
3585.000000;2.416035
3584.000000;2.720428
3583.000000;2.457145
3582.000000;2.400351
3581.000000;2.135798
3580.000000;1.902433
3579.000000;1.806600
3578.000000;1.799548
3577.000000;1.767676
3576.000000;1.687054
3575.000000;1.607573
3574.000000;1.529554
3573.000000;1.478680
3572.000000;1.481595
3571.000000;1.544646
3570.000000;1.607165
3569.000000;1.580341
3568.000000;1.510157
3567.000000;1.447671
3566.000000;1.399922
3565.000000;1.390331
3564.000000;1.440275
3563.000000;1.524394
3562.000000;1.585897
3561.000000;1.599218
3560.000000;1.587813
3559.000000;1.574901
3558.000000;1.604833
3557.000000;1.717289
3556.000000;2.003773
3555.000000;2.696747
3554.000000;2.515394
3553.000000;2.186481
3552.000000;2.057711
3551.000000;2.036542
3550.000000;2.037601
3549.000000;1.888314
3548.000000;1.777314
3547.000000;1.769713
3546.000000;1.857252
3545.000000;2.023819
3544.000000;2.081086
3543.000000;1.976088
3542.000000;1.896264
3541.000000;1.800747
3540.000000;1.729094
3539.000000;1.741495
3538.000000;1.859946
3537.000000;2.148326
3536.000000;1.993530
3535.000000;1.636241
3534.000000;1.463387
3533.000000;1.382457
3532.000000;1.373511
3531.000000;1.422605
3530.000000;1.510737
3529.000000;1.604440
3528.000000;1.713252
3527.000000;1.871664
3526.000000;2.213843
3525.000000;2.691611
3524.000000;2.083484
3523.000000;1.837892
3522.000000;1.726863
3521.000000;1.659163
3520.000000;1.651103
3519.000000;1.708668
3518.000000;1.856974
3517.000000;1.992062
3516.000000;1.828593
3515.000000;1.597632
3514.000000;1.470062
3513.000000;1.421383
3512.000000;1.440581
3511.000000;1.538196
3510.000000;1.831962
3509.000000;2.130057
3508.000000;1.821927
3507.000000;1.650369
3506.000000;1.623149
3505.000000;1.660228
3504.000000;1.700502
3503.000000;1.711225
3502.000000;1.762935
3501.000000;1.858377
3500.000000;1.899710
3499.000000;1.840093
3498.000000;1.731871
3497.000000;1.628395
3496.000000;1.574034
3495.000000;1.576325
3494.000000;1.640568
3493.000000;1.798036
3492.000000;2.212796
3491.000000;2.709893
3490.000000;2.336148
3489.000000;2.570263
3488.000000;2.512646
3487.000000;2.076430
3486.000000;1.936669
3485.000000;1.936970
3484.000000;1.910235
3483.000000;1.807663
3482.000000;1.761398
3481.000000;1.799403
3480.000000;1.950861
3479.000000;2.121050
3478.000000;1.870124
3477.000000;1.634448
3476.000000;1.541235
3475.000000;1.563415
3474.000000;1.684345
3473.000000;1.947278
3472.000000;2.338618
3471.000000;1.909022
3470.000000;1.682433
3469.000000;1.612552
3468.000000;1.586507
3467.000000;1.602133
3466.000000;1.678598
3465.000000;1.861306
3464.000000;1.895896
3463.000000;1.647644
3462.000000;1.497869
3461.000000;1.486080
3460.000000;1.592182
3459.000000;1.895669
3458.000000;2.408087
3457.000000;2.051052
3456.000000;1.812974
3455.000000;1.850844
3454.000000;2.052342
3453.000000;1.932272
3452.000000;1.715249
3451.000000;1.703460
3450.000000;1.955087
3449.000000;2.460264
3448.000000;2.047711
3447.000000;1.867832
3446.000000;1.697243
3445.000000;1.508531
3444.000000;1.418563
3443.000000;1.428608
3442.000000;1.576250
3441.000000;2.007977
3440.000000;1.988052
3439.000000;1.514334
3438.000000;1.346945
3437.000000;1.298329
3436.000000;1.347066
3435.000000;1.485965
3434.000000;1.688224
3433.000000;1.785317
3432.000000;1.687392
3431.000000;1.611964
3430.000000;1.613280
3429.000000;1.692490
3428.000000;1.848214
3427.000000;2.077032
3426.000000;2.345033
3425.000000;2.588645
3424.000000;2.494511
3423.000000;2.145806
3422.000000;1.877809
3421.000000;1.749431
3420.000000;1.755585
3419.000000;1.872336
3418.000000;2.197883
3417.000000;2.545861
3416.000000;1.912961
3415.000000;1.690699
3414.000000;1.613345
3413.000000;1.638168
3412.000000;1.786899
3411.000000;2.003446
3410.000000;1.946589
3409.000000;1.704539
3408.000000;1.556119
3407.000000;1.499471
3406.000000;1.533485
3405.000000;1.640610
3404.000000;1.773352
3403.000000;1.783226
3402.000000;1.693604
3401.000000;1.680631
3400.000000;1.814707
3399.000000;2.316415
3398.000000;2.126358
3397.000000;1.751223
3396.000000;1.620641
3395.000000;1.601230
3394.000000;1.673225
3393.000000;1.663098
3392.000000;1.552040
3391.000000;1.468680
3390.000000;1.429695
3389.000000;1.419810
3388.000000;1.404614
3387.000000;1.366544
3386.000000;1.358013
3385.000000;1.437184
3384.000000;1.637218
3383.000000;2.063549
3382.000000;2.255796
3381.000000;1.840264
3380.000000;1.728151
3379.000000;1.820021
3378.000000;1.881739
3377.000000;1.591945
3376.000000;1.397057
3375.000000;1.328739
3374.000000;1.355968
3373.000000;1.493341
3372.000000;1.769716
3371.000000;1.822762
3370.000000;1.661786
3369.000000;1.609534
3368.000000;1.635163
3367.000000;1.715448
3366.000000;1.785875
3365.000000;1.801007
3364.000000;1.808645
3363.000000;1.870501
3362.000000;1.949092
3361.000000;2.171844
3360.000000;2.720115
3359.000000;2.022516
3358.000000;1.883125
3357.000000;1.976084
3356.000000;2.256881
3355.000000;2.250012
3354.000000;2.057931
3353.000000;1.982308
3352.000000;1.953558
3351.000000;1.955121
3350.000000;1.921464
3349.000000;1.788520
3348.000000;1.674524
3347.000000;1.684501
3346.000000;1.912628
3345.000000;2.447187
3344.000000;2.052103
3343.000000;1.857189
3342.000000;1.929557
3341.000000;2.074799
3340.000000;2.017886
3339.000000;1.952458
3338.000000;2.069082
3337.000000;1.934083
3336.000000;1.769303
3335.000000;1.764385
3334.000000;1.841458
3333.000000;1.941479
3332.000000;2.087533
3331.000000;2.140877
3330.000000;2.112648
3329.000000;2.171155
3328.000000;1.840847
3327.000000;1.536427
3326.000000;1.409940
3325.000000;1.386873
3324.000000;1.419950
3323.000000;1.473228
3322.000000;1.516407
3321.000000;1.505746
3320.000000;1.477822
3319.000000;1.504984
3318.000000;1.601640
3317.000000;1.664967
3316.000000;1.611326
3315.000000;1.548579
3314.000000;1.496371
3313.000000;1.458593
3312.000000;1.496862
3311.000000;1.647597
3310.000000;1.713172
3309.000000;1.583106
3308.000000;1.511846
3307.000000;1.523246
3306.000000;1.601700
3305.000000;1.864153
3304.000000;2.086737
3303.000000;1.520676
3302.000000;1.310958
3301.000000;1.236622
3300.000000;1.270159
3299.000000;1.378973
3298.000000;1.659806
3297.000000;2.128930
3296.000000;1.669724
3295.000000;1.378424
3294.000000;1.281628
3293.000000;1.283066
3292.000000;1.404400
3291.000000;1.729980
3290.000000;2.281268
3289.000000;1.809691
3288.000000;1.575601
3287.000000;1.506972
3286.000000;1.497948
3285.000000;1.542210
3284.000000;1.568975
3283.000000;1.496912
3282.000000;1.397184
3281.000000;1.362177
3280.000000;1.414968
3279.000000;1.552150
3278.000000;1.673974
3277.000000;1.601580
3276.000000;1.534116
3275.000000;1.583709
3274.000000;1.839244
3273.000000;2.066820
3272.000000;1.671574
3271.000000;1.445663
3270.000000;1.330721
3269.000000;1.325082
3268.000000;1.418904
3267.000000;1.777764
3266.000000;1.957316
3265.000000;1.572865
3264.000000;1.433034
3263.000000;1.441563
3262.000000;1.561818
3261.000000;2.189613
3260.000000;1.846036
3259.000000;1.512982
3258.000000;1.436880
3257.000000;1.462759
3256.000000;1.586797
3255.000000;1.689803
3254.000000;1.573395
3253.000000;1.535150
3252.000000;1.654124
3251.000000;1.853648
3250.000000;1.948086
3249.000000;2.291170
3248.000000;2.564132
3247.000000;1.793021
3246.000000;1.549956
3245.000000;1.387910
3244.000000;1.341706
3243.000000;1.388742
3242.000000;1.488559
3241.000000;1.509795
3240.000000;1.455013
3239.000000;1.468399
3238.000000;1.621538
3237.000000;1.869950
3236.000000;1.738955
3235.000000;1.613338
3234.000000;1.717144
3233.000000;2.041702
3232.000000;3.329946
3231.000000;2.129555
3230.000000;1.700214
3229.000000;1.584843
3228.000000;1.704457
3227.000000;2.228226
3226.000000;2.173390
3225.000000;1.987941
3224.000000;2.347241
3223.000000;2.013995
3222.000000;1.680066
3221.000000;1.722084
3220.000000;1.856396
3219.000000;1.664900
3218.000000;1.494275
3217.000000;1.408595
3216.000000;1.380569
3215.000000;1.442443
3214.000000;1.549194
3213.000000;1.476032
3212.000000;1.329493
3211.000000;1.255199
3210.000000;1.233193
3209.000000;1.231376
3208.000000;1.217889
3207.000000;1.196419
3206.000000;1.195463
3205.000000;1.255259
3204.000000;1.418376
3203.000000;1.603541
3202.000000;1.450423
3201.000000;1.312543
3200.000000;1.269114
3199.000000;1.287323
3198.000000;1.339871
3197.000000;1.429723
3196.000000;1.679340
3195.000000;1.938258
3194.000000;1.587998
3193.000000;1.478145
3192.000000;1.471454
3191.000000;1.550702
3190.000000;1.733526
3189.000000;1.792827
3188.000000;1.609856
3187.000000;1.564077
3186.000000;1.668795
3185.000000;2.058714
3184.000000;2.161386
3183.000000;1.872581
3182.000000;1.758901
3181.000000;1.673046
3180.000000;1.587937
3179.000000;1.501475
3178.000000;1.464452
3177.000000;1.494895
3176.000000;1.547743
3175.000000;1.573994
3174.000000;1.621730
3173.000000;1.745763
3172.000000;1.900284
3171.000000;1.803820
3170.000000;1.617512
3169.000000;1.526176
3168.000000;1.527428
3167.000000;1.643592
3166.000000;1.711051
3165.000000;1.508359
3164.000000;1.364904
3163.000000;1.335665
3162.000000;1.414652
3161.000000;1.591409
3160.000000;1.973941
3159.000000;1.997814
3158.000000;1.678034
3157.000000;1.558268
3156.000000;1.554105
3155.000000;1.625113
3154.000000;2.023907
3153.000000;1.981444
3152.000000;1.510071
3151.000000;1.348090
3150.000000;1.341165
3149.000000;1.462283
3148.000000;1.799276
3147.000000;1.697646
3146.000000;1.427711
3145.000000;1.367006
3144.000000;1.443309
3143.000000;1.710786
3142.000000;1.866541
3141.000000;1.518505
3140.000000;1.440595
3139.000000;1.495191
3138.000000;1.736693
3137.000000;2.201565
3136.000000;1.854167
3135.000000;1.569433
3134.000000;1.499395
3133.000000;1.514555
3132.000000;1.651395
3131.000000;1.994050
3130.000000;1.794339
3129.000000;1.485582
3128.000000;1.327707
3127.000000;1.251958
3126.000000;1.292375
3125.000000;1.466288
3124.000000;1.589485
3123.000000;1.379190
3122.000000;1.221200
3121.000000;1.172727
3120.000000;1.217087
3119.000000;1.341859
3118.000000;1.533947
3117.000000;1.807311
3116.000000;2.322145
3115.000000;2.615803
3114.000000;1.832127
3113.000000;1.622580
3112.000000;1.582234
3111.000000;1.622615
3110.000000;1.583884
3109.000000;1.463920
3108.000000;1.371372
3107.000000;1.344884
3106.000000;1.364255
3105.000000;1.383999
3104.000000;1.379844
3103.000000;1.382280
3102.000000;1.443467
3101.000000;1.589039
3100.000000;1.820853
3099.000000;1.911938
3098.000000;1.726061
3097.000000;1.593043
3096.000000;1.536991
3095.000000;1.529876
3094.000000;1.594239
3093.000000;1.798893
3092.000000;2.158496
3091.000000;1.804993
3090.000000;1.528457
3089.000000;1.393679
3088.000000;1.376819
3087.000000;1.482453
3086.000000;1.673900
3085.000000;1.652867
3084.000000;1.483298
3083.000000;1.409165
3082.000000;1.401006
3081.000000;1.433447
3080.000000;1.479575
3079.000000;1.510549
3078.000000;1.543747
3077.000000;1.641774
3076.000000;1.835632
3075.000000;2.004978
3074.000000;2.626233
3073.000000;2.257208
3072.000000;1.875876
3071.000000;1.655247
3070.000000;1.469605
3069.000000;1.423291
3068.000000;1.527835
3067.000000;1.681888
3066.000000;1.677051
3065.000000;1.669393
3064.000000;1.778299
3063.000000;2.165901
3062.000000;2.293511
3061.000000;1.738092
3060.000000;1.581548
3059.000000;1.535953
3058.000000;1.601494
3057.000000;1.908723
3056.000000;1.929961
3055.000000;1.500297
3054.000000;1.330791
3053.000000;1.265604
3052.000000;1.296988
3051.000000;1.411225
3050.000000;1.670501
3049.000000;1.973755
3048.000000;1.645482
3047.000000;1.456575
3046.000000;1.474956
3045.000000;1.715277
3044.000000;1.898497
3043.000000;1.518715
3042.000000;1.355163
3041.000000;1.324098
3040.000000;1.364155
3039.000000;1.473119
3038.000000;1.679016
3037.000000;1.945629
3036.000000;1.755434
3035.000000;1.550939
3034.000000;1.484805
3033.000000;1.512575
3032.000000;1.595549
3031.000000;1.676535
3030.000000;1.774128
3029.000000;1.974248
3028.000000;2.043395
3027.000000;1.985868
3026.000000;2.082217
3025.000000;1.877056
3024.000000;1.651191
3023.000000;1.591779
3022.000000;1.611087
3021.000000;1.607560
3020.000000;1.578036
3019.000000;1.641236
3018.000000;1.785100
3017.000000;1.786529
3016.000000;1.819011
3015.000000;2.287646
3014.000000;1.938710
3013.000000;1.502800
3012.000000;1.325762
3011.000000;1.285523
3010.000000;1.379749
3009.000000;1.712580
3008.000000;1.834289
3007.000000;1.417868
3006.000000;1.324236
3005.000000;1.382826
3004.000000;1.597497
3003.000000;1.876304
3002.000000;1.894269
3001.000000;1.823593
3000.000000;1.856768
2999.000000;1.949425
2998.000000;1.970637
2997.000000;1.860120
2996.000000;1.683547
2995.000000;1.575027
2994.000000;1.622989
2993.000000;1.885670
2992.000000;1.659898
2991.000000;1.393939
2990.000000;1.292261
2989.000000;1.271033
2988.000000;1.320203
2987.000000;1.496453
2986.000000;1.744464
2985.000000;1.435008
2984.000000;1.278096
2983.000000;1.314731
2982.000000;1.581438
2981.000000;2.230700
2980.000000;1.927695
2979.000000;1.977150
2978.000000;2.179590
2977.000000;1.734042
2976.000000;1.558602
2975.000000;1.522981
2974.000000;1.571492
2973.000000;1.695629
2972.000000;1.703660
2971.000000;1.615286
2970.000000;1.656841
2969.000000;2.177561
2968.000000;1.914440
2967.000000;1.517052
2966.000000;1.454669
2965.000000;1.553841
2964.000000;1.862744
2963.000000;1.944358
2962.000000;1.749620
2961.000000;1.679515
2960.000000;1.741996
2959.000000;1.904825
2958.000000;1.816529
2957.000000;1.884055
2956.000000;2.363851
2955.000000;1.907909
2954.000000;1.616959
2953.000000;1.483339
2952.000000;1.429896
2951.000000;1.486747
2950.000000;1.682267
2949.000000;1.806847
2948.000000;1.638477
2947.000000;1.526722
2946.000000;1.489540
2945.000000;1.471398
2944.000000;1.453927
2943.000000;1.505462
2942.000000;1.891448
2941.000000;1.966259
2940.000000;1.584667
2939.000000;1.544322
2938.000000;1.675472
2937.000000;1.710417
2936.000000;1.647519
2935.000000;1.787707
2934.000000;2.436859
2933.000000;2.060239
2932.000000;1.798219
2931.000000;1.734828
2930.000000;1.676073
2929.000000;1.592009
2928.000000;1.552524
2927.000000;1.650887
2926.000000;2.072015
2925.000000;2.311757
2924.000000;1.865637
2923.000000;1.819495
2922.000000;1.718166
2921.000000;1.634449
2920.000000;1.645928
2919.000000;1.759823
2918.000000;1.916896
2917.000000;1.906661
2916.000000;1.852183
2915.000000;1.876523
2914.000000;1.912814
2913.000000;1.766631
2912.000000;1.504477
2911.000000;1.311606
2910.000000;1.229088
2909.000000;1.257364
2908.000000;1.379848
2907.000000;1.593308
2906.000000;1.723317
2905.000000;1.540165
2904.000000;1.376514
2903.000000;1.283569
2902.000000;1.267617
2901.000000;1.385239
2900.000000;1.715474
2899.000000;1.728124
2898.000000;1.431903
2897.000000;1.310813
2896.000000;1.249288
2895.000000;1.270084
2894.000000;1.403777
2893.000000;1.768814
2892.000000;1.959739
2891.000000;1.561386
2890.000000;1.406750
2889.000000;1.385511
2888.000000;1.521166
2887.000000;2.079245
2886.000000;1.832380
2885.000000;1.415163
2884.000000;1.291682
2883.000000;1.298900
2882.000000;1.483691
2881.000000;1.864488
2880.000000;1.652203
2879.000000;1.391958
2878.000000;1.277309
2877.000000;1.240724
2876.000000;1.291114
2875.000000;1.448784
2874.000000;1.647693
2873.000000;1.618525
2872.000000;1.590854
2871.000000;1.666409
2870.000000;1.573280
2869.000000;1.397218
2868.000000;1.326110
2867.000000;1.351566
2866.000000;1.439910
2865.000000;1.511850
2864.000000;1.417506
2863.000000;1.296475
2862.000000;1.274528
2861.000000;1.401931
2860.000000;1.812692
2859.000000;2.006929
2858.000000;2.055928
2857.000000;2.031424
2856.000000;1.615909
2855.000000;1.536362
2854.000000;1.579595
2853.000000;1.443447
2852.000000;1.312151
2851.000000;1.297438
2850.000000;1.407296
2849.000000;1.636422
2848.000000;1.649707
2847.000000;1.430515
2846.000000;1.328767
2845.000000;1.319385
2844.000000;1.374482
2843.000000;1.705446
2842.000000;2.043480
2841.000000;1.602641
2840.000000;1.576008
2839.000000;1.903342
2838.000000;2.149891
2837.000000;1.675403
2836.000000;1.433739
2835.000000;1.335330
2834.000000;1.321286
2833.000000;1.383043
2832.000000;1.512043
2831.000000;1.738562
2830.000000;1.695023
2829.000000;1.496743
2828.000000;1.422071
2827.000000;1.420547
2826.000000;1.455825
2825.000000;1.515673
2824.000000;1.567692
2823.000000;1.559902
2822.000000;1.517739
2821.000000;1.515328
2820.000000;1.553006
2819.000000;1.547783
2818.000000;1.414190
2817.000000;1.256184
2816.000000;1.188574
2815.000000;1.221266
2814.000000;1.329484
2813.000000;1.482368
2812.000000;1.629593
2811.000000;1.682264
2810.000000;1.658756
2809.000000;1.614866
2808.000000;1.566542
2807.000000;1.556241
2806.000000;1.652538
2805.000000;1.893474
2804.000000;2.002312
2803.000000;1.884463
2802.000000;1.910468
2801.000000;2.208640
2800.000000;2.127933
2799.000000;1.767598
2798.000000;1.628248
2797.000000;1.584772
2796.000000;1.559912
2795.000000;1.522373
2794.000000;1.502137
2793.000000;1.527555
2792.000000;1.566357
2791.000000;1.566764
2790.000000;1.504535
2789.000000;1.362800
2788.000000;1.227000
2787.000000;1.174846
2786.000000;1.226268
2785.000000;1.394097
2784.000000;1.409338
2783.000000;1.180600
2782.000000;1.019214
2781.000000;0.946915
2780.000000;0.951009
2779.000000;1.023232
2778.000000;1.135593
2777.000000;1.215200
2776.000000;1.198688
2775.000000;1.145681
2774.000000;1.112979
2773.000000;1.102133
2772.000000;1.105051
2771.000000;1.142120
2770.000000;1.261764
2769.000000;1.587788
2768.000000;1.665389
2767.000000;1.344723
2766.000000;1.275307
2765.000000;1.375806
2764.000000;1.727873
2763.000000;1.689171
2762.000000;1.277392
2761.000000;1.171303
2760.000000;1.183517
2759.000000;1.279442
2758.000000;1.708114
2757.000000;1.889392
2756.000000;1.378731
2755.000000;1.256895
2754.000000;1.247432
2753.000000;1.271090
2752.000000;1.324805
2751.000000;1.443826
2750.000000;1.764118
2749.000000;1.803426
2748.000000;1.511211
2747.000000;1.411813
2746.000000;1.441572
2745.000000;1.597185
2744.000000;1.808392
2743.000000;1.646589
2742.000000;1.444286
2741.000000;1.336291
2740.000000;1.271143
2739.000000;1.244862
2738.000000;1.229404
2737.000000;1.213878
2736.000000;1.221694
2735.000000;1.247761
2734.000000;1.259553
2733.000000;1.267101
2732.000000;1.307535
2731.000000;1.377270
2730.000000;1.404240
2729.000000;1.386498
2728.000000;1.415366
2727.000000;1.539622
2726.000000;1.629902
2725.000000;1.516842
2724.000000;1.413703
2723.000000;1.390764
2722.000000;1.432455
2721.000000;1.548676
2720.000000;1.787602
2719.000000;2.319398
2718.000000;2.388772
2717.000000;2.067635
2716.000000;2.005328
2715.000000;2.078404
2714.000000;2.204439
2713.000000;2.013343
2712.000000;1.767014
2711.000000;1.623571
2710.000000;1.536344
2709.000000;1.425006
2708.000000;1.308275
2707.000000;1.251096
2706.000000;1.269860
2705.000000;1.375775
2704.000000;1.534518
2703.000000;1.568203
2702.000000;1.462320
2701.000000;1.375591
2700.000000;1.303666
2699.000000;1.198935
2698.000000;1.108921
2697.000000;1.092845
2696.000000;1.170680
2695.000000;1.298025
2694.000000;1.292754
2693.000000;1.169617
2692.000000;1.080105
2691.000000;1.048415
2690.000000;1.069747
2689.000000;1.128914
2688.000000;1.184268
2687.000000;1.192114
2686.000000;1.173022
2685.000000;1.195961
2684.000000;1.290485
2683.000000;1.521885
2682.000000;1.942449
2681.000000;1.804890
2680.000000;1.555369
2679.000000;1.526050
2678.000000;1.721975
2677.000000;1.849065
2676.000000;1.531793
2675.000000;1.391665
2674.000000;1.457918
2673.000000;1.745195
2672.000000;1.958362
2671.000000;1.750567
2670.000000;1.876694
2669.000000;2.226289
2668.000000;1.740055
2667.000000;1.493689
2666.000000;1.416647
2665.000000;1.347697
2664.000000;1.282801
2663.000000;1.244906
2662.000000;1.276812
2661.000000;1.401985
2660.000000;1.568779
2659.000000;1.443179
2658.000000;1.239519
2657.000000;1.174103
2656.000000;1.239827
2655.000000;1.694818
2654.000000;1.659299
2653.000000;1.130559
2652.000000;1.009709
2651.000000;1.012899
2650.000000;1.113481
2649.000000;1.260325
2648.000000;1.234847
2647.000000;1.111612
2646.000000;1.019010
2645.000000;1.024601
2644.000000;1.132346
2643.000000;1.394771
2642.000000;1.974678
2641.000000;1.988633
2640.000000;1.870273
2639.000000;1.902011
2638.000000;1.540260
2637.000000;1.335959
2636.000000;1.286078
2635.000000;1.314050
2634.000000;1.235316
2633.000000;1.085776
2632.000000;1.033279
2631.000000;1.096030
2630.000000;1.264710
2629.000000;1.439024
2628.000000;1.444233
2627.000000;1.392777
2626.000000;1.367563
2625.000000;1.331399
2624.000000;1.305760
2623.000000;1.288844
2622.000000;1.277794
2621.000000;1.293900
2620.000000;1.383151
2619.000000;1.733313
2618.000000;1.923079
2617.000000;1.485594
2616.000000;1.280308
2615.000000;1.183351
2614.000000;1.147427
2613.000000;1.167854
2612.000000;1.227680
2611.000000;1.327249
2610.000000;1.437655
2609.000000;1.481760
2608.000000;1.466119
2607.000000;1.525766
2606.000000;1.630338
2605.000000;1.579799
2604.000000;1.467055
2603.000000;1.496502
2602.000000;1.668031
2601.000000;1.532176
2600.000000;1.244592
2599.000000;1.153913
2598.000000;1.192667
2597.000000;1.335434
2596.000000;1.890717
2595.000000;1.978657
2594.000000;1.441755
2593.000000;1.357295
2592.000000;1.386206
2591.000000;1.527731
2590.000000;1.657245
2589.000000;1.678542
2588.000000;1.697882
2587.000000;1.898042
2586.000000;2.307631
2585.000000;1.731104
2584.000000;1.516828
2583.000000;1.524500
2582.000000;1.507792
2581.000000;1.368918
2580.000000;1.213204
2579.000000;1.121347
2578.000000;1.092052
2577.000000;1.141738
2576.000000;1.247699
2575.000000;1.345007
2574.000000;1.355498
2573.000000;1.346654
2572.000000;1.393663
2571.000000;1.512764
2570.000000;1.995810
2569.000000;1.956791
2568.000000;1.432664
2567.000000;1.301351
2566.000000;1.299507
2565.000000;1.353930
2564.000000;1.336785
2563.000000;1.247280
2562.000000;1.187893
2561.000000;1.185675
2560.000000;1.224140
2559.000000;1.359717
2558.000000;1.475745
2557.000000;1.355516
2556.000000;1.256546
2555.000000;1.452311
2554.000000;2.013014
2553.000000;1.450443
2552.000000;1.197632
2551.000000;1.108573
2550.000000;1.084273
2549.000000;1.142478
2548.000000;1.345546
2547.000000;1.834213
2546.000000;1.587219
2545.000000;1.344945
2544.000000;1.422469
2543.000000;1.754358
2542.000000;1.891942
2541.000000;1.597924
2540.000000;1.510065
2539.000000;1.544490
2538.000000;1.643967
2537.000000;1.604535
2536.000000;1.473654
2535.000000;1.452858
2534.000000;1.481324
2533.000000;1.478765
2532.000000;1.424978
2531.000000;1.473819
2530.000000;1.635735
2529.000000;1.429878
2528.000000;1.184352
2527.000000;1.079671
2526.000000;1.073825
2525.000000;1.161328
2524.000000;1.384195
2523.000000;1.715571
2522.000000;1.605323
2521.000000;1.419961
2520.000000;1.397180
2519.000000;1.395805
2518.000000;1.294953
2517.000000;1.171095
2516.000000;1.120269
2515.000000;1.131334
2514.000000;1.164368
2513.000000;1.206829
2512.000000;1.285230
2511.000000;1.404416
2510.000000;1.517000
2509.000000;1.583002
2508.000000;1.724144
2507.000000;1.897680
2506.000000;1.751053
2505.000000;1.638819
2504.000000;1.550227
2503.000000;1.440765
2502.000000;1.434224
2501.000000;1.616295
2500.000000;2.043153
2499.000000;2.057127
2498.000000;2.016824
2497.000000;1.925169
2496.000000;1.537268
2495.000000;1.331589
2494.000000;1.277926
2493.000000;1.345455
2492.000000;1.557880
2491.000000;1.758109
2490.000000;1.773189
2489.000000;1.972849
2488.000000;1.742872
2487.000000;1.401849
2486.000000;1.264059
2485.000000;1.182295
2484.000000;1.135066
2483.000000;1.136587
2482.000000;1.206483
2481.000000;1.412223
2480.000000;1.563116
2479.000000;1.328798
2478.000000;1.188426
2477.000000;1.183759
2476.000000;1.249243
2475.000000;1.370095
2474.000000;1.491118
2473.000000;1.570002
2472.000000;1.748301
2471.000000;1.811497
2470.000000;1.570760
2469.000000;1.542740
2468.000000;1.550799
2467.000000;1.321299
2466.000000;1.134212
2465.000000;1.053290
2464.000000;1.060592
2463.000000;1.140811
2462.000000;1.308335
2461.000000;1.797062
2460.000000;1.902474
2459.000000;1.486146
2458.000000;1.497322
2457.000000;1.903991
2456.000000;1.760314
2455.000000;1.387919
2454.000000;1.314185
2453.000000;1.407173
2452.000000;1.803185
2451.000000;1.858366
2450.000000;1.442880
2449.000000;1.327413
2448.000000;1.399173
2447.000000;1.669206
2446.000000;1.722351
2445.000000;1.465427
2444.000000;1.396408
2443.000000;1.432172
2442.000000;1.765709
2441.000000;2.082536
2440.000000;1.467216
2439.000000;1.357095
2438.000000;1.499536
2437.000000;1.871754
2436.000000;1.695306
2435.000000;1.489357
2434.000000;1.985151
2433.000000;1.791611
2432.000000;1.260611
2431.000000;1.098135
2430.000000;1.036700
2429.000000;1.049466
2428.000000;1.135310
2427.000000;1.341149
2426.000000;1.369905
2425.000000;1.174207
2424.000000;1.116787
2423.000000;1.167571
2422.000000;1.266138
2421.000000;1.369391
2420.000000;1.544126
2419.000000;2.025333
2418.000000;1.880335
2417.000000;1.773403
2416.000000;2.040563
2415.000000;1.608228
2414.000000;1.407081
2413.000000;1.395593
2412.000000;1.409812
2411.000000;1.347108
2410.000000;1.296808
2409.000000;1.368753
2408.000000;1.536171
2407.000000;1.961327
2406.000000;1.912217
2405.000000;1.442181
2404.000000;1.260710
2403.000000;1.175355
2402.000000;1.158159
2401.000000;1.216790
2400.000000;1.406342
2399.000000;1.747968
2398.000000;1.561829
2397.000000;1.361894
2396.000000;1.301859
2395.000000;1.316731
2394.000000;1.379667
2393.000000;1.638754
2392.000000;2.182784
2391.000000;1.450723
2390.000000;1.234102
2389.000000;1.189905
2388.000000;1.231110
2387.000000;1.299493
2386.000000;1.280460
2385.000000;1.206012
2384.000000;1.160219
2383.000000;1.189016
2382.000000;1.278246
2381.000000;1.312866
2380.000000;1.210932
2379.000000;1.116434
2378.000000;1.108158
2377.000000;1.212003
2376.000000;1.502446
2375.000000;1.535266
2374.000000;1.299487
2373.000000;1.244869
2372.000000;1.344727
2371.000000;1.586809
2370.000000;1.672310
2369.000000;1.428641
2368.000000;1.244395
2367.000000;1.137648
2366.000000;1.116276
2365.000000;1.180573
2364.000000;1.443234
2363.000000;1.906086
2362.000000;1.293950
2361.000000;1.077257
2360.000000;1.028081
2359.000000;1.086624
2358.000000;1.221253
2357.000000;1.414049
2356.000000;1.677955
2355.000000;1.840270
2354.000000;1.721219
2353.000000;1.482282
2352.000000;1.310461
2351.000000;1.256887
2350.000000;1.292961
2349.000000;1.291288
2348.000000;1.298525
2347.000000;1.333827
2346.000000;1.330927
2345.000000;1.315708
2344.000000;1.413032
2343.000000;1.304234
2342.000000;1.159651
2341.000000;1.136702
2340.000000;1.173854
2339.000000;1.300208
2338.000000;1.503603
2337.000000;1.443730
2336.000000;1.329649
2335.000000;1.378803
2334.000000;1.623402
2333.000000;1.989941
2332.000000;1.767858
2331.000000;1.614679
2330.000000;1.532317
2329.000000;1.482789
2328.000000;1.434765
2327.000000;1.536073
2326.000000;1.747473
2325.000000;1.659328
2324.000000;1.627089
2323.000000;1.817068
2322.000000;1.813159
2321.000000;1.507835
2320.000000;1.271364
2319.000000;1.156236
2318.000000;1.138975
2317.000000;1.215986
2316.000000;1.487363
2315.000000;1.465617
2314.000000;1.047663
2313.000000;0.872115
2312.000000;0.822258
2311.000000;0.881534
2310.000000;1.066374
2309.000000;1.461469
2308.000000;1.520957
2307.000000;1.246906
2306.000000;1.178610
2305.000000;1.166790
2304.000000;1.105826
2303.000000;0.983276
2302.000000;0.919582
2301.000000;0.960709
2300.000000;1.090140
2299.000000;1.464264
2298.000000;1.492674
2297.000000;1.092772
2296.000000;0.915156
2295.000000;0.828619
2294.000000;0.803020
2293.000000;0.852743
2292.000000;0.984190
2291.000000;1.058458
2290.000000;1.006435
2289.000000;0.992491
2288.000000;1.061874
2287.000000;1.206413
2286.000000;1.483491
2285.000000;2.132536
2284.000000;1.544809
2283.000000;1.265662
2282.000000;1.154779
2281.000000;1.115548
2280.000000;1.103475
2279.000000;1.095402
2278.000000;1.073709
2277.000000;1.037594
2276.000000;1.041618
2275.000000;1.134760
2274.000000;1.398814
2273.000000;1.550883
2272.000000;1.339113
2271.000000;1.293062
2270.000000;1.416250
2269.000000;1.807567
2268.000000;1.947287
2267.000000;1.597205
2266.000000;1.467783
2265.000000;1.533537
2264.000000;1.772263
2263.000000;1.679224
2262.000000;1.465877
2261.000000;1.267010
2260.000000;1.176477
2259.000000;1.250998
2258.000000;1.500413
2257.000000;1.569925
2256.000000;1.385244
2255.000000;1.313847
2254.000000;1.344636
2253.000000;1.486538
2252.000000;1.650348
2251.000000;1.665758
2250.000000;1.762711
2249.000000;2.025255
2248.000000;1.565020
2247.000000;1.299343
2246.000000;1.290054
2245.000000;1.351862
2244.000000;1.328031
2243.000000;1.246234
2242.000000;1.223212
2241.000000;1.320998
2240.000000;1.648579
2239.000000;1.644995
2238.000000;1.382797
2237.000000;1.222795
2236.000000;1.147498
2235.000000;1.199926
2234.000000;1.444232
2233.000000;2.012647
2232.000000;1.796211
2231.000000;1.764458
2230.000000;1.775328
2229.000000;1.727765
2228.000000;1.578043
2227.000000;1.403031
2226.000000;1.283399
2225.000000;1.256529
2224.000000;1.332877
2223.000000;1.585552
2222.000000;2.082075
2221.000000;1.716298
2220.000000;1.461791
2219.000000;1.534768
2218.000000;1.661404
2217.000000;1.530021
2216.000000;1.405725
2215.000000;1.358048
2214.000000;1.269181
2213.000000;1.163654
2212.000000;1.107109
2211.000000;1.121802
2210.000000;1.209415
2209.000000;1.390313
2208.000000;1.375022
2207.000000;1.187099
2206.000000;1.127504
2205.000000;1.175244
2204.000000;1.261675
2203.000000;1.313259
2202.000000;1.325995
2201.000000;1.350141
2200.000000;1.413448
2199.000000;1.493539
2198.000000;1.571530
2197.000000;1.676110
2196.000000;1.711977
2195.000000;2.117778
2194.000000;2.252420
2193.000000;1.567398
2192.000000;1.393777
2191.000000;1.308002
2190.000000;1.242611
2189.000000;1.167447
2188.000000;1.145440
2187.000000;1.266445
2186.000000;1.279413
2185.000000;1.039664
2184.000000;0.907729
2183.000000;0.895791
2182.000000;0.971739
2181.000000;1.111712
2180.000000;1.146039
2179.000000;1.006953
2178.000000;0.895644
2177.000000;0.854105
2176.000000;0.880034
2175.000000;0.971622
2174.000000;1.139354
2173.000000;1.334249
2172.000000;1.261804
2171.000000;1.088768
2170.000000;1.022348
2169.000000;1.061597
2168.000000;1.215613
2167.000000;1.453583
2166.000000;1.375048
2165.000000;1.116414
2164.000000;0.982623
2163.000000;0.954059
2162.000000;1.048830
2161.000000;1.264490
2160.000000;1.862547
2159.000000;1.484548
2158.000000;1.176934
2157.000000;1.142800
2156.000000;1.264823
2155.000000;1.730046
2154.000000;1.715221
2153.000000;1.476445
2152.000000;1.522363
2151.000000;1.585295
2150.000000;1.324597
2149.000000;1.107875
2148.000000;1.024808
2147.000000;1.085859
2146.000000;1.322171
2145.000000;1.674656
2144.000000;1.660490
2143.000000;1.552092
2142.000000;1.464912
2141.000000;1.399438
2140.000000;1.375486
2139.000000;1.442722
2138.000000;1.503743
2137.000000;1.301909
2136.000000;1.101980
2135.000000;1.053229
2134.000000;1.140256
2133.000000;1.509945
2132.000000;1.460341
2131.000000;1.136706
2130.000000;1.004512
2129.000000;0.979453
2128.000000;1.040981
2127.000000;1.159645
2126.000000;1.240096
2125.000000;1.169810
2124.000000;1.067726
2123.000000;1.026620
2122.000000;1.075257
2121.000000;1.223464
2120.000000;1.373910
2119.000000;1.340741
2118.000000;1.248944
2117.000000;1.156227
2116.000000;1.077845
2115.000000;1.043697
2114.000000;1.066072
2113.000000;1.135279
2112.000000;1.186680
2111.000000;1.104420
2110.000000;0.967948
2109.000000;0.884812
2108.000000;0.910218
2107.000000;1.077334
2106.000000;1.594804
2105.000000;1.171545
2104.000000;0.919399
2103.000000;0.915158
2102.000000;1.028732
2101.000000;1.232033
2100.000000;1.288444
2099.000000;1.145876
2098.000000;1.070136
2097.000000;1.108114
2096.000000;1.234890
2095.000000;1.350166
2094.000000;1.324132
2093.000000;1.141083
2092.000000;0.975984
2091.000000;0.902586
2090.000000;0.926292
2089.000000;1.056140
2088.000000;1.297615
2087.000000;1.644548
2086.000000;1.620892
2085.000000;1.271542
2084.000000;1.053315
2083.000000;0.961076
2082.000000;0.990048
2081.000000;1.109236
2080.000000;1.287681
2079.000000;1.505513
2078.000000;1.932671
2077.000000;2.003393
2076.000000;1.616837
2075.000000;1.378298
2074.000000;1.270286
2073.000000;1.246883
2072.000000;1.195645
2071.000000;1.089376
2070.000000;0.989080
2069.000000;0.905623
2068.000000;0.840709
2067.000000;0.820091
2066.000000;0.857791
2065.000000;0.951947
2064.000000;1.069414
2063.000000;1.126693
2062.000000;1.070043
2061.000000;0.940422
2060.000000;0.816518
2059.000000;0.745155
2058.000000;0.730987
2057.000000;0.752678
2056.000000;0.792268
2055.000000;0.855713
2054.000000;0.929663
2053.000000;0.925430
2052.000000;0.876570
2051.000000;0.881318
2050.000000;0.959375
2049.000000;1.107948
2048.000000;1.218129
2047.000000;1.159330
2046.000000;1.138930
2045.000000;1.270607
2044.000000;1.634499
2043.000000;1.397700
2042.000000;1.181866
2041.000000;1.096108
2040.000000;1.012176
2039.000000;0.946033
2038.000000;0.936419
2037.000000;0.979703
2036.000000;1.000511
2035.000000;0.956621
2034.000000;0.928980
2033.000000;0.956498
2032.000000;1.043521
2031.000000;1.185821
2030.000000;1.273790
2029.000000;1.212836
2028.000000;1.124160
2027.000000;1.059601
2026.000000;1.043839
2025.000000;1.111393
2024.000000;1.265797
2023.000000;1.219855
2022.000000;1.051222
2021.000000;0.999823
2020.000000;1.088730
2019.000000;1.274032
2018.000000;1.294970
2017.000000;1.277511
2016.000000;1.413235
2015.000000;1.564864
2014.000000;1.493413
2013.000000;1.497461
2012.000000;1.578247
2011.000000;1.772438
2010.000000;2.099215
2009.000000;1.594514
2008.000000;1.260143
2007.000000;1.073860
2006.000000;0.960696
2005.000000;0.922894
2004.000000;0.983156
2003.000000;1.196397
2002.000000;1.364843
2001.000000;1.168286
2000.000000;0.997644
1999.000000;0.895650
1998.000000;0.826430
1997.000000;0.807089
1996.000000;0.850377
1995.000000;0.936884
1994.000000;1.022116
1993.000000;1.107553
1992.000000;1.206197
1991.000000;1.141973
1990.000000;0.963597
1989.000000;0.862724
1988.000000;0.859146
1987.000000;0.917746
1986.000000;0.945492
1985.000000;0.902396
1984.000000;0.858337
1983.000000;0.844553
1982.000000;0.848593
1981.000000;0.858614
1980.000000;0.887567
1979.000000;0.948315
1978.000000;1.044059
1977.000000;1.229676
1976.000000;1.371981
1975.000000;1.236925
1974.000000;1.130659
1973.000000;1.100310
1972.000000;1.087374
1971.000000;1.093520
1970.000000;1.146798
1969.000000;1.067509
1968.000000;0.897025
1967.000000;0.828957
1966.000000;0.857871
1965.000000;0.916202
1964.000000;0.938078
1963.000000;0.906929
1962.000000;0.860493
1961.000000;0.836949
1960.000000;0.852816
1959.000000;0.901233
1958.000000;0.966054
1957.000000;1.049361
1956.000000;1.209364
1955.000000;1.462282
1954.000000;1.346858
1953.000000;1.119319
1952.000000;1.052500
1951.000000;1.075346
1950.000000;1.164577
1949.000000;1.184198
1948.000000;1.072733
1947.000000;0.996148
1946.000000;1.027236
1945.000000;1.174726
1944.000000;1.627893
1943.000000;1.535206
1942.000000;1.137672
1941.000000;0.945398
1940.000000;0.832549
1939.000000;0.773629
1938.000000;0.766945
1937.000000;0.838003
1936.000000;0.966592
1935.000000;0.907838
1934.000000;0.730905
1933.000000;0.646452
1932.000000;0.660166
1931.000000;0.751755
1930.000000;0.871677
1929.000000;0.949482
1928.000000;1.022489
1927.000000;1.177287
1926.000000;1.448951
1925.000000;1.567461
1924.000000;1.448945
1923.000000;1.517100
1922.000000;1.655370
1921.000000;1.929428
1920.000000;1.811859
1919.000000;1.309809
1918.000000;1.089001
1917.000000;0.970873
1916.000000;0.875676
1915.000000;0.848283
1914.000000;0.936493
1913.000000;1.104571
1912.000000;1.054316
1911.000000;0.946113
1910.000000;0.950652
1909.000000;1.143398
1908.000000;1.394553
1907.000000;1.014940
1906.000000;0.862092
1905.000000;0.905403
1904.000000;1.138397
1903.000000;1.515083
1902.000000;1.692444
1901.000000;1.643422
1900.000000;1.452331
1899.000000;1.441820
1898.000000;1.506111
1897.000000;1.401805
1896.000000;1.226264
1895.000000;1.110131
1894.000000;1.046950
1893.000000;1.013089
1892.000000;1.000440
1891.000000;0.996168
1890.000000;0.987418
1889.000000;0.995008
1888.000000;1.031964
1887.000000;1.054800
1886.000000;1.028942
1885.000000;1.004382
1884.000000;1.043923
1883.000000;1.185821
1882.000000;1.438041
1881.000000;1.484676
1880.000000;1.289899
1879.000000;1.193995
1878.000000;1.180474
1877.000000;1.204105
1876.000000;1.211198
1875.000000;1.154728
1874.000000;1.086766
1873.000000;1.121586
1872.000000;1.222033
1871.000000;1.119960
1870.000000;0.943906
1869.000000;0.872997
1868.000000;0.876884
1867.000000;0.896783
1866.000000;0.897396
1865.000000;0.894708
1864.000000;0.901525
1863.000000;0.919499
1862.000000;0.961288
1861.000000;1.042719
1860.000000;1.160492
1859.000000;1.292176
1858.000000;1.371137
1857.000000;1.227461
1856.000000;1.027242
1855.000000;0.914959
1854.000000;0.899753
1853.000000;0.990438
1852.000000;1.162965
1851.000000;1.272284
1850.000000;1.335655
1849.000000;1.616643
1848.000000;2.223386
1847.000000;1.895476
1846.000000;1.535641
1845.000000;1.377006
1844.000000;1.348787
1843.000000;1.595874
1842.000000;1.898098
1841.000000;1.403603
1840.000000;1.162113
1839.000000;1.173484
1838.000000;1.423867
1837.000000;1.699645
1836.000000;1.493306
1835.000000;1.430972
1834.000000;1.700512
1833.000000;1.771527
1832.000000;1.276224
1831.000000;1.033419
1830.000000;0.954683
1829.000000;0.994967
1828.000000;1.163137
1827.000000;1.563557
1826.000000;1.674169
1825.000000;1.335812
1824.000000;1.332150
1823.000000;1.371728
1822.000000;1.325838
1821.000000;1.313910
1820.000000;1.383336
1819.000000;1.401843
1818.000000;1.372066
1817.000000;1.459746
1816.000000;1.490819
1815.000000;1.304149
1814.000000;1.126861
1813.000000;1.022810
1812.000000;0.988964
1811.000000;1.020395
1810.000000;1.108765
1809.000000;1.207499
1808.000000;1.169943
1807.000000;1.024194
1806.000000;0.908880
1805.000000;0.904297
1804.000000;1.035364
1803.000000;1.419827
1802.000000;2.024808
1801.000000;1.346527
1800.000000;1.110096
1799.000000;1.019789
1798.000000;1.005605
1797.000000;1.105796
1796.000000;1.173816
1795.000000;1.051388
1794.000000;0.948693
1793.000000;0.963184
1792.000000;1.080716
1791.000000;1.288857
1790.000000;1.700947
1789.000000;1.753651
1788.000000;1.326825
1787.000000;1.110085
1786.000000;0.973805
1785.000000;0.926391
1784.000000;0.974190
1783.000000;1.088834
1782.000000;1.161935
1781.000000;1.107243
1780.000000;1.000563
1779.000000;0.888887
1778.000000;0.809988
1777.000000;0.795369
1776.000000;0.857011
1775.000000;0.949303
1774.000000;0.915298
1773.000000;0.781797
1772.000000;0.702168
1771.000000;0.705859
1770.000000;0.770510
1769.000000;0.998081
1768.000000;1.540737
1767.000000;1.397045
1766.000000;1.193315
1765.000000;1.235254
1764.000000;1.366660
1763.000000;1.816863
1762.000000;1.494713
1761.000000;1.110356
1760.000000;1.017500
1759.000000;1.056979
1758.000000;1.269688
1757.000000;1.352859
1756.000000;1.245822
1755.000000;1.244666
1754.000000;1.280712
1753.000000;1.271412
1752.000000;1.118851
1751.000000;0.973473
1750.000000;0.945286
1749.000000;1.005268
1748.000000;1.214267
1747.000000;1.650580
1746.000000;1.420388
1745.000000;1.173177
1744.000000;1.128323
1743.000000;1.143258
1742.000000;1.134228
1741.000000;1.066629
1740.000000;1.044470
1739.000000;1.018484
1738.000000;0.943475
1737.000000;0.900473
1736.000000;0.988560
1735.000000;1.205043
1734.000000;1.222897
1733.000000;1.145538
1732.000000;1.162233
1731.000000;1.182656
1730.000000;1.241958
1729.000000;1.358737
1728.000000;1.347245
1727.000000;1.205783
1726.000000;1.141511
1725.000000;1.195987
1724.000000;1.440701
1723.000000;2.043428
1722.000000;1.731788
1721.000000;1.192604
1720.000000;0.901451
1719.000000;0.770117
1718.000000;0.786685
1717.000000;0.950182
1716.000000;1.356948
1715.000000;1.383241
1714.000000;0.991975
1713.000000;0.918336
1712.000000;0.932737
1711.000000;1.042257
1710.000000;1.316074
1709.000000;1.113639
1708.000000;0.877331
1707.000000;0.811123
1706.000000;0.838546
1705.000000;0.959680
1704.000000;1.193973
1703.000000;1.652250
1702.000000;1.182710
1701.000000;0.900094
1700.000000;0.969441
1699.000000;1.239519
1698.000000;1.857084
1697.000000;1.455114
1696.000000;1.136763
1695.000000;1.124760
1694.000000;1.147714
1693.000000;1.105381
1692.000000;1.074814
1691.000000;1.181827
1690.000000;1.149168
1689.000000;0.982446
1688.000000;0.970595
1687.000000;1.098898
1686.000000;1.352317
1685.000000;1.486833
1684.000000;1.418555
1683.000000;1.408410
1682.000000;1.240520
1681.000000;0.950474
1680.000000;0.796581
1679.000000;0.810156
1678.000000;0.906637
1677.000000;0.967262
1676.000000;1.052315
1675.000000;1.175485
1674.000000;1.047518
1673.000000;0.889969
1672.000000;0.822106
1671.000000;0.813932
1670.000000;0.816128
1669.000000;0.793795
1668.000000;0.791058
1667.000000;0.814701
1666.000000;0.875039
1665.000000;1.054385
1664.000000;1.243822
1663.000000;1.044838
1662.000000;0.847236
1661.000000;0.759189
1660.000000;0.770998
1659.000000;0.907783
1658.000000;1.145847
1657.000000;1.410597
1656.000000;1.357310
1655.000000;1.084871
1654.000000;1.002611
1653.000000;1.243150
1652.000000;1.604335
1651.000000;1.255104
1650.000000;0.978836
1649.000000;0.808413
1648.000000;0.790993
1647.000000;0.895685
1646.000000;0.869874
1645.000000;0.813355
1644.000000;0.872138
1643.000000;0.956044
1642.000000;0.914199
1641.000000;0.854516
1640.000000;0.900809
1639.000000;1.028306
1638.000000;1.186788
1637.000000;1.285284
1636.000000;1.328121
1635.000000;1.397522
1634.000000;1.393889
1633.000000;1.565366
1632.000000;1.416570
1631.000000;1.040758
1630.000000;0.909356
1629.000000;0.878532
1628.000000;0.901077
1627.000000;1.021786
1626.000000;1.318262
1625.000000;1.397264
1624.000000;1.114108
1623.000000;0.970087
1622.000000;0.913086
1621.000000;0.995734
1620.000000;1.282019
1619.000000;1.490904
1618.000000;1.333613
1617.000000;1.129382
1616.000000;1.054380
1615.000000;1.150705
1614.000000;1.346012
1613.000000;1.426153
1612.000000;1.443825
1611.000000;1.760494
1610.000000;1.871958
1609.000000;1.468450
1608.000000;1.587160
1607.000000;2.040469
1606.000000;1.631235
1605.000000;1.384675
1604.000000;1.171245
1603.000000;0.935953
1602.000000;0.799243
1601.000000;0.785400
1600.000000;0.875817
1599.000000;1.119357
1598.000000;1.303911
1597.000000;0.986089
1596.000000;0.732482
1595.000000;0.625795
1594.000000;0.619761
1593.000000;0.739186
1592.000000;0.970670
1591.000000;0.911956
1590.000000;0.735217
1589.000000;0.684553
1588.000000;0.747796
1587.000000;0.909634
1586.000000;1.310275
1585.000000;2.150209
1584.000000;1.350942
1583.000000;1.251535
1582.000000;1.275995
1581.000000;1.172063
1580.000000;1.134042
1579.000000;1.195140
1578.000000;1.517846
1577.000000;1.716336
1576.000000;1.539909
1575.000000;1.595793
1574.000000;1.729550
1573.000000;1.764621
1572.000000;1.569766
1571.000000;1.374080
1570.000000;1.273818
1569.000000;1.163665
1568.000000;1.069377
1567.000000;1.030783
1566.000000;1.061333
1565.000000;1.159903
1564.000000;1.341866
1563.000000;1.698522
1562.000000;1.793158
1561.000000;1.308954
1560.000000;1.069684
1559.000000;0.978369
1558.000000;1.053024
1557.000000;1.181605
1556.000000;0.988010
1555.000000;0.895434
1554.000000;0.937311
1553.000000;0.925013
1552.000000;0.863794
1551.000000;0.833062
1550.000000;0.880063
1549.000000;0.877056
1548.000000;0.793572
1547.000000;0.752229
1546.000000;0.766251
1545.000000;0.797007
1544.000000;0.846145
1543.000000;0.973766
1542.000000;1.180491
1541.000000;1.294478
1540.000000;1.332030
1539.000000;1.319383
1538.000000;1.159738
1537.000000;0.975907
1536.000000;0.807886
1535.000000;0.670763
1534.000000;0.608685
1533.000000;0.645578
1532.000000;0.738072
1531.000000;0.811011
1530.000000;0.869943
1529.000000;0.964841
1528.000000;1.088436
1527.000000;1.160398
1526.000000;1.104950
1525.000000;1.000183
1524.000000;0.849023
1523.000000;0.820785
1522.000000;0.903316
1521.000000;0.735082
1520.000000;0.516841
1519.000000;0.414186
1518.000000;0.381009
1517.000000;0.502036
1516.000000;1.019785
1515.000000;1.280913
1514.000000;0.915335
1513.000000;0.932228
1512.000000;1.127873
1511.000000;1.463581
1510.000000;1.086619
1509.000000;0.820289
1508.000000;0.732968
1507.000000;0.696283
1506.000000;0.700756
1505.000000;0.720065
1504.000000;0.725904
1503.000000;0.705496
1502.000000;0.724734
1501.000000;0.838407
1500.000000;1.031210
1499.000000;1.058149
1498.000000;0.879012
1497.000000;0.818953
1496.000000;0.889515
1495.000000;0.980774
1494.000000;1.022463
1493.000000;1.051851
1492.000000;1.151229
1491.000000;1.099274
1490.000000;0.848504
1489.000000;0.687946
1488.000000;0.641411
1487.000000;0.703432
1486.000000;0.865031
1485.000000;1.063068
1484.000000;1.119861
1483.000000;1.165646
1482.000000;1.499843
1481.000000;1.295065
1480.000000;0.893677
1479.000000;0.721056
1478.000000;0.664498
1477.000000;0.690556
1476.000000;0.755966
1475.000000;0.864134
1474.000000;1.053063
1473.000000;0.994082
1472.000000;0.812172
1471.000000;0.784820
1470.000000;0.845080
1469.000000;0.970727
1468.000000;1.007057
1467.000000;0.868687
1466.000000;0.754827
1465.000000;0.707956
1464.000000;0.730320
1463.000000;0.802778
1462.000000;0.893341
1461.000000;0.932783
1460.000000;0.897663
1459.000000;0.842873
1458.000000;0.879933
1457.000000;1.114849
1456.000000;1.151756
1455.000000;0.933293
1454.000000;0.836700
1453.000000;0.832447
1452.000000;0.959442
1451.000000;1.356745
1450.000000;1.599184
1449.000000;1.214305
1448.000000;1.124574
1447.000000;1.149739
1446.000000;1.166029
1445.000000;1.080357
1444.000000;1.218035
1443.000000;1.318721
1442.000000;0.852875
1441.000000;0.644056
1440.000000;0.598508
1439.000000;0.650629
1438.000000;0.782233
1437.000000;0.851233
1436.000000;0.740822
1435.000000;0.605839
1434.000000;0.539307
1433.000000;0.591378
1432.000000;0.799340
1431.000000;0.852222
1430.000000;0.706880
1429.000000;0.663511
1428.000000;0.691485
1427.000000;0.721019
1426.000000;0.723031
1425.000000;0.751791
1424.000000;0.826648
1423.000000;0.811023
1422.000000;0.688498
1421.000000;0.599771
1420.000000;0.573381
1419.000000;0.598284
1418.000000;0.664365
1417.000000;0.771497
1416.000000;0.872715
1415.000000;0.857483
1414.000000;0.811903
1413.000000;0.851948
1412.000000;0.850060
1411.000000;0.763511
1410.000000;0.709286
1409.000000;0.769430
1408.000000;1.073506
1407.000000;0.999761
1406.000000;0.666182
1405.000000;0.557346
1404.000000;0.568414
1403.000000;0.697251
1402.000000;0.952509
1401.000000;0.890440
1400.000000;0.680472
1399.000000;0.595123
1398.000000;0.621231
1397.000000;0.751541
1396.000000;1.139090
1395.000000;1.857184
1394.000000;1.110278
1393.000000;0.916506
1392.000000;0.862434
1391.000000;0.900947
1390.000000;1.118185
1389.000000;1.589554
1388.000000;1.365268
1387.000000;0.982419
1386.000000;0.841324
1385.000000;0.748519
1384.000000;0.712660
1383.000000;0.735140
1382.000000;0.810387
1381.000000;0.931333
1380.000000;1.008390
1379.000000;0.888160
1378.000000;0.774137
1377.000000;0.776700
1376.000000;1.001299
1375.000000;1.327524
1374.000000;0.921159
1373.000000;0.778643
1372.000000;0.835819
1371.000000;0.932215
1370.000000;0.941563
1369.000000;0.914123
1368.000000;0.952584
1367.000000;0.983561
1366.000000;0.982265
1365.000000;0.999778
1364.000000;1.124288
1363.000000;1.423322
1362.000000;1.312295
1361.000000;0.959798
1360.000000;0.791888
1359.000000;0.744788
1358.000000;0.811301
1357.000000;0.986947
1356.000000;1.306191
1355.000000;1.385435
1354.000000;1.136785
1353.000000;1.017750
1352.000000;0.986432
1351.000000;1.016748
1350.000000;1.120079
1349.000000;1.235204
1348.000000;1.187658
1347.000000;1.088324
1346.000000;1.102498
1345.000000;1.062600
1344.000000;0.790985
1343.000000;0.624471
1342.000000;0.617095
1341.000000;0.787096
1340.000000;1.275149
1339.000000;1.316210
1338.000000;0.948188
1337.000000;0.893542
1336.000000;0.914072
1335.000000;0.999888
1334.000000;1.054986
1333.000000;0.920657
1332.000000;0.916222
1331.000000;1.382240
1330.000000;1.112260
1329.000000;0.801741
1328.000000;0.901898
1327.000000;1.190514
1326.000000;1.452098
1325.000000;1.357545
1324.000000;1.126717
1323.000000;0.929176
1322.000000;0.871831
1321.000000;0.972653
1320.000000;1.072761
1319.000000;1.013722
1318.000000;0.999630
1317.000000;1.029734
1316.000000;1.001207
1315.000000;0.939329
1314.000000;0.951188
1313.000000;1.062653
1312.000000;1.015409
1311.000000;0.846914
1310.000000;0.796440
1309.000000;0.903663
1308.000000;1.331944
1307.000000;1.220331
1306.000000;0.810968
1305.000000;0.709107
1304.000000;0.709217
1303.000000;0.833619
1302.000000;1.095948
1301.000000;1.177745
1300.000000;1.057214
1299.000000;1.032734
1298.000000;1.026327
1297.000000;0.924030
1296.000000;0.770556
1295.000000;0.669668
1294.000000;0.634605
1293.000000;0.633342
1292.000000;0.644584
1291.000000;0.683690
1290.000000;0.789863
1289.000000;0.990452
1288.000000;1.140736
1287.000000;1.034597
1286.000000;0.955202
1285.000000;0.994579
1284.000000;1.121835
1283.000000;1.162323
1282.000000;0.999996
1281.000000;0.838026
1280.000000;0.732702
1279.000000;0.683912
1278.000000;0.711465
1277.000000;0.899297
1276.000000;1.405614
1275.000000;1.043411
1274.000000;0.755198
1273.000000;0.739660
1272.000000;0.815516
1271.000000;0.953563
1270.000000;1.187808
1269.000000;1.563260
1268.000000;1.067575
1267.000000;0.865751
1266.000000;0.954612
1265.000000;1.301639
1264.000000;1.065930
1263.000000;0.860208
1262.000000;0.823236
1261.000000;0.813821
1260.000000;0.797976
1259.000000;0.818498
1258.000000;0.999383
1257.000000;1.490654
1256.000000;1.305587
1255.000000;0.989150
1254.000000;0.908389
1253.000000;0.844799
1252.000000;0.815605
1251.000000;0.837174
1250.000000;1.125800
1249.000000;1.418048
1248.000000;0.979048
1247.000000;0.860373
1246.000000;0.949868
1245.000000;1.098130
1244.000000;1.177884
1243.000000;1.147325
1242.000000;1.082391
1241.000000;1.066592
1240.000000;1.207603
1239.000000;1.270262
1238.000000;0.984448
1237.000000;0.818039
1236.000000;0.766468
1235.000000;0.782492
1234.000000;0.818273
1233.000000;0.841958
1232.000000;0.912077
1231.000000;1.115132
1230.000000;1.067458
1229.000000;0.822597
1228.000000;0.763011
1227.000000;0.802997
1226.000000;1.005729
1225.000000;1.348476
1224.000000;1.199336
1223.000000;1.075631
1222.000000;1.179263
1221.000000;0.973562
1220.000000;0.674833
1219.000000;0.525795
1218.000000;0.503005
1217.000000;0.589763
1216.000000;0.761749
1215.000000;1.018662
1214.000000;1.163491
1213.000000;1.008501
1212.000000;0.946549
1211.000000;0.957632
1210.000000;0.915984
1209.000000;0.832173
1208.000000;0.797127
1207.000000;0.862534
1206.000000;1.058585
1205.000000;1.308459
1204.000000;1.222082
1203.000000;0.966222
1202.000000;0.749512
1201.000000;0.626151
1200.000000;0.590688
