Criado como novo conjunto de dados;"2706_e01_daniel.spp","57425.1 Secs"
cm-1;Abs
10000.000000;0.830716
9999.000000;0.830414
9998.000000;0.830114
9997.000000;0.829812
9996.000000;0.829514
9995.000000;0.829207
9994.000000;0.828932
9993.000000;0.828867
9992.000000;0.829100
9991.000000;0.829501
9990.000000;0.829787
9989.000000;0.829724
9988.000000;0.829307
9987.000000;0.828708
9986.000000;0.828074
9985.000000;0.827368
9984.000000;0.826459
9983.000000;0.825408
9982.000000;0.824637
9981.000000;0.824663
9980.000000;0.825576
9979.000000;0.826863
9978.000000;0.827888
9977.000000;0.828480
9976.000000;0.828881
9975.000000;0.829237
9974.000000;0.829390
9973.000000;0.829161
9972.000000;0.828591
9971.000000;0.827838
9970.000000;0.827069
9969.000000;0.826513
9968.000000;0.826383
9967.000000;0.826604
9966.000000;0.826810
9965.000000;0.826742
9964.000000;0.826512
9963.000000;0.826395
9962.000000;0.826481
9961.000000;0.826631
9960.000000;0.826603
9959.000000;0.826186
9958.000000;0.825382
9957.000000;0.824555
9956.000000;0.824181
9955.000000;0.824319
9954.000000;0.824543
9953.000000;0.824500
9952.000000;0.824334
9951.000000;0.824417
9950.000000;0.824845
9949.000000;0.825393
9948.000000;0.825765
9947.000000;0.825713
9946.000000;0.825089
9945.000000;0.824071
9944.000000;0.823192
9943.000000;0.822888
9942.000000;0.823080
9941.000000;0.823369
9940.000000;0.823512
9939.000000;0.823527
9938.000000;0.823490
9937.000000;0.823490
9936.000000;0.823645
9935.000000;0.823919
9934.000000;0.823989
9933.000000;0.823612
9932.000000;0.823022
9931.000000;0.822682
9930.000000;0.822687
9929.000000;0.822743
9928.000000;0.822713
9927.000000;0.822795
9926.000000;0.823080
9925.000000;0.823286
9924.000000;0.823125
9923.000000;0.822716
9922.000000;0.822421
9921.000000;0.822377
9920.000000;0.822406
9919.000000;0.822293
9918.000000;0.822006
9917.000000;0.821665
9916.000000;0.821384
9915.000000;0.821187
9914.000000;0.821095
9913.000000;0.821207
9912.000000;0.821582
9911.000000;0.822028
9910.000000;0.822195
9909.000000;0.821990
9908.000000;0.821733
9907.000000;0.821727
9906.000000;0.821840
9905.000000;0.821738
9904.000000;0.821420
9903.000000;0.821223
9902.000000;0.821317
9901.000000;0.821471
9900.000000;0.821371
9899.000000;0.820948
9898.000000;0.820362
9897.000000;0.819882
9896.000000;0.819764
9895.000000;0.820026
9894.000000;0.820296
9893.000000;0.820147
9892.000000;0.819646
9891.000000;0.819309
9890.000000;0.819467
9889.000000;0.819909
9888.000000;0.820255
9887.000000;0.820383
9886.000000;0.820320
9885.000000;0.819996
9884.000000;0.819430
9883.000000;0.818978
9882.000000;0.819026
9881.000000;0.819434
9880.000000;0.819577
9879.000000;0.819040
9878.000000;0.818099
9877.000000;0.817427
9876.000000;0.817437
9875.000000;0.817994
9874.000000;0.818651
9873.000000;0.819030
9872.000000;0.818986
9871.000000;0.818540
9870.000000;0.817809
9869.000000;0.817011
9868.000000;0.816432
9867.000000;0.816277
9866.000000;0.816515
9865.000000;0.816916
9864.000000;0.817224
9863.000000;0.817288
9862.000000;0.817072
9861.000000;0.816641
9860.000000;0.816128
9859.000000;0.815686
9858.000000;0.815433
9857.000000;0.815468
9856.000000;0.815828
9855.000000;0.816366
9854.000000;0.816754
9853.000000;0.816740
9852.000000;0.816398
9851.000000;0.816023
9850.000000;0.815833
9849.000000;0.815881
9848.000000;0.816196
9847.000000;0.816770
9846.000000;0.817370
9845.000000;0.817579
9844.000000;0.817198
9843.000000;0.816490
9842.000000;0.815906
9841.000000;0.815595
9840.000000;0.815323
9839.000000;0.814833
9838.000000;0.814173
9837.000000;0.813659
9836.000000;0.813567
9835.000000;0.813931
9834.000000;0.814565
9833.000000;0.815202
9832.000000;0.815572
9831.000000;0.815460
9830.000000;0.814856
9829.000000;0.814043
9828.000000;0.813414
9827.000000;0.813116
9826.000000;0.812971
9825.000000;0.812797
9824.000000;0.812643
9823.000000;0.812631
9822.000000;0.812740
9821.000000;0.812926
9820.000000;0.813271
9819.000000;0.813773
9818.000000;0.814110
9817.000000;0.813925
9816.000000;0.813335
9815.000000;0.812838
9814.000000;0.812658
9813.000000;0.812514
9812.000000;0.812186
9811.000000;0.811984
9810.000000;0.812378
9809.000000;0.813307
9808.000000;0.814115
9807.000000;0.814186
9806.000000;0.813458
9805.000000;0.812351
9804.000000;0.811368
9803.000000;0.810812
9802.000000;0.810720
9801.000000;0.810957
9800.000000;0.811333
9799.000000;0.811684
9798.000000;0.811901
9797.000000;0.811952
9796.000000;0.811870
9795.000000;0.811671
9794.000000;0.811311
9793.000000;0.810794
9792.000000;0.810286
9791.000000;0.809970
9790.000000;0.809808
9789.000000;0.809594
9788.000000;0.809297
9787.000000;0.809168
9786.000000;0.809406
9785.000000;0.809876
9784.000000;0.810259
9783.000000;0.810381
9782.000000;0.810268
9781.000000;0.809999
9780.000000;0.809656
9779.000000;0.809345
9778.000000;0.809090
9777.000000;0.808764
9776.000000;0.808283
9775.000000;0.807844
9774.000000;0.807770
9773.000000;0.808091
9772.000000;0.808477
9771.000000;0.808650
9770.000000;0.808709
9769.000000;0.808909
9768.000000;0.809244
9767.000000;0.809451
9766.000000;0.809379
9765.000000;0.809142
9764.000000;0.808892
9763.000000;0.808628
9762.000000;0.808328
9761.000000;0.808122
9760.000000;0.808141
9759.000000;0.808254
9758.000000;0.808170
9757.000000;0.807838
9756.000000;0.807563
9755.000000;0.807627
9754.000000;0.807944
9753.000000;0.808197
9752.000000;0.808182
9751.000000;0.807895
9750.000000;0.807414
9749.000000;0.806910
9748.000000;0.806683
9747.000000;0.806934
9746.000000;0.807496
9745.000000;0.807980
9744.000000;0.808222
9743.000000;0.808370
9742.000000;0.808495
9741.000000;0.808385
9740.000000;0.807894
9739.000000;0.807274
9738.000000;0.806939
9737.000000;0.806961
9736.000000;0.807024
9735.000000;0.806834
9734.000000;0.806413
9733.000000;0.805974
9732.000000;0.805681
9731.000000;0.805574
9730.000000;0.805627
9729.000000;0.805752
9728.000000;0.805814
9727.000000;0.805726
9726.000000;0.805554
9725.000000;0.805472
9724.000000;0.805578
9723.000000;0.805751
9722.000000;0.805720
9721.000000;0.805326
9720.000000;0.804694
9719.000000;0.804137
9718.000000;0.803891
9717.000000;0.803984
9716.000000;0.804292
9715.000000;0.804636
9714.000000;0.804845
9713.000000;0.804824
9712.000000;0.804639
9711.000000;0.804468
9710.000000;0.804451
9709.000000;0.804616
9708.000000;0.804946
9707.000000;0.805394
9706.000000;0.805760
9705.000000;0.805711
9704.000000;0.805085
9703.000000;0.804162
9702.000000;0.803489
9701.000000;0.803375
9700.000000;0.803632
9699.000000;0.803857
9698.000000;0.803868
9697.000000;0.803795
9696.000000;0.803782
9695.000000;0.803761
9694.000000;0.803578
9693.000000;0.803263
9692.000000;0.803034
9691.000000;0.803033
9690.000000;0.803153
9689.000000;0.803170
9688.000000;0.802972
9687.000000;0.802612
9686.000000;0.802227
9685.000000;0.801982
9684.000000;0.801990
9683.000000;0.802185
9682.000000;0.802312
9681.000000;0.802172
9680.000000;0.801862
9679.000000;0.801640
9678.000000;0.801563
9677.000000;0.801408
9676.000000;0.800998
9675.000000;0.800470
9674.000000;0.800115
9673.000000;0.800052
9672.000000;0.800133
9671.000000;0.800156
9670.000000;0.800098
9669.000000;0.800128
9668.000000;0.800362
9667.000000;0.800636
9666.000000;0.800634
9665.000000;0.800328
9664.000000;0.800128
9663.000000;0.800382
9662.000000;0.800789
9661.000000;0.800648
9660.000000;0.799768
9659.000000;0.798819
9658.000000;0.798565
9657.000000;0.798995
9656.000000;0.799461
9655.000000;0.799523
9654.000000;0.799361
9653.000000;0.799353
9652.000000;0.799564
9651.000000;0.799746
9650.000000;0.799649
9649.000000;0.799202
9648.000000;0.798505
9647.000000;0.797793
9646.000000;0.797355
9645.000000;0.797357
9644.000000;0.797690
9643.000000;0.798022
9642.000000;0.798037
9641.000000;0.797701
9640.000000;0.797293
9639.000000;0.797147
9638.000000;0.797323
9637.000000;0.797575
9636.000000;0.797643
9635.000000;0.797497
9634.000000;0.797265
9633.000000;0.797047
9632.000000;0.796917
9631.000000;0.796998
9630.000000;0.797359
9629.000000;0.797832
9628.000000;0.798095
9627.000000;0.797972
9626.000000;0.797529
9625.000000;0.796906
9624.000000;0.796187
9623.000000;0.795520
9622.000000;0.795164
9621.000000;0.795308
9620.000000;0.795868
9619.000000;0.796547
9618.000000;0.797044
9617.000000;0.797203
9616.000000;0.797047
9615.000000;0.796750
9614.000000;0.796522
9613.000000;0.796430
9612.000000;0.796356
9611.000000;0.796182
9610.000000;0.795936
9609.000000;0.795678
9608.000000;0.795347
9607.000000;0.794875
9606.000000;0.794404
9605.000000;0.794228
9604.000000;0.794439
9603.000000;0.794794
9602.000000;0.794993
9601.000000;0.794999
9600.000000;0.794994
9599.000000;0.795069
9598.000000;0.795115
9597.000000;0.795023
9596.000000;0.794877
9595.000000;0.794863
9594.000000;0.795020
9593.000000;0.795155
9592.000000;0.795037
9591.000000;0.794658
9590.000000;0.794274
9589.000000;0.794165
9588.000000;0.794375
9587.000000;0.794724
9586.000000;0.795034
9585.000000;0.795272
9584.000000;0.795448
9583.000000;0.795472
9582.000000;0.795221
9581.000000;0.794728
9580.000000;0.794199
9579.000000;0.793799
9578.000000;0.793505
9577.000000;0.793194
9576.000000;0.792823
9575.000000;0.792481
9574.000000;0.792272
9573.000000;0.792196
9572.000000;0.792125
9571.000000;0.791912
9570.000000;0.791576
9569.000000;0.791388
9568.000000;0.791661
9567.000000;0.792384
9566.000000;0.793121
9565.000000;0.793393
9564.000000;0.793144
9563.000000;0.792746
9562.000000;0.792565
9561.000000;0.792656
9560.000000;0.792876
9559.000000;0.793147
9558.000000;0.793467
9557.000000;0.793762
9556.000000;0.793854
9555.000000;0.793629
9554.000000;0.793173
9553.000000;0.792736
9552.000000;0.792553
9551.000000;0.792686
9550.000000;0.792948
9549.000000;0.793005
9548.000000;0.792624
9547.000000;0.791895
9546.000000;0.791163
9545.000000;0.790711
9544.000000;0.790529
9543.000000;0.790429
9542.000000;0.790301
9541.000000;0.790164
9540.000000;0.789982
9539.000000;0.789632
9538.000000;0.789164
9537.000000;0.788959
9536.000000;0.789415
9535.000000;0.790457
9534.000000;0.791481
9533.000000;0.791883
9532.000000;0.791574
9531.000000;0.790932
9530.000000;0.790376
9529.000000;0.790064
9528.000000;0.789925
9527.000000;0.789812
9526.000000;0.789627
9525.000000;0.789369
9524.000000;0.789108
9523.000000;0.788904
9522.000000;0.788769
9521.000000;0.788706
9520.000000;0.788708
9519.000000;0.788656
9518.000000;0.788340
9517.000000;0.787721
9516.000000;0.787127
9515.000000;0.787026
9514.000000;0.787518
9513.000000;0.788169
9512.000000;0.788407
9511.000000;0.788049
9510.000000;0.787415
9509.000000;0.786963
9508.000000;0.786900
9507.000000;0.787112
9506.000000;0.787379
9505.000000;0.787604
9504.000000;0.787825
9503.000000;0.788047
9502.000000;0.788164
9501.000000;0.788097
9500.000000;0.787918
9499.000000;0.787773
9498.000000;0.787703
9497.000000;0.787651
9496.000000;0.787619
9495.000000;0.787683
9494.000000;0.787824
9493.000000;0.787864
9492.000000;0.787678
9491.000000;0.787373
9490.000000;0.787162
9489.000000;0.787080
9488.000000;0.786931
9487.000000;0.786555
9486.000000;0.786093
9485.000000;0.785896
9484.000000;0.786161
9483.000000;0.786691
9482.000000;0.787063
9481.000000;0.787037
9480.000000;0.786746
9479.000000;0.786481
9478.000000;0.786347
9477.000000;0.786217
9476.000000;0.785968
9475.000000;0.785656
9474.000000;0.785445
9473.000000;0.785403
9472.000000;0.785415
9471.000000;0.785269
9470.000000;0.784872
9469.000000;0.784399
9468.000000;0.784217
9467.000000;0.784565
9466.000000;0.785315
9465.000000;0.786081
9464.000000;0.786544
9463.000000;0.786630
9462.000000;0.786415
9461.000000;0.785992
9460.000000;0.785470
9459.000000;0.785004
9458.000000;0.784732
9457.000000;0.784658
9456.000000;0.784635
9455.000000;0.784494
9454.000000;0.784222
9453.000000;0.784003
9452.000000;0.784030
9451.000000;0.784234
9450.000000;0.784307
9449.000000;0.784038
9448.000000;0.783568
9447.000000;0.783206
9446.000000;0.783049
9445.000000;0.782928
9444.000000;0.782700
9443.000000;0.782454
9442.000000;0.782391
9441.000000;0.782621
9440.000000;0.783091
9439.000000;0.783618
9438.000000;0.783949
9437.000000;0.783914
9436.000000;0.783562
9435.000000;0.783099
9434.000000;0.782652
9433.000000;0.782177
9432.000000;0.781625
9431.000000;0.781085
9430.000000;0.780732
9429.000000;0.780698
9428.000000;0.781004
9427.000000;0.781545
9426.000000;0.782088
9425.000000;0.782394
9424.000000;0.782367
9423.000000;0.782063
9422.000000;0.781583
9421.000000;0.781087
9420.000000;0.780855
9419.000000;0.781097
9418.000000;0.781631
9417.000000;0.781939
9416.000000;0.781692
9415.000000;0.781093
9414.000000;0.780597
9413.000000;0.780432
9412.000000;0.780543
9411.000000;0.780843
9410.000000;0.781293
9409.000000;0.781758
9408.000000;0.782011
9407.000000;0.781926
9406.000000;0.781563
9405.000000;0.781070
9404.000000;0.780569
9403.000000;0.780153
9402.000000;0.779879
9401.000000;0.779752
9400.000000;0.779751
9399.000000;0.779861
9398.000000;0.780019
9397.000000;0.780110
9396.000000;0.780078
9395.000000;0.780001
9394.000000;0.779956
9393.000000;0.779881
9392.000000;0.779672
9391.000000;0.779399
9390.000000;0.779283
9389.000000;0.779453
9388.000000;0.779799
9387.000000;0.780077
9386.000000;0.780082
9385.000000;0.779753
9384.000000;0.779210
9383.000000;0.778688
9382.000000;0.778356
9381.000000;0.778194
9380.000000;0.778099
9379.000000;0.778067
9378.000000;0.778170
9377.000000;0.778373
9376.000000;0.778526
9375.000000;0.778542
9374.000000;0.778487
9373.000000;0.778449
9372.000000;0.778396
9371.000000;0.778219
9370.000000;0.777857
9369.000000;0.777360
9368.000000;0.776872
9367.000000;0.776548
9366.000000;0.776439
9365.000000;0.776450
9364.000000;0.776460
9363.000000;0.776455
9362.000000;0.776477
9361.000000;0.776497
9360.000000;0.776439
9359.000000;0.776321
9358.000000;0.776241
9357.000000;0.776226
9356.000000;0.776223
9355.000000;0.776231
9354.000000;0.776296
9353.000000;0.776351
9352.000000;0.776205
9351.000000;0.775836
9350.000000;0.775523
9349.000000;0.775560
9348.000000;0.775890
9347.000000;0.776183
9346.000000;0.776247
9345.000000;0.776189
9344.000000;0.776152
9343.000000;0.776046
9342.000000;0.775681
9341.000000;0.775079
9340.000000;0.774524
9339.000000;0.774268
9338.000000;0.774276
9337.000000;0.774330
9336.000000;0.774305
9335.000000;0.774270
9334.000000;0.774320
9333.000000;0.774429
9332.000000;0.774520
9331.000000;0.774586
9330.000000;0.774670
9329.000000;0.774747
9328.000000;0.774720
9327.000000;0.774520
9326.000000;0.774170
9325.000000;0.773769
9324.000000;0.773460
9323.000000;0.773390
9322.000000;0.773611
9321.000000;0.774013
9320.000000;0.774399
9319.000000;0.774636
9318.000000;0.774701
9317.000000;0.774604
9316.000000;0.774323
9315.000000;0.773843
9314.000000;0.773220
9313.000000;0.772624
9312.000000;0.772323
9311.000000;0.772515
9310.000000;0.773089
9309.000000;0.773607
9308.000000;0.773672
9307.000000;0.773323
9306.000000;0.772953
9305.000000;0.772844
9304.000000;0.772911
9303.000000;0.772930
9302.000000;0.772847
9301.000000;0.772769
9300.000000;0.772754
9299.000000;0.772737
9298.000000;0.772607
9297.000000;0.772285
9296.000000;0.771780
9295.000000;0.771236
9294.000000;0.770893
9293.000000;0.770915
9292.000000;0.771238
9291.000000;0.771643
9290.000000;0.771935
9289.000000;0.772030
9288.000000;0.771945
9287.000000;0.771768
9286.000000;0.771618
9285.000000;0.771535
9284.000000;0.771403
9283.000000;0.771087
9282.000000;0.770655
9281.000000;0.770396
9280.000000;0.770551
9279.000000;0.771042
9278.000000;0.771508
9277.000000;0.771624
9276.000000;0.771367
9275.000000;0.770955
9274.000000;0.770581
9273.000000;0.770265
9272.000000;0.769988
9271.000000;0.769842
9270.000000;0.769956
9269.000000;0.770289
9268.000000;0.770593
9267.000000;0.770644
9266.000000;0.770444
9265.000000;0.770192
9264.000000;0.770069
9263.000000;0.770080
9262.000000;0.770061
9261.000000;0.769848
9260.000000;0.769468
9259.000000;0.769148
9258.000000;0.769095
9257.000000;0.769281
9256.000000;0.769497
9255.000000;0.769574
9254.000000;0.769489
9253.000000;0.769300
9252.000000;0.769106
9251.000000;0.769049
9250.000000;0.769191
9249.000000;0.769349
9248.000000;0.769216
9247.000000;0.768696
9246.000000;0.768017
9245.000000;0.767483
9244.000000;0.767224
9243.000000;0.767270
9242.000000;0.767637
9241.000000;0.768221
9240.000000;0.768717
9239.000000;0.768872
9238.000000;0.768733
9237.000000;0.768502
9236.000000;0.768230
9235.000000;0.767829
9234.000000;0.767357
9233.000000;0.767057
9232.000000;0.767085
9231.000000;0.767344
9230.000000;0.767617
9229.000000;0.767741
9228.000000;0.767635
9227.000000;0.767318
9226.000000;0.766937
9225.000000;0.766671
9224.000000;0.766543
9223.000000;0.766443
9222.000000;0.766326
9221.000000;0.766268
9220.000000;0.766280
9219.000000;0.766226
9218.000000;0.766017
9217.000000;0.765739
9216.000000;0.765522
9215.000000;0.765368
9214.000000;0.765246
9213.000000;0.765194
9212.000000;0.765220
9211.000000;0.765175
9210.000000;0.764913
9209.000000;0.764547
9208.000000;0.764370
9207.000000;0.764514
9206.000000;0.764818
9205.000000;0.765060
9204.000000;0.765204
9203.000000;0.765352
9202.000000;0.765526
9201.000000;0.765591
9200.000000;0.765383
9199.000000;0.764909
9198.000000;0.764396
9197.000000;0.764130
9196.000000;0.764196
9195.000000;0.764402
9194.000000;0.764489
9193.000000;0.764391
9192.000000;0.764226
9191.000000;0.764101
9190.000000;0.764020
9189.000000;0.763982
9188.000000;0.764025
9187.000000;0.764137
9186.000000;0.764211
9185.000000;0.764191
9184.000000;0.764169
9183.000000;0.764264
9182.000000;0.764436
9181.000000;0.764516
9180.000000;0.764400
9179.000000;0.764133
9178.000000;0.763787
9177.000000;0.763381
9176.000000;0.762982
9175.000000;0.762794
9174.000000;0.762994
9173.000000;0.763476
9172.000000;0.763866
9171.000000;0.763871
9170.000000;0.763568
9169.000000;0.763255
9168.000000;0.763079
9167.000000;0.762921
9166.000000;0.762661
9165.000000;0.762398
9164.000000;0.762308
9163.000000;0.762370
9162.000000;0.762359
9161.000000;0.762128
9160.000000;0.761772
9159.000000;0.761497
9158.000000;0.761409
9157.000000;0.761487
9156.000000;0.761677
9155.000000;0.761933
9154.000000;0.762171
9153.000000;0.762270
9152.000000;0.762149
9151.000000;0.761862
9150.000000;0.761587
9149.000000;0.761482
9148.000000;0.761526
9147.000000;0.761532
9146.000000;0.761363
9145.000000;0.761110
9144.000000;0.760983
9143.000000;0.761018
9142.000000;0.761019
9141.000000;0.760827
9140.000000;0.760560
9139.000000;0.760478
9138.000000;0.760669
9137.000000;0.760963
9136.000000;0.761140
9135.000000;0.761135
9134.000000;0.761013
9133.000000;0.760833
9132.000000;0.760596
9131.000000;0.760299
9130.000000;0.759970
9129.000000;0.759642
9128.000000;0.759307
9127.000000;0.758939
9126.000000;0.758565
9125.000000;0.758297
9124.000000;0.758255
9123.000000;0.758423
9122.000000;0.758660
9121.000000;0.758868
9120.000000;0.759104
9119.000000;0.759472
9118.000000;0.759932
9117.000000;0.760286
9116.000000;0.760345
9115.000000;0.760084
9114.000000;0.759630
9113.000000;0.759174
9112.000000;0.758878
9111.000000;0.758762
9110.000000;0.758657
9109.000000;0.758337
9108.000000;0.757754
9107.000000;0.757146
9106.000000;0.756858
9105.000000;0.757046
9104.000000;0.757517
9103.000000;0.757855
9102.000000;0.757746
9101.000000;0.757263
9100.000000;0.756815
9099.000000;0.756752
9098.000000;0.757019
9097.000000;0.757244
9096.000000;0.757160
9095.000000;0.756845
9094.000000;0.756552
9093.000000;0.756423
9092.000000;0.756426
9091.000000;0.756449
9090.000000;0.756363
9089.000000;0.756090
9088.000000;0.755738
9087.000000;0.755602
9086.000000;0.755894
9085.000000;0.756482
9084.000000;0.757005
9083.000000;0.757247
9082.000000;0.757284
9081.000000;0.757250
9080.000000;0.757106
9079.000000;0.756732
9078.000000;0.756162
9077.000000;0.755608
9076.000000;0.755279
9075.000000;0.755236
9074.000000;0.755382
9073.000000;0.755536
9072.000000;0.755541
9071.000000;0.755377
9070.000000;0.755190
9069.000000;0.755139
9068.000000;0.755226
9067.000000;0.755303
9066.000000;0.755256
9065.000000;0.755107
9064.000000;0.754915
9063.000000;0.754658
9062.000000;0.754294
9061.000000;0.753925
9060.000000;0.753773
9059.000000;0.753930
9058.000000;0.754226
9057.000000;0.754416
9056.000000;0.754455
9055.000000;0.754477
9054.000000;0.754520
9053.000000;0.754436
9052.000000;0.754124
9051.000000;0.753736
9050.000000;0.753525
9049.000000;0.753574
9048.000000;0.753757
9047.000000;0.753919
9046.000000;0.753966
9045.000000;0.753815
9044.000000;0.753449
9043.000000;0.753033
9042.000000;0.752836
9041.000000;0.752941
9040.000000;0.753136
9039.000000;0.753153
9038.000000;0.752943
9037.000000;0.752642
9036.000000;0.752387
9035.000000;0.752257
9034.000000;0.752327
9033.000000;0.752600
9032.000000;0.752904
9031.000000;0.752994
9030.000000;0.752804
9029.000000;0.752521
9028.000000;0.752365
9027.000000;0.752374
9026.000000;0.752426
9025.000000;0.752406
9024.000000;0.752291
9023.000000;0.752119
9022.000000;0.751929
9021.000000;0.751738
9020.000000;0.751548
9019.000000;0.751374
9018.000000;0.751246
9017.000000;0.751175
9016.000000;0.751129
9015.000000;0.751070
9014.000000;0.751009
9013.000000;0.750970
9012.000000;0.750923
9011.000000;0.750818
9010.000000;0.750703
9009.000000;0.750725
9008.000000;0.750975
9007.000000;0.751339
9006.000000;0.751584
9005.000000;0.751562
9004.000000;0.751299
9003.000000;0.750923
9002.000000;0.750537
9001.000000;0.750183
9000.000000;0.749886
8999.000000;0.749691
8998.000000;0.749661
8997.000000;0.749800
8996.000000;0.750012
8995.000000;0.750154
8994.000000;0.750173
8993.000000;0.750150
8992.000000;0.750178
8991.000000;0.750254
8990.000000;0.750309
8989.000000;0.750317
8988.000000;0.750306
8987.000000;0.750276
8986.000000;0.750190
8985.000000;0.750044
8984.000000;0.749896
8983.000000;0.749785
8982.000000;0.749676
8981.000000;0.749508
8980.000000;0.749288
8979.000000;0.749104
8978.000000;0.749056
8977.000000;0.749144
8976.000000;0.749235
8975.000000;0.749140
8974.000000;0.748780
8973.000000;0.748264
8972.000000;0.747792
8971.000000;0.747491
8970.000000;0.747368
8969.000000;0.747383
8968.000000;0.747486
8967.000000;0.747609
8966.000000;0.747706
8965.000000;0.747825
8964.000000;0.748058
8963.000000;0.748371
8962.000000;0.748579
8961.000000;0.748532
8960.000000;0.748295
8959.000000;0.748065
8958.000000;0.747972
8957.000000;0.748000
8956.000000;0.748056
8955.000000;0.748053
8954.000000;0.747959
8953.000000;0.747824
8952.000000;0.747720
8951.000000;0.747631
8950.000000;0.747438
8949.000000;0.747081
8948.000000;0.746685
8947.000000;0.746445
8946.000000;0.746395
8945.000000;0.746405
8944.000000;0.746369
8943.000000;0.746314
8942.000000;0.746307
8941.000000;0.746351
8940.000000;0.746404
8939.000000;0.746421
8938.000000;0.746352
8937.000000;0.746170
8936.000000;0.745930
8935.000000;0.745758
8934.000000;0.745739
8933.000000;0.745866
8932.000000;0.746069
8931.000000;0.746245
8930.000000;0.746301
8929.000000;0.746240
8928.000000;0.746212
8927.000000;0.746337
8926.000000;0.746486
8925.000000;0.746374
8924.000000;0.745934
8923.000000;0.745437
8922.000000;0.745167
8921.000000;0.745111
8920.000000;0.745098
8919.000000;0.745096
8918.000000;0.745181
8917.000000;0.745287
8916.000000;0.745201
8915.000000;0.744827
8914.000000;0.744323
8913.000000;0.743937
8912.000000;0.743828
8911.000000;0.744016
8910.000000;0.744366
8909.000000;0.744601
8908.000000;0.744487
8907.000000;0.744091
8906.000000;0.743725
8905.000000;0.743591
8904.000000;0.743595
8903.000000;0.743570
8902.000000;0.743550
8901.000000;0.743673
8900.000000;0.743929
8899.000000;0.744156
8898.000000;0.744242
8897.000000;0.744176
8896.000000;0.743941
8895.000000;0.743512
8894.000000;0.743003
8893.000000;0.742669
8892.000000;0.742666
8891.000000;0.742886
8890.000000;0.743120
8889.000000;0.743305
8888.000000;0.743502
8887.000000;0.743676
8886.000000;0.743650
8885.000000;0.743330
8884.000000;0.742885
8883.000000;0.742610
8882.000000;0.742606
8881.000000;0.742680
8880.000000;0.742577
8879.000000;0.742259
8878.000000;0.741920
8877.000000;0.741751
8876.000000;0.741762
8875.000000;0.741848
8874.000000;0.741947
8873.000000;0.742058
8872.000000;0.742149
8871.000000;0.742144
8870.000000;0.742022
8869.000000;0.741855
8868.000000;0.741702
8867.000000;0.741552
8866.000000;0.741407
8865.000000;0.741359
8864.000000;0.741483
8863.000000;0.741682
8862.000000;0.741756
8861.000000;0.741639
8860.000000;0.741461
8859.000000;0.741355
8858.000000;0.741286
8857.000000;0.741148
8856.000000;0.740940
8855.000000;0.740763
8854.000000;0.740671
8853.000000;0.740638
8852.000000;0.740650
8851.000000;0.740716
8850.000000;0.740785
8849.000000;0.740726
8848.000000;0.740474
8847.000000;0.740130
8846.000000;0.739879
8845.000000;0.739812
8844.000000;0.739856
8843.000000;0.739881
8842.000000;0.739850
8841.000000;0.739851
8840.000000;0.739977
8839.000000;0.740189
8838.000000;0.740332
8837.000000;0.740293
8836.000000;0.740110
8835.000000;0.739903
8834.000000;0.739742
8833.000000;0.739647
8832.000000;0.739636
8831.000000;0.739699
8830.000000;0.739747
8829.000000;0.739699
8828.000000;0.739602
8827.000000;0.739569
8826.000000;0.739606
8825.000000;0.739610
8824.000000;0.739541
8823.000000;0.739490
8822.000000;0.739542
8821.000000;0.739675
8820.000000;0.739836
8819.000000;0.739988
8818.000000;0.740037
8817.000000;0.739848
8816.000000;0.739435
8815.000000;0.739042
8814.000000;0.738897
8813.000000;0.738951
8812.000000;0.738957
8811.000000;0.738755
8810.000000;0.738387
8809.000000;0.738017
8808.000000;0.737827
8807.000000;0.737948
8806.000000;0.738321
8805.000000;0.738664
8804.000000;0.738688
8803.000000;0.738372
8802.000000;0.737928
8801.000000;0.737563
8800.000000;0.737373
8799.000000;0.737420
8798.000000;0.737722
8797.000000;0.738130
8796.000000;0.738374
8795.000000;0.738309
8794.000000;0.738036
8793.000000;0.737762
8792.000000;0.737638
8791.000000;0.737745
8790.000000;0.738075
8789.000000;0.738455
8788.000000;0.738619
8787.000000;0.738448
8786.000000;0.738081
8785.000000;0.737715
8784.000000;0.737400
8783.000000;0.737122
8782.000000;0.736958
8781.000000;0.737002
8780.000000;0.737190
8779.000000;0.737330
8778.000000;0.737322
8777.000000;0.737241
8776.000000;0.737200
8775.000000;0.737201
8774.000000;0.737162
8773.000000;0.737019
8772.000000;0.736795
8771.000000;0.736596
8770.000000;0.736537
8769.000000;0.736635
8768.000000;0.736783
8767.000000;0.736843
8766.000000;0.736784
8765.000000;0.736680
8764.000000;0.736606
8763.000000;0.736556
8762.000000;0.736484
8761.000000;0.736379
8760.000000;0.736280
8759.000000;0.736225
8758.000000;0.736205
8757.000000;0.736184
8756.000000;0.736161
8755.000000;0.736184
8754.000000;0.736274
8753.000000;0.736357
8752.000000;0.736331
8751.000000;0.736190
8750.000000;0.736020
8749.000000;0.735880
8748.000000;0.735737
8747.000000;0.735564
8746.000000;0.735395
8745.000000;0.735262
8744.000000;0.735135
8743.000000;0.734998
8742.000000;0.734953
8741.000000;0.735146
8740.000000;0.735582
8739.000000;0.736048
8738.000000;0.736250
8737.000000;0.736036
8736.000000;0.735539
8735.000000;0.735086
8734.000000;0.734943
8733.000000;0.735104
8732.000000;0.735356
8731.000000;0.735536
8730.000000;0.735649
8729.000000;0.735740
8728.000000;0.735771
8727.000000;0.735729
8726.000000;0.735723
8725.000000;0.735845
8724.000000;0.735962
8723.000000;0.735829
8722.000000;0.735405
8721.000000;0.734951
8720.000000;0.734755
8719.000000;0.734859
8718.000000;0.735077
8717.000000;0.735210
8716.000000;0.735179
8715.000000;0.735049
8714.000000;0.734959
8713.000000;0.734994
8712.000000;0.735073
8711.000000;0.735013
8710.000000;0.734750
8709.000000;0.734440
8708.000000;0.734287
8707.000000;0.734327
8706.000000;0.734423
8705.000000;0.734445
8704.000000;0.734354
8703.000000;0.734165
8702.000000;0.733941
8701.000000;0.733828
8700.000000;0.733985
8699.000000;0.734399
8698.000000;0.734832
8697.000000;0.735023
8696.000000;0.734915
8695.000000;0.734656
8694.000000;0.734406
8693.000000;0.734205
8692.000000;0.734028
8691.000000;0.733873
8690.000000;0.733757
8689.000000;0.733665
8688.000000;0.733538
8687.000000;0.733316
8686.000000;0.733013
8685.000000;0.732769
8684.000000;0.732781
8683.000000;0.733116
8682.000000;0.733582
8681.000000;0.733872
8680.000000;0.733855
8679.000000;0.733675
8678.000000;0.733529
8677.000000;0.733440
8676.000000;0.733320
8675.000000;0.733164
8674.000000;0.733055
8673.000000;0.733027
8672.000000;0.733036
8671.000000;0.733065
8670.000000;0.733131
8669.000000;0.733192
8668.000000;0.733161
8667.000000;0.733059
8666.000000;0.733010
8665.000000;0.733041
8664.000000;0.733001
8663.000000;0.732760
8662.000000;0.732384
8661.000000;0.732022
8660.000000;0.731718
8659.000000;0.731451
8658.000000;0.731275
8657.000000;0.731287
8656.000000;0.731465
8655.000000;0.731669
8654.000000;0.731791
8653.000000;0.731818
8652.000000;0.731754
8651.000000;0.731589
8650.000000;0.731356
8649.000000;0.731108
8648.000000;0.730838
8647.000000;0.730528
8646.000000;0.730274
8645.000000;0.730248
8644.000000;0.730476
8643.000000;0.730737
8642.000000;0.730771
8641.000000;0.730527
8640.000000;0.730151
8639.000000;0.729804
8638.000000;0.729575
8637.000000;0.729507
8636.000000;0.729603
8635.000000;0.729781
8634.000000;0.729888
8633.000000;0.729809
8632.000000;0.729531
8631.000000;0.729138
8630.000000;0.728755
8629.000000;0.728495
8628.000000;0.728404
8627.000000;0.728436
8626.000000;0.728514
8625.000000;0.728614
8624.000000;0.728764
8623.000000;0.728965
8622.000000;0.729122
8621.000000;0.729078
8620.000000;0.728737
8619.000000;0.728158
8618.000000;0.727525
8617.000000;0.727037
8616.000000;0.726802
8615.000000;0.726817
8614.000000;0.726999
8613.000000;0.727224
8612.000000;0.727373
8611.000000;0.727408
8610.000000;0.727395
8609.000000;0.727393
8608.000000;0.727338
8607.000000;0.727094
8606.000000;0.726644
8605.000000;0.726151
8604.000000;0.725793
8603.000000;0.725612
8602.000000;0.725554
8601.000000;0.725585
8600.000000;0.725694
8599.000000;0.725812
8598.000000;0.725844
8597.000000;0.725779
8596.000000;0.725664
8595.000000;0.725498
8594.000000;0.725233
8593.000000;0.724914
8592.000000;0.724703
8591.000000;0.724677
8590.000000;0.724707
8589.000000;0.724606
8588.000000;0.724375
8587.000000;0.724172
8586.000000;0.724073
8585.000000;0.723985
8584.000000;0.723808
8583.000000;0.723588
8582.000000;0.723439
8581.000000;0.723390
8580.000000;0.723383
8579.000000;0.723374
8578.000000;0.723363
8577.000000;0.723331
8576.000000;0.723238
8575.000000;0.723087
8574.000000;0.722932
8573.000000;0.722808
8572.000000;0.722691
8571.000000;0.722549
8570.000000;0.722388
8569.000000;0.722233
8568.000000;0.722098
8567.000000;0.721974
8566.000000;0.721852
8565.000000;0.721698
8564.000000;0.721483
8563.000000;0.721232
8562.000000;0.721038
8561.000000;0.720977
8560.000000;0.721015
8559.000000;0.721047
8558.000000;0.720982
8557.000000;0.720792
8556.000000;0.720506
8555.000000;0.720219
8554.000000;0.720077
8553.000000;0.720150
8552.000000;0.720313
8551.000000;0.720324
8550.000000;0.720075
8549.000000;0.719716
8548.000000;0.719479
8547.000000;0.719416
8546.000000;0.719391
8545.000000;0.719288
8544.000000;0.719133
8543.000000;0.719015
8542.000000;0.718950
8541.000000;0.718892
8540.000000;0.718815
8539.000000;0.718743
8538.000000;0.718685
8537.000000;0.718613
8536.000000;0.718485
8535.000000;0.718285
8534.000000;0.718030
8533.000000;0.717754
8532.000000;0.717511
8531.000000;0.717355
8530.000000;0.717312
8529.000000;0.717356
8528.000000;0.717408
8527.000000;0.717378
8526.000000;0.717228
8525.000000;0.717025
8524.000000;0.716900
8523.000000;0.716925
8522.000000;0.717027
8521.000000;0.717062
8520.000000;0.716961
8519.000000;0.716770
8518.000000;0.716563
8517.000000;0.716362
8516.000000;0.716168
8515.000000;0.716014
8514.000000;0.715949
8513.000000;0.715965
8512.000000;0.715990
8511.000000;0.715946
8510.000000;0.715819
8509.000000;0.715673
8508.000000;0.715606
8507.000000;0.715666
8506.000000;0.715787
8505.000000;0.715831
8504.000000;0.715692
8503.000000;0.715384
8502.000000;0.715008
8501.000000;0.714670
8500.000000;0.714426
8499.000000;0.714277
8498.000000;0.714181
8497.000000;0.714091
8496.000000;0.713998
8495.000000;0.713922
8494.000000;0.713844
8493.000000;0.713708
8492.000000;0.713504
8491.000000;0.713329
8490.000000;0.713280
8489.000000;0.713326
8488.000000;0.713334
8487.000000;0.713204
8486.000000;0.712945
8485.000000;0.712651
8484.000000;0.712441
8483.000000;0.712393
8482.000000;0.712463
8481.000000;0.712476
8480.000000;0.712298
8479.000000;0.712006
8478.000000;0.711821
8477.000000;0.711832
8476.000000;0.711883
8475.000000;0.711767
8474.000000;0.711461
8473.000000;0.711129
8472.000000;0.710931
8471.000000;0.710905
8470.000000;0.710971
8469.000000;0.711016
8468.000000;0.710986
8467.000000;0.710939
8466.000000;0.710961
8465.000000;0.711022
8464.000000;0.710986
8463.000000;0.710809
8462.000000;0.710638
8461.000000;0.710625
8460.000000;0.710703
8459.000000;0.710674
8458.000000;0.710487
8457.000000;0.710279
8456.000000;0.710143
8455.000000;0.709979
8454.000000;0.709669
8453.000000;0.709279
8452.000000;0.709006
8451.000000;0.708946
8450.000000;0.709013
8449.000000;0.709070
8448.000000;0.709049
8447.000000;0.708947
8446.000000;0.708790
8445.000000;0.708657
8444.000000;0.708678
8443.000000;0.708907
8442.000000;0.709204
8441.000000;0.709298
8440.000000;0.709032
8439.000000;0.708529
8438.000000;0.708084
8437.000000;0.707895
8436.000000;0.707919
8435.000000;0.707976
8434.000000;0.707920
8433.000000;0.707718
8432.000000;0.707408
8431.000000;0.707061
8430.000000;0.706766
8429.000000;0.706591
8428.000000;0.706533
8427.000000;0.706510
8426.000000;0.706422
8425.000000;0.706227
8424.000000;0.705975
8423.000000;0.705774
8422.000000;0.705712
8421.000000;0.705794
8420.000000;0.705938
8419.000000;0.706034
8418.000000;0.706008
8417.000000;0.705854
8416.000000;0.705635
8415.000000;0.705447
8414.000000;0.705356
8413.000000;0.705345
8412.000000;0.705341
8411.000000;0.705309
8410.000000;0.705276
8409.000000;0.705264
8408.000000;0.705224
8407.000000;0.705068
8406.000000;0.704776
8405.000000;0.704455
8404.000000;0.704272
8403.000000;0.704313
8402.000000;0.704485
8401.000000;0.704574
8400.000000;0.704445
8399.000000;0.704172
8398.000000;0.703940
8397.000000;0.703828
8396.000000;0.703760
8395.000000;0.703651
8394.000000;0.703536
8393.000000;0.703488
8392.000000;0.703512
8391.000000;0.703555
8390.000000;0.703578
8389.000000;0.703549
8388.000000;0.703411
8387.000000;0.703156
8386.000000;0.702884
8385.000000;0.702731
8384.000000;0.702728
8383.000000;0.702787
8382.000000;0.702799
8381.000000;0.702712
8380.000000;0.702533
8379.000000;0.702316
8378.000000;0.702125
8377.000000;0.701950
8376.000000;0.701713
8375.000000;0.701421
8374.000000;0.701251
8373.000000;0.701375
8372.000000;0.701715
8371.000000;0.701987
8370.000000;0.702010
8369.000000;0.701858
8368.000000;0.701679
8367.000000;0.701503
8366.000000;0.701290
8365.000000;0.701079
8364.000000;0.700952
8363.000000;0.700907
8362.000000;0.700861
8361.000000;0.700771
8360.000000;0.700675
8359.000000;0.700606
8358.000000;0.700530
8357.000000;0.700379
8356.000000;0.700130
8355.000000;0.699839
8354.000000;0.699604
8353.000000;0.699501
8352.000000;0.699529
8351.000000;0.699624
8350.000000;0.699712
8349.000000;0.699741
8348.000000;0.699668
8347.000000;0.699476
8346.000000;0.699208
8345.000000;0.698951
8344.000000;0.698762
8343.000000;0.698658
8342.000000;0.698641
8341.000000;0.698688
8340.000000;0.698698
8339.000000;0.698553
8338.000000;0.698286
8337.000000;0.698086
8336.000000;0.698095
8335.000000;0.698235
8334.000000;0.698336
8333.000000;0.698342
8332.000000;0.698313
8331.000000;0.698256
8330.000000;0.698088
8329.000000;0.697776
8328.000000;0.697422
8327.000000;0.697157
8326.000000;0.697023
8325.000000;0.696975
8324.000000;0.696955
8323.000000;0.696938
8322.000000;0.696934
8321.000000;0.696967
8320.000000;0.697008
8319.000000;0.696960
8318.000000;0.696751
8317.000000;0.696448
8316.000000;0.696218
8315.000000;0.696152
8314.000000;0.696181
8313.000000;0.696198
8312.000000;0.696168
8311.000000;0.696103
8310.000000;0.695982
8309.000000;0.695766
8308.000000;0.695473
8307.000000;0.695187
8306.000000;0.694996
8305.000000;0.694941
8304.000000;0.694986
8303.000000;0.695025
8302.000000;0.694937
8301.000000;0.694702
8300.000000;0.694442
8299.000000;0.694328
8298.000000;0.694431
8297.000000;0.694671
8296.000000;0.694875
8295.000000;0.694890
8294.000000;0.694676
8293.000000;0.694352
8292.000000;0.694116
8291.000000;0.694068
8290.000000;0.694126
8289.000000;0.694119
8288.000000;0.693971
8287.000000;0.693747
8286.000000;0.693547
8285.000000;0.693414
8284.000000;0.693337
8283.000000;0.693287
8282.000000;0.693230
8281.000000;0.693139
8280.000000;0.693021
8279.000000;0.692924
8278.000000;0.692890
8277.000000;0.692915
8276.000000;0.692933
8275.000000;0.692864
8274.000000;0.692686
8273.000000;0.692473
8272.000000;0.692347
8271.000000;0.692369
8270.000000;0.692473
8269.000000;0.692547
8268.000000;0.692527
8267.000000;0.692410
8266.000000;0.692203
8265.000000;0.691933
8264.000000;0.691683
8263.000000;0.691558
8262.000000;0.691583
8261.000000;0.691685
8260.000000;0.691774
8259.000000;0.691804
8258.000000;0.691760
8257.000000;0.691641
8256.000000;0.691492
8255.000000;0.691375
8254.000000;0.691272
8253.000000;0.691088
8252.000000;0.690788
8251.000000;0.690490
8250.000000;0.690351
8249.000000;0.690388
8248.000000;0.690469
8247.000000;0.690476
8246.000000;0.690392
8245.000000;0.690256
8244.000000;0.690088
8243.000000;0.689920
8242.000000;0.689827
8241.000000;0.689878
8240.000000;0.690043
8239.000000;0.690176
8238.000000;0.690117
8237.000000;0.689826
8236.000000;0.689448
8235.000000;0.689214
8234.000000;0.689242
8233.000000;0.689426
8232.000000;0.689538
8231.000000;0.689449
8230.000000;0.689229
8229.000000;0.689028
8228.000000;0.688909
8227.000000;0.688822
8226.000000;0.688717
8225.000000;0.688635
8224.000000;0.688655
8223.000000;0.688768
8222.000000;0.688842
8221.000000;0.688723
8220.000000;0.688399
8219.000000;0.688027
8218.000000;0.687785
8217.000000;0.687716
8216.000000;0.687737
8215.000000;0.687776
8214.000000;0.687837
8213.000000;0.687932
8212.000000;0.687997
8211.000000;0.687941
8210.000000;0.687758
8209.000000;0.687531
8208.000000;0.687321
8207.000000;0.687095
8206.000000;0.686813
8205.000000;0.686541
8204.000000;0.686435
8203.000000;0.686563
8202.000000;0.686793
8201.000000;0.686900
8200.000000;0.686790
8199.000000;0.686573
8198.000000;0.686412
8197.000000;0.686348
8196.000000;0.686301
8195.000000;0.686203
8194.000000;0.686069
8193.000000;0.685947
8192.000000;0.685852
8191.000000;0.685764
8190.000000;0.685669
8189.000000;0.685586
8188.000000;0.685553
8187.000000;0.685589
8186.000000;0.685652
8185.000000;0.685655
8184.000000;0.685535
8183.000000;0.685322
8182.000000;0.685106
8181.000000;0.684944
8180.000000;0.684839
8179.000000;0.684784
8178.000000;0.684773
8177.000000;0.684765
8176.000000;0.684687
8175.000000;0.684514
8174.000000;0.684299
8173.000000;0.684105
8172.000000;0.683961
8171.000000;0.683897
8170.000000;0.683974
8169.000000;0.684196
8168.000000;0.684426
8167.000000;0.684475
8166.000000;0.684294
8165.000000;0.684032
8164.000000;0.683869
8163.000000;0.683843
8162.000000;0.683855
8161.000000;0.683796
8160.000000;0.683633
8159.000000;0.683407
8158.000000;0.683178
8157.000000;0.683003
8156.000000;0.682909
8155.000000;0.682893
8154.000000;0.682930
8153.000000;0.682984
8152.000000;0.683023
8151.000000;0.683025
8150.000000;0.682992
8149.000000;0.682938
8148.000000;0.682871
8147.000000;0.682768
8146.000000;0.682604
8145.000000;0.682395
8144.000000;0.682200
8143.000000;0.682078
8142.000000;0.682055
8141.000000;0.682112
8140.000000;0.682192
8139.000000;0.682210
8138.000000;0.682085
8137.000000;0.681817
8136.000000;0.681514
8135.000000;0.681301
8134.000000;0.681206
8133.000000;0.681155
8132.000000;0.681101
8131.000000;0.681094
8130.000000;0.681205
8129.000000;0.681405
8128.000000;0.681572
8127.000000;0.681618
8126.000000;0.681539
8125.000000;0.681363
8124.000000;0.681098
8123.000000;0.680766
8122.000000;0.680454
8121.000000;0.680262
8120.000000;0.680200
8119.000000;0.680177
8118.000000;0.680095
8117.000000;0.679950
8116.000000;0.679823
8115.000000;0.679797
8114.000000;0.679875
8113.000000;0.679985
8112.000000;0.680044
8111.000000;0.680018
8110.000000;0.679934
8109.000000;0.679836
8108.000000;0.679761
8107.000000;0.679724
8106.000000;0.679725
8105.000000;0.679729
8104.000000;0.679685
8103.000000;0.679559
8102.000000;0.679387
8101.000000;0.679250
8100.000000;0.679214
8099.000000;0.679267
8098.000000;0.679321
8097.000000;0.679271
8096.000000;0.679093
8095.000000;0.678865
8094.000000;0.678702
8093.000000;0.678654
8092.000000;0.678675
8091.000000;0.678688
8090.000000;0.678649
8089.000000;0.678556
8088.000000;0.678426
8087.000000;0.678284
8086.000000;0.678164
8085.000000;0.678071
8084.000000;0.677970
8083.000000;0.677825
8082.000000;0.677664
8081.000000;0.677568
8080.000000;0.677584
8079.000000;0.677680
8078.000000;0.677778
8077.000000;0.677804
8076.000000;0.677726
8075.000000;0.677559
8074.000000;0.677372
8073.000000;0.677257
8072.000000;0.677261
8071.000000;0.677341
8070.000000;0.677386
8069.000000;0.677297
8068.000000;0.677048
8067.000000;0.676709
8066.000000;0.676419
8065.000000;0.676299
8064.000000;0.676360
8063.000000;0.676485
8062.000000;0.676534
8061.000000;0.676476
8060.000000;0.676393
8059.000000;0.676371
8058.000000;0.676403
8057.000000;0.676420
8056.000000;0.676374
8055.000000;0.676266
8054.000000;0.676103
8053.000000;0.675887
8052.000000;0.675639
8051.000000;0.675406
8050.000000;0.675230
8049.000000;0.675119
8048.000000;0.675060
8047.000000;0.675042
8046.000000;0.675053
8045.000000;0.675068
8044.000000;0.675064
8043.000000;0.675040
8042.000000;0.675011
8041.000000;0.674990
8040.000000;0.674975
8039.000000;0.674943
8038.000000;0.674860
8037.000000;0.674709
8036.000000;0.674530
8035.000000;0.674403
8034.000000;0.674374
8033.000000;0.674399
8032.000000;0.674383
8031.000000;0.674278
8030.000000;0.674125
8029.000000;0.674017
8028.000000;0.674014
8027.000000;0.674089
8026.000000;0.674144
8025.000000;0.674085
8024.000000;0.673920
8023.000000;0.673748
8022.000000;0.673654
8021.000000;0.673613
8020.000000;0.673524
8019.000000;0.673344
8018.000000;0.673146
8017.000000;0.673038
8016.000000;0.673067
8015.000000;0.673187
8014.000000;0.673304
8013.000000;0.673340
8012.000000;0.673289
8011.000000;0.673204
8010.000000;0.673132
8009.000000;0.673056
8008.000000;0.672922
8007.000000;0.672740
8006.000000;0.672609
8005.000000;0.672624
8004.000000;0.672757
8003.000000;0.672865
8002.000000;0.672812
8001.000000;0.672577
8000.000000;0.672267
7999.000000;0.672027
7998.000000;0.671927
7997.000000;0.671932
7996.000000;0.671971
7995.000000;0.672011
7994.000000;0.672065
7993.000000;0.672132
7992.000000;0.672168
7991.000000;0.672125
7990.000000;0.671992
7989.000000;0.671788
7988.000000;0.671551
7987.000000;0.671344
7986.000000;0.671247
7985.000000;0.671301
7984.000000;0.671457
7983.000000;0.671602
7982.000000;0.671627
7981.000000;0.671499
7980.000000;0.671265
7979.000000;0.671023
7978.000000;0.670852
7977.000000;0.670771
7976.000000;0.670738
7975.000000;0.670710
7974.000000;0.670673
7973.000000;0.670628
7972.000000;0.670575
7971.000000;0.670531
7970.000000;0.670540
7969.000000;0.670623
7968.000000;0.670729
7967.000000;0.670760
7966.000000;0.670663
7965.000000;0.670479
7964.000000;0.670296
7963.000000;0.670166
7962.000000;0.670079
7961.000000;0.670003
7960.000000;0.669921
7959.000000;0.669834
7958.000000;0.669732
7957.000000;0.669598
7956.000000;0.669429
7955.000000;0.669257
7954.000000;0.669129
7953.000000;0.669076
7952.000000;0.669085
7951.000000;0.669115
7950.000000;0.669117
7949.000000;0.669073
7948.000000;0.669004
7947.000000;0.668944
7946.000000;0.668900
7945.000000;0.668852
7944.000000;0.668786
7943.000000;0.668716
7942.000000;0.668648
7941.000000;0.668556
7940.000000;0.668416
7939.000000;0.668251
7938.000000;0.668114
7937.000000;0.668044
7936.000000;0.668050
7935.000000;0.668132
7934.000000;0.668266
7933.000000;0.668388
7932.000000;0.668429
7931.000000;0.668377
7930.000000;0.668280
7929.000000;0.668173
7928.000000;0.668067
7927.000000;0.667975
7926.000000;0.667919
7925.000000;0.667890
7924.000000;0.667850
7923.000000;0.667794
7922.000000;0.667772
7921.000000;0.667802
7920.000000;0.667825
7919.000000;0.667764
7918.000000;0.667598
7917.000000;0.667366
7916.000000;0.667137
7915.000000;0.666982
7914.000000;0.666946
7913.000000;0.666985
7912.000000;0.666989
7911.000000;0.666891
7910.000000;0.666735
7909.000000;0.666590
7908.000000;0.666464
7907.000000;0.666341
7906.000000;0.666261
7905.000000;0.666281
7904.000000;0.666370
7903.000000;0.666428
7902.000000;0.666412
7901.000000;0.666379
7900.000000;0.666384
7899.000000;0.666398
7898.000000;0.666354
7897.000000;0.666227
7896.000000;0.666047
7895.000000;0.665868
7894.000000;0.665750
7893.000000;0.665722
7892.000000;0.665738
7891.000000;0.665714
7890.000000;0.665611
7889.000000;0.665484
7888.000000;0.665409
7887.000000;0.665400
7886.000000;0.665412
7885.000000;0.665398
7884.000000;0.665349
7883.000000;0.665289
7882.000000;0.665243
7881.000000;0.665215
7880.000000;0.665183
7879.000000;0.665131
7878.000000;0.665073
7877.000000;0.665036
7876.000000;0.665007
7875.000000;0.664936
7874.000000;0.664794
7873.000000;0.664604
7872.000000;0.664406
7871.000000;0.664225
7870.000000;0.664098
7869.000000;0.664072
7868.000000;0.664159
7867.000000;0.664290
7866.000000;0.664369
7865.000000;0.664340
7864.000000;0.664224
7863.000000;0.664084
7862.000000;0.663991
7861.000000;0.663977
7860.000000;0.664001
7859.000000;0.663974
7858.000000;0.663856
7857.000000;0.663716
7856.000000;0.663642
7855.000000;0.663620
7854.000000;0.663551
7853.000000;0.663386
7852.000000;0.663187
7851.000000;0.663035
7850.000000;0.662942
7849.000000;0.662877
7848.000000;0.662838
7847.000000;0.662846
7846.000000;0.662887
7845.000000;0.662908
7844.000000;0.662871
7843.000000;0.662778
7842.000000;0.662652
7841.000000;0.662512
7840.000000;0.662389
7839.000000;0.662314
7838.000000;0.662282
7837.000000;0.662259
7836.000000;0.662234
7835.000000;0.662235
7834.000000;0.662271
7833.000000;0.662284
7832.000000;0.662211
7831.000000;0.662077
7830.000000;0.661977
7829.000000;0.661962
7828.000000;0.661973
7827.000000;0.661929
7826.000000;0.661834
7825.000000;0.661752
7824.000000;0.661709
7823.000000;0.661667
7822.000000;0.661599
7821.000000;0.661532
7820.000000;0.661506
7819.000000;0.661514
7818.000000;0.661513
7817.000000;0.661469
7816.000000;0.661360
7815.000000;0.661170
7814.000000;0.660919
7813.000000;0.660687
7812.000000;0.660563
7811.000000;0.660556
7810.000000;0.660579
7809.000000;0.660547
7808.000000;0.660463
7807.000000;0.660403
7806.000000;0.660418
7805.000000;0.660481
7804.000000;0.660519
7803.000000;0.660488
7802.000000;0.660410
7801.000000;0.660330
7800.000000;0.660262
7799.000000;0.660177
7798.000000;0.660054
7797.000000;0.659933
7796.000000;0.659883
7795.000000;0.659906
7794.000000;0.659916
7793.000000;0.659825
7792.000000;0.659647
7791.000000;0.659470
7790.000000;0.659358
7789.000000;0.659307
7788.000000;0.659301
7787.000000;0.659342
7786.000000;0.659413
7785.000000;0.659458
7784.000000;0.659436
7783.000000;0.659376
7782.000000;0.659318
7781.000000;0.659247
7780.000000;0.659105
7779.000000;0.658896
7778.000000;0.658699
7777.000000;0.658583
7776.000000;0.658531
7775.000000;0.658484
7774.000000;0.658422
7773.000000;0.658377
7772.000000;0.658373
7771.000000;0.658391
7770.000000;0.658390
7769.000000;0.658349
7768.000000;0.658273
7767.000000;0.658180
7766.000000;0.658088
7765.000000;0.658011
7764.000000;0.657962
7763.000000;0.657940
7762.000000;0.657931
7761.000000;0.657909
7760.000000;0.657859
7759.000000;0.657787
7758.000000;0.657705
7757.000000;0.657614
7756.000000;0.657491
7755.000000;0.657314
7754.000000;0.657106
7753.000000;0.656957
7752.000000;0.656982
7751.000000;0.657211
7750.000000;0.657517
7749.000000;0.657687
7748.000000;0.657602
7747.000000;0.657331
7746.000000;0.657044
7745.000000;0.656855
7744.000000;0.656762
7743.000000;0.656718
7742.000000;0.656685
7741.000000;0.656634
7740.000000;0.656539
7739.000000;0.656414
7738.000000;0.656309
7737.000000;0.656262
7736.000000;0.656267
7735.000000;0.656292
7734.000000;0.656312
7733.000000;0.656300
7732.000000;0.656230
7731.000000;0.656107
7730.000000;0.655973
7729.000000;0.655855
7728.000000;0.655744
7727.000000;0.655635
7726.000000;0.655574
7725.000000;0.655606
7724.000000;0.655699
7723.000000;0.655753
7722.000000;0.655700
7721.000000;0.655563
7720.000000;0.655421
7719.000000;0.655340
7718.000000;0.655336
7717.000000;0.655369
7716.000000;0.655364
7715.000000;0.655257
7714.000000;0.655061
7713.000000;0.654852
7712.000000;0.654706
7711.000000;0.654632
7710.000000;0.654587
7709.000000;0.654520
7708.000000;0.654409
7707.000000;0.654264
7706.000000;0.654128
7705.000000;0.654050
7704.000000;0.654048
7703.000000;0.654080
7702.000000;0.654072
7701.000000;0.653979
7700.000000;0.653819
7699.000000;0.653666
7698.000000;0.653605
7697.000000;0.653663
7696.000000;0.653789
7695.000000;0.653892
7694.000000;0.653926
7693.000000;0.653935
7692.000000;0.653983
7691.000000;0.654059
7690.000000;0.654083
7689.000000;0.654010
7688.000000;0.653888
7687.000000;0.653781
7686.000000;0.653674
7685.000000;0.653518
7684.000000;0.653334
7683.000000;0.653225
7682.000000;0.653240
7681.000000;0.653303
7680.000000;0.653302
7679.000000;0.653211
7678.000000;0.653082
7677.000000;0.652961
7676.000000;0.652847
7675.000000;0.652740
7674.000000;0.652656
7673.000000;0.652594
7672.000000;0.652527
7671.000000;0.652444
7670.000000;0.652357
7669.000000;0.652267
7668.000000;0.652152
7667.000000;0.652007
7666.000000;0.651867
7665.000000;0.651773
7664.000000;0.651720
7663.000000;0.651674
7662.000000;0.651611
7661.000000;0.651539
7660.000000;0.651497
7659.000000;0.651532
7658.000000;0.651658
7657.000000;0.651817
7656.000000;0.651920
7655.000000;0.651918
7654.000000;0.651833
7653.000000;0.651710
7652.000000;0.651564
7651.000000;0.651402
7650.000000;0.651239
7649.000000;0.651103
7648.000000;0.651013
7647.000000;0.650986
7646.000000;0.651027
7645.000000;0.651095
7644.000000;0.651114
7643.000000;0.651047
7642.000000;0.650938
7641.000000;0.650855
7640.000000;0.650811
7639.000000;0.650756
7638.000000;0.650640
7637.000000;0.650465
7636.000000;0.650277
7635.000000;0.650130
7634.000000;0.650050
7633.000000;0.650030
7632.000000;0.650049
7631.000000;0.650087
7630.000000;0.650130
7629.000000;0.650149
7628.000000;0.650127
7627.000000;0.650090
7626.000000;0.650092
7625.000000;0.650136
7624.000000;0.650159
7623.000000;0.650111
7622.000000;0.649992
7621.000000;0.649814
7620.000000;0.649577
7619.000000;0.649312
7618.000000;0.649109
7617.000000;0.649030
7616.000000;0.649037
7615.000000;0.649042
7614.000000;0.649013
7613.000000;0.648988
7612.000000;0.648999
7611.000000;0.649042
7610.000000;0.649093
7609.000000;0.649120
7608.000000;0.649078
7607.000000;0.648969
7606.000000;0.648877
7605.000000;0.648883
7604.000000;0.648951
7603.000000;0.648965
7602.000000;0.648882
7601.000000;0.648759
7600.000000;0.648646
7599.000000;0.648514
7598.000000;0.648347
7597.000000;0.648211
7596.000000;0.648176
7595.000000;0.648225
7594.000000;0.648283
7593.000000;0.648319
7592.000000;0.648350
7591.000000;0.648380
7590.000000;0.648388
7589.000000;0.648383
7588.000000;0.648400
7587.000000;0.648448
7586.000000;0.648484
7585.000000;0.648453
7584.000000;0.648344
7583.000000;0.648196
7582.000000;0.648064
7581.000000;0.647974
7580.000000;0.647917
7579.000000;0.647865
7578.000000;0.647800
7577.000000;0.647717
7576.000000;0.647618
7575.000000;0.647517
7574.000000;0.647452
7573.000000;0.647459
7572.000000;0.647513
7571.000000;0.647539
7570.000000;0.647495
7569.000000;0.647402
7568.000000;0.647300
7567.000000;0.647189
7566.000000;0.647078
7565.000000;0.647024
7564.000000;0.647085
7563.000000;0.647238
7562.000000;0.647385
7561.000000;0.647438
7560.000000;0.647380
7559.000000;0.647240
7558.000000;0.647065
7557.000000;0.646903
7556.000000;0.646799
7555.000000;0.646773
7554.000000;0.646819
7553.000000;0.646913
7552.000000;0.647008
7551.000000;0.647040
7550.000000;0.646967
7549.000000;0.646814
7548.000000;0.646650
7547.000000;0.646529
7546.000000;0.646469
7545.000000;0.646481
7544.000000;0.646568
7543.000000;0.646694
7542.000000;0.646792
7541.000000;0.646812
7540.000000;0.646759
7539.000000;0.646671
7538.000000;0.646597
7537.000000;0.646575
7536.000000;0.646592
7535.000000;0.646572
7534.000000;0.646445
7533.000000;0.646245
7532.000000;0.646105
7531.000000;0.646113
7530.000000;0.646224
7529.000000;0.646318
7528.000000;0.646314
7527.000000;0.646212
7526.000000;0.646061
7525.000000;0.645933
7524.000000;0.645901
7523.000000;0.645973
7522.000000;0.646066
7521.000000;0.646083
7520.000000;0.646024
7519.000000;0.645969
7518.000000;0.645962
7517.000000;0.645961
7516.000000;0.645911
7515.000000;0.645835
7514.000000;0.645802
7513.000000;0.645841
7512.000000;0.645903
7511.000000;0.645903
7510.000000;0.645790
7509.000000;0.645597
7508.000000;0.645412
7507.000000;0.645311
7506.000000;0.645289
7505.000000;0.645295
7504.000000;0.645303
7503.000000;0.645335
7502.000000;0.645401
7501.000000;0.645467
7500.000000;0.645499
7499.000000;0.645513
7498.000000;0.645543
7497.000000;0.645589
7496.000000;0.645622
7495.000000;0.645627
7494.000000;0.645615
7493.000000;0.645596
7492.000000;0.645563
7491.000000;0.645511
7490.000000;0.645453
7489.000000;0.645411
7488.000000;0.645385
7487.000000;0.645348
7486.000000;0.645270
7485.000000;0.645158
7484.000000;0.645074
7483.000000;0.645084
7482.000000;0.645190
7481.000000;0.645306
7480.000000;0.645346
7479.000000;0.645301
7478.000000;0.645224
7477.000000;0.645148
7476.000000;0.645061
7475.000000;0.644966
7474.000000;0.644920
7473.000000;0.644984
7472.000000;0.645138
7471.000000;0.645281
7470.000000;0.645327
7469.000000;0.645278
7468.000000;0.645209
7467.000000;0.645182
7466.000000;0.645198
7465.000000;0.645228
7464.000000;0.645266
7463.000000;0.645312
7462.000000;0.645345
7461.000000;0.645326
7460.000000;0.645251
7459.000000;0.645158
7458.000000;0.645089
7457.000000;0.645053
7456.000000;0.645047
7455.000000;0.645070
7454.000000;0.645117
7453.000000;0.645155
7452.000000;0.645147
7451.000000;0.645081
7450.000000;0.644991
7449.000000;0.644928
7448.000000;0.644930
7447.000000;0.644993
7446.000000;0.645073
7445.000000;0.645128
7444.000000;0.645160
7443.000000;0.645203
7442.000000;0.645263
7441.000000;0.645308
7440.000000;0.645314
7439.000000;0.645299
7438.000000;0.645293
7437.000000;0.645299
7436.000000;0.645306
7435.000000;0.645318
7434.000000;0.645336
7433.000000;0.645350
7432.000000;0.645356
7431.000000;0.645380
7430.000000;0.645432
7429.000000;0.645480
7428.000000;0.645483
7427.000000;0.645445
7426.000000;0.645391
7425.000000;0.645324
7424.000000;0.645238
7423.000000;0.645169
7422.000000;0.645162
7421.000000;0.645200
7420.000000;0.645217
7419.000000;0.645179
7418.000000;0.645115
7417.000000;0.645072
7416.000000;0.645063
7415.000000;0.645092
7414.000000;0.645162
7413.000000;0.645263
7412.000000;0.645376
7411.000000;0.645487
7410.000000;0.645575
7409.000000;0.645588
7408.000000;0.645494
7407.000000;0.645354
7406.000000;0.645287
7405.000000;0.645333
7404.000000;0.645414
7403.000000;0.645454
7402.000000;0.645475
7401.000000;0.645522
7400.000000;0.645575
7399.000000;0.645585
7398.000000;0.645574
7397.000000;0.645619
7396.000000;0.645739
7395.000000;0.645855
7394.000000;0.645890
7393.000000;0.645860
7392.000000;0.645841
7391.000000;0.645871
7390.000000;0.645908
7389.000000;0.645880
7388.000000;0.645771
7387.000000;0.645640
7386.000000;0.645582
7385.000000;0.645659
7384.000000;0.645858
7383.000000;0.646102
7382.000000;0.646294
7381.000000;0.646377
7380.000000;0.646363
7379.000000;0.646320
7378.000000;0.646311
7377.000000;0.646330
7376.000000;0.646316
7375.000000;0.646256
7374.000000;0.646239
7373.000000;0.646365
7372.000000;0.646613
7371.000000;0.646838
7370.000000;0.646909
7369.000000;0.646832
7368.000000;0.646729
7367.000000;0.646703
7366.000000;0.646746
7365.000000;0.646796
7364.000000;0.646816
7363.000000;0.646809
7362.000000;0.646788
7361.000000;0.646765
7360.000000;0.646773
7359.000000;0.646853
7358.000000;0.646997
7357.000000;0.647126
7356.000000;0.647157
7355.000000;0.647099
7354.000000;0.647045
7353.000000;0.647067
7352.000000;0.647168
7351.000000;0.647303
7350.000000;0.647428
7349.000000;0.647503
7348.000000;0.647512
7347.000000;0.647490
7346.000000;0.647498
7345.000000;0.647565
7344.000000;0.647653
7343.000000;0.647695
7342.000000;0.647667
7341.000000;0.647614
7340.000000;0.647627
7339.000000;0.647778
7338.000000;0.648040
7337.000000;0.648291
7336.000000;0.648419
7335.000000;0.648413
7334.000000;0.648357
7333.000000;0.648319
7332.000000;0.648306
7331.000000;0.648316
7330.000000;0.648383
7329.000000;0.648531
7328.000000;0.648717
7327.000000;0.648882
7326.000000;0.649000
7325.000000;0.649080
7324.000000;0.649148
7323.000000;0.649250
7322.000000;0.649418
7321.000000;0.649600
7320.000000;0.649682
7319.000000;0.649614
7318.000000;0.649472
7317.000000;0.649379
7316.000000;0.649385
7315.000000;0.649480
7314.000000;0.649656
7313.000000;0.649888
7312.000000;0.650091
7311.000000;0.650199
7310.000000;0.650277
7309.000000;0.650457
7308.000000;0.650747
7307.000000;0.651003
7306.000000;0.651094
7305.000000;0.651054
7304.000000;0.651034
7303.000000;0.651150
7302.000000;0.651387
7301.000000;0.651620
7300.000000;0.651735
7299.000000;0.651750
7298.000000;0.651807
7297.000000;0.652025
7296.000000;0.652371
7295.000000;0.652701
7294.000000;0.652912
7293.000000;0.653021
7292.000000;0.653087
7291.000000;0.653135
7290.000000;0.653174
7289.000000;0.653217
7288.000000;0.653276
7287.000000;0.653355
7286.000000;0.653473
7285.000000;0.653661
7284.000000;0.653928
7283.000000;0.654249
7282.000000;0.654580
7281.000000;0.654868
7280.000000;0.655067
7279.000000;0.655167
7278.000000;0.655203
7277.000000;0.655218
7276.000000;0.655216
7275.000000;0.655192
7274.000000;0.655200
7273.000000;0.655330
7272.000000;0.655630
7271.000000;0.656058
7270.000000;0.656527
7269.000000;0.656959
7268.000000;0.657301
7267.000000;0.657535
7266.000000;0.657668
7265.000000;0.657730
7264.000000;0.657774
7263.000000;0.657902
7262.000000;0.658207
7261.000000;0.658671
7260.000000;0.659139
7259.000000;0.659476
7258.000000;0.659701
7257.000000;0.659932
7256.000000;0.660213
7255.000000;0.660471
7254.000000;0.660639
7253.000000;0.660758
7252.000000;0.660933
7251.000000;0.661235
7250.000000;0.661647
7249.000000;0.662087
7248.000000;0.662459
7247.000000;0.662726
7246.000000;0.662957
7245.000000;0.663245
7244.000000;0.663610
7243.000000;0.664019
7242.000000;0.664480
7241.000000;0.665015
7240.000000;0.665562
7239.000000;0.665998
7238.000000;0.666275
7237.000000;0.666474
7236.000000;0.666710
7235.000000;0.667024
7234.000000;0.667378
7233.000000;0.667714
7232.000000;0.668012
7231.000000;0.668314
7230.000000;0.668704
7229.000000;0.669223
7228.000000;0.669766
7227.000000;0.670146
7226.000000;0.670316
7225.000000;0.670447
7224.000000;0.670736
7223.000000;0.671194
7222.000000;0.671690
7221.000000;0.672135
7220.000000;0.672563
7219.000000;0.673059
7218.000000;0.673653
7217.000000;0.674283
7216.000000;0.674843
7215.000000;0.675271
7214.000000;0.675592
7213.000000;0.675858
7212.000000;0.676084
7211.000000;0.676285
7210.000000;0.676546
7209.000000;0.676977
7208.000000;0.677575
7207.000000;0.678224
7206.000000;0.678835
7205.000000;0.679397
7204.000000;0.679889
7203.000000;0.680256
7202.000000;0.680542
7201.000000;0.680923
7200.000000;0.681517
7199.000000;0.682234
7198.000000;0.682890
7197.000000;0.683428
7196.000000;0.683942
7195.000000;0.684513
7194.000000;0.685116
7193.000000;0.685656
7192.000000;0.686079
7191.000000;0.686434
7190.000000;0.686858
7189.000000;0.687437
7188.000000;0.688079
7187.000000;0.688595
7186.000000;0.688959
7185.000000;0.689370
7184.000000;0.689985
7183.000000;0.690691
7182.000000;0.691270
7181.000000;0.691721
7180.000000;0.692259
7179.000000;0.693018
7178.000000;0.693929
7177.000000;0.694880
7176.000000;0.695814
7175.000000;0.696668
7174.000000;0.697333
7173.000000;0.697776
7172.000000;0.698114
7171.000000;0.698504
7170.000000;0.699022
7169.000000;0.699666
7168.000000;0.700425
7167.000000;0.701272
7166.000000;0.702132
7165.000000;0.702930
7164.000000;0.703641
7163.000000;0.704283
7162.000000;0.704883
7161.000000;0.705478
7160.000000;0.706077
7159.000000;0.706640
7158.000000;0.707129
7157.000000;0.707584
7156.000000;0.708066
7155.000000;0.708563
7154.000000;0.709032
7153.000000;0.709565
7152.000000;0.710371
7151.000000;0.711499
7150.000000;0.712680
7149.000000;0.713579
7148.000000;0.714153
7147.000000;0.714634
7146.000000;0.715184
7145.000000;0.715707
7144.000000;0.716037
7143.000000;0.716209
7142.000000;0.716430
7141.000000;0.716842
7140.000000;0.717389
7139.000000;0.717934
7138.000000;0.718416
7137.000000;0.718859
7136.000000;0.719288
7135.000000;0.719749
7134.000000;0.720384
7133.000000;0.721304
7132.000000;0.722335
7131.000000;0.723017
7130.000000;0.723035
7129.000000;0.722622
7128.000000;0.722391
7127.000000;0.722721
7126.000000;0.723431
7125.000000;0.724065
7124.000000;0.724364
7123.000000;0.724434
7122.000000;0.724544
7121.000000;0.724843
7120.000000;0.725221
7119.000000;0.725432
7118.000000;0.725408
7117.000000;0.725431
7116.000000;0.725836
7115.000000;0.726550
7114.000000;0.727138
7113.000000;0.727349
7112.000000;0.727397
7111.000000;0.727564
7110.000000;0.727706
7109.000000;0.727418
7108.000000;0.726613
7107.000000;0.725669
7106.000000;0.724982
7105.000000;0.724622
7104.000000;0.724502
7103.000000;0.724604
7102.000000;0.724830
7101.000000;0.724809
7100.000000;0.724168
7099.000000;0.723009
7098.000000;0.721882
7097.000000;0.721196
7096.000000;0.720810
7095.000000;0.720385
7094.000000;0.720004
7093.000000;0.720154
7092.000000;0.720998
7091.000000;0.721938
7090.000000;0.722125
7089.000000;0.721281
7088.000000;0.719821
7087.000000;0.718273
7086.000000;0.716861
7085.000000;0.715657
7084.000000;0.714750
7083.000000;0.714048
7082.000000;0.713162
7081.000000;0.711752
7080.000000;0.709954
7079.000000;0.708300
7078.000000;0.707237
7077.000000;0.706861
7076.000000;0.706981
7075.000000;0.707180
7074.000000;0.706844
7073.000000;0.705444
7072.000000;0.702977
7071.000000;0.700030
7070.000000;0.697355
7069.000000;0.695405
7068.000000;0.694211
7067.000000;0.693421
7066.000000;0.692421
7065.000000;0.690706
7064.000000;0.688365
7063.000000;0.686048
7062.000000;0.684310
7061.000000;0.683135
7060.000000;0.682257
7059.000000;0.681704
7058.000000;0.681643
7057.000000;0.681752
7056.000000;0.681198
7055.000000;0.679420
7054.000000;0.676686
7053.000000;0.673738
7052.000000;0.671157
7051.000000;0.669198
7050.000000;0.667926
7049.000000;0.667134
7048.000000;0.666191
7047.000000;0.664318
7046.000000;0.661252
7045.000000;0.657657
7044.000000;0.654741
7043.000000;0.653268
7042.000000;0.652784
7041.000000;0.651857
7040.000000;0.649383
7039.000000;0.645688
7038.000000;0.642095
7037.000000;0.639431
7036.000000;0.637336
7035.000000;0.635096
7034.000000;0.632652
7033.000000;0.630401
7032.000000;0.628363
7031.000000;0.626150
7030.000000;0.623667
7029.000000;0.621328
7028.000000;0.619474
7027.000000;0.617919
7026.000000;0.616188
7025.000000;0.613987
7024.000000;0.611306
7023.000000;0.608283
7022.000000;0.605189
7021.000000;0.602422
7020.000000;0.600291
7019.000000;0.598696
7018.000000;0.597076
7017.000000;0.594828
7016.000000;0.591920
7015.000000;0.589002
7014.000000;0.586704
7013.000000;0.584821
7012.000000;0.582471
7011.000000;0.579189
7010.000000;0.575583
7009.000000;0.572680
7008.000000;0.570825
7007.000000;0.569452
7006.000000;0.567753
7005.000000;0.565373
7004.000000;0.562561
7003.000000;0.559824
7002.000000;0.557398
7001.000000;0.554964
7000.000000;0.552027
6999.000000;0.548670
6998.000000;0.545612
6997.000000;0.543317
6996.000000;0.541276
6995.000000;0.538516
6994.000000;0.534734
6993.000000;0.530613
6992.000000;0.527093
6991.000000;0.524560
6990.000000;0.522681
6989.000000;0.520792
6988.000000;0.518552
6987.000000;0.516301
6986.000000;0.514560
6985.000000;0.513124
6984.000000;0.510980
6983.000000;0.507384
6982.000000;0.502738
6981.000000;0.498116
6980.000000;0.494182
6979.000000;0.490903
6978.000000;0.487988
6977.000000;0.485250
6976.000000;0.482736
6975.000000;0.480811
6974.000000;0.479802
6973.000000;0.479196
6972.000000;0.477596
6971.000000;0.474037
6970.000000;0.469158
6969.000000;0.464573
6968.000000;0.461344
6967.000000;0.459506
6966.000000;0.458639
6965.000000;0.458158
6964.000000;0.457202
6963.000000;0.455042
6962.000000;0.451780
6961.000000;0.448177
6960.000000;0.444704
6959.000000;0.441205
6958.000000;0.437513
6957.000000;0.433888
6956.000000;0.430724
6955.000000;0.428183
6954.000000;0.426191
6953.000000;0.424467
6952.000000;0.422545
6951.000000;0.420143
6950.000000;0.417595
6949.000000;0.415582
6948.000000;0.414305
6947.000000;0.413148
6946.000000;0.411225
6945.000000;0.408130
6944.000000;0.404247
6943.000000;0.400509
6942.000000;0.397742
6941.000000;0.395937
6940.000000;0.394206
6939.000000;0.391726
6938.000000;0.388731
6937.000000;0.386251
6936.000000;0.384930
6935.000000;0.384395
6934.000000;0.383782
6933.000000;0.382540
6932.000000;0.380641
6931.000000;0.378234
6930.000000;0.375358
6929.000000;0.372056
6928.000000;0.368703
6927.000000;0.365974
6926.000000;0.364192
6925.000000;0.362780
6924.000000;0.360724
6923.000000;0.357686
6922.000000;0.354308
6921.000000;0.351365
6920.000000;0.349082
6919.000000;0.347438
6918.000000;0.346586
6917.000000;0.346485
6916.000000;0.346502
6915.000000;0.345873
6914.000000;0.344383
6913.000000;0.342258
6912.000000;0.339758
6911.000000;0.337258
6910.000000;0.335350
6909.000000;0.334357
6908.000000;0.333865
6907.000000;0.333069
6906.000000;0.331439
6905.000000;0.328906
6904.000000;0.325818
6903.000000;0.322993
6902.000000;0.321355
6901.000000;0.321008
6900.000000;0.320946
6899.000000;0.320045
6898.000000;0.318047
6897.000000;0.315279
6896.000000;0.311971
6895.000000;0.308494
6894.000000;0.305863
6893.000000;0.305063
6892.000000;0.305849
6891.000000;0.306773
6890.000000;0.306499
6889.000000;0.304775
6888.000000;0.302264
6887.000000;0.299878
6886.000000;0.298280
6885.000000;0.297589
6884.000000;0.297447
6883.000000;0.297453
6882.000000;0.297371
6881.000000;0.296875
6880.000000;0.295536
6879.000000;0.293423
6878.000000;0.291390
6877.000000;0.290314
6876.000000;0.290183
6875.000000;0.290260
6874.000000;0.289966
6873.000000;0.289318
6872.000000;0.288684
6871.000000;0.288308
6870.000000;0.287896
6869.000000;0.286631
6868.000000;0.284019
6867.000000;0.280850
6866.000000;0.278725
6865.000000;0.278341
6864.000000;0.278795
6863.000000;0.278982
6862.000000;0.278917
6861.000000;0.279116
6860.000000;0.279361
6859.000000;0.278926
6858.000000;0.277679
6857.000000;0.276179
6856.000000;0.274891
6855.000000;0.273948
6854.000000;0.273436
6853.000000;0.273252
6852.000000;0.272872
6851.000000;0.271899
6850.000000;0.270751
6849.000000;0.270283
6848.000000;0.270797
6847.000000;0.271864
6846.000000;0.272921
6845.000000;0.273510
6844.000000;0.273198
6843.000000;0.271946
6842.000000;0.270507
6841.000000;0.269920
6840.000000;0.270497
6839.000000;0.271637
6838.000000;0.272533
6837.000000;0.272722
6836.000000;0.272185
6835.000000;0.271384
6834.000000;0.271035
6833.000000;0.271396
6832.000000;0.271928
6831.000000;0.272044
6830.000000;0.271909
6829.000000;0.272010
6828.000000;0.272244
6827.000000;0.272083
6826.000000;0.271544
6825.000000;0.271285
6824.000000;0.271686
6823.000000;0.272323
6822.000000;0.272480
6821.000000;0.271897
6820.000000;0.271031
6819.000000;0.270756
6818.000000;0.271592
6817.000000;0.273017
6816.000000;0.273843
6815.000000;0.273609
6814.000000;0.273188
6813.000000;0.273583
6812.000000;0.274555
6811.000000;0.275115
6810.000000;0.275051
6809.000000;0.275142
6808.000000;0.275915
6807.000000;0.277000
6806.000000;0.277801
6805.000000;0.278171
6804.000000;0.278242
6803.000000;0.278144
6802.000000;0.278068
6801.000000;0.278196
6800.000000;0.278443
6799.000000;0.278645
6798.000000;0.278978
6797.000000;0.279775
6796.000000;0.280877
6795.000000;0.281699
6794.000000;0.282043
6793.000000;0.282390
6792.000000;0.283277
6791.000000;0.284769
6790.000000;0.286679
6789.000000;0.288807
6788.000000;0.290693
6787.000000;0.291605
6786.000000;0.291250
6785.000000;0.290331
6784.000000;0.289995
6783.000000;0.290715
6782.000000;0.291930
6781.000000;0.292764
6780.000000;0.292944
6779.000000;0.292957
6778.000000;0.293441
6777.000000;0.294555
6776.000000;0.295915
6775.000000;0.297041
6774.000000;0.297682
6773.000000;0.297778
6772.000000;0.297375
6771.000000;0.296736
6770.000000;0.296341
6769.000000;0.296537
6768.000000;0.297303
6767.000000;0.298461
6766.000000;0.299897
6765.000000;0.301365
6764.000000;0.302379
6763.000000;0.302690
6762.000000;0.302751
6761.000000;0.303305
6760.000000;0.304541
6759.000000;0.305987
6758.000000;0.307176
6757.000000;0.308060
6756.000000;0.308755
6755.000000;0.309289
6754.000000;0.309773
6753.000000;0.310508
6752.000000;0.311677
6751.000000;0.313060
6750.000000;0.314234
6749.000000;0.314955
6748.000000;0.315282
6747.000000;0.315430
6746.000000;0.315566
6745.000000;0.315687
6744.000000;0.315692
6743.000000;0.315642
6742.000000;0.315879
6741.000000;0.316696
6740.000000;0.317919
6739.000000;0.319030
6738.000000;0.319752
6737.000000;0.320328
6736.000000;0.321166
6735.000000;0.322349
6734.000000;0.323581
6733.000000;0.324480
6732.000000;0.324864
6731.000000;0.324899
6730.000000;0.325034
6729.000000;0.325675
6728.000000;0.326814
6727.000000;0.328017
6726.000000;0.328839
6725.000000;0.329216
6724.000000;0.329435
6723.000000;0.329798
6722.000000;0.330373
6721.000000;0.331010
6720.000000;0.331536
6719.000000;0.331943
6718.000000;0.332399
6717.000000;0.333074
6716.000000;0.333980
6715.000000;0.335014
6714.000000;0.336098
6713.000000;0.337217
6712.000000;0.338337
6711.000000;0.339377
6710.000000;0.340270
6709.000000;0.340974
6708.000000;0.341451
6707.000000;0.341708
6706.000000;0.341846
6705.000000;0.342015
6704.000000;0.342293
6703.000000;0.342654
6702.000000;0.343060
6701.000000;0.343536
6700.000000;0.344147
6699.000000;0.344911
6698.000000;0.345756
6697.000000;0.346536
6696.000000;0.347150
6695.000000;0.347674
6694.000000;0.348333
6693.000000;0.349286
6692.000000;0.350451
6691.000000;0.351567
6690.000000;0.352385
6689.000000;0.352796
6688.000000;0.352885
6687.000000;0.352914
6686.000000;0.353196
6685.000000;0.353869
6684.000000;0.354806
6683.000000;0.355768
6682.000000;0.356607
6681.000000;0.357289
6680.000000;0.357847
6679.000000;0.358381
6678.000000;0.359055
6677.000000;0.359951
6676.000000;0.360948
6675.000000;0.361823
6674.000000;0.362448
6673.000000;0.362842
6672.000000;0.363103
6671.000000;0.363360
6670.000000;0.363747
6669.000000;0.364291
6668.000000;0.364858
6667.000000;0.365300
6666.000000;0.365656
6665.000000;0.366119
6664.000000;0.366811
6663.000000;0.367660
6662.000000;0.368501
6661.000000;0.369218
6660.000000;0.369777
6659.000000;0.370205
6658.000000;0.370564
6657.000000;0.370938
6656.000000;0.371421
6655.000000;0.372100
6654.000000;0.372989
6653.000000;0.373962
6652.000000;0.374809
6651.000000;0.375436
6650.000000;0.375942
6649.000000;0.376471
6648.000000;0.377039
6647.000000;0.377575
6646.000000;0.378060
6645.000000;0.378538
6644.000000;0.379022
6643.000000;0.379485
6642.000000;0.379925
6641.000000;0.380375
6640.000000;0.380868
6639.000000;0.381457
6638.000000;0.382184
6637.000000;0.382996
6636.000000;0.383721
6635.000000;0.384250
6634.000000;0.384677
6633.000000;0.385158
6632.000000;0.385693
6631.000000;0.386176
6630.000000;0.386622
6629.000000;0.387171
6628.000000;0.387861
6627.000000;0.388542
6626.000000;0.389082
6625.000000;0.389519
6624.000000;0.389945
6623.000000;0.390358
6622.000000;0.390720
6621.000000;0.391103
6620.000000;0.391634
6619.000000;0.392328
6618.000000;0.393036
6617.000000;0.393600
6616.000000;0.394011
6615.000000;0.394404
6614.000000;0.394904
6613.000000;0.395488
6612.000000;0.396021
6611.000000;0.396421
6610.000000;0.396771
6609.000000;0.397235
6608.000000;0.397884
6607.000000;0.398640
6606.000000;0.399382
6605.000000;0.400044
6604.000000;0.400606
6603.000000;0.401054
6602.000000;0.401386
6601.000000;0.401630
6600.000000;0.401851
6599.000000;0.402134
6598.000000;0.402551
6597.000000;0.403106
6596.000000;0.403727
6595.000000;0.404337
6594.000000;0.404929
6593.000000;0.405531
6592.000000;0.406110
6591.000000;0.406575
6590.000000;0.406892
6589.000000;0.407153
6588.000000;0.407490
6587.000000;0.407953
6586.000000;0.408499
6585.000000;0.409077
6584.000000;0.409682
6583.000000;0.410314
6582.000000;0.410941
6581.000000;0.411510
6580.000000;0.412008
6579.000000;0.412465
6578.000000;0.412916
6577.000000;0.413369
6576.000000;0.413818
6575.000000;0.414256
6574.000000;0.414656
6573.000000;0.414980
6572.000000;0.415244
6571.000000;0.415558
6570.000000;0.416028
6569.000000;0.416622
6568.000000;0.417187
6567.000000;0.417603
6566.000000;0.417895
6565.000000;0.418162
6564.000000;0.418466
6563.000000;0.418816
6562.000000;0.419208
6561.000000;0.419644
6560.000000;0.420136
6559.000000;0.420708
6558.000000;0.421363
6557.000000;0.422025
6556.000000;0.422572
6555.000000;0.422949
6554.000000;0.423237
6553.000000;0.423556
6552.000000;0.423950
6551.000000;0.424386
6550.000000;0.424820
6549.000000;0.425226
6548.000000;0.425593
6547.000000;0.425949
6546.000000;0.426344
6545.000000;0.426787
6544.000000;0.427209
6543.000000;0.427549
6542.000000;0.427847
6541.000000;0.428202
6540.000000;0.428662
6539.000000;0.429204
6538.000000;0.429782
6537.000000;0.430360
6536.000000;0.430883
6535.000000;0.431305
6534.000000;0.431620
6533.000000;0.431870
6532.000000;0.432102
6531.000000;0.432358
6530.000000;0.432684
6529.000000;0.433101
6528.000000;0.433569
6527.000000;0.434016
6526.000000;0.434408
6525.000000;0.434761
6524.000000;0.435106
6523.000000;0.435456
6522.000000;0.435808
6521.000000;0.436146
6520.000000;0.436468
6519.000000;0.436799
6518.000000;0.437176
6517.000000;0.437579
6516.000000;0.437946
6515.000000;0.438262
6514.000000;0.438592
6513.000000;0.438987
6512.000000;0.439401
6511.000000;0.439762
6510.000000;0.440079
6509.000000;0.440428
6508.000000;0.440839
6507.000000;0.441272
6506.000000;0.441691
6505.000000;0.442098
6504.000000;0.442495
6503.000000;0.442860
6502.000000;0.443179
6501.000000;0.443460
6500.000000;0.443724
6499.000000;0.444008
6498.000000;0.444364
6497.000000;0.444806
6496.000000;0.445261
6495.000000;0.445624
6494.000000;0.445870
6493.000000;0.446078
6492.000000;0.446343
6491.000000;0.446684
6490.000000;0.447036
6489.000000;0.447323
6488.000000;0.447535
6487.000000;0.447754
6486.000000;0.448068
6485.000000;0.448472
6484.000000;0.448863
6483.000000;0.449176
6482.000000;0.449458
6481.000000;0.449787
6480.000000;0.450159
6479.000000;0.450510
6478.000000;0.450818
6477.000000;0.451110
6476.000000;0.451403
6475.000000;0.451681
6474.000000;0.451949
6473.000000;0.452219
6472.000000;0.452476
6471.000000;0.452691
6470.000000;0.452888
6469.000000;0.453136
6468.000000;0.453474
6467.000000;0.453881
6466.000000;0.454318
6465.000000;0.454753
6464.000000;0.455143
6463.000000;0.455455
6462.000000;0.455713
6461.000000;0.455986
6460.000000;0.456307
6459.000000;0.456635
6458.000000;0.456913
6457.000000;0.457124
6456.000000;0.457306
6455.000000;0.457522
6454.000000;0.457808
6453.000000;0.458142
6452.000000;0.458472
6451.000000;0.458789
6450.000000;0.459146
6449.000000;0.459556
6448.000000;0.459929
6447.000000;0.460165
6446.000000;0.460287
6445.000000;0.460416
6444.000000;0.460629
6443.000000;0.460897
6442.000000;0.461168
6441.000000;0.461422
6440.000000;0.461650
6439.000000;0.461844
6438.000000;0.462036
6437.000000;0.462287
6436.000000;0.462614
6435.000000;0.462972
6434.000000;0.463303
6433.000000;0.463580
6432.000000;0.463793
6431.000000;0.463960
6430.000000;0.464144
6429.000000;0.464402
6428.000000;0.464712
6427.000000;0.464989
6426.000000;0.465201
6425.000000;0.465400
6424.000000;0.465635
6423.000000;0.465886
6422.000000;0.466115
6421.000000;0.466319
6420.000000;0.466519
6419.000000;0.466732
6418.000000;0.466981
6417.000000;0.467275
6416.000000;0.467552
6415.000000;0.467725
6414.000000;0.467802
6413.000000;0.467910
6412.000000;0.468151
6411.000000;0.468483
6410.000000;0.468790
6409.000000;0.469023
6408.000000;0.469210
6407.000000;0.469373
6406.000000;0.469513
6405.000000;0.469646
6404.000000;0.469809
6403.000000;0.470028
6402.000000;0.470312
6401.000000;0.470668
6400.000000;0.471067
6399.000000;0.471427
6398.000000;0.471669
6397.000000;0.471790
6396.000000;0.471856
6395.000000;0.471928
6394.000000;0.472020
6393.000000;0.472128
6392.000000;0.472255
6391.000000;0.472405
6390.000000;0.472585
6389.000000;0.472803
6388.000000;0.473053
6387.000000;0.473303
6386.000000;0.473523
6385.000000;0.473714
6384.000000;0.473899
6383.000000;0.474097
6382.000000;0.474310
6381.000000;0.474529
6380.000000;0.474733
6379.000000;0.474905
6378.000000;0.475041
6377.000000;0.475164
6376.000000;0.475300
6375.000000;0.475466
6374.000000;0.475668
6373.000000;0.475890
6372.000000;0.476091
6371.000000;0.476236
6370.000000;0.476351
6369.000000;0.476497
6368.000000;0.476699
6367.000000;0.476923
6366.000000;0.477141
6365.000000;0.477369
6364.000000;0.477609
6363.000000;0.477804
6362.000000;0.477903
6361.000000;0.477940
6360.000000;0.477998
6359.000000;0.478123
6358.000000;0.478300
6357.000000;0.478495
6356.000000;0.478671
6355.000000;0.478781
6354.000000;0.478809
6353.000000;0.478816
6352.000000;0.478900
6351.000000;0.479102
6350.000000;0.479367
6349.000000;0.479607
6348.000000;0.479790
6347.000000;0.479943
6346.000000;0.480111
6345.000000;0.480313
6344.000000;0.480521
6343.000000;0.480685
6342.000000;0.480768
6341.000000;0.480783
6340.000000;0.480768
6339.000000;0.480767
6338.000000;0.480812
6337.000000;0.480919
6336.000000;0.481068
6335.000000;0.481218
6334.000000;0.481343
6333.000000;0.481460
6332.000000;0.481582
6331.000000;0.481691
6330.000000;0.481769
6329.000000;0.481839
6328.000000;0.481942
6327.000000;0.482085
6326.000000;0.482245
6325.000000;0.482405
6324.000000;0.482564
6323.000000;0.482714
6322.000000;0.482850
6321.000000;0.482986
6320.000000;0.483128
6319.000000;0.483252
6318.000000;0.483337
6317.000000;0.483410
6316.000000;0.483514
6315.000000;0.483636
6314.000000;0.483725
6313.000000;0.483780
6312.000000;0.483860
6311.000000;0.483993
6310.000000;0.484126
6309.000000;0.484185
6308.000000;0.484163
6307.000000;0.484113
6306.000000;0.484092
6305.000000;0.484144
6304.000000;0.484292
6303.000000;0.484511
6302.000000;0.484719
6301.000000;0.484837
6300.000000;0.484852
6299.000000;0.484815
6298.000000;0.484785
6297.000000;0.484788
6296.000000;0.484824
6295.000000;0.484884
6294.000000;0.484964
6293.000000;0.485075
6292.000000;0.485217
6291.000000;0.485358
6290.000000;0.485456
6289.000000;0.485520
6288.000000;0.485612
6287.000000;0.485772
6286.000000;0.485959
6285.000000;0.486103
6284.000000;0.486192
6283.000000;0.486272
6282.000000;0.486371
6281.000000;0.486472
6280.000000;0.486552
6279.000000;0.486608
6278.000000;0.486651
6277.000000;0.486696
6276.000000;0.486766
6275.000000;0.486873
6274.000000;0.486982
6273.000000;0.487040
6272.000000;0.487035
6271.000000;0.487023
6270.000000;0.487052
6269.000000;0.487115
6268.000000;0.487173
6267.000000;0.487222
6266.000000;0.487289
6265.000000;0.487388
6264.000000;0.487498
6263.000000;0.487590
6262.000000;0.487658
6261.000000;0.487715
6260.000000;0.487770
6259.000000;0.487811
6258.000000;0.487815
6257.000000;0.487769
6256.000000;0.487703
6255.000000;0.487674
6254.000000;0.487710
6253.000000;0.487795
6252.000000;0.487895
6251.000000;0.488002
6250.000000;0.488110
6249.000000;0.488180
6248.000000;0.488159
6247.000000;0.488048
6246.000000;0.487925
6245.000000;0.487891
6244.000000;0.487990
6243.000000;0.488178
6242.000000;0.488366
6241.000000;0.488482
6240.000000;0.488521
6239.000000;0.488530
6238.000000;0.488559
6237.000000;0.488620
6236.000000;0.488686
6235.000000;0.488730
6234.000000;0.488749
6233.000000;0.488765
6232.000000;0.488799
6231.000000;0.488848
6230.000000;0.488887
6229.000000;0.488891
6228.000000;0.488879
6227.000000;0.488896
6226.000000;0.488960
6225.000000;0.489012
6224.000000;0.488975
6223.000000;0.488843
6222.000000;0.488693
6221.000000;0.488614
6220.000000;0.488630
6219.000000;0.488711
6218.000000;0.488810
6217.000000;0.488891
6216.000000;0.488939
6215.000000;0.488963
6214.000000;0.488991
6213.000000;0.489041
6212.000000;0.489102
6211.000000;0.489161
6210.000000;0.489228
6209.000000;0.489313
6208.000000;0.489408
6207.000000;0.489485
6206.000000;0.489534
6205.000000;0.489568
6204.000000;0.489596
6203.000000;0.489615
6202.000000;0.489617
6201.000000;0.489608
6200.000000;0.489605
6199.000000;0.489619
6198.000000;0.489647
6197.000000;0.489671
6196.000000;0.489673
6195.000000;0.489651
6194.000000;0.489628
6193.000000;0.489626
6192.000000;0.489646
6191.000000;0.489670
6190.000000;0.489679
6189.000000;0.489668
6188.000000;0.489647
6187.000000;0.489640
6186.000000;0.489675
6185.000000;0.489752
6184.000000;0.489819
6183.000000;0.489814
6182.000000;0.489722
6181.000000;0.489594
6180.000000;0.489497
6179.000000;0.489452
6178.000000;0.489432
6177.000000;0.489407
6176.000000;0.489392
6175.000000;0.489430
6174.000000;0.489545
6173.000000;0.489706
6172.000000;0.489849
6171.000000;0.489922
6170.000000;0.489920
6169.000000;0.489873
6168.000000;0.489816
6167.000000;0.489770
6166.000000;0.489743
6165.000000;0.489738
6164.000000;0.489749
6163.000000;0.489763
6162.000000;0.489765
6161.000000;0.489747
6160.000000;0.489724
6159.000000;0.489717
6158.000000;0.489728
6157.000000;0.489731
6156.000000;0.489710
6155.000000;0.489682
6154.000000;0.489685
6153.000000;0.489726
6152.000000;0.489769
6151.000000;0.489782
6150.000000;0.489768
6149.000000;0.489753
6148.000000;0.489754
6147.000000;0.489767
6146.000000;0.489774
6145.000000;0.489761
6144.000000;0.489723
6143.000000;0.489682
6142.000000;0.489674
6141.000000;0.489718
6140.000000;0.489788
6139.000000;0.489842
6138.000000;0.489855
6137.000000;0.489833
6136.000000;0.489798
6135.000000;0.489772
6134.000000;0.489778
6133.000000;0.489817
6132.000000;0.489855
6131.000000;0.489842
6130.000000;0.489767
6129.000000;0.489672
6128.000000;0.489616
6127.000000;0.489629
6126.000000;0.489699
6125.000000;0.489787
6124.000000;0.489850
6123.000000;0.489863
6122.000000;0.489829
6121.000000;0.489776
6120.000000;0.489735
6119.000000;0.489719
6118.000000;0.489722
6117.000000;0.489733
6116.000000;0.489748
6115.000000;0.489761
6114.000000;0.489765
6113.000000;0.489750
6112.000000;0.489723
6111.000000;0.489707
6110.000000;0.489717
6109.000000;0.489739
6108.000000;0.489743
6107.000000;0.489716
6106.000000;0.489672
6105.000000;0.489632
6104.000000;0.489599
6103.000000;0.489565
6102.000000;0.489535
6101.000000;0.489525
6100.000000;0.489540
6099.000000;0.489570
6098.000000;0.489601
6097.000000;0.489622
6096.000000;0.489626
6095.000000;0.489606
6094.000000;0.489567
6093.000000;0.489527
6092.000000;0.489505
6091.000000;0.489508
6090.000000;0.489531
6089.000000;0.489555
6088.000000;0.489573
6087.000000;0.489595
6086.000000;0.489631
6085.000000;0.489664
6084.000000;0.489665
6083.000000;0.489630
6082.000000;0.489605
6081.000000;0.489646
6080.000000;0.489748
6079.000000;0.489848
6078.000000;0.489874
6077.000000;0.489815
6076.000000;0.489716
6075.000000;0.489628
6074.000000;0.489563
6073.000000;0.489506
6072.000000;0.489459
6071.000000;0.489440
6070.000000;0.489460
6069.000000;0.489495
6068.000000;0.489504
6067.000000;0.489468
6066.000000;0.489397
6065.000000;0.489312
6064.000000;0.489236
6063.000000;0.489202
6062.000000;0.489230
6061.000000;0.489298
6060.000000;0.489354
6059.000000;0.489373
6058.000000;0.489369
6057.000000;0.489366
6056.000000;0.489365
6055.000000;0.489365
6054.000000;0.489367
6053.000000;0.489363
6052.000000;0.489340
6051.000000;0.489308
6050.000000;0.489310
6049.000000;0.489371
6048.000000;0.489461
6047.000000;0.489527
6046.000000;0.489551
6045.000000;0.489552
6044.000000;0.489543
6043.000000;0.489521
6042.000000;0.489498
6041.000000;0.489492
6040.000000;0.489506
6039.000000;0.489530
6038.000000;0.489559
6037.000000;0.489596
6036.000000;0.489627
6035.000000;0.489627
6034.000000;0.489595
6033.000000;0.489557
6032.000000;0.489539
6031.000000;0.489543
6030.000000;0.489555
6029.000000;0.489569
6028.000000;0.489585
6027.000000;0.489612
6026.000000;0.489650
6025.000000;0.489681
6024.000000;0.489675
6023.000000;0.489618
6022.000000;0.489546
6021.000000;0.489509
6020.000000;0.489524
6019.000000;0.489571
6018.000000;0.489635
6017.000000;0.489713
6016.000000;0.489791
6015.000000;0.489837
6014.000000;0.489836
6013.000000;0.489815
6012.000000;0.489812
6011.000000;0.489838
6010.000000;0.489872
6009.000000;0.489899
6008.000000;0.489918
6007.000000;0.489937
6006.000000;0.489962
6005.000000;0.489973
6004.000000;0.489937
6003.000000;0.489840
6002.000000;0.489721
6001.000000;0.489652
6000.000000;0.489670
5999.000000;0.489744
5998.000000;0.489812
5997.000000;0.489841
5996.000000;0.489844
5995.000000;0.489846
5994.000000;0.489856
5993.000000;0.489871
5992.000000;0.489882
5991.000000;0.489885
5990.000000;0.489879
5989.000000;0.489859
5988.000000;0.489821
5987.000000;0.489775
5986.000000;0.489736
5985.000000;0.489727
5984.000000;0.489756
5983.000000;0.489819
5982.000000;0.489894
5981.000000;0.489954
5980.000000;0.489987
5979.000000;0.490004
5978.000000;0.490033
5977.000000;0.490079
5976.000000;0.490123
5975.000000;0.490149
5974.000000;0.490175
5973.000000;0.490227
5972.000000;0.490301
5971.000000;0.490364
5970.000000;0.490391
5969.000000;0.490380
5968.000000;0.490339
5967.000000;0.490279
5966.000000;0.490221
5965.000000;0.490184
5964.000000;0.490175
5963.000000;0.490187
5962.000000;0.490213
5961.000000;0.490246
5960.000000;0.490261
5959.000000;0.490240
5958.000000;0.490203
5957.000000;0.490196
5956.000000;0.490235
5955.000000;0.490287
5954.000000;0.490312
5953.000000;0.490307
5952.000000;0.490293
5951.000000;0.490284
5950.000000;0.490282
5949.000000;0.490293
5948.000000;0.490326
5947.000000;0.490372
5946.000000;0.490415
5945.000000;0.490447
5944.000000;0.490477
5943.000000;0.490517
5942.000000;0.490569
5941.000000;0.490618
5940.000000;0.490651
5939.000000;0.490672
5938.000000;0.490707
5937.000000;0.490777
5936.000000;0.490867
5935.000000;0.490930
5934.000000;0.490940
5933.000000;0.490917
5932.000000;0.490912
5931.000000;0.490955
5930.000000;0.491030
5929.000000;0.491094
5928.000000;0.491119
5927.000000;0.491115
5926.000000;0.491121
5925.000000;0.491158
5924.000000;0.491212
5923.000000;0.491248
5922.000000;0.491259
5921.000000;0.491255
5920.000000;0.491238
5919.000000;0.491199
5918.000000;0.491149
5917.000000;0.491126
5916.000000;0.491146
5915.000000;0.491178
5914.000000;0.491178
5913.000000;0.491144
5912.000000;0.491111
5911.000000;0.491104
5910.000000;0.491113
5909.000000;0.491117
5908.000000;0.491111
5907.000000;0.491106
5906.000000;0.491112
5905.000000;0.491143
5904.000000;0.491212
5903.000000;0.491320
5902.000000;0.491436
5901.000000;0.491514
5900.000000;0.491528
5899.000000;0.491499
5898.000000;0.491482
5897.000000;0.491520
5896.000000;0.491606
5895.000000;0.491689
5894.000000;0.491717
5893.000000;0.491671
5892.000000;0.491581
5891.000000;0.491504
5890.000000;0.491485
5889.000000;0.491533
5888.000000;0.491622
5887.000000;0.491715
5886.000000;0.491779
5885.000000;0.491798
5884.000000;0.491775
5883.000000;0.491731
5882.000000;0.491693
5881.000000;0.491684
5880.000000;0.491715
5879.000000;0.491790
5878.000000;0.491895
5877.000000;0.491990
5876.000000;0.492026
5875.000000;0.491999
5874.000000;0.491958
5873.000000;0.491954
5872.000000;0.491991
5871.000000;0.492037
5870.000000;0.492067
5869.000000;0.492077
5868.000000;0.492063
5867.000000;0.492032
5866.000000;0.492004
5865.000000;0.492002
5864.000000;0.492017
5863.000000;0.492022
5862.000000;0.492016
5861.000000;0.492030
5860.000000;0.492082
5859.000000;0.492152
5858.000000;0.492209
5857.000000;0.492243
5856.000000;0.492266
5855.000000;0.492279
5854.000000;0.492281
5853.000000;0.492275
5852.000000;0.492280
5851.000000;0.492310
5850.000000;0.492363
5849.000000;0.492427
5848.000000;0.492486
5847.000000;0.492534
5846.000000;0.492578
5845.000000;0.492619
5844.000000;0.492650
5843.000000;0.492664
5842.000000;0.492671
5841.000000;0.492678
5840.000000;0.492668
5839.000000;0.492621
5838.000000;0.492557
5837.000000;0.492516
5836.000000;0.492509
5835.000000;0.492509
5834.000000;0.492492
5833.000000;0.492468
5832.000000;0.492462
5831.000000;0.492478
5830.000000;0.492514
5829.000000;0.492569
5828.000000;0.492645
5827.000000;0.492724
5826.000000;0.492787
5825.000000;0.492831
5824.000000;0.492872
5823.000000;0.492929
5822.000000;0.493022
5821.000000;0.493149
5820.000000;0.493273
5819.000000;0.493334
5818.000000;0.493307
5817.000000;0.493234
5816.000000;0.493185
5815.000000;0.493192
5814.000000;0.493232
5813.000000;0.493272
5812.000000;0.493300
5811.000000;0.493327
5810.000000;0.493362
5809.000000;0.493411
5808.000000;0.493472
5807.000000;0.493525
5806.000000;0.493555
5805.000000;0.493560
5804.000000;0.493549
5803.000000;0.493523
5802.000000;0.493477
5801.000000;0.493423
5800.000000;0.493390
5799.000000;0.493400
5798.000000;0.493445
5797.000000;0.493501
5796.000000;0.493556
5795.000000;0.493606
5794.000000;0.493636
5793.000000;0.493623
5792.000000;0.493564
5791.000000;0.493495
5790.000000;0.493469
5789.000000;0.493514
5788.000000;0.493614
5787.000000;0.493728
5786.000000;0.493822
5785.000000;0.493883
5784.000000;0.493920
5783.000000;0.493946
5782.000000;0.493961
5781.000000;0.493956
5780.000000;0.493925
5779.000000;0.493886
5778.000000;0.493860
5777.000000;0.493855
5776.000000;0.493869
5775.000000;0.493912
5774.000000;0.493995
5773.000000;0.494094
5772.000000;0.494144
5771.000000;0.494102
5770.000000;0.494001
5769.000000;0.493932
5768.000000;0.493951
5767.000000;0.494030
5766.000000;0.494093
5765.000000;0.494094
5764.000000;0.494046
5763.000000;0.493985
5762.000000;0.493931
5761.000000;0.493889
5760.000000;0.493860
5759.000000;0.493852
5758.000000;0.493871
5757.000000;0.493926
5756.000000;0.494020
5755.000000;0.494146
5754.000000;0.494263
5753.000000;0.494318
5752.000000;0.494285
5751.000000;0.494203
5750.000000;0.494139
5749.000000;0.494123
5748.000000;0.494138
5747.000000;0.494152
5746.000000;0.494156
5745.000000;0.494153
5744.000000;0.494134
5743.000000;0.494090
5742.000000;0.494026
5741.000000;0.493956
5740.000000;0.493885
5739.000000;0.493821
5738.000000;0.493788
5737.000000;0.493810
5736.000000;0.493881
5735.000000;0.493966
5734.000000;0.494040
5733.000000;0.494100
5732.000000;0.494152
5731.000000;0.494193
5730.000000;0.494211
5729.000000;0.494198
5728.000000;0.494162
5727.000000;0.494130
5726.000000;0.494126
5725.000000;0.494139
5724.000000;0.494131
5723.000000;0.494083
5722.000000;0.494030
5721.000000;0.494023
5720.000000;0.494069
5719.000000;0.494122
5718.000000;0.494133
5717.000000;0.494092
5716.000000;0.494023
5715.000000;0.493952
5714.000000;0.493898
5713.000000;0.493859
5712.000000;0.493808
5711.000000;0.493727
5710.000000;0.493630
5709.000000;0.493563
5708.000000;0.493553
5707.000000;0.493583
5706.000000;0.493611
5705.000000;0.493617
5704.000000;0.493613
5703.000000;0.493630
5702.000000;0.493681
5701.000000;0.493750
5700.000000;0.493805
5699.000000;0.493828
5698.000000;0.493826
5697.000000;0.493811
5696.000000;0.493784
5695.000000;0.493751
5694.000000;0.493740
5693.000000;0.493773
5692.000000;0.493826
5691.000000;0.493855
5690.000000;0.493854
5689.000000;0.493867
5688.000000;0.493929
5687.000000;0.494013
5686.000000;0.494061
5685.000000;0.494046
5684.000000;0.493991
5683.000000;0.493937
5682.000000;0.493910
5681.000000;0.493902
5680.000000;0.493890
5679.000000;0.493861
5678.000000;0.493833
5677.000000;0.493826
5676.000000;0.493837
5675.000000;0.493839
5674.000000;0.493823
5673.000000;0.493816
5672.000000;0.493862
5671.000000;0.493974
5670.000000;0.494120
5669.000000;0.494251
5668.000000;0.494337
5667.000000;0.494391
5666.000000;0.494446
5665.000000;0.494510
5664.000000;0.494544
5663.000000;0.494507
5662.000000;0.494414
5661.000000;0.494333
5660.000000;0.494327
5659.000000;0.494403
5658.000000;0.494527
5657.000000;0.494661
5656.000000;0.494775
5655.000000;0.494850
5654.000000;0.494889
5653.000000;0.494897
5652.000000;0.494879
5651.000000;0.494841
5650.000000;0.494816
5649.000000;0.494852
5648.000000;0.494970
5647.000000;0.495133
5646.000000;0.495291
5645.000000;0.495415
5644.000000;0.495508
5643.000000;0.495582
5642.000000;0.495650
5641.000000;0.495726
5640.000000;0.495823
5639.000000;0.495938
5638.000000;0.496065
5637.000000;0.496197
5636.000000;0.496319
5635.000000;0.496410
5634.000000;0.496456
5633.000000;0.496478
5632.000000;0.496528
5631.000000;0.496646
5630.000000;0.496829
5629.000000;0.497032
5628.000000;0.497204
5627.000000;0.497320
5626.000000;0.497386
5625.000000;0.497418
5624.000000;0.497435
5623.000000;0.497465
5622.000000;0.497549
5621.000000;0.497707
5620.000000;0.497909
5619.000000;0.498096
5618.000000;0.498239
5617.000000;0.498358
5616.000000;0.498483
5615.000000;0.498623
5614.000000;0.498762
5613.000000;0.498884
5612.000000;0.498983
5611.000000;0.499071
5610.000000;0.499177
5609.000000;0.499330
5608.000000;0.499519
5607.000000;0.499693
5606.000000;0.499805
5605.000000;0.499867
5604.000000;0.499944
5603.000000;0.500095
5602.000000;0.500320
5601.000000;0.500566
5600.000000;0.500765
5599.000000;0.500890
5598.000000;0.500963
5597.000000;0.501025
5596.000000;0.501102
5595.000000;0.501193
5594.000000;0.501294
5593.000000;0.501421
5592.000000;0.501590
5591.000000;0.501802
5590.000000;0.502031
5589.000000;0.502248
5588.000000;0.502438
5587.000000;0.502607
5586.000000;0.502767
5585.000000;0.502932
5584.000000;0.503102
5583.000000;0.503258
5582.000000;0.503375
5581.000000;0.503454
5580.000000;0.503546
5579.000000;0.503715
5578.000000;0.503965
5577.000000;0.504218
5576.000000;0.504388
5575.000000;0.504472
5574.000000;0.504547
5573.000000;0.504661
5572.000000;0.504786
5571.000000;0.504874
5570.000000;0.504938
5569.000000;0.505034
5568.000000;0.505193
5567.000000;0.505398
5566.000000;0.505615
5565.000000;0.505822
5564.000000;0.506001
5563.000000;0.506141
5562.000000;0.506253
5561.000000;0.506366
5560.000000;0.506499
5559.000000;0.506651
5558.000000;0.506820
5557.000000;0.506995
5556.000000;0.507155
5555.000000;0.507279
5554.000000;0.507371
5553.000000;0.507441
5552.000000;0.507487
5551.000000;0.507504
5550.000000;0.507523
5549.000000;0.507598
5548.000000;0.507745
5547.000000;0.507926
5546.000000;0.508093
5545.000000;0.508233
5544.000000;0.508354
5543.000000;0.508466
5542.000000;0.508570
5541.000000;0.508671
5540.000000;0.508774
5539.000000;0.508885
5538.000000;0.509006
5537.000000;0.509126
5536.000000;0.509229
5535.000000;0.509317
5534.000000;0.509414
5533.000000;0.509540
5532.000000;0.509674
5531.000000;0.509775
5530.000000;0.509841
5529.000000;0.509917
5528.000000;0.510038
5527.000000;0.510186
5526.000000;0.510318
5525.000000;0.510410
5524.000000;0.510474
5523.000000;0.510526
5522.000000;0.510576
5521.000000;0.510633
5520.000000;0.510705
5519.000000;0.510794
5518.000000;0.510894
5517.000000;0.511006
5516.000000;0.511137
5515.000000;0.511288
5514.000000;0.511450
5513.000000;0.511603
5512.000000;0.511738
5511.000000;0.511873
5510.000000;0.512033
5509.000000;0.512204
5508.000000;0.512336
5507.000000;0.512406
5506.000000;0.512445
5505.000000;0.512501
5504.000000;0.512576
5503.000000;0.512658
5502.000000;0.512774
5501.000000;0.512967
5500.000000;0.513215
5499.000000;0.513432
5498.000000;0.513562
5497.000000;0.513646
5496.000000;0.513763
5495.000000;0.513929
5494.000000;0.514078
5493.000000;0.514154
5492.000000;0.514173
5491.000000;0.514192
5490.000000;0.514228
5489.000000;0.514245
5488.000000;0.514221
5487.000000;0.514206
5486.000000;0.514286
5485.000000;0.514484
5484.000000;0.514733
5483.000000;0.514946
5482.000000;0.515098
5481.000000;0.515219
5480.000000;0.515335
5479.000000;0.515461
5478.000000;0.515623
5477.000000;0.515838
5476.000000;0.516081
5475.000000;0.516298
5474.000000;0.516454
5473.000000;0.516541
5472.000000;0.516555
5471.000000;0.516509
5470.000000;0.516461
5469.000000;0.516482
5468.000000;0.516586
5467.000000;0.516728
5466.000000;0.516867
5465.000000;0.517011
5464.000000;0.517183
5463.000000;0.517393
5462.000000;0.517644
5461.000000;0.517925
5460.000000;0.518187
5459.000000;0.518379
5458.000000;0.518499
5457.000000;0.518591
5456.000000;0.518695
5455.000000;0.518822
5454.000000;0.518964
5453.000000;0.519094
5452.000000;0.519183
5451.000000;0.519237
5450.000000;0.519302
5449.000000;0.519427
5448.000000;0.519610
5447.000000;0.519804
5446.000000;0.519965
5445.000000;0.520100
5444.000000;0.520270
5443.000000;0.520521
5442.000000;0.520823
5441.000000;0.521100
5440.000000;0.521311
5439.000000;0.521489
5438.000000;0.521665
5437.000000;0.521814
5436.000000;0.521897
5435.000000;0.521968
5434.000000;0.522148
5433.000000;0.522470
5432.000000;0.522837
5431.000000;0.523136
5430.000000;0.523335
5429.000000;0.523488
5428.000000;0.523662
5427.000000;0.523879
5426.000000;0.524122
5425.000000;0.524371
5424.000000;0.524617
5423.000000;0.524855
5422.000000;0.525086
5421.000000;0.525302
5420.000000;0.525486
5419.000000;0.525627
5418.000000;0.525753
5417.000000;0.525915
5416.000000;0.526135
5415.000000;0.526394
5414.000000;0.526694
5413.000000;0.527073
5412.000000;0.527521
5411.000000;0.527955
5410.000000;0.528302
5409.000000;0.528588
5408.000000;0.528897
5407.000000;0.529262
5406.000000;0.529651
5405.000000;0.530034
5404.000000;0.530424
5403.000000;0.530844
5402.000000;0.531256
5401.000000;0.531591
5400.000000;0.531848
5399.000000;0.532112
5398.000000;0.532489
5397.000000;0.533025
5396.000000;0.533665
5395.000000;0.534284
5394.000000;0.534787
5393.000000;0.535201
5392.000000;0.535638
5391.000000;0.536165
5390.000000;0.536747
5389.000000;0.537317
5388.000000;0.537857
5387.000000;0.538383
5386.000000;0.538908
5385.000000;0.539422
5384.000000;0.539932
5383.000000;0.540481
5382.000000;0.541088
5381.000000;0.541714
5380.000000;0.542318
5379.000000;0.542912
5378.000000;0.543546
5377.000000;0.544259
5376.000000;0.545053
5375.000000;0.545896
5374.000000;0.546758
5373.000000;0.547646
5372.000000;0.548576
5371.000000;0.549534
5370.000000;0.550471
5369.000000;0.551341
5368.000000;0.552149
5367.000000;0.552959
5366.000000;0.553848
5365.000000;0.554816
5364.000000;0.555767
5363.000000;0.556619
5362.000000;0.557407
5361.000000;0.558261
5360.000000;0.559271
5359.000000;0.560409
5358.000000;0.561608
5357.000000;0.562873
5356.000000;0.564263
5355.000000;0.565773
5354.000000;0.567291
5353.000000;0.568684
5352.000000;0.569941
5351.000000;0.571201
5350.000000;0.572619
5349.000000;0.574197
5348.000000;0.575777
5347.000000;0.577189
5346.000000;0.578417
5345.000000;0.579645
5344.000000;0.581119
5343.000000;0.582911
5342.000000;0.584828
5341.000000;0.586570
5340.000000;0.587958
5339.000000;0.589097
5338.000000;0.590357
5337.000000;0.592052
5336.000000;0.594088
5335.000000;0.596039
5334.000000;0.597572
5333.000000;0.598711
5332.000000;0.599739
5331.000000;0.600916
5330.000000;0.602244
5329.000000;0.603535
5328.000000;0.604679
5327.000000;0.605784
5326.000000;0.606977
5325.000000;0.608085
5324.000000;0.608717
5323.000000;0.608718
5322.000000;0.608392
5321.000000;0.608101
5320.000000;0.607727
5319.000000;0.606745
5318.000000;0.604749
5317.000000;0.601699
5316.000000;0.597770
5315.000000;0.593221
5314.000000;0.588295
5313.000000;0.582930
5312.000000;0.576617
5311.000000;0.568828
5310.000000;0.559534
5309.000000;0.549012
5308.000000;0.537287
5307.000000;0.524122
5306.000000;0.509503
5305.000000;0.493748
5304.000000;0.476967
5303.000000;0.458576
5302.000000;0.437936
5301.000000;0.416012
5300.000000;0.396181
5299.000000;0.382735
5298.000000;0.378978
5297.000000;0.386715
5296.000000;0.405137
5295.000000;0.431133
5294.000000;0.463487
5293.000000;0.503059
5292.000000;0.547378
5291.000000;0.590906
5290.000000;0.630730
5289.000000;0.666388
5288.000000;0.696484
5287.000000;0.721329
5286.000000;0.745138
5285.000000;0.769731
5284.000000;0.790234
5283.000000;0.802869
5282.000000;0.812405
5281.000000;0.825524
5280.000000;0.842217
5279.000000;0.859225
5278.000000;0.876296
5277.000000;0.892212
5276.000000;0.900622
5275.000000;0.898840
5274.000000;0.895081
5273.000000;0.898422
5272.000000;0.908129
5271.000000;0.918226
5270.000000;0.926484
5269.000000;0.932679
5268.000000;0.934287
5267.000000;0.931923
5266.000000;0.932470
5265.000000;0.939407
5264.000000;0.946687
5263.000000;0.948266
5262.000000;0.947259
5261.000000;0.948329
5260.000000;0.948843
5259.000000;0.945847
5258.000000;0.944712
5257.000000;0.950774
5256.000000;0.958140
5255.000000;0.956731
5254.000000;0.947485
5253.000000;0.940345
5252.000000;0.940802
5251.000000;0.946984
5250.000000;0.955662
5249.000000;0.963591
5248.000000;0.965715
5247.000000;0.959948
5246.000000;0.951571
5245.000000;0.946270
5244.000000;0.943097
5243.000000;0.939639
5242.000000;0.938707
5241.000000;0.943710
5240.000000;0.951229
5239.000000;0.954636
5238.000000;0.953736
5237.000000;0.953546
5236.000000;0.955051
5235.000000;0.954794
5234.000000;0.952073
5233.000000;0.949739
5232.000000;0.949288
5231.000000;0.951055
5230.000000;0.957220
5229.000000;0.968820
5228.000000;0.981012
5227.000000;0.986905
5226.000000;0.985316
5225.000000;0.979899
5224.000000;0.973754
5223.000000;0.968838
5222.000000;0.967615
5221.000000;0.970831
5220.000000;0.973809
5219.000000;0.970359
5218.000000;0.960337
5217.000000;0.948349
5216.000000;0.938050
5215.000000;0.931932
5214.000000;0.933073
5213.000000;0.942562
5212.000000;0.956543
5211.000000;0.968930
5210.000000;0.976245
5209.000000;0.977498
5208.000000;0.972599
5207.000000;0.964916
5206.000000;0.960482
5205.000000;0.961404
5204.000000;0.964159
5203.000000;0.965262
5202.000000;0.965456
5201.000000;0.967051
5200.000000;0.969723
5199.000000;0.971022
5198.000000;0.968756
5197.000000;0.961055
5196.000000;0.947922
5195.000000;0.934833
5194.000000;0.930148
5193.000000;0.936261
5192.000000;0.946327
5191.000000;0.952462
5190.000000;0.954079
5189.000000;0.954019
5188.000000;0.952110
5187.000000;0.948385
5186.000000;0.947464
5185.000000;0.953427
5184.000000;0.963046
5183.000000;0.968886
5182.000000;0.968245
5181.000000;0.964206
5180.000000;0.959431
5179.000000;0.955037
5178.000000;0.953553
5177.000000;0.956934
5176.000000;0.962169
5175.000000;0.963031
5174.000000;0.957065
5173.000000;0.947896
5172.000000;0.940532
5171.000000;0.938172
5170.000000;0.941856
5169.000000;0.949194
5168.000000;0.955198
5167.000000;0.957413
5166.000000;0.958517
5165.000000;0.961477
5164.000000;0.964981
5163.000000;0.966420
5162.000000;0.966147
5161.000000;0.965422
5160.000000;0.963384
5159.000000;0.959406
5158.000000;0.955870
5157.000000;0.955547
5156.000000;0.957986
5155.000000;0.960899
5154.000000;0.963006
5153.000000;0.963027
5152.000000;0.959307
5151.000000;0.953466
5150.000000;0.950271
5149.000000;0.950916
5148.000000;0.950559
5147.000000;0.945925
5146.000000;0.940881
5145.000000;0.940499
5144.000000;0.943692
5143.000000;0.945257
5142.000000;0.943901
5141.000000;0.943378
5140.000000;0.945753
5139.000000;0.948996
5138.000000;0.950852
5137.000000;0.951576
5136.000000;0.952865
5135.000000;0.955558
5134.000000;0.958080
5133.000000;0.957280
5132.000000;0.952859
5131.000000;0.950137
5130.000000;0.954839
5129.000000;0.965019
5128.000000;0.971499
5127.000000;0.968247
5126.000000;0.958907
5125.000000;0.950765
5124.000000;0.947164
5123.000000;0.947880
5122.000000;0.952063
5121.000000;0.957369
5120.000000;0.960216
5119.000000;0.960957
5118.000000;0.964529
5117.000000;0.972836
5116.000000;0.980598
5115.000000;0.982031
5114.000000;0.978603
5113.000000;0.974969
5112.000000;0.971248
5111.000000;0.965127
5110.000000;0.958065
5109.000000;0.953763
5108.000000;0.952295
5107.000000;0.950306
5106.000000;0.946185
5105.000000;0.941573
5104.000000;0.938508
5103.000000;0.937863
5102.000000;0.939037
5101.000000;0.939565
5100.000000;0.937443
5099.000000;0.934610
5098.000000;0.935147
5097.000000;0.939417
5096.000000;0.943087
5095.000000;0.943688
5094.000000;0.944610
5093.000000;0.948987
5092.000000;0.953417
5091.000000;0.952551
5090.000000;0.947747
5089.000000;0.945503
5088.000000;0.948686
5087.000000;0.953788
5086.000000;0.955687
5085.000000;0.952529
5084.000000;0.945874
5083.000000;0.938722
5082.000000;0.934340
5081.000000;0.934424
5080.000000;0.937727
5079.000000;0.941222
5078.000000;0.942288
5077.000000;0.939926
5076.000000;0.935497
5075.000000;0.933182
5074.000000;0.936680
5073.000000;0.943263
5072.000000;0.944625
5071.000000;0.937119
5070.000000;0.927068
5069.000000;0.922061
5068.000000;0.922176
5067.000000;0.922838
5066.000000;0.922231
5065.000000;0.921721
5064.000000;0.921464
5063.000000;0.920352
5062.000000;0.919296
5061.000000;0.920510
5060.000000;0.923840
5059.000000;0.927153
5058.000000;0.929608
5057.000000;0.931180
5056.000000;0.930277
5055.000000;0.925998
5054.000000;0.921946
5053.000000;0.923265
5052.000000;0.929755
5051.000000;0.935249
5050.000000;0.934777
5049.000000;0.930033
5048.000000;0.925644
5047.000000;0.923119
5046.000000;0.921079
5045.000000;0.918904
5044.000000;0.917539
5043.000000;0.917225
5042.000000;0.916234
5041.000000;0.913094
5040.000000;0.909450
5039.000000;0.908516
5038.000000;0.910490
5037.000000;0.911437
5036.000000;0.908098
5035.000000;0.902742
5034.000000;0.900294
5033.000000;0.901580
5032.000000;0.902596
5031.000000;0.900362
5030.000000;0.896627
5029.000000;0.894880
5028.000000;0.896222
5027.000000;0.899093
5026.000000;0.900341
5025.000000;0.895547
5024.000000;0.881885
5023.000000;0.862022
5022.000000;0.842633
5021.000000;0.829014
5020.000000;0.822435
5019.000000;0.821712
5018.000000;0.824858
5017.000000;0.828707
5016.000000;0.829887
5015.000000;0.827843
5014.000000;0.824960
5013.000000;0.822819
5012.000000;0.820036
5011.000000;0.814658
5010.000000;0.807354
5009.000000;0.801175
5008.000000;0.798871
5007.000000;0.800612
5006.000000;0.803230
5005.000000;0.801976
5004.000000;0.794820
5003.000000;0.784738
5002.000000;0.775859
5001.000000;0.768782
5000.000000;0.762391
4999.000000;0.758570
4998.000000;0.760926
4997.000000;0.768676
4996.000000;0.775147
4995.000000;0.774323
4994.000000;0.767018
4993.000000;0.758474
4992.000000;0.752299
4991.000000;0.748117
4990.000000;0.742829
4989.000000;0.733663
4988.000000;0.721763
4987.000000;0.712656
4986.000000;0.711536
4985.000000;0.717749
4984.000000;0.724728
4983.000000;0.725981
4982.000000;0.719956
4981.000000;0.708673
4980.000000;0.695013
4979.000000;0.682367
4978.000000;0.673529
4977.000000;0.668106
4976.000000;0.662870
4975.000000;0.656030
4974.000000;0.649341
4973.000000;0.644993
4972.000000;0.643004
4971.000000;0.642580
4970.000000;0.642986
4969.000000;0.642005
4968.000000;0.636527
4967.000000;0.626219
4966.000000;0.614162
4965.000000;0.602997
4964.000000;0.592914
4963.000000;0.583852
4962.000000;0.576561
4961.000000;0.570304
4960.000000;0.562434
4959.000000;0.552142
4958.000000;0.542147
4957.000000;0.534996
4956.000000;0.530088
4955.000000;0.525521
4954.000000;0.520746
4953.000000;0.515843
4952.000000;0.510287
4951.000000;0.504214
4950.000000;0.498819
4949.000000;0.493973
4948.000000;0.487383
4947.000000;0.477752
4946.000000;0.466797
4945.000000;0.456499
4944.000000;0.446661
4943.000000;0.436864
4942.000000;0.428524
4941.000000;0.422944
4940.000000;0.418953
4939.000000;0.414435
4938.000000;0.408926
4937.000000;0.403042
4936.000000;0.396601
4935.000000;0.389038
4934.000000;0.380544
4933.000000;0.371300
4932.000000;0.360754
4931.000000;0.349184
4930.000000;0.338841
4929.000000;0.331863
4928.000000;0.327742
4927.000000;0.324101
4926.000000;0.319196
4925.000000;0.312615
4924.000000;0.304614
4923.000000;0.296154
4922.000000;0.288600
4921.000000;0.282046
4920.000000;0.274832
4919.000000;0.265867
4918.000000;0.256424
4917.000000;0.248468
4916.000000;0.242113
4915.000000;0.235940
4914.000000;0.229073
4913.000000;0.221615
4912.000000;0.213581
4911.000000;0.204694
4910.000000;0.195012
4909.000000;0.184807
4908.000000;0.174254
4907.000000;0.164057
4906.000000;0.155707
4905.000000;0.150070
4904.000000;0.146126
4903.000000;0.141906
4902.000000;0.136288
4901.000000;0.129171
4900.000000;0.120556
4899.000000;0.110637
4898.000000;0.100579
4897.000000;0.092097
4896.000000;0.086041
4895.000000;0.081836
4894.000000;0.078225
4893.000000;0.074094
4892.000000;0.068844
4891.000000;0.062622
4890.000000;0.056164
4889.000000;0.050064
4888.000000;0.044343
4887.000000;0.038967
4886.000000;0.034376
4885.000000;0.030970
4884.000000;0.028314
4883.000000;0.025406
4882.000000;0.021728
4881.000000;0.017703
4880.000000;0.014013
4879.000000;0.010711
4878.000000;0.007155
4877.000000;0.002674
4876.000000;-0.002837
4875.000000;-0.008753
4874.000000;-0.013915
4873.000000;-0.017091
4872.000000;-0.017713
4871.000000;-0.016505
4870.000000;-0.015100
4869.000000;-0.014635
4868.000000;-0.014836
4867.000000;-0.014798
4866.000000;-0.014343
4865.000000;-0.014123
4864.000000;-0.014706
4863.000000;-0.016051
4862.000000;-0.017746
4861.000000;-0.019135
4860.000000;-0.019259
4859.000000;-0.017532
4858.000000;-0.014677
4857.000000;-0.012252
4856.000000;-0.010916
4855.000000;-0.009777
4854.000000;-0.007792
4853.000000;-0.005157
4852.000000;-0.002680
4851.000000;-0.000365
4850.000000;0.002509
4849.000000;0.006059
4848.000000;0.009384
4847.000000;0.011715
4846.000000;0.013355
4845.000000;0.015156
4844.000000;0.017512
4843.000000;0.020239
4842.000000;0.023141
4841.000000;0.026220
4840.000000;0.029484
4839.000000;0.032902
4838.000000;0.036525
4837.000000;0.040294
4836.000000;0.043752
4835.000000;0.046374
4834.000000;0.048279
4833.000000;0.050292
4832.000000;0.053111
4831.000000;0.056589
4830.000000;0.060026
4829.000000;0.062998
4828.000000;0.065748
4827.000000;0.068858
4826.000000;0.072681
4825.000000;0.077033
4824.000000;0.081297
4823.000000;0.084842
4822.000000;0.087483
4821.000000;0.089574
4820.000000;0.091720
4819.000000;0.094401
4818.000000;0.097751
4817.000000;0.101565
4816.000000;0.105500
4815.000000;0.109348
4814.000000;0.113149
4813.000000;0.116980
4812.000000;0.120736
4811.000000;0.124279
4810.000000;0.127647
4809.000000;0.130951
4808.000000;0.134089
4807.000000;0.136885
4806.000000;0.139426
4805.000000;0.141982
4804.000000;0.144644
4803.000000;0.147295
4802.000000;0.149936
4801.000000;0.152645
4800.000000;0.155244
4799.000000;0.157452
4798.000000;0.159419
4797.000000;0.161720
4796.000000;0.164624
4795.000000;0.167747
4794.000000;0.170622
4793.000000;0.173272
4792.000000;0.175971
4791.000000;0.178759
4790.000000;0.181510
4789.000000;0.184197
4788.000000;0.186785
4787.000000;0.189056
4786.000000;0.190896
4785.000000;0.192628
4784.000000;0.194769
4783.000000;0.197497
4782.000000;0.200570
4781.000000;0.203662
4780.000000;0.206598
4779.000000;0.209337
4778.000000;0.211951
4777.000000;0.214563
4776.000000;0.217150
4775.000000;0.219498
4774.000000;0.221504
4773.000000;0.223411
4772.000000;0.225579
4771.000000;0.228073
4770.000000;0.230626
4769.000000;0.232926
4768.000000;0.234806
4767.000000;0.236287
4766.000000;0.237607
4765.000000;0.239163
4764.000000;0.241213
4763.000000;0.243628
4762.000000;0.245999
4761.000000;0.248000
4760.000000;0.249653
4759.000000;0.251289
4758.000000;0.253257
4757.000000;0.255556
4756.000000;0.257756
4755.000000;0.259474
4754.000000;0.260935
4753.000000;0.262798
4752.000000;0.265311
4751.000000;0.267903
4750.000000;0.269829
4749.000000;0.271007
4748.000000;0.271981
4747.000000;0.273240
4746.000000;0.274816
4745.000000;0.276462
4744.000000;0.277938
4743.000000;0.279169
4742.000000;0.280310
4741.000000;0.281645
4740.000000;0.283292
4739.000000;0.285061
4738.000000;0.286738
4737.000000;0.288385
4736.000000;0.290211
4735.000000;0.292236
4734.000000;0.294301
4733.000000;0.296295
4732.000000;0.298172
4731.000000;0.299816
4730.000000;0.301154
4729.000000;0.302345
4728.000000;0.303633
4727.000000;0.305029
4726.000000;0.306372
4725.000000;0.307676
4724.000000;0.309118
4723.000000;0.310650
4722.000000;0.311913
4721.000000;0.312691
4720.000000;0.313253
4719.000000;0.314057
4718.000000;0.315243
4717.000000;0.316554
4716.000000;0.317701
4715.000000;0.318693
4714.000000;0.319809
4713.000000;0.321303
4712.000000;0.323117
4711.000000;0.324878
4710.000000;0.326242
4709.000000;0.327257
4708.000000;0.328309
4707.000000;0.329688
4706.000000;0.331285
4705.000000;0.332741
4704.000000;0.333818
4703.000000;0.334579
4702.000000;0.335268
4701.000000;0.336086
4700.000000;0.337057
4699.000000;0.338082
4698.000000;0.339108
4697.000000;0.340217
4696.000000;0.341490
4695.000000;0.342837
4694.000000;0.344057
4693.000000;0.345089
4692.000000;0.346124
4691.000000;0.347418
4690.000000;0.349018
4689.000000;0.350701
4688.000000;0.352141
4687.000000;0.353139
4686.000000;0.353751
4685.000000;0.354231
4684.000000;0.354810
4683.000000;0.355486
4682.000000;0.356065
4681.000000;0.356415
4680.000000;0.356659
4679.000000;0.357072
4678.000000;0.357822
4677.000000;0.358850
4676.000000;0.360003
4675.000000;0.361222
4674.000000;0.362531
4673.000000;0.363857
4672.000000;0.364979
4671.000000;0.365755
4670.000000;0.366357
4669.000000;0.367161
4668.000000;0.368342
4667.000000;0.369660
4666.000000;0.370696
4665.000000;0.371262
4664.000000;0.371532
4663.000000;0.371863
4662.000000;0.372516
4661.000000;0.373473
4660.000000;0.374442
4659.000000;0.375104
4658.000000;0.375459
4657.000000;0.375907
4656.000000;0.376845
4655.000000;0.378218
4654.000000;0.379552
4653.000000;0.380456
4652.000000;0.380967
4651.000000;0.381394
4650.000000;0.381947
4649.000000;0.382604
4648.000000;0.383254
4647.000000;0.383860
4646.000000;0.384469
4645.000000;0.385148
4644.000000;0.385922
4643.000000;0.386747
4642.000000;0.387526
4641.000000;0.388182
4640.000000;0.388731
4639.000000;0.389270
4638.000000;0.389863
4637.000000;0.390457
4636.000000;0.390947
4635.000000;0.391325
4634.000000;0.391731
4633.000000;0.392320
4632.000000;0.393108
4631.000000;0.393969
4630.000000;0.394776
4629.000000;0.395508
4628.000000;0.396222
4627.000000;0.396947
4626.000000;0.397612
4625.000000;0.398069
4624.000000;0.398251
4623.000000;0.398334
4622.000000;0.398672
4621.000000;0.399446
4620.000000;0.400404
4619.000000;0.401076
4618.000000;0.401264
4617.000000;0.401232
4616.000000;0.401377
4615.000000;0.401815
4614.000000;0.402360
4613.000000;0.402782
4612.000000;0.403008
4611.000000;0.403143
4610.000000;0.403416
4609.000000;0.404057
4608.000000;0.405093
4607.000000;0.406268
4606.000000;0.407233
4605.000000;0.407836
4604.000000;0.408177
4603.000000;0.408419
4602.000000;0.408647
4601.000000;0.408881
4600.000000;0.409153
4599.000000;0.409518
4598.000000;0.410026
4597.000000;0.410680
4596.000000;0.411396
4595.000000;0.412057
4594.000000;0.412624
4593.000000;0.413155
4592.000000;0.413655
4591.000000;0.413966
4590.000000;0.413924
4589.000000;0.413631
4588.000000;0.413452
4587.000000;0.413695
4586.000000;0.414331
4585.000000;0.415051
4584.000000;0.415575
4583.000000;0.415892
4582.000000;0.416227
4581.000000;0.416795
4580.000000;0.417567
4579.000000;0.418276
4578.000000;0.418648
4577.000000;0.418601
4576.000000;0.418259
4575.000000;0.417855
4574.000000;0.417649
4573.000000;0.417826
4572.000000;0.418350
4571.000000;0.418960
4570.000000;0.419416
4569.000000;0.419729
4568.000000;0.420065
4567.000000;0.420490
4566.000000;0.420917
4565.000000;0.421302
4564.000000;0.421732
4563.000000;0.422258
4562.000000;0.422774
4561.000000;0.423140
4560.000000;0.423339
4559.000000;0.423447
4558.000000;0.423501
4557.000000;0.423475
4556.000000;0.423364
4555.000000;0.423252
4554.000000;0.423306
4553.000000;0.423695
4552.000000;0.424449
4551.000000;0.425343
4550.000000;0.426014
4549.000000;0.426260
4548.000000;0.426200
4547.000000;0.426081
4546.000000;0.425980
4545.000000;0.425789
4544.000000;0.425452
4543.000000;0.425112
4542.000000;0.424972
4541.000000;0.425113
4540.000000;0.425471
4539.000000;0.425945
4538.000000;0.426430
4537.000000;0.426810
4536.000000;0.427010
4535.000000;0.427090
4534.000000;0.427202
4533.000000;0.427388
4532.000000;0.427484
4531.000000;0.427308
4530.000000;0.426915
4529.000000;0.426602
4528.000000;0.426618
4527.000000;0.426960
4526.000000;0.427434
4525.000000;0.427838
4524.000000;0.428034
4523.000000;0.427962
4522.000000;0.427704
4521.000000;0.427548
4520.000000;0.427829
4519.000000;0.428624
4518.000000;0.429619
4517.000000;0.430333
4516.000000;0.430494
4515.000000;0.430218
4514.000000;0.429832
4513.000000;0.429591
4512.000000;0.429537
4511.000000;0.429598
4510.000000;0.429724
4509.000000;0.429912
4508.000000;0.430141
4507.000000;0.430375
4506.000000;0.430617
4505.000000;0.430922
4504.000000;0.431327
4503.000000;0.431807
4502.000000;0.432297
4501.000000;0.432685
4500.000000;0.432811
4499.000000;0.432597
4498.000000;0.432219
4497.000000;0.432034
4496.000000;0.432202
4495.000000;0.432466
4494.000000;0.432430
4493.000000;0.432058
4492.000000;0.431729
4491.000000;0.431788
4490.000000;0.432139
4489.000000;0.432355
4488.000000;0.432139
4487.000000;0.431622
4486.000000;0.431251
4485.000000;0.431392
4484.000000;0.432032
4483.000000;0.432803
4482.000000;0.433341
4481.000000;0.433582
4480.000000;0.433698
4479.000000;0.433773
4478.000000;0.433665
4477.000000;0.433230
4476.000000;0.432578
4475.000000;0.432040
4474.000000;0.431913
4473.000000;0.432263
4472.000000;0.432907
4471.000000;0.433536
4470.000000;0.433908
4469.000000;0.434019
4468.000000;0.434061
4467.000000;0.434161
4466.000000;0.434175
4465.000000;0.433842
4464.000000;0.433159
4463.000000;0.432515
4462.000000;0.432384
4461.000000;0.432877
4460.000000;0.433649
4459.000000;0.434228
4458.000000;0.434399
4457.000000;0.434266
4456.000000;0.434012
4455.000000;0.433675
4454.000000;0.433205
4453.000000;0.432696
4452.000000;0.432459
4451.000000;0.432734
4450.000000;0.433346
4449.000000;0.433753
4448.000000;0.433575
4447.000000;0.433041
4446.000000;0.432787
4445.000000;0.433174
4444.000000;0.433916
4443.000000;0.434412
4442.000000;0.434336
4441.000000;0.433793
4440.000000;0.433043
4439.000000;0.432303
4438.000000;0.431794
4437.000000;0.431729
4436.000000;0.432139
4435.000000;0.432819
4434.000000;0.433528
4433.000000;0.434162
4432.000000;0.434654
4431.000000;0.434861
4430.000000;0.434692
4429.000000;0.434257
4428.000000;0.433772
4427.000000;0.433343
4426.000000;0.432982
4425.000000;0.432747
4424.000000;0.432682
4423.000000;0.432617
4422.000000;0.432233
4421.000000;0.431466
4420.000000;0.430727
4419.000000;0.430586
4418.000000;0.431202
4417.000000;0.432120
4416.000000;0.432644
4415.000000;0.432449
4414.000000;0.431836
4413.000000;0.431418
4412.000000;0.431569
4411.000000;0.432169
4410.000000;0.432733
4409.000000;0.432707
4408.000000;0.431734
4407.000000;0.429924
4406.000000;0.427987
4405.000000;0.426890
4404.000000;0.427111
4403.000000;0.428172
4402.000000;0.429019
4401.000000;0.428913
4400.000000;0.427957
4399.000000;0.426810
4398.000000;0.426043
4397.000000;0.425776
4396.000000;0.425729
4395.000000;0.425512
4394.000000;0.424886
4393.000000;0.423787
4392.000000;0.422267
4391.000000;0.420589
4390.000000;0.419301
4389.000000;0.418939
4388.000000;0.419457
4387.000000;0.420090
4386.000000;0.420015
4385.000000;0.419114
4384.000000;0.417938
4383.000000;0.417029
4382.000000;0.416512
4381.000000;0.416203
4380.000000;0.415787
4379.000000;0.414931
4378.000000;0.413576
4377.000000;0.412236
4376.000000;0.411677
4375.000000;0.412128
4374.000000;0.412933
4373.000000;0.413079
4372.000000;0.411948
4371.000000;0.409581
4370.000000;0.406519
4369.000000;0.403533
4368.000000;0.401298
4367.000000;0.400062
4366.000000;0.399634
4365.000000;0.399642
4364.000000;0.399608
4363.000000;0.398910
4362.000000;0.397221
4361.000000;0.395195
4360.000000;0.394186
4359.000000;0.394813
4358.000000;0.396069
4357.000000;0.396281
4356.000000;0.394838
4355.000000;0.392582
4354.000000;0.390643
4353.000000;0.389431
4352.000000;0.388676
4351.000000;0.387939
4350.000000;0.386955
4349.000000;0.385813
4348.000000;0.384861
4347.000000;0.384217
4346.000000;0.383458
4345.000000;0.382113
4344.000000;0.380337
4343.000000;0.378680
4342.000000;0.377194
4341.000000;0.375252
4340.000000;0.372466
4339.000000;0.369384
4338.000000;0.367038
4337.000000;0.366082
4336.000000;0.366488
4335.000000;0.367634
4334.000000;0.368511
4333.000000;0.368284
4332.000000;0.366970
4331.000000;0.365315
4330.000000;0.363852
4329.000000;0.362443
4328.000000;0.360854
4327.000000;0.359237
4326.000000;0.357681
4325.000000;0.355770
4324.000000;0.353098
4323.000000;0.349973
4322.000000;0.347167
4321.000000;0.345149
4320.000000;0.343933
4319.000000;0.343422
4318.000000;0.343446
4317.000000;0.343649
4316.000000;0.343813
4315.000000;0.344181
4314.000000;0.344959
4313.000000;0.345608
4312.000000;0.345206
4311.000000;0.343520
4310.000000;0.341104
4309.000000;0.338329
4308.000000;0.335096
4307.000000;0.331642
4306.000000;0.328870
4305.000000;0.327486
4304.000000;0.327221
4303.000000;0.327227
4302.000000;0.326934
4301.000000;0.326269
4300.000000;0.325381
4299.000000;0.324553
4298.000000;0.324169
4297.000000;0.324345
4296.000000;0.324613
4295.000000;0.324249
4294.000000;0.322998
4293.000000;0.321484
4292.000000;0.320862
4291.000000;0.321674
4290.000000;0.322857
4289.000000;0.322446
4288.000000;0.319910
4287.000000;0.317611
4286.000000;0.318936
4285.000000;0.324732
4284.000000;0.332228
4283.000000;0.337699
4282.000000;0.339780
4281.000000;0.339764
4280.000000;0.339543
4279.000000;0.340214
4278.000000;0.342050
4277.000000;0.344723
4276.000000;0.347557
4275.000000;0.350136
4274.000000;0.352570
4273.000000;0.354997
4272.000000;0.357388
4271.000000;0.360108
4270.000000;0.363950
4269.000000;0.369144
4268.000000;0.374951
4267.000000;0.380770
4266.000000;0.386935
4265.000000;0.393853
4264.000000;0.401373
4263.000000;0.409649
4262.000000;0.419145
4261.000000;0.428621
4260.000000;0.434719
4259.000000;0.435753
4258.000000;0.434925
4257.000000;0.437409
4256.000000;0.445022
4255.000000;0.455774
4254.000000;0.467928
4253.000000;0.481718
4252.000000;0.496552
4251.000000;0.509173
4250.000000;0.516684
4249.000000;0.520219
4248.000000;0.523868
4247.000000;0.530754
4246.000000;0.541113
4245.000000;0.552912
4244.000000;0.563726
4243.000000;0.572857
4242.000000;0.582010
4241.000000;0.592260
4240.000000;0.601239
4239.000000;0.605815
4238.000000;0.607185
4237.000000;0.610932
4236.000000;0.621503
4235.000000;0.638214
4234.000000;0.657054
4233.000000;0.674337
4232.000000;0.687388
4231.000000;0.694184
4230.000000;0.695541
4229.000000;0.696567
4228.000000;0.702923
4227.000000;0.715787
4226.000000;0.731714
4225.000000;0.747313
4224.000000;0.762102
4223.000000;0.776010
4222.000000;0.787058
4221.000000;0.792886
4220.000000;0.794451
4219.000000;0.797616
4218.000000;0.808685
4217.000000;0.827861
4216.000000;0.847903
4215.000000;0.860968
4214.000000;0.867623
4213.000000;0.875426
4212.000000;0.888155
4211.000000;0.900789
4210.000000;0.906481
4209.000000;0.906296
4208.000000;0.907944
4207.000000;0.916348
4206.000000;0.929728
4205.000000;0.943827
4204.000000;0.956981
4203.000000;0.970446
4202.000000;0.985759
4201.000000;1.002796
4200.000000;1.018846
4199.000000;1.029140
4198.000000;1.030653
4197.000000;1.026355
4196.000000;1.023457
4195.000000;1.027259
4194.000000;1.038122
4193.000000;1.053069
4192.000000;1.068226
4191.000000;1.080023
4190.000000;1.087760
4189.000000;1.097057
4188.000000;1.116490
4187.000000;1.147821
4186.000000;1.180753
4185.000000;1.201121
4184.000000;1.205656
4183.000000;1.202924
4182.000000;1.201971
4181.000000;1.203238
4180.000000;1.202275
4179.000000;1.201258
4178.000000;1.207579
4177.000000;1.224502
4176.000000;1.248965
4175.000000;1.275152
4174.000000;1.297925
4173.000000;1.315227
4172.000000;1.329915
4171.000000;1.346170
4170.000000;1.359296
4169.000000;1.354655
4168.000000;1.329147
4167.000000;1.302772
4166.000000;1.295626
4165.000000;1.307313
4164.000000;1.320838
4163.000000;1.326303
4162.000000;1.334441
4161.000000;1.359097
4160.000000;1.397460
4159.000000;1.428806
4158.000000;1.433110
4157.000000;1.413312
4156.000000;1.389657
4155.000000;1.378224
4154.000000;1.383263
4153.000000;1.400054
4152.000000;1.422245
4151.000000;1.451393
4150.000000;1.490074
4149.000000;1.525001
4148.000000;1.538900
4147.000000;1.536495
4146.000000;1.533746
4145.000000;1.535636
4144.000000;1.534757
4143.000000;1.526123
4142.000000;1.522292
4141.000000;1.541564
4140.000000;1.584184
4139.000000;1.627772
4138.000000;1.650826
4137.000000;1.661580
4136.000000;1.674486
4135.000000;1.683305
4134.000000;1.678136
4133.000000;1.666830
4132.000000;1.667907
4131.000000;1.692512
4130.000000;1.736961
4129.000000;1.757219
4128.000000;1.716845
4127.000000;1.670769
4126.000000;1.649979
4125.000000;1.626176
4124.000000;1.593285
4123.000000;1.577440
4122.000000;1.595992
4121.000000;1.649152
4120.000000;1.718752
4119.000000;1.768194
4118.000000;1.771676
4117.000000;1.752920
4116.000000;1.756940
4115.000000;1.796439
4114.000000;1.833820
4113.000000;1.808805
4112.000000;1.729969
4111.000000;1.668368
4110.000000;1.662995
4109.000000;1.702893
4108.000000;1.748510
4107.000000;1.781477
4106.000000;1.829892
4105.000000;1.906195
4104.000000;1.955299
4103.000000;1.910613
4102.000000;1.827197
4101.000000;1.797780
4100.000000;1.846884
4099.000000;1.949979
4098.000000;2.012877
4097.000000;1.972110
4096.000000;1.916663
4095.000000;1.875435
4094.000000;1.838280
4093.000000;1.814568
4092.000000;1.803451
4091.000000;1.814249
4090.000000;1.861268
4089.000000;1.930081
4088.000000;1.983152
4087.000000;2.008109
4086.000000;2.043077
4085.000000;2.101356
4084.000000;2.080693
4083.000000;1.974580
4082.000000;1.916547
4081.000000;1.949603
4080.000000;2.065107
4079.000000;2.206456
4078.000000;2.281029
4077.000000;2.251664
4076.000000;2.146777
4075.000000;2.010488
4074.000000;1.895325
4073.000000;1.831779
4072.000000;1.818831
4071.000000;1.834428
4070.000000;1.870584
4069.000000;1.950967
4068.000000;2.069760
4067.000000;2.031352
4066.000000;1.932116
4065.000000;1.936764
4064.000000;2.024081
4063.000000;2.099208
4062.000000;2.092134
4061.000000;2.050160
4060.000000;1.997590
4059.000000;1.917920
4058.000000;1.853559
4057.000000;1.842044
4056.000000;1.881341
4055.000000;1.943674
4054.000000;2.010002
4053.000000;2.090727
4052.000000;2.150709
4051.000000;2.129464
4050.000000;2.082894
4049.000000;2.092931
4048.000000;2.204715
4047.000000;2.363446
4046.000000;2.448825
4045.000000;2.633375
4044.000000;3.280555
4043.000000;3.033296
4042.000000;3.076809
4041.000000;3.370300
4040.000000;2.817837
4039.000000;2.501894
4038.000000;2.284875
4037.000000;2.127019
4036.000000;2.015118
4035.000000;1.950163
4034.000000;1.939464
4033.000000;1.987982
4032.000000;2.093761
4031.000000;2.262543
4030.000000;2.531255
4029.000000;2.477979
4028.000000;2.226714
4027.000000;2.209592
4026.000000;2.403517
4025.000000;2.819571
4024.000000;2.595867
4023.000000;2.363058
4022.000000;2.398521
4021.000000;2.546073
4020.000000;2.719339
4019.000000;2.999140
4018.000000;2.957230
4017.000000;2.774848
4016.000000;2.656507
4015.000000;2.462784
4014.000000;2.387336
4013.000000;2.578639
4012.000000;2.630240
4011.000000;2.106536
4010.000000;1.865917
4009.000000;1.795137
4008.000000;1.853064
4007.000000;2.030341
4006.000000;2.292428
4005.000000;2.526054
4004.000000;2.631880
4003.000000;2.481673
4002.000000;2.228079
4001.000000;2.061471
4000.000000;1.983330
3999.000000;1.984057
3998.000000;2.043899
3997.000000;2.116941
3996.000000;2.132447
3995.000000;2.111201
3994.000000;2.163056
3993.000000;2.376905
3992.000000;2.420416
3991.000000;2.263495
3990.000000;2.246810
3989.000000;2.355268
3988.000000;2.682625
3987.000000;3.055257
3986.000000;2.600415
3985.000000;2.399625
3984.000000;2.334129
3983.000000;2.387569
3982.000000;2.931648
3981.000000;2.394236
3980.000000;2.046828
3979.000000;1.956566
3978.000000;1.993775
3977.000000;2.070017
3976.000000;2.095255
3975.000000;2.077837
3974.000000;2.096017
3973.000000;2.195324
3972.000000;2.283801
3971.000000;2.268118
3970.000000;2.273420
3969.000000;2.472489
3968.000000;2.648894
3967.000000;2.325080
3966.000000;2.129477
3965.000000;2.060063
3964.000000;2.067241
3963.000000;2.187303
3962.000000;2.406461
3961.000000;2.350877
3960.000000;2.270424
3959.000000;2.372826
3958.000000;2.431531
3957.000000;2.272028
3956.000000;2.139665
3955.000000;2.113392
3954.000000;2.200991
3953.000000;2.392991
3952.000000;2.604342
3951.000000;2.630383
3950.000000;2.468609
3949.000000;2.299461
3948.000000;2.208411
3947.000000;2.200557
3946.000000;2.252544
3945.000000;2.313508
3944.000000;2.308586
3943.000000;2.239540
3942.000000;2.194666
3941.000000;2.210400
3940.000000;2.205466
3939.000000;2.187346
3938.000000;2.196969
3937.000000;2.182788
3936.000000;2.199356
3935.000000;2.339017
3934.000000;2.415129
3933.000000;2.263245
3932.000000;2.176616
3931.000000;2.158517
3930.000000;2.084853
3929.000000;2.053504
3928.000000;2.171698
3927.000000;2.483075
3926.000000;2.791813
3925.000000;2.461717
3924.000000;2.142925
3923.000000;1.954793
3922.000000;1.942103
3921.000000;2.096959
3920.000000;2.379390
3919.000000;2.603860
3918.000000;2.604763
3917.000000;2.640244
3916.000000;2.996110
3915.000000;2.553561
3914.000000;2.132882
3913.000000;2.049084
3912.000000;2.073949
3911.000000;2.171370
3910.000000;2.322626
3909.000000;2.489543
3908.000000;2.380625
3907.000000;2.238674
3906.000000;2.202800
3905.000000;2.160800
3904.000000;2.076388
3903.000000;2.032719
3902.000000;2.200683
3901.000000;2.594265
3900.000000;2.599234
3899.000000;2.739790
3898.000000;2.187513
3897.000000;2.199617
3896.000000;2.586632
3895.000000;2.332954
3894.000000;2.274145
3893.000000;2.359865
3892.000000;2.708588
3891.000000;2.772812
3890.000000;2.213752
3889.000000;2.058905
3888.000000;2.116359
3887.000000;2.248070
3886.000000;2.295105
3885.000000;2.235103
3884.000000;2.148535
3883.000000;2.174976
3882.000000;2.310036
3881.000000;2.307138
3880.000000;2.137834
3879.000000;1.949802
3878.000000;1.903025
3877.000000;2.072975
3876.000000;2.318237
3875.000000;2.374123
3874.000000;2.266769
3873.000000;2.112291
3872.000000;2.047515
3871.000000;2.109932
3870.000000;2.203618
3869.000000;2.263895
3868.000000;2.441566
3867.000000;3.021172
3866.000000;3.123071
3865.000000;2.764378
3864.000000;2.588044
3863.000000;2.586436
3862.000000;2.639616
3861.000000;2.412174
3860.000000;2.309265
3859.000000;2.595896
3858.000000;2.726334
3857.000000;2.525570
3856.000000;2.701843
3855.000000;3.113684
3854.000000;3.473272
3853.000000;3.702794
3852.000000;3.228076
3851.000000;2.853210
3850.000000;2.778206
3849.000000;2.744547
3848.000000;2.598722
3847.000000;2.388576
3846.000000;2.242047
3845.000000;2.221230
3844.000000;2.304159
3843.000000;2.391014
3842.000000;2.448645
3841.000000;2.583345
3840.000000;2.660370
3839.000000;2.759177
3838.000000;3.043333
3837.000000;3.549209
3836.000000;3.687579
3835.000000;3.137727
3834.000000;2.775091
3833.000000;2.546028
3832.000000;2.409830
3831.000000;2.279591
3830.000000;2.131162
3829.000000;2.057385
3828.000000;2.093273
3827.000000;2.200380
3826.000000;2.342099
3825.000000;2.522513
3824.000000;2.970795
3823.000000;2.960759
3822.000000;2.583174
3821.000000;2.331083
3820.000000;2.127999
3819.000000;2.149643
3818.000000;2.549032
3817.000000;3.387498
3816.000000;3.228931
3815.000000;2.942471
3814.000000;2.680654
3813.000000;2.507051
3812.000000;2.444258
3811.000000;2.474884
3810.000000;2.634727
3809.000000;2.665342
3808.000000;2.501842
3807.000000;2.427568
3806.000000;2.358486
3805.000000;2.389295
3804.000000;2.706791
3803.000000;3.200116
3802.000000;2.896048
3801.000000;2.657110
3800.000000;2.548438
3799.000000;2.635185
3798.000000;2.848944
3797.000000;2.852001
3796.000000;2.763052
3795.000000;2.576971
3794.000000;2.348027
3793.000000;2.271222
3792.000000;2.289114
3791.000000;2.294521
3790.000000;2.279358
3789.000000;2.251426
3788.000000;2.274696
3787.000000;2.481606
3786.000000;2.909608
3785.000000;2.707680
3784.000000;2.437206
3783.000000;2.328684
3782.000000;2.323552
3781.000000;2.405655
3780.000000;2.443728
3779.000000;2.328045
3778.000000;2.180870
3777.000000;2.152709
3776.000000;2.318951
3775.000000;2.604947
3774.000000;2.507855
3773.000000;2.412399
3772.000000;2.553213
3771.000000;2.793930
3770.000000;3.053019
3769.000000;3.336438
3768.000000;2.853628
3767.000000;2.807760
3766.000000;2.823606
3765.000000;2.546880
3764.000000;2.384183
3763.000000;2.403566
3762.000000;2.708227
3761.000000;3.099571
3760.000000;2.706881
3759.000000;2.513616
3758.000000;2.546206
3757.000000;2.639357
3756.000000;2.576233
3755.000000;2.542848
3754.000000;2.524875
3753.000000;2.588359
3752.000000;2.695549
3751.000000;2.779394
3750.000000;2.880450
3749.000000;3.076731
3748.000000;3.572188
3747.000000;3.595136
3746.000000;3.227533
3745.000000;3.061699
3744.000000;2.762525
3743.000000;2.534997
3742.000000;2.703549
3741.000000;2.773576
3740.000000;2.432844
3739.000000;2.326842
3738.000000;2.313973
3737.000000;2.399557
3736.000000;2.542088
3735.000000;2.766051
3734.000000;2.846402
3733.000000;2.706297
3732.000000;2.994774
3731.000000;2.956318
3730.000000;2.582864
3729.000000;2.576545
3728.000000;2.503206
3727.000000;2.373647
3726.000000;2.285763
3725.000000;2.191318
3724.000000;2.045416
3723.000000;1.926983
3722.000000;1.904401
3721.000000;2.000688
3720.000000;2.349354
3719.000000;2.647025
3718.000000;2.383360
3717.000000;2.306487
3716.000000;2.347704
3715.000000;2.506375
3714.000000;2.872123
3713.000000;3.686360
3712.000000;2.736390
3711.000000;2.424468
3710.000000;2.324699
3709.000000;2.411284
3708.000000;2.636575
3707.000000;2.456029
3706.000000;2.245445
3705.000000;2.194480
3704.000000;2.191569
3703.000000;2.201756
3702.000000;2.209891
3701.000000;2.448003
3700.000000;2.642668
3699.000000;2.194800
3698.000000;2.042425
3697.000000;2.033598
3696.000000;2.110872
3695.000000;2.328277
3694.000000;2.538782
3693.000000;2.594076
3692.000000;2.779244
3691.000000;2.716999
3690.000000;2.603953
3689.000000;2.704985
3688.000000;3.028904
3687.000000;3.141249
3686.000000;2.610832
3685.000000;2.336430
3684.000000;2.202266
3683.000000;2.150450
3682.000000;2.261550
3681.000000;2.695649
3680.000000;2.618526
3679.000000;2.227331
3678.000000;2.194608
3677.000000;2.338363
3676.000000;2.546500
3675.000000;2.691281
3674.000000;2.566401
3673.000000;2.425307
3672.000000;2.594726
3671.000000;2.891341
3670.000000;2.780689
3669.000000;2.488770
3668.000000;2.208924
3667.000000;2.068212
3666.000000;2.121725
3665.000000;2.349593
3664.000000;2.534178
3663.000000;2.426778
3662.000000;2.259133
3661.000000;2.107904
3660.000000;2.045763
3659.000000;2.136161
3658.000000;2.491505
3657.000000;3.014849
3656.000000;2.465524
3655.000000;2.566127
3654.000000;2.669481
3653.000000;2.296198
3652.000000;2.339213
3651.000000;2.405003
3650.000000;2.476698
3649.000000;2.571116
3648.000000;2.719390
3647.000000;2.808703
3646.000000;2.450810
3645.000000;2.189144
3644.000000;2.180241
3643.000000;2.409596
3642.000000;3.060266
3641.000000;3.335729
3640.000000;3.687942
3639.000000;2.901304
3638.000000;2.366268
3637.000000;2.134555
3636.000000;2.028936
3635.000000;2.045170
3634.000000;2.167928
3633.000000;2.311290
3632.000000;2.232240
3631.000000;2.170035
3630.000000;2.230250
3629.000000;2.287244
3628.000000;2.535840
3627.000000;2.310811
3626.000000;2.016044
3625.000000;2.173935
3624.000000;2.460486
3623.000000;2.564415
3622.000000;2.411625
3621.000000;2.342436
3620.000000;2.334466
3619.000000;2.358935
3618.000000;2.732485
3617.000000;2.614786
3616.000000;2.187468
3615.000000;2.129251
3614.000000;2.170383
3613.000000;2.264217
3612.000000;2.491311
3611.000000;2.637448
3610.000000;2.597391
3609.000000;3.130247
3608.000000;2.578426
3607.000000;2.156323
3606.000000;1.993319
3605.000000;1.921308
3604.000000;1.919780
3603.000000;1.982810
3602.000000;2.127237
3601.000000;2.463402
3600.000000;2.842002
3599.000000;2.430987
3598.000000;2.306954
3597.000000;2.242020
3596.000000;2.151871
3595.000000;2.097587
3594.000000;2.126654
3593.000000;2.601018
3592.000000;2.862192
3591.000000;2.302076
3590.000000;2.281237
3589.000000;2.194866
3588.000000;2.061797
3587.000000;1.948410
3586.000000;1.971445
3585.000000;2.288335
3584.000000;2.373222
3583.000000;2.083143
3582.000000;1.987739
3581.000000;1.999437
3580.000000;2.060676
3579.000000;2.054694
3578.000000;2.006911
3577.000000;1.991403
3576.000000;1.973941
3575.000000;1.925384
3574.000000;1.854426
3573.000000;1.808693
3572.000000;1.833765
3571.000000;1.937972
3570.000000;2.073734
3569.000000;2.190357
3568.000000;2.312253
3567.000000;2.328804
3566.000000;2.077715
3565.000000;1.899749
3564.000000;1.890291
3563.000000;1.967306
3562.000000;2.065232
3561.000000;2.162777
3560.000000;2.307109
3559.000000;2.239845
3558.000000;2.000668
3557.000000;1.908693
3556.000000;1.968008
3555.000000;2.066676
3554.000000;2.081049
3553.000000;2.115215
3552.000000;2.140142
3551.000000;2.193584
3550.000000;2.469520
3549.000000;2.367171
3548.000000;2.117179
3547.000000;2.062068
3546.000000;2.056084
3545.000000;2.023506
3544.000000;1.939616
3543.000000;1.861323
3542.000000;1.837973
3541.000000;1.860258
3540.000000;1.910892
3539.000000;1.993659
3538.000000;2.128487
3537.000000;2.452515
3536.000000;2.575788
3535.000000;2.192681
3534.000000;2.024279
3533.000000;2.019268
3532.000000;2.150572
3531.000000;2.265001
3530.000000;2.191014
3529.000000;2.172225
3528.000000;2.242291
3527.000000;2.238972
3526.000000;2.151105
3525.000000;2.070649
3524.000000;2.011021
3523.000000;1.994758
3522.000000;2.024434
3521.000000;2.067414
3520.000000;2.108866
3519.000000;2.095258
3518.000000;2.046928
3517.000000;2.064654
3516.000000;2.312088
3515.000000;2.838201
3514.000000;2.565158
3513.000000;2.343305
3512.000000;2.219861
3511.000000;2.085065
3510.000000;2.059053
3509.000000;2.130522
3508.000000;2.372215
3507.000000;2.822763
3506.000000;2.346142
3505.000000;2.063619
3504.000000;2.031792
3503.000000;2.097527
3502.000000;2.176474
3501.000000;2.202659
3500.000000;2.264448
3499.000000;2.316225
3498.000000;2.246969
3497.000000;2.096917
3496.000000;1.958281
3495.000000;1.888441
3494.000000;1.953799
3493.000000;2.106964
3492.000000;2.050910
3491.000000;1.920647
3490.000000;1.907004
3489.000000;1.957494
3488.000000;2.045646
3487.000000;2.393713
3486.000000;2.343413
3485.000000;1.945960
3484.000000;1.885834
3483.000000;1.962545
3482.000000;2.121888
3481.000000;2.367358
3480.000000;2.533663
3479.000000;2.458482
3478.000000;2.324375
3477.000000;2.480594
3476.000000;2.867700
3475.000000;2.379984
3474.000000;2.141589
3473.000000;2.043953
3472.000000;1.947076
3471.000000;1.915360
3470.000000;1.968149
3469.000000;2.118437
3468.000000;2.300661
3467.000000;2.386348
3466.000000;2.425254
3465.000000;2.272011
3464.000000;2.083650
3463.000000;2.130678
3462.000000;2.036580
3461.000000;1.737455
3460.000000;1.591819
3459.000000;1.589682
3458.000000;1.721358
3457.000000;1.906915
3456.000000;1.909644
3455.000000;1.904201
3454.000000;2.190819
3453.000000;2.448947
3452.000000;2.090658
3451.000000;1.999682
3450.000000;2.074944
3449.000000;2.115445
3448.000000;2.167197
3447.000000;2.079156
3446.000000;1.909473
3445.000000;1.888150
3444.000000;2.029582
3443.000000;2.245969
3442.000000;2.200455
3441.000000;1.993480
3440.000000;1.907293
3439.000000;1.863619
3438.000000;1.738362
3437.000000;1.581803
3436.000000;1.477759
3435.000000;1.454163
3434.000000;1.534688
3433.000000;1.668140
3432.000000;1.647922
3431.000000;1.551309
3430.000000;1.546136
3429.000000;1.587539
3428.000000;1.627294
3427.000000;1.653432
3426.000000;1.755339
3425.000000;2.062874
3424.000000;2.158738
3423.000000;1.928184
3422.000000;1.673988
3421.000000;1.480060
3420.000000;1.415957
3419.000000;1.464391
3418.000000;1.594817
3417.000000;1.776781
3416.000000;1.949943
3415.000000;1.875196
3414.000000;1.710090
3413.000000;1.616853
3412.000000;1.588571
3411.000000;1.642675
3410.000000;1.686347
3409.000000;1.665372
3408.000000;1.621522
3407.000000;1.710624
3406.000000;1.975564
3405.000000;1.771151
3404.000000;1.527851
3403.000000;1.595798
3402.000000;2.117828
3401.000000;2.112999
3400.000000;1.781959
3399.000000;1.795923
3398.000000;1.713079
3397.000000;1.655463
3396.000000;1.701327
3395.000000;1.802757
3394.000000;1.933894
3393.000000;2.162192
3392.000000;1.983680
3391.000000;1.684992
3390.000000;1.631710
3389.000000;1.745805
3388.000000;1.794116
3387.000000;1.624622
3386.000000;1.507805
3385.000000;1.472882
3384.000000;1.490077
3383.000000;1.523425
3382.000000;1.567243
3381.000000;1.648210
3380.000000;1.741318
3379.000000;2.174140
3378.000000;2.417310
3377.000000;1.777302
3376.000000;1.638641
3375.000000;1.659677
3374.000000;1.690523
3373.000000;1.629151
3372.000000;1.580503
3371.000000;1.606528
3370.000000;1.620198
3369.000000;1.577093
3368.000000;1.507094
3367.000000;1.487118
3366.000000;1.512243
3365.000000;1.574413
3364.000000;1.670862
3363.000000;1.865222
3362.000000;2.115245
3361.000000;1.922225
3360.000000;1.790272
3359.000000;1.843414
3358.000000;2.216905
3357.000000;2.349453
3356.000000;1.808346
3355.000000;1.687012
3354.000000;1.748104
3353.000000;2.066956
3352.000000;2.176952
3351.000000;1.867613
3350.000000;1.885799
3349.000000;1.954679
3348.000000;1.836938
3347.000000;1.688169
3346.000000;1.598608
3345.000000;1.560306
3344.000000;1.575016
3343.000000;1.659885
3342.000000;1.825152
3341.000000;2.029439
3340.000000;2.389429
3339.000000;2.477851
3338.000000;2.393884
3337.000000;2.364609
3336.000000;1.883242
3335.000000;1.692297
3334.000000;1.691248
3333.000000;1.765964
3332.000000;1.886824
3331.000000;2.059677
3330.000000;2.410868
3329.000000;2.340591
3328.000000;1.969145
3327.000000;1.830174
3326.000000;1.835280
3325.000000;1.911744
3324.000000;1.990635
3323.000000;1.937793
3322.000000;1.875518
3321.000000;1.916828
3320.000000;2.120714
3319.000000;2.585451
3318.000000;2.209381
3317.000000;1.971085
3316.000000;2.107612
3315.000000;2.282099
3314.000000;2.386836
3313.000000;2.315808
3312.000000;2.048867
3311.000000;1.925591
3310.000000;1.882038
3309.000000;1.826288
3308.000000;1.779777
3307.000000;1.808176
3306.000000;1.905818
3305.000000;1.844559
3304.000000;1.703235
3303.000000;1.682236
3302.000000;1.849802
3301.000000;2.070662
3300.000000;2.003700
3299.000000;1.981728
3298.000000;2.007024
3297.000000;1.937110
3296.000000;1.911890
3295.000000;1.913721
3294.000000;1.983853
3293.000000;2.220746
3292.000000;1.926197
3291.000000;1.600434
3290.000000;1.512330
3289.000000;1.584801
3288.000000;1.822005
3287.000000;2.026249
3286.000000;1.964463
3285.000000;1.855972
3284.000000;1.710882
3283.000000;1.581276
3282.000000;1.520168
3281.000000;1.504900
3280.000000;1.500634
3279.000000;1.522730
3278.000000;1.610965
3277.000000;1.767838
3276.000000;1.907921
3275.000000;2.310711
3274.000000;2.488632
3273.000000;1.999409
3272.000000;1.968236
3271.000000;2.018957
3270.000000;2.449053
3269.000000;2.403849
3268.000000;1.843484
3267.000000;1.699076
3266.000000;1.645567
3265.000000;1.647834
3264.000000;1.662746
3263.000000;1.681837
3262.000000;1.766969
3261.000000;1.868595
3260.000000;1.817504
3259.000000;1.704982
3258.000000;1.684346
3257.000000;1.748938
3256.000000;1.893536
3255.000000;2.138051
3254.000000;2.043923
3253.000000;1.949462
3252.000000;2.086371
3251.000000;1.929270
3250.000000;1.808943
3249.000000;1.920603
3248.000000;2.041641
3247.000000;2.043671
3246.000000;2.200153
3245.000000;2.404139
3244.000000;2.093859
3243.000000;1.907076
3242.000000;1.783318
3241.000000;1.617769
3240.000000;1.521008
3239.000000;1.546682
3238.000000;1.735964
3237.000000;1.830128
3236.000000;1.682679
3235.000000;1.617339
3234.000000;1.674158
3233.000000;2.008423
3232.000000;2.035889
3231.000000;1.586954
3230.000000;1.408532
3229.000000;1.365578
3228.000000;1.404213
3227.000000;1.518531
3226.000000;1.686403
3225.000000;1.722311
3224.000000;1.626365
3223.000000;1.636971
3222.000000;1.759509
3221.000000;1.835788
3220.000000;1.697744
3219.000000;1.534979
3218.000000;1.445587
3217.000000;1.404799
3216.000000;1.378578
3215.000000;1.366584
3214.000000;1.406688
3213.000000;1.478136
3212.000000;1.507267
3211.000000;1.551928
3210.000000;1.679050
3209.000000;1.894570
3208.000000;2.150548
3207.000000;2.001138
3206.000000;1.782074
3205.000000;1.699470
3204.000000;1.681168
3203.000000;1.718817
3202.000000;1.840183
3201.000000;2.155673
3200.000000;2.552321
3199.000000;2.372768
3198.000000;2.115518
3197.000000;1.955223
3196.000000;1.902839
3195.000000;1.753864
3194.000000;1.566419
3193.000000;1.463560
3192.000000;1.391542
3191.000000;1.365713
3190.000000;1.418296
3189.000000;1.645683
3188.000000;2.104315
3187.000000;1.849196
3186.000000;1.655521
3185.000000;1.769589
3184.000000;2.065525
3183.000000;2.430748
3182.000000;2.044603
3181.000000;1.745252
3180.000000;1.620374
3179.000000;1.624488
3178.000000;1.770497
3177.000000;1.957898
3176.000000;2.074539
3175.000000;2.282647
3174.000000;2.437707
3173.000000;2.213125
3172.000000;2.382161
3171.000000;2.375598
3170.000000;1.963367
3169.000000;1.979726
3168.000000;2.169781
3167.000000;2.069902
3166.000000;1.938381
3165.000000;1.966269
3164.000000;2.085978
3163.000000;2.121563
3162.000000;2.049281
3161.000000;1.910344
3160.000000;1.791552
3159.000000;1.763211
3158.000000;1.840266
3157.000000;1.822694
3156.000000;1.610974
3155.000000;1.461469
3154.000000;1.428627
3153.000000;1.473021
3152.000000;1.540525
3151.000000;1.615305
3150.000000;1.766926
3149.000000;1.976916
3148.000000;1.992366
3147.000000;2.097858
3146.000000;2.459689
3145.000000;2.315095
3144.000000;2.155005
3143.000000;2.070620
3142.000000;1.996469
3141.000000;1.970363
3140.000000;1.903228
3139.000000;1.848336
3138.000000;1.842896
3137.000000;1.947142
3136.000000;2.269860
3135.000000;2.199199
3134.000000;1.941426
3133.000000;1.932722
3132.000000;2.014365
3131.000000;2.130041
3130.000000;2.229557
3129.000000;2.305901
3128.000000;2.225504
3127.000000;2.193679
3126.000000;2.202421
3125.000000;2.095434
3124.000000;2.008832
3123.000000;2.231266
3122.000000;2.562595
3121.000000;1.957454
3120.000000;1.757976
3119.000000;1.738058
3118.000000;1.764354
3117.000000;1.846043
3116.000000;1.914910
3115.000000;1.921725
3114.000000;1.891590
3113.000000;1.925442
3112.000000;2.221128
3111.000000;2.442380
3110.000000;1.992802
3109.000000;1.851440
3108.000000;1.855058
3107.000000;2.005974
3106.000000;2.378022
3105.000000;2.226165
3104.000000;1.960949
3103.000000;1.850220
3102.000000;1.805767
3101.000000;1.826457
3100.000000;1.933325
3099.000000;2.107373
3098.000000;1.998571
3097.000000;1.848718
3096.000000;1.888307
3095.000000;2.190906
3094.000000;2.517918
3093.000000;2.093794
3092.000000;1.865823
3091.000000;1.753467
3090.000000;1.733222
3089.000000;1.807332
3088.000000;1.963909
3087.000000;2.096747
3086.000000;1.992228
3085.000000;1.899163
3084.000000;1.876650
3083.000000;1.892358
3082.000000;1.946675
3081.000000;2.159743
3080.000000;2.501122
3079.000000;2.217095
3078.000000;2.000932
3077.000000;1.992594
3076.000000;2.054450
3075.000000;2.295283
3074.000000;2.621730
3073.000000;2.199842
3072.000000;1.955387
3071.000000;1.877856
3070.000000;1.836180
3069.000000;1.835163
3068.000000;1.904966
3067.000000;2.050522
3066.000000;2.128588
3065.000000;2.049036
3064.000000;1.918256
3063.000000;1.803891
3062.000000;1.754230
3061.000000;1.799873
3060.000000;1.942136
3059.000000;2.309140
3058.000000;2.623986
3057.000000;2.251960
3056.000000;2.174000
3055.000000;2.262849
3054.000000;2.311269
3053.000000;2.137412
3052.000000;1.968050
3051.000000;1.895147
3050.000000;1.847000
3049.000000;1.850921
3048.000000;1.895238
3047.000000;1.902641
3046.000000;1.927211
3045.000000;2.063477
3044.000000;2.138223
3043.000000;2.227183
3042.000000;2.656592
3041.000000;2.770051
3040.000000;2.484155
3039.000000;2.188933
3038.000000;1.981444
3037.000000;1.955682
3036.000000;2.093254
3035.000000;2.416053
3034.000000;2.398040
3033.000000;2.158898
3032.000000;2.094734
3031.000000;2.184348
3030.000000;2.577631
3029.000000;2.417613
3028.000000;2.113793
3027.000000;2.129331
3026.000000;2.055062
3025.000000;1.955225
3024.000000;2.007297
3023.000000;2.218171
3022.000000;2.353825
3021.000000;2.409304
3020.000000;2.763308
3019.000000;2.493771
3018.000000;2.237549
3017.000000;2.253104
3016.000000;2.516497
3015.000000;2.864198
3014.000000;2.314361
3013.000000;1.964407
3012.000000;1.812481
3011.000000;1.830482
3010.000000;2.093808
3009.000000;2.299363
3008.000000;2.095636
3007.000000;2.061131
3006.000000;2.236761
3005.000000;2.608653
3004.000000;2.261182
3003.000000;1.987243
3002.000000;1.993048
3001.000000;2.168708
3000.000000;2.385644
2999.000000;2.272104
2998.000000;2.187905
2997.000000;2.208542
2996.000000;2.222179
2995.000000;2.215921
2994.000000;2.201035
2993.000000;2.222118
2992.000000;2.289021
2991.000000;2.231826
2990.000000;2.019050
2989.000000;1.866943
2988.000000;1.842304
2987.000000;1.952030
2986.000000;2.246241
2985.000000;2.288686
2984.000000;1.950252
2983.000000;1.826957
2982.000000;1.874216
2981.000000;2.074648
2980.000000;2.393125
2979.000000;2.532903
2978.000000;2.387481
2977.000000;2.126091
2976.000000;1.960007
2975.000000;1.968400
2974.000000;2.076652
2973.000000;2.016117
2972.000000;1.900147
2971.000000;1.888047
2970.000000;1.935523
2969.000000;2.010306
2968.000000;2.041673
2967.000000;1.997702
2966.000000;1.963866
2965.000000;1.953348
2964.000000;1.910669
2963.000000;1.827839
2962.000000;1.804965
2961.000000;1.889912
2960.000000;2.208273
2959.000000;2.677775
2958.000000;2.326996
2957.000000;2.435451
2956.000000;2.554322
2955.000000;2.674460
2954.000000;2.998177
2953.000000;2.408196
2952.000000;2.648736
2951.000000;2.370757
2950.000000;1.939114
2949.000000;1.841376
2948.000000;1.791287
2947.000000;1.737205
2946.000000;1.733586
2945.000000;1.845048
2944.000000;2.076696
2943.000000;2.132750
2942.000000;2.001325
2941.000000;1.937425
2940.000000;1.993396
2939.000000;2.296668
2938.000000;2.353812
2937.000000;2.014543
2936.000000;1.879703
2935.000000;1.868355
2934.000000;1.959601
2933.000000;2.126967
2932.000000;2.183761
2931.000000;2.043022
2930.000000;1.900039
2929.000000;1.854084
2928.000000;1.901454
2927.000000;2.007814
2926.000000;2.207737
2925.000000;2.248473
2924.000000;2.111921
2923.000000;2.483664
2922.000000;2.774823
2921.000000;2.208852
2920.000000;2.254687
2919.000000;2.581553
2918.000000;2.849661
2917.000000;2.352778
2916.000000;2.118872
2915.000000;2.005408
2914.000000;1.955549
2913.000000;1.986595
2912.000000;2.189577
2911.000000;2.957125
2910.000000;2.338912
2909.000000;2.051027
2908.000000;2.023813
2907.000000;1.991467
2906.000000;1.928359
2905.000000;1.828985
2904.000000;1.773599
2903.000000;1.791398
2902.000000;1.894019
2901.000000;2.098321
2900.000000;2.342869
2899.000000;2.295266
2898.000000;2.094896
2897.000000;1.987019
2896.000000;2.002761
2895.000000;2.109550
2894.000000;2.243423
2893.000000;2.380231
2892.000000;2.485984
2891.000000;2.460421
2890.000000;2.340080
2889.000000;2.214746
2888.000000;2.081570
2887.000000;1.971497
2886.000000;1.927372
2885.000000;1.896755
2884.000000;1.846344
2883.000000;1.853366
2882.000000;1.999200
2881.000000;2.429882
2880.000000;2.772435
2879.000000;2.259802
2878.000000;1.999528
2877.000000;1.855315
2876.000000;1.799031
2875.000000;1.806591
2874.000000;1.936589
2873.000000;2.293708
2872.000000;2.175706
2871.000000;1.919276
2870.000000;1.948945
2869.000000;2.083560
2868.000000;2.279655
2867.000000;2.483042
2866.000000;2.403955
2865.000000;2.314018
2864.000000;2.140859
2863.000000;1.915433
2862.000000;1.830624
2861.000000;1.863483
2860.000000;1.993101
2859.000000;2.280736
2858.000000;2.317583
2857.000000;2.068175
2856.000000;1.966567
2855.000000;1.978885
2854.000000;2.107372
2853.000000;2.338189
2852.000000;2.354587
2851.000000;2.095707
2850.000000;1.886055
2849.000000;1.806799
2848.000000;1.874674
2847.000000;2.136006
2846.000000;2.386264
2845.000000;2.195472
2844.000000;2.006030
2843.000000;1.903353
2842.000000;1.946309
2841.000000;2.145999
2840.000000;2.402159
2839.000000;2.440502
2838.000000;2.342910
2837.000000;2.350700
2836.000000;2.331505
2835.000000;2.250725
2834.000000;2.180808
2833.000000;2.050513
2832.000000;1.950286
2831.000000;1.972089
2830.000000;2.135311
2829.000000;2.367053
2828.000000;2.319054
2827.000000;2.206475
2826.000000;2.252375
2825.000000;2.403897
2824.000000;2.445265
2823.000000;2.306058
2822.000000;2.215830
2821.000000;2.190114
2820.000000;2.163064
2819.000000;2.118513
2818.000000;2.156434
2817.000000;2.268563
2816.000000;2.105579
2815.000000;1.923665
2814.000000;1.929943
2813.000000;2.141458
2812.000000;2.411915
2811.000000;2.177591
2810.000000;1.971808
2809.000000;1.915719
2808.000000;1.939335
2807.000000;2.017609
2806.000000;2.046687
2805.000000;1.976414
2804.000000;1.903002
2803.000000;1.922579
2802.000000;1.985378
2801.000000;1.886745
2800.000000;1.791842
2799.000000;1.825323
2798.000000;2.045183
2797.000000;2.559019
2796.000000;2.458419
2795.000000;2.202051
2794.000000;2.081018
2793.000000;2.036625
2792.000000;2.146222
2791.000000;2.304947
2790.000000;2.308399
2789.000000;2.267368
2788.000000;2.149623
2787.000000;2.036017
2786.000000;2.031120
2785.000000;2.078789
2784.000000;2.091794
2783.000000;2.069495
2782.000000;2.096919
2781.000000;2.280909
2780.000000;2.694100
2779.000000;2.518906
2778.000000;2.260689
2777.000000;2.183639
2776.000000;2.193162
2775.000000;2.247493
2774.000000;2.152314
2773.000000;2.041794
2772.000000;2.006630
2771.000000;1.990240
2770.000000;2.035411
2769.000000;2.119744
2768.000000;2.018897
2767.000000;1.908210
2766.000000;1.927917
2765.000000;2.036761
2764.000000;2.188023
2763.000000;2.173800
2762.000000;1.960619
2761.000000;1.816323
2760.000000;1.742094
2759.000000;1.722054
2758.000000;1.754176
2757.000000;1.864574
2756.000000;2.102139
2755.000000;1.950849
2754.000000;1.696094
2753.000000;1.637140
2752.000000;1.702462
2751.000000;1.857011
2750.000000;2.122713
2749.000000;2.491308
2748.000000;2.254418
2747.000000;2.106040
2746.000000;2.148775
2745.000000;2.132578
2744.000000;1.968227
2743.000000;1.785496
2742.000000;1.696713
2741.000000;1.707991
2740.000000;1.878864
2739.000000;2.121391
2738.000000;1.927608
2737.000000;1.768948
2736.000000;1.767151
2735.000000;1.862191
2734.000000;2.021026
2733.000000;2.257033
2732.000000;2.397281
2731.000000;2.123504
2730.000000;1.925268
2729.000000;1.849871
2728.000000;1.824325
2727.000000;1.827704
2726.000000;1.811442
2725.000000;1.711035
2724.000000;1.640566
2723.000000;1.693800
2722.000000;1.959656
2721.000000;2.247839
2720.000000;1.925685
2719.000000;1.758362
2718.000000;1.707806
2717.000000;1.702489
2716.000000;1.752343
2715.000000;1.858326
2714.000000;1.929626
2713.000000;1.786025
2712.000000;1.628243
2711.000000;1.568687
2710.000000;1.588314
2709.000000;1.673284
2708.000000;1.797899
2707.000000;1.956586
2706.000000;2.357720
2705.000000;2.352227
2704.000000;1.956480
2703.000000;1.928285
2702.000000;2.331950
2701.000000;2.173614
2700.000000;1.751029
2699.000000;1.654697
2698.000000;1.717318
2697.000000;1.999769
2696.000000;2.108803
2695.000000;1.908997
2694.000000;1.907431
2693.000000;1.921727
2692.000000;1.857177
2691.000000;1.863019
2690.000000;2.068355
2689.000000;2.485372
2688.000000;2.199776
2687.000000;1.990551
2686.000000;1.901903
2685.000000;1.807252
2684.000000;1.697907
2683.000000;1.623729
2682.000000;1.646423
2681.000000;1.791041
2680.000000;2.104916
2679.000000;2.547412
2678.000000;2.248991
2677.000000;1.826809
2676.000000;1.691564
2675.000000;1.738423
2674.000000;1.750483
2673.000000;1.640218
2672.000000;1.695024
2671.000000;2.304208
2670.000000;1.903876
2669.000000;1.611417
2668.000000;1.697421
2667.000000;1.970602
2666.000000;1.889020
2665.000000;1.621481
2664.000000;1.525924
2663.000000;1.586095
2662.000000;1.751920
2661.000000;1.738549
2660.000000;1.683325
2659.000000;1.794502
2658.000000;1.941665
2657.000000;1.890030
2656.000000;1.783684
2655.000000;1.699220
2654.000000;1.598140
2653.000000;1.462960
2652.000000;1.361003
2651.000000;1.338526
2650.000000;1.402943
2649.000000;1.563099
2648.000000;1.768713
2647.000000;2.115655
2646.000000;2.281237
2645.000000;1.765789
2644.000000;1.538486
2643.000000;1.508133
2642.000000;1.606639
2641.000000;1.918112
2640.000000;2.480470
2639.000000;1.937859
2638.000000;1.741788
2637.000000;1.770903
2636.000000;2.086670
2635.000000;2.219427
2634.000000;1.735683
2633.000000;1.660082
2632.000000;1.784768
2631.000000;1.969543
2630.000000;2.003130
2629.000000;1.978216
2628.000000;1.885719
2627.000000;1.759985
2626.000000;1.704482
2625.000000;1.818828
2624.000000;2.264963
2623.000000;1.962447
2622.000000;1.654881
2621.000000;1.794725
2620.000000;2.000805
2619.000000;1.704600
2618.000000;1.594786
2617.000000;1.763909
2616.000000;2.015820
2615.000000;2.125149
2614.000000;2.436795
2613.000000;2.690561
2612.000000;2.363384
2611.000000;2.095820
2610.000000;1.865276
2609.000000;1.714624
2608.000000;1.702706
2607.000000;1.793924
2606.000000;1.764602
2605.000000;1.699796
2604.000000;1.791625
2603.000000;2.034802
2602.000000;2.180770
2601.000000;2.386510
2600.000000;2.573396
2599.000000;1.980785
2598.000000;1.657785
2597.000000;1.495046
2596.000000;1.476165
2595.000000;1.625318
2594.000000;1.905058
2593.000000;1.891468
2592.000000;1.798836
2591.000000;1.768459
2590.000000;1.670779
2589.000000;1.629468
2588.000000;1.648644
2587.000000;1.644323
2586.000000;1.617531
2585.000000;1.626102
2584.000000;1.732299
2583.000000;2.048634
2582.000000;2.020456
2581.000000;1.669541
2580.000000;1.538453
2579.000000;1.539345
2578.000000;1.611860
2577.000000;1.653621
2576.000000;1.645394
2575.000000;1.697199
2574.000000;1.801723
2573.000000;1.714547
2572.000000;1.569094
2571.000000;1.569480
2570.000000;1.811684
2569.000000;1.963621
2568.000000;1.646054
2567.000000;1.511050
2566.000000;1.512134
2565.000000;1.568377
2564.000000;1.621081
2563.000000;1.617162
2562.000000;1.548622
2561.000000;1.496992
2560.000000;1.557074
2559.000000;1.841400
2558.000000;1.987183
2557.000000;1.702038
2556.000000;1.653323
2555.000000;1.784437
2554.000000;1.985983
2553.000000;2.141796
2552.000000;2.155218
2551.000000;2.221738
2550.000000;2.270958
2549.000000;1.816883
2548.000000;1.577468
2547.000000;1.492255
2546.000000;1.519562
2545.000000;1.652846
2544.000000;2.046753
2543.000000;2.502904
2542.000000;2.110382
2541.000000;2.113937
2540.000000;2.125758
2539.000000;1.926145
2538.000000;1.774710
2537.000000;1.654443
2536.000000;1.505682
2535.000000;1.412961
2534.000000;1.442088
2533.000000;1.606024
2532.000000;1.728686
2531.000000;1.686504
2530.000000;1.721756
2529.000000;1.817471
2528.000000;1.827843
2527.000000;1.762874
2526.000000;1.719370
2525.000000;1.749622
2524.000000;1.940273
2523.000000;2.180020
2522.000000;1.906364
2521.000000;1.711244
2520.000000;1.644498
2519.000000;1.690358
2518.000000;1.814373
2517.000000;1.853683
2516.000000;1.841218
2515.000000;1.855996
2514.000000;1.825737
2513.000000;1.795186
2512.000000;1.775169
2511.000000;1.792910
2510.000000;1.953625
2509.000000;2.098784
2508.000000;1.992968
2507.000000;2.030037
2506.000000;2.317051
2505.000000;1.906716
2504.000000;1.637715
2503.000000;1.590046
2502.000000;1.725270
2501.000000;2.034163
2500.000000;2.243204
2499.000000;2.548455
2498.000000;2.391130
2497.000000;2.058468
2496.000000;2.027736
2495.000000;2.035971
2494.000000;1.932236
2493.000000;1.737054
2492.000000;1.604165
2491.000000;1.600452
2490.000000;1.679408
2489.000000;1.714263
2488.000000;1.697532
2487.000000;1.728262
2486.000000;1.819661
2485.000000;2.169060
2484.000000;2.332606
2483.000000;1.914308
2482.000000;1.830629
2481.000000;1.945238
2480.000000;1.932673
2479.000000;1.847630
2478.000000;1.842758
2477.000000;1.867788
2476.000000;1.882733
2475.000000;1.873146
2474.000000;1.847517
2473.000000;1.818755
2472.000000;1.812826
2471.000000;1.906730
2470.000000;2.219046
2469.000000;2.723298
2468.000000;2.312238
2467.000000;1.911241
2466.000000;1.684378
2465.000000;1.586916
2464.000000;1.571488
2463.000000;1.623230
2462.000000;1.732020
2461.000000;2.014106
2460.000000;2.353066
2459.000000;1.903267
2458.000000;1.656866
2457.000000;1.613340
2456.000000;1.706308
2455.000000;1.986634
2454.000000;2.197190
2453.000000;2.092953
2452.000000;2.021035
2451.000000;1.957283
2450.000000;1.937743
2449.000000;1.908959
2448.000000;1.786186
2447.000000;1.641915
2446.000000;1.550561
2445.000000;1.539536
2444.000000;1.606217
2443.000000;1.810829
2442.000000;2.239205
2441.000000;1.994355
2440.000000;1.731894
2439.000000;1.711434
2438.000000;1.802057
2437.000000;1.932819
2436.000000;1.952425
2435.000000;1.880137
2434.000000;1.858818
2433.000000;1.958634
2432.000000;2.166772
2431.000000;2.145981
2430.000000;1.988130
2429.000000;1.842354
2428.000000;1.710270
2427.000000;1.663080
2426.000000;1.707055
2425.000000;1.832383
2424.000000;2.023245
2423.000000;2.000032
2422.000000;1.862475
2421.000000;1.810398
2420.000000;1.832462
2419.000000;1.909090
2418.000000;1.881825
2417.000000;1.750525
2416.000000;1.726206
2415.000000;1.870479
2414.000000;2.239304
2413.000000;2.486534
2412.000000;2.349131
2411.000000;2.362776
2410.000000;2.148930
2409.000000;1.906741
2408.000000;1.807417
2407.000000;1.982166
2406.000000;2.172207
2405.000000;1.807595
2404.000000;1.624931
2403.000000;1.604899
2402.000000;1.634555
2401.000000;1.648629
2400.000000;1.666230
2399.000000;1.763015
2398.000000;2.089016
2397.000000;2.211580
2396.000000;1.792938
2395.000000;1.604140
2394.000000;1.541097
2393.000000;1.582735
2392.000000;1.774816
2391.000000;2.164190
2390.000000;1.973476
2389.000000;1.735844
2388.000000;1.649431
2387.000000;1.625153
2386.000000;1.649628
2385.000000;1.699603
2384.000000;1.734108
2383.000000;1.785291
2382.000000;1.873968
2381.000000;1.890646
2380.000000;1.823786
2379.000000;1.717088
2378.000000;1.608024
2377.000000;1.542591
2376.000000;1.532501
2375.000000;1.589817
2374.000000;1.732607
2373.000000;1.980661
2372.000000;2.386745
2371.000000;3.074605
2370.000000;2.417463
2369.000000;2.127257
2368.000000;1.979778
2367.000000;1.905420
2366.000000;1.817450
2365.000000;1.625419
2364.000000;1.468173
2363.000000;1.422678
2362.000000;1.482910
2361.000000;1.586196
2360.000000;1.601257
2359.000000;1.530205
2358.000000;1.476260
2357.000000;1.519125
2356.000000;1.672372
2355.000000;1.633027
2354.000000;1.470855
2353.000000;1.396831
2352.000000;1.360086
2351.000000;1.301152
2350.000000;1.234241
2349.000000;1.280971
2348.000000;1.934673
2347.000000;1.494296
2346.000000;1.356583
2345.000000;1.398176
2344.000000;1.359538
2343.000000;1.264968
2342.000000;1.174998
2341.000000;1.146177
2340.000000;1.194890
2339.000000;1.355490
2338.000000;1.622993
2337.000000;1.654861
2336.000000;1.568413
2335.000000;1.631745
2334.000000;1.804999
2333.000000;2.021466
2332.000000;2.381809
2331.000000;1.991077
2330.000000;1.468554
2329.000000;1.242810
2328.000000;1.138348
2327.000000;1.145889
2326.000000;1.252622
2325.000000;1.407657
2324.000000;1.448707
2323.000000;1.369870
2322.000000;1.302110
2321.000000;1.296228
2320.000000;1.398548
2319.000000;1.693678
2318.000000;2.050065
2317.000000;1.918328
2316.000000;1.922770
2315.000000;1.996093
2314.000000;1.876683
2313.000000;1.674467
2312.000000;1.520414
2311.000000;1.452541
2310.000000;1.468785
2309.000000;1.584058
2308.000000;1.936503
2307.000000;2.539241
2306.000000;1.829774
2305.000000;1.641348
2304.000000;1.489641
2303.000000;1.371720
2302.000000;1.275821
2301.000000;1.218760
2300.000000;1.199826
2299.000000;1.248599
2298.000000;1.386472
2297.000000;1.611196
2296.000000;1.823551
2295.000000;1.841986
2294.000000;1.703132
2293.000000;1.541076
2292.000000;1.424334
2291.000000;1.374276
2290.000000;1.377232
2289.000000;1.402334
2288.000000;1.430591
2287.000000;1.436525
2286.000000;1.380198
2285.000000;1.311684
2284.000000;1.310412
2283.000000;1.391756
2282.000000;1.453394
2281.000000;1.425737
2280.000000;1.409846
2279.000000;1.415114
2278.000000;1.471853
2277.000000;1.634866
2276.000000;1.647344
2275.000000;1.469149
2274.000000;1.435848
2273.000000;1.533180
2272.000000;1.708460
2271.000000;1.841606
2270.000000;1.930292
2269.000000;2.045826
2268.000000;2.486058
2267.000000;2.203029
2266.000000;1.811534
2265.000000;1.600625
2264.000000;1.436331
2263.000000;1.337687
2262.000000;1.302274
2261.000000;1.295643
2260.000000;1.290526
2259.000000;1.300510
2258.000000;1.367462
2257.000000;1.539649
2256.000000;1.914186
2255.000000;2.495011
2254.000000;2.094195
2253.000000;2.011476
2252.000000;2.187371
2251.000000;2.166172
2250.000000;1.829603
2249.000000;1.848628
2248.000000;1.762938
2247.000000;1.489460
2246.000000;1.321924
2245.000000;1.294881
2244.000000;1.367903
2243.000000;1.739191
2242.000000;1.822393
2241.000000;1.354445
2240.000000;1.166628
2239.000000;1.138996
2238.000000;1.257362
2237.000000;1.518503
2236.000000;1.745451
2235.000000;1.958739
2234.000000;2.213409
2233.000000;1.931827
2232.000000;1.598393
2231.000000;1.393498
2230.000000;1.327478
2229.000000;1.376719
2228.000000;1.513400
2227.000000;1.686708
2226.000000;1.728935
2225.000000;1.664842
2224.000000;1.662318
2223.000000;1.577007
2222.000000;1.490623
2221.000000;1.523079
2220.000000;1.727254
2219.000000;2.224667
2218.000000;1.782058
2217.000000;1.460227
2216.000000;1.402724
2215.000000;1.465628
2214.000000;1.656619
2213.000000;1.879818
2212.000000;1.839521
2211.000000;1.693947
2210.000000;1.633139
2209.000000;1.682824
2208.000000;1.863518
2207.000000;2.153828
2206.000000;2.059455
2205.000000;1.834687
2204.000000;1.693952
2203.000000;1.646438
2202.000000;1.708636
2201.000000;1.932785
2200.000000;2.271498
2199.000000;2.088296
2198.000000;1.987714
2197.000000;2.101432
2196.000000;2.108971
2195.000000;1.926047
2194.000000;2.127172
2193.000000;2.366060
2192.000000;1.971730
2191.000000;1.836548
2190.000000;1.792304
2189.000000;1.830980
2188.000000;1.919040
2187.000000;1.790751
2186.000000;1.700890
2185.000000;1.884850
2184.000000;2.243505
2183.000000;1.655739
2182.000000;1.460446
2181.000000;1.468031
2180.000000;1.607010
2179.000000;1.848362
2178.000000;1.913328
2177.000000;1.695282
2176.000000;1.576865
2175.000000;1.664237
2174.000000;1.991219
2173.000000;1.788770
2172.000000;1.600495
2171.000000;1.664830
2170.000000;2.053713
2169.000000;2.522659
2168.000000;2.112904
2167.000000;2.266870
2166.000000;2.340823
2165.000000;2.020276
2164.000000;1.768577
2163.000000;1.827639
2162.000000;1.909892
2161.000000;1.649765
2160.000000;1.516781
2159.000000;1.530766
2158.000000;1.591730
2157.000000;1.629990
2156.000000;1.648191
2155.000000;1.716404
2154.000000;2.093366
2153.000000;1.981688
2152.000000;1.573370
2151.000000;1.474595
2150.000000;1.566163
2149.000000;1.938112
2148.000000;2.414502
2147.000000;1.883960
2146.000000;1.899357
2145.000000;1.993310
2144.000000;1.892563
2143.000000;1.635208
2142.000000;1.562504
2141.000000;1.676330
2140.000000;2.112842
2139.000000;1.940121
2138.000000;1.593010
2137.000000;1.501013
2136.000000;1.470973
2135.000000;1.502061
2134.000000;1.542413
2133.000000;1.562986
2132.000000;1.638758
2131.000000;1.809258
2130.000000;2.700818
2129.000000;1.975007
2128.000000;1.674841
2127.000000;1.642345
2126.000000;1.825165
2125.000000;2.050383
2124.000000;1.657153
2123.000000;1.528673
2122.000000;1.550129
2121.000000;1.726660
2120.000000;2.003131
2119.000000;1.794524
2118.000000;1.581559
2117.000000;1.520350
2116.000000;1.599426
2115.000000;1.810757
2114.000000;1.851862
2113.000000;1.802908
2112.000000;2.255150
2111.000000;2.023767
2110.000000;1.688294
2109.000000;1.871754
2108.000000;1.847157
2107.000000;1.563724
2106.000000;1.460041
2105.000000;1.507487
2104.000000;1.689796
2103.000000;2.093629
2102.000000;1.830568
2101.000000;1.680827
2100.000000;1.753074
2099.000000;1.962327
2098.000000;2.279742
2097.000000;2.394425
2096.000000;1.984717
2095.000000;1.833503
2094.000000;1.818770
2093.000000;2.053987
2092.000000;2.538072
2091.000000;1.923545
2090.000000;1.838897
2089.000000;2.025220
2088.000000;1.920186
2087.000000;1.648355
2086.000000;1.621113
2085.000000;1.702534
2084.000000;1.846898
2083.000000;2.017678
2082.000000;2.121058
2081.000000;2.008605
2080.000000;2.004019
2079.000000;1.993435
2078.000000;1.809541
2077.000000;1.719048
2076.000000;1.624114
2075.000000;1.487628
2074.000000;1.420322
2073.000000;1.466150
2072.000000;1.653442
2071.000000;2.264389
2070.000000;1.867471
2069.000000;1.599197
2068.000000;1.554172
2067.000000;1.586564
2066.000000;1.599558
2065.000000;1.542605
2064.000000;1.475101
2063.000000;1.512575
2062.000000;1.811069
2061.000000;1.901373
2060.000000;1.570866
2059.000000;1.526963
2058.000000;1.576101
2057.000000;1.605886
2056.000000;1.535885
2055.000000;1.532191
2054.000000;1.651728
2053.000000;1.990584
2052.000000;2.388327
2051.000000;1.954382
2050.000000;1.765224
2049.000000;1.751533
2048.000000;1.831917
2047.000000;1.962874
2046.000000;2.058574
2045.000000;2.032213
2044.000000;1.982213
2043.000000;1.993093
2042.000000;2.271095
2041.000000;2.112163
2040.000000;1.588078
2039.000000;1.412400
2038.000000;1.379690
2037.000000;1.469680
2036.000000;1.683200
2035.000000;2.158524
2034.000000;1.838616
2033.000000;1.454035
2032.000000;1.400727
2031.000000;1.522552
2030.000000;1.722728
2029.000000;1.701872
2028.000000;1.590850
2027.000000;1.551772
2026.000000;1.625962
2025.000000;2.070438
2024.000000;2.055779
2023.000000;1.656347
2022.000000;1.514736
2021.000000;1.481167
2020.000000;1.506338
2019.000000;1.561003
2018.000000;1.641412
2017.000000;1.757635
2016.000000;1.934317
2015.000000;1.929756
2014.000000;1.740538
2013.000000;1.635703
2012.000000;1.624886
2011.000000;1.688755
2010.000000;2.056293
2009.000000;2.532936
2008.000000;1.745899
2007.000000;1.599669
2006.000000;1.575840
2005.000000;1.686803
2004.000000;1.829777
2003.000000;1.925839
2002.000000;1.817339
2001.000000;1.672325
2000.000000;1.679722
1999.000000;1.730205
1998.000000;1.656111
1997.000000;1.644965
1996.000000;1.820508
1995.000000;2.233207
1994.000000;2.035598
1993.000000;1.887360
1992.000000;1.911417
1991.000000;2.253202
1990.000000;2.125120
1989.000000;1.691321
1988.000000;1.592976
1987.000000;1.645255
1986.000000;1.777368
1985.000000;1.888167
1984.000000;1.888854
1983.000000;1.818810
1982.000000;1.759163
1981.000000;1.976809
1980.000000;2.296075
1979.000000;1.770021
1978.000000;1.603650
1977.000000;1.635455
1976.000000;1.828468
1975.000000;1.929860
1974.000000;1.780309
1973.000000;1.706896
1972.000000;1.715740
1971.000000;1.735036
1970.000000;1.688028
1969.000000;1.615114
1968.000000;1.597543
1967.000000;1.591114
1966.000000;1.601191
1965.000000;1.729312
1964.000000;1.885945
1963.000000;1.800949
1962.000000;1.880382
1961.000000;2.415350
1960.000000;1.837938
1959.000000;1.589467
1958.000000;1.573454
1957.000000;1.724104
1956.000000;1.792427
1955.000000;1.588372
1954.000000;1.411593
1953.000000;1.302101
1952.000000;1.275978
1951.000000;1.327444
1950.000000;1.418057
1949.000000;1.485923
1948.000000;1.524349
1947.000000;1.585727
1946.000000;1.699674
1945.000000;1.829927
1944.000000;1.876030
1943.000000;1.821157
1942.000000;1.743321
1941.000000;1.631895
1940.000000;1.498374
1939.000000;1.406570
1938.000000;1.406008
1937.000000;1.546389
1936.000000;1.737219
1935.000000;1.572038
1934.000000;1.438643
1933.000000;1.357971
1932.000000;1.299419
1931.000000;1.281623
1930.000000;1.338105
1929.000000;1.477089
1928.000000;1.901929
1927.000000;2.116048
1926.000000;1.553358
1925.000000;1.417333
1924.000000;1.362655
1923.000000;1.363103
1922.000000;1.353729
1921.000000;1.341349
1920.000000;1.334520
1919.000000;1.359020
1918.000000;1.479260
1917.000000;1.680035
1916.000000;1.575107
1915.000000;1.470379
1914.000000;1.504549
1913.000000;1.628938
1912.000000;1.885390
1911.000000;2.139455
1910.000000;1.775148
1909.000000;1.490003
1908.000000;1.277361
1907.000000;1.132726
1906.000000;1.093056
1905.000000;1.178886
1904.000000;1.527239
1903.000000;2.100344
1902.000000;1.527998
1901.000000;1.434121
1900.000000;1.368164
1899.000000;1.277822
1898.000000;1.172263
1897.000000;1.137856
1896.000000;1.206566
1895.000000;1.389271
1894.000000;1.585514
1893.000000;1.526624
1892.000000;1.382784
1891.000000;1.273460
1890.000000;1.202856
1889.000000;1.192427
1888.000000;1.240666
1887.000000;1.323139
1886.000000;1.411863
1885.000000;1.511216
1884.000000;1.668343
1883.000000;1.965377
1882.000000;2.369805
1881.000000;2.243107
1880.000000;2.211261
1879.000000;1.596231
1878.000000;1.363501
1877.000000;1.340392
1876.000000;1.464938
1875.000000;1.522521
1874.000000;1.428099
1873.000000;1.379276
1872.000000;1.378668
1871.000000;1.368343
1870.000000;1.317047
1869.000000;1.297057
1868.000000;1.364694
1867.000000;1.500639
1866.000000;1.638538
1865.000000;1.751716
1864.000000;1.725144
1863.000000;1.543174
1862.000000;1.264157
1861.000000;1.057958
1860.000000;0.971369
1859.000000;0.993557
1858.000000;1.117138
1857.000000;1.333272
1856.000000;1.582941
1855.000000;1.698385
1854.000000;1.638129
1853.000000;1.512606
1852.000000;1.430981
1851.000000;1.413019
1850.000000;1.609365
1849.000000;2.102076
1848.000000;1.598935
1847.000000;1.316196
1846.000000;1.170044
1845.000000;1.100683
1844.000000;1.131044
1843.000000;1.338308
1842.000000;1.662283
1841.000000;1.421130
1840.000000;1.213351
1839.000000;1.150652
1838.000000;1.146071
1837.000000;1.177828
1836.000000;1.228168
1835.000000;1.339647
1834.000000;1.576367
1833.000000;2.293173
1832.000000;2.026953
1831.000000;1.662980
1830.000000;1.473908
1829.000000;1.395491
1828.000000;1.438021
1827.000000;1.392045
1826.000000;1.228459
1825.000000;1.142936
1824.000000;1.153001
1823.000000;1.204656
1822.000000;1.222747
1821.000000;1.249721
1820.000000;1.306289
1819.000000;1.346583
1818.000000;1.388288
1817.000000;1.490740
1816.000000;1.825894
1815.000000;1.905910
1814.000000;1.514790
1813.000000;1.354400
1812.000000;1.317790
1811.000000;1.357505
1810.000000;1.414912
1809.000000;1.451454
1808.000000;1.434465
1807.000000;1.422023
1806.000000;1.509357
1805.000000;1.792127
1804.000000;1.770036
1803.000000;1.444670
1802.000000;1.259234
1801.000000;1.152123
1800.000000;1.121612
1799.000000;1.159962
1798.000000;1.186883
1797.000000;1.179291
1796.000000;1.227903
1795.000000;1.322520
1794.000000;1.302365
1793.000000;1.223444
1792.000000;1.250417
1791.000000;1.543309
1790.000000;1.992873
1789.000000;2.079697
1788.000000;2.098920
1787.000000;1.771708
1786.000000;1.565710
1785.000000;1.309223
1784.000000;1.201220
1783.000000;1.340445
1782.000000;1.796394
1781.000000;1.535263
1780.000000;1.404512
1779.000000;1.569653
1778.000000;1.639638
1777.000000;1.469324
1776.000000;1.441288
1775.000000;1.658837
1774.000000;1.825754
1773.000000;1.406497
1772.000000;1.200191
1771.000000;1.096401
1770.000000;1.098482
1769.000000;1.266531
1768.000000;1.382679
1767.000000;1.209441
1766.000000;1.176390
1765.000000;1.253802
1764.000000;1.361352
1763.000000;1.442652
1762.000000;1.492949
1761.000000;1.650173
1760.000000;1.636452
1759.000000;1.359547
1758.000000;1.256163
1757.000000;1.315647
1756.000000;1.546197
1755.000000;1.422908
1754.000000;1.203157
1753.000000;1.160798
1752.000000;1.191586
1751.000000;1.222189
1750.000000;1.246171
1749.000000;1.378725
1748.000000;1.808745
1747.000000;1.885024
1746.000000;1.568186
1745.000000;1.396271
1744.000000;1.272799
1743.000000;1.242475
1742.000000;1.296934
1741.000000;1.370552
1740.000000;1.348319
1739.000000;1.281894
1738.000000;1.272849
1737.000000;1.327465
1736.000000;1.420833
1735.000000;1.517815
1734.000000;1.584851
1733.000000;1.644137
1732.000000;1.418731
1731.000000;1.123292
1730.000000;0.965197
1729.000000;0.952637
1728.000000;1.080818
1727.000000;1.365957
1726.000000;1.957367
1725.000000;1.464400
1724.000000;1.210466
1723.000000;1.134369
1722.000000;1.131255
1721.000000;1.217357
1720.000000;1.431797
1719.000000;1.559286
1718.000000;1.377068
1717.000000;1.344615
1716.000000;1.440070
1715.000000;1.668129
1714.000000;1.756996
1713.000000;1.680688
1712.000000;1.577175
1711.000000;1.280142
1710.000000;1.156142
1709.000000;1.191766
1708.000000;1.386319
1707.000000;1.751725
1706.000000;1.789796
1705.000000;1.432241
1704.000000;1.209920
1703.000000;1.121326
1702.000000;1.136852
1701.000000;1.212194
1700.000000;1.526269
1699.000000;1.602037
1698.000000;1.259368
1697.000000;1.265972
1696.000000;1.348937
1695.000000;1.398826
1694.000000;1.440824
1693.000000;1.466199
1692.000000;1.330004
1691.000000;1.266094
1690.000000;1.314622
1689.000000;1.308081
1688.000000;1.273138
1687.000000;1.309199
1686.000000;1.405103
1685.000000;1.526907
1684.000000;1.623795
1683.000000;1.628479
1682.000000;1.413912
1681.000000;1.198050
1680.000000;1.098357
1679.000000;1.094497
1678.000000;1.173525
1677.000000;1.335653
1676.000000;1.776142
1675.000000;1.781731
1674.000000;1.392690
1673.000000;1.417347
1672.000000;2.212090
1671.000000;1.481717
1670.000000;1.137660
1669.000000;1.015063
1668.000000;1.002133
1667.000000;1.105733
1666.000000;1.362971
1665.000000;1.735058
1664.000000;1.355486
1663.000000;1.095232
1662.000000;0.975595
1661.000000;0.938391
1660.000000;0.974407
1659.000000;1.101222
1658.000000;1.363286
1657.000000;1.927245
1656.000000;1.954253
1655.000000;1.625631
1654.000000;1.652921
1653.000000;1.696981
1652.000000;1.710640
1651.000000;1.703988
1650.000000;1.699767
1649.000000;1.765405
1648.000000;2.391065
1647.000000;1.992727
1646.000000;1.530753
1645.000000;1.336382
1644.000000;1.254702
1643.000000;1.280678
1642.000000;1.301949
1641.000000;1.287859
1640.000000;1.331455
1639.000000;1.567874
1638.000000;1.993943
1637.000000;1.699488
1636.000000;1.595632
1635.000000;1.560603
1634.000000;1.489132
1633.000000;1.525691
1632.000000;1.668358
1631.000000;1.882383
1630.000000;2.010202
1629.000000;1.537674
1628.000000;1.276171
1627.000000;1.250451
1626.000000;1.334448
1625.000000;1.356156
1624.000000;1.344542
1623.000000;1.385909
1622.000000;1.362954
1621.000000;1.301779
1620.000000;1.284610
1619.000000;1.278282
1618.000000;1.293189
1617.000000;1.359212
1616.000000;1.461212
1615.000000;1.604862
1614.000000;1.781030
1613.000000;1.848138
1612.000000;1.515123
1611.000000;1.244245
1610.000000;1.195665
1609.000000;1.254004
1608.000000;1.307097
1607.000000;1.352256
1606.000000;1.311332
1605.000000;1.197165
1604.000000;1.174718
1603.000000;1.265461
1602.000000;1.460326
1601.000000;1.923840
1600.000000;1.522855
1599.000000;1.103280
1598.000000;0.993518
1597.000000;1.036326
1596.000000;1.166684
1595.000000;1.231939
1594.000000;1.185649
1593.000000;1.155505
1592.000000;1.226254
1591.000000;1.518413
1590.000000;2.032980
1589.000000;1.570548
1588.000000;1.427667
1587.000000;1.466041
1586.000000;1.419991
1585.000000;1.383404
1584.000000;1.418668
1583.000000;1.374077
1582.000000;1.285402
1581.000000;1.283017
1580.000000;1.388846
1579.000000;1.505519
1578.000000;1.474219
1577.000000;1.474548
1576.000000;1.554249
1575.000000;1.640337
1574.000000;1.703327
1573.000000;1.762797
1572.000000;1.835125
1571.000000;1.782119
1570.000000;1.638646
1569.000000;1.658218
1568.000000;1.845630
1567.000000;1.868216
1566.000000;1.764570
1565.000000;1.564360
1564.000000;1.381114
1563.000000;1.311046
1562.000000;1.318402
1561.000000;1.338943
1560.000000;1.324488
1559.000000;1.359602
1558.000000;1.406710
1557.000000;1.202364
1556.000000;1.095314
1555.000000;1.162148
1554.000000;1.285518
1553.000000;1.287753
1552.000000;1.190878
1551.000000;1.190455
1550.000000;1.285578
1549.000000;1.354790
1548.000000;1.258542
1547.000000;1.119819
1546.000000;1.138587
1545.000000;1.341219
1544.000000;1.229293
1543.000000;1.102651
1542.000000;1.275247
1541.000000;1.494080
1540.000000;1.533778
1539.000000;1.564162
1538.000000;1.549237
1537.000000;1.609575
1536.000000;1.773301
1535.000000;1.368561
1534.000000;1.111064
1533.000000;1.050899
1532.000000;1.073130
1531.000000;1.172092
1530.000000;1.378988
1529.000000;1.714176
1528.000000;1.794912
1527.000000;1.564486
1526.000000;1.326810
1525.000000;1.123539
1524.000000;1.055130
1523.000000;1.161971
1522.000000;1.443330
1521.000000;1.826266
1520.000000;1.768036
1519.000000;1.368143
1518.000000;1.106743
1517.000000;0.991841
1516.000000;0.975587
1515.000000;1.000108
1514.000000;1.000587
1513.000000;0.953263
1512.000000;0.900261
1511.000000;0.886645
1510.000000;0.930694
1509.000000;1.002773
1508.000000;1.033724
1507.000000;1.038894
1506.000000;1.039776
1505.000000;1.086882
1504.000000;1.292379
1503.000000;1.623748
1502.000000;1.763099
1501.000000;1.433968
1500.000000;1.124388
1499.000000;0.946768
1498.000000;0.904228
1497.000000;0.977777
1496.000000;1.241613
1495.000000;1.600460
1494.000000;1.214954
1493.000000;0.954562
1492.000000;0.893177
1491.000000;0.935026
1490.000000;1.080962
1489.000000;1.301577
1488.000000;1.647514
1487.000000;2.199889
1486.000000;1.793531
1485.000000;1.544077
1484.000000;1.427632
1483.000000;1.329414
1482.000000;1.274344
1481.000000;1.237385
1480.000000;1.243027
1479.000000;1.289980
1478.000000;1.203672
1477.000000;1.026145
1476.000000;0.925210
1475.000000;0.934545
1474.000000;1.052257
1473.000000;1.232552
1472.000000;1.217663
1471.000000;1.067915
1470.000000;1.001540
1469.000000;1.005426
1468.000000;1.068418
1467.000000;1.220245
1466.000000;1.737881
1465.000000;1.888558
1464.000000;1.483926
1463.000000;1.480107
1462.000000;1.331903
1461.000000;1.166314
1460.000000;1.089750
1459.000000;1.139804
1458.000000;1.400298
1457.000000;1.557561
1456.000000;1.276525
1455.000000;1.208787
1454.000000;1.365537
1453.000000;1.742105
1452.000000;2.219137
1451.000000;1.580757
1450.000000;1.350137
1449.000000;1.270391
1448.000000;1.263894
1447.000000;1.364040
1446.000000;1.563161
1445.000000;1.487717
1444.000000;1.323986
1443.000000;1.238669
1442.000000;1.147985
1441.000000;1.123663
1440.000000;1.259628
1439.000000;1.791442
1438.000000;1.443109
1437.000000;1.011847
1436.000000;0.927640
1435.000000;1.067115
1434.000000;1.346684
1433.000000;1.301265
1432.000000;1.177730
1431.000000;1.122027
1430.000000;1.077971
1429.000000;1.058830
1428.000000;1.072272
1427.000000;1.152800
1426.000000;1.295084
1425.000000;1.340427
1424.000000;1.216050
1423.000000;1.139925
1422.000000;1.172096
1421.000000;1.379974
1420.000000;1.718555
1419.000000;1.447450
1418.000000;1.251455
1417.000000;1.194957
1416.000000;1.112886
1415.000000;1.076627
1414.000000;1.085480
1413.000000;1.109596
1412.000000;1.157479
1411.000000;1.344591
1410.000000;1.523330
1409.000000;1.298856
1408.000000;1.174384
1407.000000;1.215222
1406.000000;1.317172
1405.000000;1.397846
1404.000000;1.352812
1403.000000;1.327066
1402.000000;1.440762
1401.000000;1.562418
1400.000000;1.810274
1399.000000;1.650467
1398.000000;1.163953
1397.000000;1.043721
1396.000000;1.127594
1395.000000;1.472718
1394.000000;1.783385
1393.000000;1.272112
1392.000000;1.150175
1391.000000;1.172667
1390.000000;1.243108
1389.000000;1.281628
1388.000000;1.194769
1387.000000;1.082256
1386.000000;1.026928
1385.000000;1.043630
1384.000000;1.073422
1383.000000;1.079070
1382.000000;1.066512
1381.000000;1.074113
1380.000000;1.146032
1379.000000;1.376168
1378.000000;1.621266
1377.000000;1.418118
1376.000000;1.332828
1375.000000;1.431798
1374.000000;1.461090
1373.000000;1.328518
1372.000000;1.241193
1371.000000;1.237330
1370.000000;1.228877
1369.000000;1.197722
1368.000000;1.216525
1367.000000;1.372266
1366.000000;1.647940
1365.000000;1.994671
1364.000000;2.138032
1363.000000;1.637942
1362.000000;1.427492
1361.000000;1.468904
1360.000000;1.682416
1359.000000;1.838892
1358.000000;1.691849
1357.000000;1.580036
1356.000000;1.554989
1355.000000;1.448106
1354.000000;1.243042
1353.000000;1.135465
1352.000000;1.169131
1351.000000;1.345373
1350.000000;1.598820
1349.000000;1.498035
1348.000000;1.260893
1347.000000;1.186979
1346.000000;1.274148
1345.000000;1.458815
1344.000000;1.536245
1343.000000;1.332224
1342.000000;1.152049
1341.000000;1.138813
1340.000000;1.315047
1339.000000;1.641243
1338.000000;1.830866
1337.000000;1.918725
1336.000000;1.666568
1335.000000;1.397296
1334.000000;1.300366
1333.000000;1.310975
1332.000000;1.588103
1331.000000;1.710514
1330.000000;1.266669
1329.000000;1.086292
1328.000000;1.085740
1327.000000;1.245689
1326.000000;1.499492
1325.000000;1.414053
1324.000000;1.253212
1323.000000;1.219502
1322.000000;1.315305
1321.000000;1.658860
1320.000000;2.019109
1319.000000;1.706840
1318.000000;1.591716
1317.000000;1.519770
1316.000000;1.436623
1315.000000;1.400835
1314.000000;1.324267
1313.000000;1.194472
1312.000000;1.111839
1311.000000;1.121353
1310.000000;1.244496
1309.000000;1.645767
1308.000000;1.708165
1307.000000;1.336585
1306.000000;1.246758
1305.000000;1.170137
1304.000000;1.116296
1303.000000;1.142102
1302.000000;1.261789
1301.000000;1.507696
1300.000000;1.725590
1299.000000;1.708211
1298.000000;1.555297
1297.000000;1.500877
1296.000000;1.655991
1295.000000;1.577833
1294.000000;1.305983
1293.000000;1.215998
1292.000000;1.247578
1291.000000;1.347335
1290.000000;1.605050
1289.000000;1.653540
1288.000000;1.306927
1287.000000;1.125851
1286.000000;1.043827
1285.000000;1.032760
1284.000000;1.161532
1283.000000;1.375969
1282.000000;1.240824
1281.000000;1.077034
1280.000000;1.134111
1279.000000;1.382301
1278.000000;1.803387
1277.000000;1.745770
1276.000000;1.349819
1275.000000;1.151623
1274.000000;1.150258
1273.000000;1.426448
1272.000000;1.611741
1271.000000;1.249856
1270.000000;1.086167
1269.000000;1.071172
1268.000000;1.145506
1267.000000;1.215077
1266.000000;1.145055
1265.000000;1.061157
1264.000000;1.047828
1263.000000;1.115396
1262.000000;1.201016
1261.000000;1.212688
1260.000000;1.211422
1259.000000;1.224656
1258.000000;1.235900
1257.000000;1.271495
1256.000000;1.410354
1255.000000;1.602873
1254.000000;1.391575
1253.000000;1.163136
1252.000000;1.089223
1251.000000;1.135100
1250.000000;1.252121
1249.000000;1.183795
1248.000000;0.995429
1247.000000;0.920689
1246.000000;0.954897
1245.000000;1.136726
1244.000000;1.544100
1243.000000;1.453088
1242.000000;1.244766
1241.000000;1.240489
1240.000000;1.282663
1239.000000;1.382859
1238.000000;1.695564
1237.000000;1.785091
1236.000000;1.288226
1235.000000;1.049381
1234.000000;0.933807
1233.000000;0.907529
1232.000000;0.979877
1231.000000;1.118445
1230.000000;1.154565
1229.000000;1.025122
1228.000000;0.910869
1227.000000;0.864287
1226.000000;0.878640
1225.000000;0.943225
1224.000000;0.956281
1223.000000;0.920481
1222.000000;0.911340
1221.000000;1.021304
1220.000000;1.482278
1219.000000;1.425714
1218.000000;1.122332
1217.000000;1.200922
1216.000000;1.304916
1215.000000;1.248624
1214.000000;1.254958
1213.000000;1.236682
1212.000000;1.138132
1211.000000;1.136328
1210.000000;1.327422
1209.000000;1.647014
1208.000000;1.444584
1207.000000;1.235270
1206.000000;1.142789
1205.000000;1.088508
1204.000000;1.086784
1203.000000;1.247344
1202.000000;1.376033
1201.000000;1.189492
1200.000000;1.108018
