Criado como novo conjunto de dados;"2706_e01_daniel.spp","89286.8 Secs"
cm-1;Abs
10000.000000;0.632500
9999.000000;0.631677
9998.000000;0.631382
9997.000000;0.631917
9996.000000;0.632920
9995.000000;0.633709
9994.000000;0.633836
9993.000000;0.633414
9992.000000;0.632827
9991.000000;0.632370
9990.000000;0.632029
9989.000000;0.631586
9988.000000;0.630912
9987.000000;0.630195
9986.000000;0.629803
9985.000000;0.629889
9984.000000;0.630273
9983.000000;0.630709
9982.000000;0.631079
9981.000000;0.631267
9980.000000;0.631076
9979.000000;0.630471
9978.000000;0.629743
9977.000000;0.629270
9976.000000;0.629195
9975.000000;0.629459
9974.000000;0.629979
9973.000000;0.630605
9972.000000;0.631052
9971.000000;0.631111
9970.000000;0.630868
9969.000000;0.630546
9968.000000;0.630208
9967.000000;0.629826
9966.000000;0.629562
9965.000000;0.629699
9964.000000;0.630238
9963.000000;0.630742
9962.000000;0.630713
9961.000000;0.630068
9960.000000;0.629189
9959.000000;0.628531
9958.000000;0.628193
9957.000000;0.627936
9956.000000;0.627632
9955.000000;0.627531
9954.000000;0.627880
9953.000000;0.628394
9952.000000;0.628507
9951.000000;0.628188
9950.000000;0.628073
9949.000000;0.628567
9948.000000;0.629222
9947.000000;0.629355
9946.000000;0.628949
9945.000000;0.628492
9944.000000;0.628141
9943.000000;0.627608
9942.000000;0.626829
9941.000000;0.626224
9940.000000;0.626160
9939.000000;0.626515
9938.000000;0.626920
9937.000000;0.627147
9936.000000;0.627143
9935.000000;0.626896
9934.000000;0.626448
9933.000000;0.625921
9932.000000;0.625450
9931.000000;0.625159
9930.000000;0.625148
9929.000000;0.625402
9928.000000;0.625727
9927.000000;0.625948
9926.000000;0.626086
9925.000000;0.626195
9924.000000;0.626157
9923.000000;0.625879
9922.000000;0.625581
9921.000000;0.625558
9920.000000;0.625694
9919.000000;0.625593
9918.000000;0.625210
9917.000000;0.624978
9916.000000;0.625173
9915.000000;0.625471
9914.000000;0.625353
9913.000000;0.624727
9912.000000;0.623954
9911.000000;0.623398
9910.000000;0.623151
9909.000000;0.623096
9908.000000;0.623086
9907.000000;0.623081
9906.000000;0.623154
9905.000000;0.623318
9904.000000;0.623402
9903.000000;0.623248
9902.000000;0.622990
9901.000000;0.622948
9900.000000;0.623227
9899.000000;0.623633
9898.000000;0.623988
9897.000000;0.624328
9896.000000;0.624692
9895.000000;0.624950
9894.000000;0.624945
9893.000000;0.624662
9892.000000;0.624154
9891.000000;0.623477
9890.000000;0.622773
9889.000000;0.622252
9888.000000;0.621972
9887.000000;0.621764
9886.000000;0.621479
9885.000000;0.621178
9884.000000;0.620984
9883.000000;0.620875
9882.000000;0.620729
9881.000000;0.620490
9880.000000;0.620197
9879.000000;0.619952
9878.000000;0.619895
9877.000000;0.620122
9876.000000;0.620587
9875.000000;0.621159
9874.000000;0.621759
9873.000000;0.622291
9872.000000;0.622477
9871.000000;0.622034
9870.000000;0.621106
9869.000000;0.620288
9868.000000;0.620077
9867.000000;0.620400
9866.000000;0.620781
9865.000000;0.620819
9864.000000;0.620438
9863.000000;0.619844
9862.000000;0.619386
9861.000000;0.619299
9860.000000;0.619436
9859.000000;0.619370
9858.000000;0.618907
9857.000000;0.618327
9856.000000;0.617973
9855.000000;0.617782
9854.000000;0.617492
9853.000000;0.617193
9852.000000;0.617348
9851.000000;0.618183
9850.000000;0.619277
9849.000000;0.619941
9848.000000;0.619917
9847.000000;0.619575
9846.000000;0.619410
9845.000000;0.619475
9844.000000;0.619385
9843.000000;0.618859
9842.000000;0.618102
9841.000000;0.617569
9840.000000;0.617472
9839.000000;0.617670
9838.000000;0.617963
9837.000000;0.618247
9836.000000;0.618370
9835.000000;0.618127
9834.000000;0.617574
9833.000000;0.617143
9832.000000;0.617195
9831.000000;0.617558
9830.000000;0.617703
9829.000000;0.617347
9828.000000;0.616707
9827.000000;0.616153
9826.000000;0.615838
9825.000000;0.615719
9824.000000;0.615761
9823.000000;0.615969
9822.000000;0.616277
9821.000000;0.616532
9820.000000;0.616617
9819.000000;0.616527
9818.000000;0.616325
9817.000000;0.616063
9816.000000;0.615796
9815.000000;0.615645
9814.000000;0.615734
9813.000000;0.616048
9812.000000;0.616410
9811.000000;0.616662
9810.000000;0.616825
9809.000000;0.617033
9808.000000;0.617313
9807.000000;0.617492
9806.000000;0.617341
9805.000000;0.616780
9804.000000;0.615972
9803.000000;0.615193
9802.000000;0.614595
9801.000000;0.614117
9800.000000;0.613713
9799.000000;0.613583
9798.000000;0.613979
9797.000000;0.614740
9796.000000;0.615256
9795.000000;0.615079
9794.000000;0.614425
9793.000000;0.613868
9792.000000;0.613654
9791.000000;0.613600
9790.000000;0.613536
9789.000000;0.613520
9788.000000;0.613568
9787.000000;0.613497
9786.000000;0.613217
9785.000000;0.612982
9784.000000;0.613140
9783.000000;0.613701
9782.000000;0.614256
9781.000000;0.614290
9780.000000;0.613590
9779.000000;0.612433
9778.000000;0.611413
9777.000000;0.611011
9776.000000;0.611254
9775.000000;0.611803
9774.000000;0.612324
9773.000000;0.612676
9772.000000;0.612832
9771.000000;0.612860
9770.000000;0.612975
9769.000000;0.613348
9768.000000;0.613779
9767.000000;0.613796
9766.000000;0.613244
9765.000000;0.612588
9764.000000;0.612403
9763.000000;0.612694
9762.000000;0.612912
9761.000000;0.612600
9760.000000;0.611828
9759.000000;0.611003
9758.000000;0.610434
9757.000000;0.610152
9756.000000;0.610024
9755.000000;0.609941
9754.000000;0.609888
9753.000000;0.609897
9752.000000;0.609985
9751.000000;0.610123
9750.000000;0.610254
9749.000000;0.610289
9748.000000;0.610154
9747.000000;0.609886
9746.000000;0.609653
9745.000000;0.609595
9744.000000;0.609661
9743.000000;0.609704
9742.000000;0.609700
9741.000000;0.609734
9740.000000;0.609764
9739.000000;0.609578
9738.000000;0.609083
9737.000000;0.608516
9736.000000;0.608251
9735.000000;0.608424
9734.000000;0.608834
9733.000000;0.609166
9732.000000;0.609262
9731.000000;0.609183
9730.000000;0.609067
9729.000000;0.608974
9728.000000;0.608880
9727.000000;0.608832
9726.000000;0.608985
9725.000000;0.609371
9724.000000;0.609711
9723.000000;0.609639
9722.000000;0.609121
9721.000000;0.608515
9720.000000;0.608189
9719.000000;0.608229
9718.000000;0.608517
9717.000000;0.608863
9716.000000;0.609005
9715.000000;0.608709
9714.000000;0.608057
9713.000000;0.607491
9712.000000;0.607389
9711.000000;0.607662
9710.000000;0.607907
9709.000000;0.607890
9708.000000;0.607720
9707.000000;0.607595
9706.000000;0.607536
9705.000000;0.607390
9704.000000;0.607025
9703.000000;0.606499
9702.000000;0.606079
9701.000000;0.606030
9700.000000;0.606349
9699.000000;0.606748
9698.000000;0.606958
9697.000000;0.606970
9696.000000;0.606914
9695.000000;0.606836
9694.000000;0.606729
9693.000000;0.606712
9692.000000;0.606967
9691.000000;0.607455
9690.000000;0.607832
9689.000000;0.607735
9688.000000;0.607131
9687.000000;0.606372
9686.000000;0.605929
9685.000000;0.606015
9684.000000;0.606400
9683.000000;0.606606
9682.000000;0.606347
9681.000000;0.605778
9680.000000;0.605247
9679.000000;0.604885
9678.000000;0.604568
9677.000000;0.604277
9676.000000;0.604240
9675.000000;0.604600
9674.000000;0.605053
9673.000000;0.605105
9672.000000;0.604682
9671.000000;0.604295
9670.000000;0.604449
9669.000000;0.605020
9668.000000;0.605400
9667.000000;0.605199
9666.000000;0.604627
9665.000000;0.604142
9664.000000;0.603950
9663.000000;0.603977
9662.000000;0.604120
9661.000000;0.604309
9660.000000;0.604410
9659.000000;0.604317
9658.000000;0.604164
9657.000000;0.604208
9656.000000;0.604479
9655.000000;0.604704
9654.000000;0.604670
9653.000000;0.604478
9652.000000;0.604327
9651.000000;0.604200
9650.000000;0.603915
9649.000000;0.603411
9648.000000;0.602815
9647.000000;0.602315
9646.000000;0.602065
9645.000000;0.602152
9644.000000;0.602502
9643.000000;0.602886
9642.000000;0.603122
9641.000000;0.603261
9640.000000;0.603416
9639.000000;0.603491
9638.000000;0.603248
9637.000000;0.602680
9636.000000;0.602105
9635.000000;0.601831
9634.000000;0.601846
9633.000000;0.601940
9632.000000;0.601983
9631.000000;0.601962
9630.000000;0.601844
9629.000000;0.601564
9628.000000;0.601168
9627.000000;0.600836
9626.000000;0.600727
9625.000000;0.600851
9624.000000;0.601103
9623.000000;0.601360
9622.000000;0.601533
9621.000000;0.601583
9620.000000;0.601522
9619.000000;0.601385
9618.000000;0.601180
9617.000000;0.600902
9616.000000;0.600592
9615.000000;0.600335
9614.000000;0.600188
9613.000000;0.600153
9612.000000;0.600218
9611.000000;0.600366
9610.000000;0.600516
9609.000000;0.600540
9608.000000;0.600407
9607.000000;0.600255
9606.000000;0.600241
9605.000000;0.600349
9604.000000;0.600415
9603.000000;0.600325
9602.000000;0.600100
9601.000000;0.599808
9600.000000;0.599488
9599.000000;0.599184
9598.000000;0.598976
9597.000000;0.598926
9596.000000;0.599033
9595.000000;0.599229
9594.000000;0.599406
9593.000000;0.599469
9592.000000;0.599436
9591.000000;0.599448
9590.000000;0.599571
9589.000000;0.599635
9588.000000;0.599409
9587.000000;0.598954
9586.000000;0.598628
9585.000000;0.598657
9584.000000;0.598857
9583.000000;0.598882
9582.000000;0.598634
9581.000000;0.598278
9580.000000;0.597933
9579.000000;0.597568
9578.000000;0.597176
9577.000000;0.596907
9576.000000;0.596963
9575.000000;0.597412
9574.000000;0.598130
9573.000000;0.598856
9572.000000;0.599322
9571.000000;0.599399
9570.000000;0.599146
9569.000000;0.598720
9568.000000;0.598246
9567.000000;0.597808
9566.000000;0.597492
9565.000000;0.597333
9564.000000;0.597229
9563.000000;0.597009
9562.000000;0.596592
9561.000000;0.596074
9560.000000;0.595653
9559.000000;0.595498
9558.000000;0.595631
9557.000000;0.595903
9556.000000;0.596111
9555.000000;0.596198
9554.000000;0.596284
9553.000000;0.596458
9552.000000;0.596625
9551.000000;0.596649
9550.000000;0.596572
9549.000000;0.596556
9548.000000;0.596617
9547.000000;0.596566
9546.000000;0.596217
9545.000000;0.595578
9544.000000;0.594854
9543.000000;0.594341
9542.000000;0.594287
9541.000000;0.594702
9540.000000;0.595264
9539.000000;0.595548
9538.000000;0.595429
9537.000000;0.595167
9536.000000;0.595083
9535.000000;0.595233
9534.000000;0.595460
9533.000000;0.595627
9532.000000;0.595680
9531.000000;0.595557
9530.000000;0.595214
9529.000000;0.594735
9528.000000;0.594304
9527.000000;0.594044
9526.000000;0.593932
9525.000000;0.593908
9524.000000;0.593970
9523.000000;0.594100
9522.000000;0.594159
9521.000000;0.593982
9520.000000;0.593588
9519.000000;0.593205
9518.000000;0.593036
9517.000000;0.593079
9516.000000;0.593221
9515.000000;0.593417
9514.000000;0.593656
9513.000000;0.593816
9512.000000;0.593716
9511.000000;0.593358
9510.000000;0.593003
9509.000000;0.592933
9508.000000;0.593198
9507.000000;0.593601
9506.000000;0.593850
9505.000000;0.593719
9504.000000;0.593199
9503.000000;0.592557
9502.000000;0.592162
9501.000000;0.592174
9500.000000;0.592466
9499.000000;0.592852
9498.000000;0.593271
9497.000000;0.593645
9496.000000;0.593763
9495.000000;0.593466
9494.000000;0.592889
9493.000000;0.592315
9492.000000;0.591853
9491.000000;0.591423
9490.000000;0.591052
9489.000000;0.590929
9488.000000;0.591105
9487.000000;0.591325
9486.000000;0.591294
9485.000000;0.591016
9484.000000;0.590761
9483.000000;0.590711
9482.000000;0.590788
9481.000000;0.590806
9480.000000;0.590706
9479.000000;0.590547
9478.000000;0.590346
9477.000000;0.590034
9476.000000;0.589633
9475.000000;0.589378
9474.000000;0.589509
9473.000000;0.589945
9472.000000;0.590315
9471.000000;0.590386
9470.000000;0.590330
9469.000000;0.590445
9468.000000;0.590711
9467.000000;0.590800
9466.000000;0.590502
9465.000000;0.589982
9464.000000;0.589554
9463.000000;0.589327
9462.000000;0.589189
9461.000000;0.589039
9460.000000;0.588932
9459.000000;0.588975
9458.000000;0.589157
9457.000000;0.589334
9456.000000;0.589388
9455.000000;0.589349
9454.000000;0.589332
9453.000000;0.589389
9452.000000;0.589449
9451.000000;0.589379
9450.000000;0.589105
9449.000000;0.588683
9448.000000;0.588326
9447.000000;0.588276
9446.000000;0.588576
9445.000000;0.588954
9444.000000;0.589061
9443.000000;0.588797
9442.000000;0.588335
9441.000000;0.587857
9440.000000;0.587420
9439.000000;0.587095
9438.000000;0.587030
9437.000000;0.587260
9436.000000;0.587576
9435.000000;0.587708
9434.000000;0.587565
9433.000000;0.587246
9432.000000;0.586918
9431.000000;0.586773
9430.000000;0.586944
9429.000000;0.587341
9428.000000;0.587665
9427.000000;0.587710
9426.000000;0.587549
9425.000000;0.587333
9424.000000;0.587045
9423.000000;0.586625
9422.000000;0.586203
9421.000000;0.585993
9420.000000;0.585997
9419.000000;0.586011
9418.000000;0.585919
9417.000000;0.585801
9416.000000;0.585763
9415.000000;0.585813
9414.000000;0.585931
9413.000000;0.586105
9412.000000;0.586268
9411.000000;0.586323
9410.000000;0.586256
9409.000000;0.586144
9408.000000;0.586026
9407.000000;0.585863
9406.000000;0.585630
9405.000000;0.585366
9404.000000;0.585141
9403.000000;0.585022
9402.000000;0.585056
9401.000000;0.585186
9400.000000;0.585233
9399.000000;0.585051
9398.000000;0.584708
9397.000000;0.584408
9396.000000;0.584268
9395.000000;0.584252
9394.000000;0.584269
9393.000000;0.584262
9392.000000;0.584219
9391.000000;0.584201
9390.000000;0.584307
9389.000000;0.584541
9388.000000;0.584745
9387.000000;0.584769
9386.000000;0.584635
9385.000000;0.584452
9384.000000;0.584243
9383.000000;0.583990
9382.000000;0.583742
9381.000000;0.583539
9380.000000;0.583322
9379.000000;0.583076
9378.000000;0.582964
9377.000000;0.583104
9376.000000;0.583301
9375.000000;0.583248
9374.000000;0.582964
9373.000000;0.582786
9372.000000;0.582896
9371.000000;0.583128
9370.000000;0.583267
9369.000000;0.583298
9368.000000;0.583281
9367.000000;0.583209
9366.000000;0.583100
9365.000000;0.583057
9364.000000;0.583105
9363.000000;0.583128
9362.000000;0.583054
9361.000000;0.582963
9360.000000;0.582919
9359.000000;0.582828
9358.000000;0.582589
9357.000000;0.582282
9356.000000;0.582078
9355.000000;0.582051
9354.000000;0.582123
9353.000000;0.582140
9352.000000;0.581986
9351.000000;0.581696
9350.000000;0.581486
9349.000000;0.581533
9348.000000;0.581726
9347.000000;0.581806
9346.000000;0.581742
9345.000000;0.581756
9344.000000;0.581915
9343.000000;0.581965
9342.000000;0.581719
9341.000000;0.581371
9340.000000;0.581205
9339.000000;0.581182
9338.000000;0.581060
9337.000000;0.580829
9336.000000;0.580749
9335.000000;0.580939
9334.000000;0.581176
9333.000000;0.581140
9332.000000;0.580771
9331.000000;0.580319
9330.000000;0.580101
9329.000000;0.580199
9328.000000;0.580359
9327.000000;0.580253
9326.000000;0.579892
9325.000000;0.579656
9324.000000;0.579823
9323.000000;0.580192
9322.000000;0.580334
9321.000000;0.580145
9320.000000;0.579910
9319.000000;0.579859
9318.000000;0.579877
9317.000000;0.579729
9316.000000;0.579383
9315.000000;0.578994
9314.000000;0.578692
9313.000000;0.578494
9312.000000;0.578388
9311.000000;0.578393
9310.000000;0.578513
9309.000000;0.578692
9308.000000;0.578829
9307.000000;0.578861
9306.000000;0.578819
9305.000000;0.578776
9304.000000;0.578742
9303.000000;0.578646
9302.000000;0.578432
9301.000000;0.578146
9300.000000;0.577883
9299.000000;0.577702
9298.000000;0.577612
9297.000000;0.577613
9296.000000;0.577669
9295.000000;0.577700
9294.000000;0.577658
9293.000000;0.577577
9292.000000;0.577498
9291.000000;0.577382
9290.000000;0.577198
9289.000000;0.577043
9288.000000;0.577083
9287.000000;0.577337
9286.000000;0.577625
9285.000000;0.577744
9284.000000;0.577646
9283.000000;0.577428
9282.000000;0.577221
9281.000000;0.577131
9280.000000;0.577213
9279.000000;0.577421
9278.000000;0.577593
9277.000000;0.577565
9276.000000;0.577313
9275.000000;0.576988
9274.000000;0.576778
9273.000000;0.576760
9272.000000;0.576872
9271.000000;0.577005
9270.000000;0.577078
9269.000000;0.577051
9268.000000;0.576883
9267.000000;0.576575
9266.000000;0.576214
9265.000000;0.575927
9264.000000;0.575738
9263.000000;0.575524
9262.000000;0.575176
9261.000000;0.574774
9260.000000;0.574573
9259.000000;0.574793
9258.000000;0.575415
9257.000000;0.576170
9256.000000;0.576696
9255.000000;0.576746
9254.000000;0.576325
9253.000000;0.575661
9252.000000;0.575053
9251.000000;0.574696
9250.000000;0.574597
9249.000000;0.574599
9248.000000;0.574494
9247.000000;0.574185
9246.000000;0.573782
9245.000000;0.573533
9244.000000;0.573595
9243.000000;0.573889
9242.000000;0.574188
9241.000000;0.574343
9240.000000;0.574390
9239.000000;0.574440
9238.000000;0.574531
9237.000000;0.574613
9236.000000;0.574636
9235.000000;0.574591
9234.000000;0.574455
9233.000000;0.574177
9232.000000;0.573747
9231.000000;0.573283
9230.000000;0.572980
9229.000000;0.572949
9228.000000;0.573124
9227.000000;0.573342
9226.000000;0.573499
9225.000000;0.573580
9224.000000;0.573585
9223.000000;0.573474
9222.000000;0.573228
9221.000000;0.572926
9220.000000;0.572705
9219.000000;0.572633
9218.000000;0.572627
9217.000000;0.572510
9216.000000;0.572187
9215.000000;0.571785
9214.000000;0.571586
9213.000000;0.571787
9212.000000;0.572296
9211.000000;0.572806
9210.000000;0.573046
9209.000000;0.572964
9208.000000;0.572680
9207.000000;0.572355
9206.000000;0.572123
9205.000000;0.572065
9204.000000;0.572172
9203.000000;0.572339
9202.000000;0.572429
9201.000000;0.572381
9200.000000;0.572237
9199.000000;0.572079
9198.000000;0.571937
9197.000000;0.571765
9196.000000;0.571493
9195.000000;0.571127
9194.000000;0.570792
9193.000000;0.570651
9192.000000;0.570746
9191.000000;0.570947
9190.000000;0.571065
9189.000000;0.571018
9188.000000;0.570864
9187.000000;0.570698
9186.000000;0.570566
9185.000000;0.570471
9184.000000;0.570416
9183.000000;0.570392
9182.000000;0.570353
9181.000000;0.570246
9180.000000;0.570068
9179.000000;0.569885
9178.000000;0.569797
9177.000000;0.569890
9176.000000;0.570180
9175.000000;0.570560
9174.000000;0.570829
9173.000000;0.570826
9172.000000;0.570577
9171.000000;0.570285
9170.000000;0.570131
9169.000000;0.570127
9168.000000;0.570147
9167.000000;0.570079
9166.000000;0.569888
9165.000000;0.569593
9164.000000;0.569245
9163.000000;0.568923
9162.000000;0.568696
9161.000000;0.568587
9160.000000;0.568589
9159.000000;0.568703
9158.000000;0.568881
9157.000000;0.568986
9156.000000;0.568895
9155.000000;0.568654
9154.000000;0.568438
9153.000000;0.568333
9152.000000;0.568234
9151.000000;0.568018
9150.000000;0.567745
9149.000000;0.567624
9148.000000;0.567789
9147.000000;0.568163
9146.000000;0.568523
9145.000000;0.568684
9144.000000;0.568640
9143.000000;0.568524
9142.000000;0.568421
9141.000000;0.568240
9140.000000;0.567863
9139.000000;0.567379
9138.000000;0.567057
9137.000000;0.567021
9136.000000;0.567101
9135.000000;0.567072
9134.000000;0.566953
9133.000000;0.566923
9132.000000;0.567038
9131.000000;0.567161
9130.000000;0.567173
9129.000000;0.567105
9128.000000;0.567044
9127.000000;0.567018
9126.000000;0.566981
9125.000000;0.566869
9124.000000;0.566630
9123.000000;0.566310
9122.000000;0.566088
9121.000000;0.566142
9120.000000;0.566435
9119.000000;0.566702
9118.000000;0.566699
9117.000000;0.566420
9116.000000;0.566054
9115.000000;0.565782
9114.000000;0.565664
9113.000000;0.565676
9112.000000;0.565772
9111.000000;0.565914
9110.000000;0.566054
9109.000000;0.566122
9108.000000;0.566073
9107.000000;0.565944
9106.000000;0.565848
9105.000000;0.565846
9104.000000;0.565866
9103.000000;0.565792
9102.000000;0.565625
9101.000000;0.565475
9100.000000;0.565404
9099.000000;0.565367
9098.000000;0.565321
9097.000000;0.565296
9096.000000;0.565307
9095.000000;0.565259
9094.000000;0.565052
9093.000000;0.564728
9092.000000;0.564447
9091.000000;0.564298
9090.000000;0.564235
9089.000000;0.564195
9088.000000;0.564215
9087.000000;0.564366
9086.000000;0.564612
9085.000000;0.564808
9084.000000;0.564812
9083.000000;0.564580
9082.000000;0.564178
9081.000000;0.563748
9080.000000;0.563455
9079.000000;0.563373
9078.000000;0.563395
9077.000000;0.563329
9076.000000;0.563113
9075.000000;0.562885
9074.000000;0.562790
9073.000000;0.562799
9072.000000;0.562810
9071.000000;0.562851
9070.000000;0.563025
9069.000000;0.563264
9068.000000;0.563325
9067.000000;0.563098
9066.000000;0.562796
9065.000000;0.562727
9064.000000;0.562952
9063.000000;0.563269
9062.000000;0.563483
9061.000000;0.563573
9060.000000;0.563584
9059.000000;0.563486
9058.000000;0.563204
9057.000000;0.562743
9056.000000;0.562271
9055.000000;0.562027
9054.000000;0.562126
9053.000000;0.562424
9052.000000;0.562619
9051.000000;0.562530
9050.000000;0.562251
9049.000000;0.562004
9048.000000;0.561893
9047.000000;0.561854
9046.000000;0.561793
9045.000000;0.561705
9044.000000;0.561634
9043.000000;0.561600
9042.000000;0.561578
9041.000000;0.561532
9040.000000;0.561464
9039.000000;0.561415
9038.000000;0.561394
9037.000000;0.561327
9036.000000;0.561132
9035.000000;0.560887
9034.000000;0.560831
9033.000000;0.561081
9032.000000;0.561418
9031.000000;0.561454
9030.000000;0.561068
9029.000000;0.560582
9028.000000;0.560438
9027.000000;0.560742
9026.000000;0.561177
9025.000000;0.561346
9024.000000;0.561165
9023.000000;0.560875
9022.000000;0.560709
9021.000000;0.560620
9020.000000;0.560418
9019.000000;0.560084
9018.000000;0.559812
9017.000000;0.559732
9016.000000;0.559730
9015.000000;0.559633
9014.000000;0.559473
9013.000000;0.559431
9012.000000;0.559567
9011.000000;0.559742
9010.000000;0.559790
9009.000000;0.559671
9008.000000;0.559442
9007.000000;0.559197
9006.000000;0.559051
9005.000000;0.559097
9004.000000;0.559293
9003.000000;0.559473
9002.000000;0.559503
9001.000000;0.559409
9000.000000;0.559302
8999.000000;0.559224
8998.000000;0.559123
8997.000000;0.558954
8996.000000;0.558774
8995.000000;0.558696
8994.000000;0.558776
8993.000000;0.558959
8992.000000;0.559117
8991.000000;0.559151
8990.000000;0.559049
8989.000000;0.558877
8988.000000;0.558714
8987.000000;0.558586
8986.000000;0.558449
8985.000000;0.558262
8984.000000;0.558089
8983.000000;0.558086
8982.000000;0.558306
8981.000000;0.558551
8980.000000;0.558523
8979.000000;0.558148
8978.000000;0.557682
8977.000000;0.557426
8976.000000;0.557435
8975.000000;0.557546
8974.000000;0.557617
8973.000000;0.557635
8972.000000;0.557630
8971.000000;0.557591
8970.000000;0.557497
8969.000000;0.557349
8968.000000;0.557175
8967.000000;0.557028
8966.000000;0.556972
8965.000000;0.557029
8964.000000;0.557139
8963.000000;0.557209
8962.000000;0.557184
8961.000000;0.557030
8960.000000;0.556721
8959.000000;0.556305
8958.000000;0.555966
8957.000000;0.555906
8956.000000;0.556144
8955.000000;0.556476
8954.000000;0.556685
8953.000000;0.556727
8952.000000;0.556701
8951.000000;0.556667
8950.000000;0.556563
8949.000000;0.556310
8948.000000;0.555958
8947.000000;0.555685
8946.000000;0.555629
8945.000000;0.555748
8944.000000;0.555888
8943.000000;0.555951
8942.000000;0.555946
8941.000000;0.555867
8940.000000;0.555648
8939.000000;0.555302
8938.000000;0.555012
8937.000000;0.554966
8936.000000;0.555127
8935.000000;0.555265
8934.000000;0.555237
8933.000000;0.555134
8932.000000;0.555121
8931.000000;0.555214
8930.000000;0.555255
8929.000000;0.555094
8928.000000;0.554765
8927.000000;0.554474
8926.000000;0.554416
8925.000000;0.554565
8924.000000;0.554685
8923.000000;0.554581
8922.000000;0.554311
8921.000000;0.554112
8920.000000;0.554109
8919.000000;0.554185
8918.000000;0.554157
8917.000000;0.554010
8916.000000;0.553881
8915.000000;0.553845
8914.000000;0.553778
8913.000000;0.553497
8912.000000;0.553003
8911.000000;0.552545
8910.000000;0.552398
8909.000000;0.552622
8908.000000;0.553036
8907.000000;0.553426
8906.000000;0.553707
8905.000000;0.553886
8904.000000;0.553947
8903.000000;0.553838
8902.000000;0.553566
8901.000000;0.553243
8900.000000;0.553017
8899.000000;0.552954
8898.000000;0.552981
8897.000000;0.552949
8896.000000;0.552803
8895.000000;0.552663
8894.000000;0.552691
8893.000000;0.552870
8892.000000;0.552983
8891.000000;0.552861
8890.000000;0.552607
8889.000000;0.552488
8888.000000;0.552621
8887.000000;0.552819
8886.000000;0.552788
8885.000000;0.552454
8884.000000;0.552065
8883.000000;0.551953
8882.000000;0.552198
8881.000000;0.552543
8880.000000;0.552663
8879.000000;0.552476
8878.000000;0.552140
8877.000000;0.551802
8876.000000;0.551473
8875.000000;0.551180
8874.000000;0.551091
8873.000000;0.551346
8872.000000;0.551806
8871.000000;0.552106
8870.000000;0.551983
8869.000000;0.551517
8868.000000;0.551033
8867.000000;0.550806
8866.000000;0.550869
8865.000000;0.551046
8864.000000;0.551160
8863.000000;0.551184
8862.000000;0.551213
8861.000000;0.551289
8860.000000;0.551318
8859.000000;0.551182
8858.000000;0.550917
8857.000000;0.550699
8856.000000;0.550659
8855.000000;0.550748
8854.000000;0.550808
8853.000000;0.550772
8852.000000;0.550743
8851.000000;0.550856
8850.000000;0.551067
8849.000000;0.551177
8848.000000;0.551063
8847.000000;0.550816
8846.000000;0.550589
8845.000000;0.550398
8844.000000;0.550183
8843.000000;0.550005
8842.000000;0.550013
8841.000000;0.550195
8840.000000;0.550333
8839.000000;0.550255
8838.000000;0.550030
8837.000000;0.549840
8836.000000;0.549772
8835.000000;0.549822
8834.000000;0.549957
8833.000000;0.550092
8832.000000;0.550086
8831.000000;0.549892
8830.000000;0.549660
8829.000000;0.549570
8828.000000;0.549619
8827.000000;0.549667
8826.000000;0.549654
8825.000000;0.549658
8824.000000;0.549737
8823.000000;0.549838
8822.000000;0.549860
8821.000000;0.549749
8820.000000;0.549510
8819.000000;0.549212
8818.000000;0.548979
8817.000000;0.548917
8816.000000;0.549023
8815.000000;0.549202
8814.000000;0.549350
8813.000000;0.549393
8812.000000;0.549286
8811.000000;0.549018
8810.000000;0.548632
8809.000000;0.548208
8808.000000;0.547847
8807.000000;0.547678
8806.000000;0.547814
8805.000000;0.548227
8804.000000;0.548711
8803.000000;0.549029
8802.000000;0.549089
8801.000000;0.548954
8800.000000;0.548726
8799.000000;0.548473
8798.000000;0.548227
8797.000000;0.547991
8796.000000;0.547781
8795.000000;0.547693
8794.000000;0.547855
8793.000000;0.548237
8792.000000;0.548584
8791.000000;0.548644
8790.000000;0.548438
8789.000000;0.548202
8788.000000;0.548105
8787.000000;0.548123
8786.000000;0.548163
8785.000000;0.548182
8784.000000;0.548170
8783.000000;0.548129
8782.000000;0.548098
8781.000000;0.548116
8780.000000;0.548148
8779.000000;0.548122
8778.000000;0.548041
8777.000000;0.547985
8776.000000;0.547969
8775.000000;0.547873
8774.000000;0.547574
8773.000000;0.547099
8772.000000;0.546626
8771.000000;0.546352
8770.000000;0.546356
8769.000000;0.546542
8768.000000;0.546713
8767.000000;0.546738
8766.000000;0.546667
8765.000000;0.546650
8764.000000;0.546754
8763.000000;0.546919
8762.000000;0.547073
8761.000000;0.547218
8760.000000;0.547361
8759.000000;0.547435
8758.000000;0.547354
8757.000000;0.547127
8756.000000;0.546878
8755.000000;0.546742
8754.000000;0.546751
8753.000000;0.546839
8752.000000;0.546936
8751.000000;0.547050
8750.000000;0.547228
8749.000000;0.547448
8748.000000;0.547602
8747.000000;0.547592
8746.000000;0.547419
8745.000000;0.547161
8744.000000;0.546907
8743.000000;0.546722
8742.000000;0.546641
8741.000000;0.546631
8740.000000;0.546618
8739.000000;0.546576
8738.000000;0.546554
8737.000000;0.546579
8736.000000;0.546598
8735.000000;0.546566
8734.000000;0.546534
8733.000000;0.546551
8732.000000;0.546521
8731.000000;0.546280
8730.000000;0.545831
8729.000000;0.545419
8728.000000;0.545316
8727.000000;0.545583
8726.000000;0.546029
8725.000000;0.546367
8724.000000;0.546415
8723.000000;0.546216
8722.000000;0.546000
8721.000000;0.545984
8720.000000;0.546191
8719.000000;0.546468
8718.000000;0.546656
8717.000000;0.546693
8716.000000;0.546585
8715.000000;0.546359
8714.000000;0.546085
8713.000000;0.545880
8712.000000;0.545815
8711.000000;0.545838
8710.000000;0.545821
8709.000000;0.545698
8708.000000;0.545529
8707.000000;0.545436
8706.000000;0.545488
8705.000000;0.545640
8704.000000;0.545788
8703.000000;0.545862
8702.000000;0.545884
8701.000000;0.545919
8700.000000;0.545987
8699.000000;0.546022
8698.000000;0.545935
8697.000000;0.545740
8696.000000;0.545577
8695.000000;0.545578
8694.000000;0.545702
8693.000000;0.545765
8692.000000;0.545670
8691.000000;0.545554
8690.000000;0.545620
8689.000000;0.545878
8688.000000;0.546111
8687.000000;0.546107
8686.000000;0.545843
8685.000000;0.545472
8684.000000;0.545190
8683.000000;0.545122
8682.000000;0.545236
8681.000000;0.545362
8680.000000;0.545362
8679.000000;0.545269
8678.000000;0.545185
8677.000000;0.545074
8676.000000;0.544804
8675.000000;0.544393
8674.000000;0.544080
8673.000000;0.544073
8672.000000;0.544321
8671.000000;0.544591
8670.000000;0.544675
8669.000000;0.544504
8668.000000;0.544167
8667.000000;0.543882
8666.000000;0.543829
8665.000000;0.543948
8664.000000;0.543986
8663.000000;0.543817
8662.000000;0.543604
8661.000000;0.543597
8660.000000;0.543844
8659.000000;0.544184
8658.000000;0.544405
8657.000000;0.544345
8656.000000;0.543963
8655.000000;0.543435
8654.000000;0.543059
8653.000000;0.542975
8652.000000;0.543053
8651.000000;0.543117
8650.000000;0.543156
8649.000000;0.543173
8648.000000;0.543021
8647.000000;0.542579
8646.000000;0.542033
8645.000000;0.541752
8644.000000;0.541880
8643.000000;0.542200
8642.000000;0.542383
8641.000000;0.542252
8640.000000;0.541830
8639.000000;0.541307
8638.000000;0.540968
8637.000000;0.540987
8636.000000;0.541249
8635.000000;0.541461
8634.000000;0.541463
8633.000000;0.541343
8632.000000;0.541262
8631.000000;0.541277
8630.000000;0.541347
8629.000000;0.541385
8628.000000;0.541302
8627.000000;0.541070
8626.000000;0.540773
8625.000000;0.540517
8624.000000;0.540318
8623.000000;0.540152
8622.000000;0.540076
8621.000000;0.540169
8620.000000;0.540353
8619.000000;0.540396
8618.000000;0.540166
8617.000000;0.539772
8616.000000;0.539428
8615.000000;0.539246
8614.000000;0.539193
8613.000000;0.539182
8612.000000;0.539168
8611.000000;0.539162
8610.000000;0.539182
8609.000000;0.539177
8608.000000;0.539066
8607.000000;0.538875
8606.000000;0.538760
8605.000000;0.538806
8604.000000;0.538867
8603.000000;0.538722
8602.000000;0.538351
8601.000000;0.537950
8600.000000;0.537669
8599.000000;0.537479
8598.000000;0.537284
8597.000000;0.537070
8596.000000;0.536904
8595.000000;0.536867
8594.000000;0.536984
8593.000000;0.537151
8592.000000;0.537181
8591.000000;0.537004
8590.000000;0.536774
8589.000000;0.536673
8588.000000;0.536643
8587.000000;0.536470
8586.000000;0.536110
8585.000000;0.535777
8584.000000;0.535675
8583.000000;0.535799
8582.000000;0.536015
8581.000000;0.536192
8580.000000;0.536222
8579.000000;0.536050
8578.000000;0.535781
8577.000000;0.535627
8576.000000;0.535664
8575.000000;0.535737
8574.000000;0.535675
8573.000000;0.535502
8572.000000;0.535351
8571.000000;0.535252
8570.000000;0.535127
8569.000000;0.534941
8568.000000;0.534755
8567.000000;0.534639
8566.000000;0.534597
8565.000000;0.534570
8564.000000;0.534470
8563.000000;0.534243
8562.000000;0.533927
8561.000000;0.533645
8560.000000;0.533490
8559.000000;0.533444
8558.000000;0.533405
8557.000000;0.533280
8556.000000;0.533050
8555.000000;0.532781
8554.000000;0.532598
8553.000000;0.532590
8552.000000;0.532716
8551.000000;0.532841
8550.000000;0.532852
8549.000000;0.532728
8548.000000;0.532491
8547.000000;0.532172
8546.000000;0.531839
8545.000000;0.531596
8544.000000;0.531493
8543.000000;0.531466
8542.000000;0.531413
8541.000000;0.531316
8540.000000;0.531253
8539.000000;0.531289
8538.000000;0.531379
8537.000000;0.531388
8536.000000;0.531232
8535.000000;0.530984
8534.000000;0.530807
8533.000000;0.530761
8532.000000;0.530746
8531.000000;0.530652
8530.000000;0.530514
8529.000000;0.530441
8528.000000;0.530454
8527.000000;0.530467
8526.000000;0.530401
8525.000000;0.530239
8524.000000;0.529996
8523.000000;0.529719
8522.000000;0.529506
8521.000000;0.529419
8520.000000;0.529386
8519.000000;0.529279
8518.000000;0.529093
8517.000000;0.528945
8516.000000;0.528902
8515.000000;0.528891
8514.000000;0.528828
8513.000000;0.528710
8512.000000;0.528571
8511.000000;0.528434
8510.000000;0.528352
8509.000000;0.528402
8508.000000;0.528569
8507.000000;0.528683
8506.000000;0.528557
8505.000000;0.528170
8504.000000;0.527695
8503.000000;0.527376
8502.000000;0.527361
8501.000000;0.527588
8500.000000;0.527788
8499.000000;0.527691
8498.000000;0.527289
8497.000000;0.526850
8496.000000;0.526641
8495.000000;0.526685
8494.000000;0.526821
8493.000000;0.526914
8492.000000;0.526929
8491.000000;0.526861
8490.000000;0.526694
8489.000000;0.526456
8488.000000;0.526255
8487.000000;0.526198
8486.000000;0.526274
8485.000000;0.526337
8484.000000;0.526211
8483.000000;0.525854
8482.000000;0.525404
8481.000000;0.525054
8480.000000;0.524886
8479.000000;0.524851
8478.000000;0.524875
8477.000000;0.524926
8476.000000;0.524978
8475.000000;0.524988
8474.000000;0.524930
8473.000000;0.524827
8472.000000;0.524710
8471.000000;0.524599
8470.000000;0.524517
8469.000000;0.524483
8468.000000;0.524476
8467.000000;0.524440
8466.000000;0.524343
8465.000000;0.524189
8464.000000;0.523988
8463.000000;0.523740
8462.000000;0.523487
8461.000000;0.523314
8460.000000;0.523280
8459.000000;0.523344
8458.000000;0.523393
8457.000000;0.523326
8456.000000;0.523138
8455.000000;0.522933
8454.000000;0.522849
8453.000000;0.522925
8452.000000;0.523044
8451.000000;0.523034
8450.000000;0.522835
8449.000000;0.522537
8448.000000;0.522278
8447.000000;0.522145
8446.000000;0.522157
8445.000000;0.522280
8444.000000;0.522417
8443.000000;0.522452
8442.000000;0.522319
8441.000000;0.522026
8440.000000;0.521611
8439.000000;0.521136
8438.000000;0.520715
8437.000000;0.520497
8436.000000;0.520559
8435.000000;0.520827
8434.000000;0.521114
8433.000000;0.521240
8432.000000;0.521146
8431.000000;0.520922
8430.000000;0.520722
8429.000000;0.520616
8428.000000;0.520546
8427.000000;0.520450
8426.000000;0.520364
8425.000000;0.520364
8424.000000;0.520420
8423.000000;0.520410
8422.000000;0.520277
8421.000000;0.520097
8420.000000;0.519970
8419.000000;0.519894
8418.000000;0.519784
8417.000000;0.519569
8416.000000;0.519253
8415.000000;0.518932
8414.000000;0.518741
8413.000000;0.518750
8412.000000;0.518873
8411.000000;0.518949
8410.000000;0.518898
8409.000000;0.518779
8408.000000;0.518683
8407.000000;0.518644
8406.000000;0.518653
8405.000000;0.518705
8404.000000;0.518760
8403.000000;0.518734
8402.000000;0.518583
8401.000000;0.518380
8400.000000;0.518246
8399.000000;0.518211
8398.000000;0.518171
8397.000000;0.518012
8396.000000;0.517764
8395.000000;0.517584
8394.000000;0.517581
8393.000000;0.517682
8392.000000;0.517728
8391.000000;0.517676
8390.000000;0.517624
8389.000000;0.517600
8388.000000;0.517473
8387.000000;0.517144
8386.000000;0.516762
8385.000000;0.516587
8384.000000;0.516670
8383.000000;0.516787
8382.000000;0.516725
8381.000000;0.516516
8380.000000;0.516329
8379.000000;0.516236
8378.000000;0.516160
8377.000000;0.516013
8376.000000;0.515817
8375.000000;0.515676
8374.000000;0.515663
8373.000000;0.515734
8372.000000;0.515769
8371.000000;0.515716
8370.000000;0.515653
8369.000000;0.515653
8368.000000;0.515642
8367.000000;0.515467
8366.000000;0.515108
8365.000000;0.514740
8364.000000;0.514556
8363.000000;0.514599
8362.000000;0.514762
8361.000000;0.514891
8360.000000;0.514854
8359.000000;0.514619
8358.000000;0.514287
8357.000000;0.514021
8356.000000;0.513885
8355.000000;0.513819
8354.000000;0.513754
8353.000000;0.513706
8352.000000;0.513708
8351.000000;0.513728
8350.000000;0.513708
8349.000000;0.513619
8348.000000;0.513460
8347.000000;0.513236
8346.000000;0.512982
8345.000000;0.512772
8344.000000;0.512661
8343.000000;0.512656
8342.000000;0.512742
8341.000000;0.512882
8340.000000;0.512971
8339.000000;0.512882
8338.000000;0.512616
8337.000000;0.512349
8336.000000;0.512244
8335.000000;0.512260
8334.000000;0.512236
8333.000000;0.512097
8332.000000;0.511917
8331.000000;0.511774
8330.000000;0.511652
8329.000000;0.511505
8328.000000;0.511352
8327.000000;0.511258
8326.000000;0.511238
8325.000000;0.511217
8324.000000;0.511095
8323.000000;0.510869
8322.000000;0.510668
8321.000000;0.510629
8320.000000;0.510734
8319.000000;0.510815
8318.000000;0.510751
8317.000000;0.510609
8316.000000;0.510530
8315.000000;0.510524
8314.000000;0.510465
8313.000000;0.510269
8312.000000;0.510001
8311.000000;0.509789
8310.000000;0.509686
8309.000000;0.509661
8308.000000;0.509682
8307.000000;0.509735
8306.000000;0.509794
8305.000000;0.509797
8304.000000;0.509697
8303.000000;0.509502
8302.000000;0.509276
8301.000000;0.509096
8300.000000;0.509018
8299.000000;0.509046
8298.000000;0.509120
8297.000000;0.509129
8296.000000;0.508989
8295.000000;0.508737
8294.000000;0.508524
8293.000000;0.508489
8292.000000;0.508620
8291.000000;0.508760
8290.000000;0.508751
8289.000000;0.508578
8288.000000;0.508357
8287.000000;0.508210
8286.000000;0.508165
8285.000000;0.508166
8284.000000;0.508155
8283.000000;0.508116
8282.000000;0.508053
8281.000000;0.507936
8280.000000;0.507725
8279.000000;0.507444
8278.000000;0.507186
8277.000000;0.507032
8276.000000;0.506966
8275.000000;0.506912
8274.000000;0.506819
8273.000000;0.506690
8272.000000;0.506549
8271.000000;0.506431
8270.000000;0.506378
8269.000000;0.506409
8268.000000;0.506468
8267.000000;0.506479
8266.000000;0.506431
8265.000000;0.506378
8264.000000;0.506342
8263.000000;0.506273
8262.000000;0.506136
8261.000000;0.505995
8260.000000;0.505941
8259.000000;0.505986
8258.000000;0.506051
8257.000000;0.506063
8256.000000;0.506007
8255.000000;0.505915
8254.000000;0.505819
8253.000000;0.505734
8252.000000;0.505643
8251.000000;0.505513
8250.000000;0.505339
8249.000000;0.505182
8248.000000;0.505116
8247.000000;0.505131
8246.000000;0.505136
8245.000000;0.505066
8244.000000;0.504966
8243.000000;0.504925
8242.000000;0.504955
8241.000000;0.504966
8240.000000;0.504872
8239.000000;0.504698
8238.000000;0.504564
8237.000000;0.504552
8236.000000;0.504606
8235.000000;0.504580
8234.000000;0.504378
8233.000000;0.504078
8232.000000;0.503863
8231.000000;0.503819
8230.000000;0.503829
8229.000000;0.503710
8228.000000;0.503457
8227.000000;0.503258
8226.000000;0.503253
8225.000000;0.503351
8224.000000;0.503347
8223.000000;0.503182
8222.000000;0.503000
8221.000000;0.502954
8220.000000;0.503036
8219.000000;0.503105
8218.000000;0.503038
8217.000000;0.502818
8216.000000;0.502555
8215.000000;0.502419
8214.000000;0.502505
8213.000000;0.502712
8212.000000;0.502813
8211.000000;0.502672
8210.000000;0.502372
8209.000000;0.502096
8208.000000;0.501939
8207.000000;0.501863
8206.000000;0.501803
8205.000000;0.501743
8204.000000;0.501693
8203.000000;0.501649
8202.000000;0.501607
8201.000000;0.501571
8200.000000;0.501564
8199.000000;0.501601
8198.000000;0.501669
8197.000000;0.501710
8196.000000;0.501654
8195.000000;0.501490
8194.000000;0.501293
8193.000000;0.501149
8192.000000;0.501083
8191.000000;0.501044
8190.000000;0.500969
8189.000000;0.500834
8188.000000;0.500666
8187.000000;0.500510
8186.000000;0.500391
8185.000000;0.500301
8184.000000;0.500241
8183.000000;0.500215
8182.000000;0.500195
8181.000000;0.500112
8180.000000;0.499955
8179.000000;0.499834
8178.000000;0.499858
8177.000000;0.499969
8176.000000;0.499977
8175.000000;0.499802
8174.000000;0.499558
8173.000000;0.499377
8172.000000;0.499263
8171.000000;0.499168
8170.000000;0.499129
8169.000000;0.499211
8168.000000;0.499364
8167.000000;0.499450
8166.000000;0.499398
8165.000000;0.499252
8164.000000;0.499074
8163.000000;0.498885
8162.000000;0.498702
8161.000000;0.498571
8160.000000;0.498514
8159.000000;0.498497
8158.000000;0.498444
8157.000000;0.498302
8156.000000;0.498098
8155.000000;0.497951
8154.000000;0.497962
8153.000000;0.498059
8152.000000;0.498028
8151.000000;0.497760
8150.000000;0.497423
8149.000000;0.497290
8148.000000;0.497426
8147.000000;0.497641
8146.000000;0.497726
8145.000000;0.497660
8144.000000;0.497550
8143.000000;0.497485
8142.000000;0.497489
8141.000000;0.497540
8140.000000;0.497580
8139.000000;0.497529
8138.000000;0.497334
8137.000000;0.497027
8136.000000;0.496703
8135.000000;0.496468
8134.000000;0.496375
8133.000000;0.496399
8132.000000;0.496459
8131.000000;0.496487
8130.000000;0.496476
8129.000000;0.496438
8128.000000;0.496374
8127.000000;0.496276
8126.000000;0.496164
8125.000000;0.496056
8124.000000;0.495943
8123.000000;0.495834
8122.000000;0.495787
8121.000000;0.495846
8120.000000;0.495954
8119.000000;0.496000
8118.000000;0.495944
8117.000000;0.495839
8116.000000;0.495738
8115.000000;0.495632
8114.000000;0.495507
8113.000000;0.495398
8112.000000;0.495345
8111.000000;0.495331
8110.000000;0.495299
8109.000000;0.495223
8108.000000;0.495148
8107.000000;0.495151
8106.000000;0.495255
8105.000000;0.495383
8104.000000;0.495427
8103.000000;0.495365
8102.000000;0.495265
8101.000000;0.495174
8100.000000;0.495049
8099.000000;0.494848
8098.000000;0.494632
8097.000000;0.494505
8096.000000;0.494486
8095.000000;0.494507
8094.000000;0.494514
8093.000000;0.494477
8092.000000;0.494354
8091.000000;0.494133
8090.000000;0.493908
8089.000000;0.493819
8088.000000;0.493878
8087.000000;0.493950
8086.000000;0.493909
8085.000000;0.493756
8084.000000;0.493551
8083.000000;0.493323
8082.000000;0.493108
8081.000000;0.492993
8080.000000;0.493045
8079.000000;0.493214
8078.000000;0.493351
8077.000000;0.493336
8076.000000;0.493157
8075.000000;0.492910
8074.000000;0.492733
8073.000000;0.492704
8072.000000;0.492776
8071.000000;0.492823
8070.000000;0.492773
8069.000000;0.492664
8068.000000;0.492561
8067.000000;0.492480
8066.000000;0.492423
8065.000000;0.492423
8064.000000;0.492492
8063.000000;0.492554
8062.000000;0.492498
8061.000000;0.492313
8060.000000;0.492110
8059.000000;0.492001
8058.000000;0.491984
8057.000000;0.491960
8056.000000;0.491835
8055.000000;0.491597
8054.000000;0.491318
8053.000000;0.491103
8052.000000;0.491015
8051.000000;0.491037
8050.000000;0.491090
8049.000000;0.491097
8048.000000;0.491022
8047.000000;0.490880
8046.000000;0.490716
8045.000000;0.490596
8044.000000;0.490572
8043.000000;0.490650
8042.000000;0.490769
8041.000000;0.490847
8040.000000;0.490834
8039.000000;0.490740
8038.000000;0.490619
8037.000000;0.490541
8036.000000;0.490556
8035.000000;0.490641
8034.000000;0.490707
8033.000000;0.490676
8032.000000;0.490566
8031.000000;0.490460
8030.000000;0.490381
8029.000000;0.490268
8028.000000;0.490096
8027.000000;0.489971
8026.000000;0.489999
8025.000000;0.490122
8024.000000;0.490165
8023.000000;0.490038
8022.000000;0.489817
8021.000000;0.489619
8020.000000;0.489473
8019.000000;0.489349
8018.000000;0.489225
8017.000000;0.489084
8016.000000;0.488920
8015.000000;0.488788
8014.000000;0.488794
8013.000000;0.488965
8012.000000;0.489176
8011.000000;0.489261
8010.000000;0.489176
8009.000000;0.489018
8008.000000;0.488895
8007.000000;0.488841
8006.000000;0.488846
8005.000000;0.488880
8004.000000;0.488907
8003.000000;0.488880
8002.000000;0.488755
8001.000000;0.488517
8000.000000;0.488220
7999.000000;0.487993
7998.000000;0.487947
7997.000000;0.488038
7996.000000;0.488096
7995.000000;0.488021
7994.000000;0.487893
7993.000000;0.487845
7992.000000;0.487883
7991.000000;0.487911
7990.000000;0.487875
7989.000000;0.487810
7988.000000;0.487749
7987.000000;0.487698
7986.000000;0.487666
7985.000000;0.487661
7984.000000;0.487664
7983.000000;0.487651
7982.000000;0.487641
7981.000000;0.487645
7980.000000;0.487589
7979.000000;0.487380
7978.000000;0.487072
7977.000000;0.486853
7976.000000;0.486852
7975.000000;0.487002
7974.000000;0.487141
7973.000000;0.487172
7972.000000;0.487109
7971.000000;0.486995
7970.000000;0.486862
7969.000000;0.486741
7968.000000;0.486665
7967.000000;0.486657
7966.000000;0.486702
7965.000000;0.486727
7964.000000;0.486640
7963.000000;0.486413
7962.000000;0.486127
7961.000000;0.485916
7960.000000;0.485855
7959.000000;0.485924
7958.000000;0.486044
7957.000000;0.486129
7956.000000;0.486110
7955.000000;0.485989
7954.000000;0.485860
7953.000000;0.485827
7952.000000;0.485886
7951.000000;0.485913
7950.000000;0.485801
7949.000000;0.485567
7948.000000;0.485313
7947.000000;0.485131
7946.000000;0.485060
7945.000000;0.485091
7944.000000;0.485170
7943.000000;0.485213
7942.000000;0.485152
7941.000000;0.485001
7940.000000;0.484851
7939.000000;0.484797
7938.000000;0.484856
7937.000000;0.484953
7936.000000;0.484982
7935.000000;0.484891
7934.000000;0.484716
7933.000000;0.484530
7932.000000;0.484382
7931.000000;0.484283
7930.000000;0.484231
7929.000000;0.484218
7928.000000;0.484233
7927.000000;0.484257
7926.000000;0.484270
7925.000000;0.484261
7924.000000;0.484241
7923.000000;0.484225
7922.000000;0.484187
7921.000000;0.484051
7920.000000;0.483785
7919.000000;0.483496
7918.000000;0.483356
7917.000000;0.483411
7916.000000;0.483528
7915.000000;0.483560
7914.000000;0.483487
7913.000000;0.483365
7912.000000;0.483219
7911.000000;0.483072
7910.000000;0.483010
7909.000000;0.483107
7908.000000;0.483305
7907.000000;0.483447
7906.000000;0.483422
7905.000000;0.483230
7904.000000;0.482941
7903.000000;0.482671
7902.000000;0.482564
7901.000000;0.482684
7900.000000;0.482910
7899.000000;0.483024
7898.000000;0.482925
7897.000000;0.482721
7896.000000;0.482584
7895.000000;0.482574
7894.000000;0.482616
7893.000000;0.482584
7892.000000;0.482399
7891.000000;0.482102
7890.000000;0.481854
7889.000000;0.481800
7888.000000;0.481927
7887.000000;0.482084
7886.000000;0.482142
7885.000000;0.482088
7884.000000;0.481960
7883.000000;0.481782
7882.000000;0.481579
7881.000000;0.481408
7880.000000;0.481325
7879.000000;0.481333
7878.000000;0.481391
7877.000000;0.481442
7876.000000;0.481422
7875.000000;0.481304
7874.000000;0.481135
7873.000000;0.481012
7872.000000;0.480982
7871.000000;0.481010
7870.000000;0.481046
7869.000000;0.481073
7868.000000;0.481074
7867.000000;0.481001
7866.000000;0.480822
7865.000000;0.480585
7864.000000;0.480388
7863.000000;0.480307
7862.000000;0.480347
7861.000000;0.480454
7860.000000;0.480553
7859.000000;0.480588
7858.000000;0.480550
7857.000000;0.480467
7856.000000;0.480374
7855.000000;0.480306
7854.000000;0.480286
7853.000000;0.480297
7852.000000;0.480276
7851.000000;0.480175
7850.000000;0.480025
7849.000000;0.479897
7848.000000;0.479816
7847.000000;0.479749
7846.000000;0.479683
7845.000000;0.479645
7844.000000;0.479637
7843.000000;0.479615
7842.000000;0.479546
7841.000000;0.479441
7840.000000;0.479323
7839.000000;0.479209
7838.000000;0.479143
7837.000000;0.479174
7836.000000;0.479272
7835.000000;0.479315
7834.000000;0.479226
7833.000000;0.479071
7832.000000;0.478970
7831.000000;0.478951
7830.000000;0.478928
7829.000000;0.478831
7828.000000;0.478697
7827.000000;0.478622
7826.000000;0.478666
7825.000000;0.478784
7824.000000;0.478864
7823.000000;0.478821
7822.000000;0.478688
7821.000000;0.478573
7820.000000;0.478543
7819.000000;0.478552
7818.000000;0.478507
7817.000000;0.478369
7816.000000;0.478186
7815.000000;0.478039
7814.000000;0.477983
7813.000000;0.478012
7812.000000;0.478052
7811.000000;0.478027
7810.000000;0.477930
7809.000000;0.477841
7808.000000;0.477819
7807.000000;0.477836
7806.000000;0.477815
7805.000000;0.477729
7804.000000;0.477622
7803.000000;0.477525
7802.000000;0.477420
7801.000000;0.477276
7800.000000;0.477106
7799.000000;0.476967
7798.000000;0.476906
7797.000000;0.476909
7796.000000;0.476910
7795.000000;0.476847
7794.000000;0.476726
7793.000000;0.476621
7792.000000;0.476600
7791.000000;0.476660
7790.000000;0.476735
7789.000000;0.476755
7788.000000;0.476692
7787.000000;0.476565
7786.000000;0.476430
7785.000000;0.476341
7784.000000;0.476314
7783.000000;0.476333
7782.000000;0.476375
7781.000000;0.476426
7780.000000;0.476455
7779.000000;0.476414
7778.000000;0.476293
7777.000000;0.476145
7776.000000;0.476039
7775.000000;0.475984
7774.000000;0.475932
7773.000000;0.475843
7772.000000;0.475720
7771.000000;0.475585
7770.000000;0.475465
7769.000000;0.475399
7768.000000;0.475414
7767.000000;0.475477
7766.000000;0.475500
7765.000000;0.475413
7764.000000;0.475232
7763.000000;0.475033
7762.000000;0.474886
7761.000000;0.474825
7760.000000;0.474852
7759.000000;0.474939
7758.000000;0.475024
7757.000000;0.475056
7756.000000;0.475026
7755.000000;0.474953
7754.000000;0.474834
7753.000000;0.474674
7752.000000;0.474526
7751.000000;0.474469
7750.000000;0.474507
7749.000000;0.474551
7748.000000;0.474517
7747.000000;0.474414
7746.000000;0.474301
7745.000000;0.474200
7744.000000;0.474097
7743.000000;0.474003
7742.000000;0.473955
7741.000000;0.473957
7740.000000;0.473980
7739.000000;0.473997
7738.000000;0.473999
7737.000000;0.473975
7736.000000;0.473922
7735.000000;0.473861
7734.000000;0.473812
7733.000000;0.473751
7732.000000;0.473634
7731.000000;0.473466
7730.000000;0.473304
7729.000000;0.473207
7728.000000;0.473203
7727.000000;0.473285
7726.000000;0.473402
7725.000000;0.473449
7724.000000;0.473364
7723.000000;0.473214
7722.000000;0.473126
7721.000000;0.473129
7720.000000;0.473123
7719.000000;0.473024
7718.000000;0.472858
7717.000000;0.472697
7716.000000;0.472569
7715.000000;0.472486
7714.000000;0.472479
7713.000000;0.472535
7712.000000;0.472573
7711.000000;0.472521
7710.000000;0.472393
7709.000000;0.472241
7708.000000;0.472087
7707.000000;0.471967
7706.000000;0.471955
7705.000000;0.472073
7704.000000;0.472204
7703.000000;0.472195
7702.000000;0.472034
7701.000000;0.471856
7700.000000;0.471778
7699.000000;0.471804
7698.000000;0.471876
7697.000000;0.471937
7696.000000;0.471914
7695.000000;0.471743
7694.000000;0.471461
7693.000000;0.471216
7692.000000;0.471137
7691.000000;0.471204
7690.000000;0.471279
7689.000000;0.471259
7688.000000;0.471169
7687.000000;0.471102
7686.000000;0.471092
7685.000000;0.471071
7684.000000;0.470971
7683.000000;0.470842
7682.000000;0.470814
7681.000000;0.470931
7680.000000;0.471064
7679.000000;0.471032
7678.000000;0.470796
7677.000000;0.470498
7676.000000;0.470317
7675.000000;0.470308
7674.000000;0.470386
7673.000000;0.470426
7672.000000;0.470385
7671.000000;0.470328
7670.000000;0.470336
7669.000000;0.470385
7668.000000;0.470364
7667.000000;0.470214
7666.000000;0.470010
7665.000000;0.469867
7664.000000;0.469818
7663.000000;0.469814
7662.000000;0.469812
7661.000000;0.469806
7660.000000;0.469787
7659.000000;0.469745
7658.000000;0.469682
7657.000000;0.469601
7656.000000;0.469487
7655.000000;0.469336
7654.000000;0.469200
7653.000000;0.469137
7652.000000;0.469137
7651.000000;0.469143
7650.000000;0.469120
7649.000000;0.469089
7648.000000;0.469076
7647.000000;0.469084
7646.000000;0.469098
7645.000000;0.469086
7644.000000;0.468999
7643.000000;0.468831
7642.000000;0.468655
7641.000000;0.468576
7640.000000;0.468625
7639.000000;0.468721
7638.000000;0.468757
7637.000000;0.468688
7636.000000;0.468549
7635.000000;0.468410
7634.000000;0.468321
7633.000000;0.468285
7632.000000;0.468285
7631.000000;0.468320
7630.000000;0.468393
7629.000000;0.468450
7628.000000;0.468400
7627.000000;0.468223
7626.000000;0.468017
7625.000000;0.467895
7624.000000;0.467878
7623.000000;0.467919
7622.000000;0.467973
7621.000000;0.468006
7620.000000;0.467980
7619.000000;0.467902
7618.000000;0.467846
7617.000000;0.467846
7616.000000;0.467824
7615.000000;0.467698
7614.000000;0.467512
7613.000000;0.467384
7612.000000;0.467330
7611.000000;0.467265
7610.000000;0.467157
7609.000000;0.467070
7608.000000;0.467060
7607.000000;0.467110
7606.000000;0.467193
7605.000000;0.467296
7604.000000;0.467365
7603.000000;0.467313
7602.000000;0.467145
7601.000000;0.466987
7600.000000;0.466942
7599.000000;0.466964
7598.000000;0.466933
7597.000000;0.466805
7596.000000;0.466658
7595.000000;0.466587
7594.000000;0.466612
7593.000000;0.466653
7592.000000;0.466601
7591.000000;0.466439
7590.000000;0.466288
7589.000000;0.466288
7588.000000;0.466431
7587.000000;0.466560
7586.000000;0.466551
7585.000000;0.466435
7584.000000;0.466315
7583.000000;0.466226
7582.000000;0.466128
7581.000000;0.465997
7580.000000;0.465882
7579.000000;0.465858
7578.000000;0.465951
7577.000000;0.466085
7576.000000;0.466130
7575.000000;0.466027
7574.000000;0.465870
7573.000000;0.465797
7572.000000;0.465822
7571.000000;0.465831
7570.000000;0.465755
7569.000000;0.465661
7568.000000;0.465637
7567.000000;0.465657
7566.000000;0.465633
7565.000000;0.465553
7564.000000;0.465498
7563.000000;0.465540
7562.000000;0.465669
7561.000000;0.465789
7560.000000;0.465781
7559.000000;0.465590
7558.000000;0.465300
7557.000000;0.465084
7556.000000;0.465049
7555.000000;0.465132
7554.000000;0.465190
7553.000000;0.465157
7552.000000;0.465088
7551.000000;0.465051
7550.000000;0.465041
7549.000000;0.465006
7548.000000;0.464937
7547.000000;0.464892
7546.000000;0.464919
7545.000000;0.464986
7544.000000;0.464995
7543.000000;0.464898
7542.000000;0.464767
7541.000000;0.464713
7540.000000;0.464763
7539.000000;0.464850
7538.000000;0.464907
7537.000000;0.464922
7536.000000;0.464909
7535.000000;0.464870
7534.000000;0.464806
7533.000000;0.464729
7532.000000;0.464650
7531.000000;0.464592
7530.000000;0.464608
7529.000000;0.464717
7528.000000;0.464843
7527.000000;0.464863
7526.000000;0.464744
7525.000000;0.464580
7524.000000;0.464475
7523.000000;0.464434
7522.000000;0.464404
7521.000000;0.464362
7520.000000;0.464309
7519.000000;0.464242
7518.000000;0.464157
7517.000000;0.464089
7516.000000;0.464090
7515.000000;0.464183
7514.000000;0.464339
7513.000000;0.464474
7512.000000;0.464468
7511.000000;0.464262
7510.000000;0.463950
7509.000000;0.463727
7508.000000;0.463692
7507.000000;0.463755
7506.000000;0.463774
7505.000000;0.463734
7504.000000;0.463731
7503.000000;0.463791
7502.000000;0.463865
7501.000000;0.463882
7500.000000;0.463845
7499.000000;0.463804
7498.000000;0.463808
7497.000000;0.463862
7496.000000;0.463929
7495.000000;0.463956
7494.000000;0.463926
7493.000000;0.463877
7492.000000;0.463837
7491.000000;0.463787
7490.000000;0.463720
7489.000000;0.463688
7488.000000;0.463760
7487.000000;0.463916
7486.000000;0.464057
7485.000000;0.464095
7484.000000;0.464028
7483.000000;0.463917
7482.000000;0.463837
7481.000000;0.463836
7480.000000;0.463896
7479.000000;0.463946
7478.000000;0.463917
7477.000000;0.463809
7476.000000;0.463664
7475.000000;0.463520
7474.000000;0.463422
7473.000000;0.463444
7472.000000;0.463638
7471.000000;0.463927
7470.000000;0.464126
7469.000000;0.464106
7468.000000;0.463918
7467.000000;0.463732
7466.000000;0.463681
7465.000000;0.463772
7464.000000;0.463918
7463.000000;0.464012
7462.000000;0.464005
7461.000000;0.463936
7460.000000;0.463886
7459.000000;0.463906
7458.000000;0.463972
7457.000000;0.464027
7456.000000;0.464033
7455.000000;0.463988
7454.000000;0.463908
7453.000000;0.463815
7452.000000;0.463742
7451.000000;0.463723
7450.000000;0.463777
7449.000000;0.463890
7448.000000;0.464023
7447.000000;0.464137
7446.000000;0.464194
7445.000000;0.464163
7444.000000;0.464034
7443.000000;0.463840
7442.000000;0.463667
7441.000000;0.463616
7440.000000;0.463720
7439.000000;0.463913
7438.000000;0.464080
7437.000000;0.464144
7436.000000;0.464110
7435.000000;0.464033
7434.000000;0.463970
7433.000000;0.463953
7432.000000;0.463991
7431.000000;0.464073
7430.000000;0.464163
7429.000000;0.464224
7428.000000;0.464250
7427.000000;0.464257
7426.000000;0.464251
7425.000000;0.464224
7424.000000;0.464182
7423.000000;0.464154
7422.000000;0.464148
7421.000000;0.464125
7420.000000;0.464058
7419.000000;0.463989
7418.000000;0.463986
7417.000000;0.464039
7416.000000;0.464058
7415.000000;0.464001
7414.000000;0.463945
7413.000000;0.463999
7412.000000;0.464157
7411.000000;0.464307
7410.000000;0.464358
7409.000000;0.464318
7408.000000;0.464252
7407.000000;0.464201
7406.000000;0.464182
7405.000000;0.464214
7404.000000;0.464291
7403.000000;0.464339
7402.000000;0.464268
7401.000000;0.464069
7400.000000;0.463849
7399.000000;0.463753
7398.000000;0.463844
7397.000000;0.464038
7396.000000;0.464170
7395.000000;0.464150
7394.000000;0.464046
7393.000000;0.463988
7392.000000;0.464012
7391.000000;0.464053
7390.000000;0.464079
7389.000000;0.464114
7388.000000;0.464142
7387.000000;0.464069
7386.000000;0.463839
7385.000000;0.463543
7384.000000;0.463351
7383.000000;0.463331
7382.000000;0.463384
7381.000000;0.463358
7380.000000;0.463212
7379.000000;0.463060
7378.000000;0.463049
7377.000000;0.463232
7376.000000;0.463522
7375.000000;0.463787
7374.000000;0.463963
7373.000000;0.464102
7372.000000;0.464275
7371.000000;0.464480
7370.000000;0.464662
7369.000000;0.464767
7368.000000;0.464747
7367.000000;0.464567
7366.000000;0.464251
7365.000000;0.463920
7364.000000;0.463731
7363.000000;0.463741
7362.000000;0.463858
7361.000000;0.463936
7360.000000;0.463915
7359.000000;0.463842
7358.000000;0.463776
7357.000000;0.463734
7356.000000;0.463703
7355.000000;0.463690
7354.000000;0.463691
7353.000000;0.463640
7352.000000;0.463421
7351.000000;0.462966
7350.000000;0.462359
7349.000000;0.461841
7348.000000;0.461662
7347.000000;0.461856
7346.000000;0.462228
7345.000000;0.462562
7344.000000;0.462836
7343.000000;0.463178
7342.000000;0.463659
7341.000000;0.464172
7340.000000;0.464562
7339.000000;0.464807
7338.000000;0.465002
7337.000000;0.465212
7336.000000;0.465393
7335.000000;0.465421
7334.000000;0.465202
7333.000000;0.464815
7332.000000;0.464525
7331.000000;0.464592
7330.000000;0.464985
7329.000000;0.465411
7328.000000;0.465672
7327.000000;0.465879
7326.000000;0.466242
7325.000000;0.466745
7324.000000;0.467173
7323.000000;0.467397
7322.000000;0.467518
7321.000000;0.467666
7320.000000;0.467772
7319.000000;0.467647
7318.000000;0.467241
7317.000000;0.466726
7316.000000;0.466382
7315.000000;0.466377
7314.000000;0.466607
7313.000000;0.466756
7312.000000;0.466600
7311.000000;0.466284
7310.000000;0.466182
7309.000000;0.466488
7308.000000;0.467033
7307.000000;0.467482
7306.000000;0.467632
7305.000000;0.467526
7304.000000;0.467353
7303.000000;0.467325
7302.000000;0.467546
7301.000000;0.467909
7300.000000;0.468187
7299.000000;0.468301
7298.000000;0.468442
7297.000000;0.468827
7296.000000;0.469422
7295.000000;0.470014
7294.000000;0.470488
7293.000000;0.470901
7292.000000;0.471317
7291.000000;0.471696
7290.000000;0.471961
7289.000000;0.472110
7288.000000;0.472215
7287.000000;0.472354
7286.000000;0.472570
7285.000000;0.472871
7284.000000;0.473201
7283.000000;0.473467
7282.000000;0.473626
7281.000000;0.473734
7280.000000;0.473884
7279.000000;0.474093
7278.000000;0.474273
7277.000000;0.474333
7276.000000;0.474299
7275.000000;0.474319
7274.000000;0.474523
7273.000000;0.474891
7272.000000;0.475278
7271.000000;0.475558
7270.000000;0.475736
7269.000000;0.475901
7268.000000;0.476110
7267.000000;0.476328
7266.000000;0.476492
7265.000000;0.476617
7264.000000;0.476803
7263.000000;0.477125
7262.000000;0.477534
7261.000000;0.477909
7260.000000;0.478192
7259.000000;0.478447
7258.000000;0.478762
7257.000000;0.479105
7256.000000;0.479292
7255.000000;0.479104
7254.000000;0.478520
7253.000000;0.477835
7252.000000;0.477523
7251.000000;0.477868
7250.000000;0.478661
7249.000000;0.479364
7248.000000;0.479627
7247.000000;0.479591
7246.000000;0.479622
7245.000000;0.479834
7244.000000;0.480027
7243.000000;0.480094
7242.000000;0.480263
7241.000000;0.480823
7240.000000;0.481710
7239.000000;0.482521
7238.000000;0.482933
7237.000000;0.483009
7236.000000;0.483069
7235.000000;0.483367
7234.000000;0.483877
7233.000000;0.484360
7232.000000;0.484681
7231.000000;0.485023
7230.000000;0.485671
7229.000000;0.486646
7228.000000;0.487668
7227.000000;0.488429
7226.000000;0.488820
7225.000000;0.488929
7224.000000;0.488945
7223.000000;0.489102
7222.000000;0.489561
7221.000000;0.490255
7220.000000;0.490934
7219.000000;0.491420
7218.000000;0.491768
7217.000000;0.492117
7216.000000;0.492480
7215.000000;0.492809
7214.000000;0.493194
7213.000000;0.493796
7212.000000;0.494581
7211.000000;0.495310
7210.000000;0.495809
7209.000000;0.496140
7208.000000;0.496433
7207.000000;0.496685
7206.000000;0.496816
7205.000000;0.496889
7204.000000;0.497147
7203.000000;0.497792
7202.000000;0.498768
7201.000000;0.499810
7200.000000;0.500681
7199.000000;0.501312
7198.000000;0.501784
7197.000000;0.502209
7196.000000;0.502656
7195.000000;0.503106
7194.000000;0.503460
7193.000000;0.503637
7192.000000;0.503710
7191.000000;0.503889
7190.000000;0.504320
7189.000000;0.504888
7188.000000;0.505314
7187.000000;0.505465
7186.000000;0.505511
7185.000000;0.505739
7184.000000;0.506294
7183.000000;0.507133
7182.000000;0.508134
7181.000000;0.509154
7180.000000;0.510048
7179.000000;0.510796
7178.000000;0.511549
7177.000000;0.512425
7176.000000;0.513293
7175.000000;0.513869
7174.000000;0.514006
7173.000000;0.513841
7172.000000;0.513670
7171.000000;0.513728
7170.000000;0.514099
7169.000000;0.514705
7168.000000;0.515339
7167.000000;0.515835
7166.000000;0.516268
7165.000000;0.516910
7164.000000;0.517920
7163.000000;0.519149
7162.000000;0.520306
7161.000000;0.521290
7160.000000;0.522261
7159.000000;0.523363
7158.000000;0.524483
7157.000000;0.525369
7156.000000;0.525915
7155.000000;0.526232
7154.000000;0.526499
7153.000000;0.526798
7152.000000;0.527156
7151.000000;0.527655
7150.000000;0.528384
7149.000000;0.529233
7148.000000;0.529907
7147.000000;0.530245
7146.000000;0.530425
7145.000000;0.530728
7144.000000;0.531204
7143.000000;0.531698
7142.000000;0.532130
7141.000000;0.532580
7140.000000;0.533158
7139.000000;0.533934
7138.000000;0.534905
7137.000000;0.535927
7136.000000;0.536755
7135.000000;0.537298
7134.000000;0.537757
7133.000000;0.538381
7132.000000;0.539154
7131.000000;0.539850
7130.000000;0.540288
7129.000000;0.540351
7128.000000;0.539950
7127.000000;0.539251
7126.000000;0.538793
7125.000000;0.538986
7124.000000;0.539543
7123.000000;0.539812
7122.000000;0.539714
7121.000000;0.539917
7120.000000;0.540893
7119.000000;0.542214
7118.000000;0.543079
7117.000000;0.543265
7116.000000;0.543237
7115.000000;0.543468
7114.000000;0.544018
7113.000000;0.544653
7112.000000;0.545081
7111.000000;0.545089
7110.000000;0.544705
7109.000000;0.544230
7108.000000;0.543925
7107.000000;0.543722
7106.000000;0.543431
7105.000000;0.543145
7104.000000;0.543195
7103.000000;0.543654
7102.000000;0.544052
7101.000000;0.543688
7100.000000;0.542308
7099.000000;0.540557
7098.000000;0.539605
7097.000000;0.540048
7096.000000;0.541195
7095.000000;0.541708
7094.000000;0.541047
7093.000000;0.539993
7092.000000;0.539561
7091.000000;0.539852
7090.000000;0.540249
7089.000000;0.540329
7088.000000;0.540071
7087.000000;0.539353
7086.000000;0.537884
7085.000000;0.535760
7084.000000;0.533680
7083.000000;0.532404
7082.000000;0.532084
7081.000000;0.532138
7080.000000;0.531739
7079.000000;0.530451
7078.000000;0.528499
7077.000000;0.526533
7076.000000;0.525088
7075.000000;0.524230
7074.000000;0.523665
7073.000000;0.523027
7072.000000;0.521987
7071.000000;0.520339
7070.000000;0.518312
7069.000000;0.516636
7068.000000;0.515867
7067.000000;0.515570
7066.000000;0.514598
7065.000000;0.512424
7064.000000;0.509885
7063.000000;0.508232
7062.000000;0.507681
7061.000000;0.507263
7060.000000;0.506079
7059.000000;0.504276
7058.000000;0.502593
7057.000000;0.501316
7056.000000;0.500022
7055.000000;0.498233
7054.000000;0.496013
7053.000000;0.493891
7052.000000;0.492325
7051.000000;0.491250
7050.000000;0.490047
7049.000000;0.488077
7048.000000;0.485438
7047.000000;0.482985
7046.000000;0.481357
7045.000000;0.480090
7044.000000;0.478082
7043.000000;0.475012
7042.000000;0.471834
7041.000000;0.469663
7040.000000;0.468593
7039.000000;0.467828
7038.000000;0.466593
7037.000000;0.464591
7036.000000;0.461860
7035.000000;0.458690
7034.000000;0.455592
7033.000000;0.452937
7032.000000;0.450666
7031.000000;0.448565
7030.000000;0.446717
7029.000000;0.445309
7028.000000;0.444024
7027.000000;0.442121
7026.000000;0.439301
7025.000000;0.436107
7024.000000;0.433227
7023.000000;0.430686
7022.000000;0.428014
7021.000000;0.425087
7020.000000;0.422460
7019.000000;0.420720
7018.000000;0.419687
7017.000000;0.418516
7016.000000;0.416604
7015.000000;0.414169
7014.000000;0.411725
7013.000000;0.409257
7012.000000;0.406355
7011.000000;0.403074
7010.000000;0.400105
7009.000000;0.397875
7008.000000;0.395870
7007.000000;0.393170
7006.000000;0.389527
7005.000000;0.385707
7004.000000;0.382912
7003.000000;0.381875
7002.000000;0.382159
7001.000000;0.382105
7000.000000;0.379950
6999.000000;0.375388
6998.000000;0.369799
6997.000000;0.364813
6996.000000;0.361056
6995.000000;0.358402
6994.000000;0.356701
6993.000000;0.355722
6992.000000;0.354842
6991.000000;0.353386
6990.000000;0.351155
6989.000000;0.348213
6988.000000;0.344539
6987.000000;0.340457
6986.000000;0.336942
6985.000000;0.334679
6984.000000;0.332950
6983.000000;0.330274
6982.000000;0.326256
6981.000000;0.322171
6980.000000;0.319442
6979.000000;0.318082
6978.000000;0.316953
6977.000000;0.315131
6976.000000;0.312669
6975.000000;0.310141
6974.000000;0.307745
6973.000000;0.305019
6972.000000;0.301401
6971.000000;0.296911
6970.000000;0.292151
6969.000000;0.287794
6968.000000;0.284388
6967.000000;0.282448
6966.000000;0.282115
6965.000000;0.282550
6964.000000;0.282210
6963.000000;0.280125
6962.000000;0.276606
6961.000000;0.272504
6960.000000;0.268376
6959.000000;0.264671
6958.000000;0.261847
6957.000000;0.259753
6956.000000;0.257564
6955.000000;0.254910
6954.000000;0.252438
6953.000000;0.250666
6952.000000;0.249041
6951.000000;0.246929
6950.000000;0.244843
6949.000000;0.243620
6948.000000;0.242786
6947.000000;0.240887
6946.000000;0.237437
6945.000000;0.233539
6944.000000;0.230427
6943.000000;0.228155
6942.000000;0.225900
6941.000000;0.222948
6940.000000;0.219211
6939.000000;0.215285
6938.000000;0.212167
6937.000000;0.210492
6936.000000;0.209882
6935.000000;0.209310
6934.000000;0.208034
6933.000000;0.205960
6932.000000;0.203375
6931.000000;0.200736
6930.000000;0.198527
6929.000000;0.196833
6928.000000;0.195159
6927.000000;0.192981
6926.000000;0.190299
6925.000000;0.187392
6924.000000;0.184458
6923.000000;0.181924
6922.000000;0.180542
6921.000000;0.180414
6920.000000;0.180282
6919.000000;0.178663
6918.000000;0.175615
6917.000000;0.172683
6916.000000;0.171114
6915.000000;0.170760
6914.000000;0.170653
6913.000000;0.170004
6912.000000;0.168553
6911.000000;0.166507
6910.000000;0.164270
6909.000000;0.161921
6908.000000;0.159167
6907.000000;0.156145
6906.000000;0.153802
6905.000000;0.152836
6904.000000;0.152534
6903.000000;0.151507
6902.000000;0.149551
6901.000000;0.147894
6900.000000;0.147420
6899.000000;0.147433
6898.000000;0.146415
6897.000000;0.143581
6896.000000;0.139501
6895.000000;0.135581
6894.000000;0.133102
6893.000000;0.132378
6892.000000;0.132605
6891.000000;0.132728
6890.000000;0.132354
6889.000000;0.131576
6888.000000;0.130325
6887.000000;0.128531
6886.000000;0.126779
6885.000000;0.125959
6884.000000;0.126042
6883.000000;0.125817
6882.000000;0.124187
6881.000000;0.121390
6880.000000;0.118714
6879.000000;0.117268
6878.000000;0.117203
6877.000000;0.117836
6876.000000;0.118174
6875.000000;0.117470
6874.000000;0.115684
6873.000000;0.113581
6872.000000;0.112237
6871.000000;0.112186
6870.000000;0.112931
6869.000000;0.113351
6868.000000;0.112728
6867.000000;0.111270
6866.000000;0.109573
6865.000000;0.107901
6864.000000;0.106339
6863.000000;0.105312
6862.000000;0.105283
6861.000000;0.105882
6860.000000;0.105996
6859.000000;0.104975
6858.000000;0.103257
6857.000000;0.101695
6856.000000;0.100821
6855.000000;0.100829
6854.000000;0.101546
6853.000000;0.102208
6852.000000;0.101922
6851.000000;0.100667
6850.000000;0.099235
6849.000000;0.097990
6848.000000;0.096506
6847.000000;0.094839
6846.000000;0.094208
6845.000000;0.095613
6844.000000;0.098328
6843.000000;0.100514
6842.000000;0.101023
6841.000000;0.100112
6840.000000;0.098713
6839.000000;0.097632
6838.000000;0.097247
6837.000000;0.097398
6836.000000;0.097593
6835.000000;0.097605
6834.000000;0.097577
6833.000000;0.097328
6832.000000;0.096214
6831.000000;0.094292
6830.000000;0.092951
6829.000000;0.093556
6828.000000;0.095811
6827.000000;0.098175
6826.000000;0.099550
6825.000000;0.099840
6824.000000;0.099219
6823.000000;0.097847
6822.000000;0.096283
6821.000000;0.095298
6820.000000;0.095168
6819.000000;0.095711
6818.000000;0.096929
6817.000000;0.098879
6816.000000;0.100922
6815.000000;0.101977
6814.000000;0.101776
6813.000000;0.101292
6812.000000;0.101615
6811.000000;0.102840
6810.000000;0.104297
6809.000000;0.105358
6808.000000;0.105736
6807.000000;0.105411
6806.000000;0.104659
6805.000000;0.104025
6804.000000;0.103973
6803.000000;0.104538
6802.000000;0.105349
6801.000000;0.105922
6800.000000;0.105989
6799.000000;0.105747
6798.000000;0.105813
6797.000000;0.106729
6796.000000;0.108400
6795.000000;0.110112
6794.000000;0.111141
6793.000000;0.111323
6792.000000;0.111110
6791.000000;0.111171
6790.000000;0.111924
6789.000000;0.113320
6788.000000;0.114968
6787.000000;0.116421
6786.000000;0.117364
6785.000000;0.117695
6784.000000;0.117607
6783.000000;0.117539
6782.000000;0.117805
6781.000000;0.118278
6780.000000;0.118635
6779.000000;0.118857
6778.000000;0.119242
6777.000000;0.119953
6776.000000;0.120855
6775.000000;0.121832
6774.000000;0.122889
6773.000000;0.123820
6772.000000;0.124198
6771.000000;0.123894
6770.000000;0.123344
6769.000000;0.123108
6768.000000;0.123429
6767.000000;0.124343
6766.000000;0.125803
6765.000000;0.127428
6764.000000;0.128558
6763.000000;0.128960
6762.000000;0.129225
6761.000000;0.130082
6760.000000;0.131482
6759.000000;0.132738
6758.000000;0.133449
6757.000000;0.133873
6756.000000;0.134388
6755.000000;0.134970
6754.000000;0.135353
6753.000000;0.135545
6752.000000;0.135994
6751.000000;0.137133
6750.000000;0.138747
6749.000000;0.139955
6748.000000;0.140073
6747.000000;0.139473
6746.000000;0.139250
6745.000000;0.140027
6744.000000;0.141435
6743.000000;0.142791
6742.000000;0.143809
6741.000000;0.144444
6740.000000;0.144568
6739.000000;0.144264
6738.000000;0.144119
6737.000000;0.144728
6736.000000;0.146014
6735.000000;0.147371
6734.000000;0.148359
6733.000000;0.148931
6732.000000;0.149162
6731.000000;0.149232
6730.000000;0.149636
6729.000000;0.150878
6728.000000;0.152790
6727.000000;0.154437
6726.000000;0.154933
6725.000000;0.154285
6724.000000;0.153371
6723.000000;0.153212
6722.000000;0.154262
6721.000000;0.156191
6720.000000;0.158183
6719.000000;0.159507
6718.000000;0.159919
6717.000000;0.159659
6716.000000;0.159216
6715.000000;0.159116
6714.000000;0.159733
6713.000000;0.161075
6712.000000;0.162755
6711.000000;0.164233
6710.000000;0.165097
6709.000000;0.165268
6708.000000;0.165052
6707.000000;0.164998
6706.000000;0.165560
6705.000000;0.166632
6704.000000;0.167650
6703.000000;0.168222
6702.000000;0.168516
6701.000000;0.168947
6700.000000;0.169693
6699.000000;0.170655
6698.000000;0.171643
6697.000000;0.172426
6696.000000;0.172827
6695.000000;0.172997
6694.000000;0.173402
6693.000000;0.174284
6692.000000;0.175281
6691.000000;0.175870
6690.000000;0.176055
6689.000000;0.176324
6688.000000;0.176983
6687.000000;0.177878
6686.000000;0.178762
6685.000000;0.179609
6684.000000;0.180470
6683.000000;0.181234
6682.000000;0.181712
6681.000000;0.181890
6680.000000;0.182036
6679.000000;0.182543
6678.000000;0.183620
6677.000000;0.185072
6676.000000;0.186403
6675.000000;0.187221
6674.000000;0.187499
6673.000000;0.187443
6672.000000;0.187283
6671.000000;0.187305
6670.000000;0.187862
6669.000000;0.189065
6668.000000;0.190503
6667.000000;0.191558
6666.000000;0.192029
6665.000000;0.192278
6664.000000;0.192734
6663.000000;0.193439
6662.000000;0.194122
6661.000000;0.194556
6660.000000;0.194770
6659.000000;0.194989
6658.000000;0.195438
6657.000000;0.196142
6656.000000;0.196931
6655.000000;0.197672
6654.000000;0.198429
6653.000000;0.199316
6652.000000;0.200248
6651.000000;0.200972
6650.000000;0.201367
6649.000000;0.201573
6648.000000;0.201819
6647.000000;0.202218
6646.000000;0.202736
6645.000000;0.203284
6644.000000;0.203793
6643.000000;0.204295
6642.000000;0.204926
6641.000000;0.205800
6640.000000;0.206837
6639.000000;0.207778
6638.000000;0.208387
6637.000000;0.208632
6636.000000;0.208709
6635.000000;0.208908
6634.000000;0.209444
6633.000000;0.210301
6632.000000;0.211221
6631.000000;0.211880
6630.000000;0.212129
6629.000000;0.212116
6628.000000;0.212194
6627.000000;0.212690
6626.000000;0.213651
6625.000000;0.214771
6624.000000;0.215625
6623.000000;0.216034
6622.000000;0.216186
6621.000000;0.216402
6620.000000;0.216841
6619.000000;0.217454
6618.000000;0.218130
6617.000000;0.218787
6616.000000;0.219373
6615.000000;0.219873
6614.000000;0.220312
6613.000000;0.220734
6612.000000;0.221187
6611.000000;0.221716
6610.000000;0.222316
6609.000000;0.222912
6608.000000;0.223450
6607.000000;0.224007
6606.000000;0.224685
6605.000000;0.225422
6604.000000;0.226012
6603.000000;0.226378
6602.000000;0.226661
6601.000000;0.227008
6600.000000;0.227398
6599.000000;0.227792
6598.000000;0.228272
6597.000000;0.228909
6596.000000;0.229587
6595.000000;0.230124
6594.000000;0.230512
6593.000000;0.230893
6592.000000;0.231337
6591.000000;0.231793
6590.000000;0.232236
6589.000000;0.232719
6588.000000;0.233279
6587.000000;0.233873
6586.000000;0.234454
6585.000000;0.235018
6584.000000;0.235582
6583.000000;0.236155
6582.000000;0.236731
6581.000000;0.237268
6580.000000;0.237713
6579.000000;0.238087
6578.000000;0.238490
6577.000000;0.238972
6576.000000;0.239453
6575.000000;0.239818
6574.000000;0.240051
6573.000000;0.240237
6572.000000;0.240495
6571.000000;0.240939
6570.000000;0.241634
6569.000000;0.242461
6568.000000;0.243123
6567.000000;0.243418
6566.000000;0.243486
6565.000000;0.243686
6564.000000;0.244220
6563.000000;0.244959
6562.000000;0.245636
6561.000000;0.246114
6560.000000;0.246459
6559.000000;0.246822
6558.000000;0.247282
6557.000000;0.247784
6556.000000;0.248242
6555.000000;0.248692
6554.000000;0.249258
6553.000000;0.249939
6552.000000;0.250515
6551.000000;0.250787
6550.000000;0.250841
6549.000000;0.250981
6548.000000;0.251403
6547.000000;0.252041
6546.000000;0.252683
6545.000000;0.253161
6544.000000;0.253449
6543.000000;0.253671
6542.000000;0.254004
6541.000000;0.254517
6540.000000;0.255094
6539.000000;0.255586
6538.000000;0.255970
6537.000000;0.256299
6536.000000;0.256580
6535.000000;0.256814
6534.000000;0.257130
6533.000000;0.257691
6532.000000;0.258446
6531.000000;0.259109
6530.000000;0.259458
6529.000000;0.259579
6528.000000;0.259739
6527.000000;0.260096
6526.000000;0.260572
6525.000000;0.260982
6524.000000;0.261229
6523.000000;0.261388
6522.000000;0.261631
6521.000000;0.262062
6520.000000;0.262623
6519.000000;0.263155
6518.000000;0.263557
6517.000000;0.263846
6516.000000;0.264105
6515.000000;0.264409
6514.000000;0.264806
6513.000000;0.265282
6512.000000;0.265759
6511.000000;0.266149
6510.000000;0.266451
6509.000000;0.266756
6508.000000;0.267150
6507.000000;0.267637
6506.000000;0.268160
6505.000000;0.268659
6504.000000;0.269104
6503.000000;0.269482
6502.000000;0.269782
6501.000000;0.270002
6500.000000;0.270190
6499.000000;0.270459
6498.000000;0.270904
6497.000000;0.271483
6496.000000;0.272017
6495.000000;0.272351
6494.000000;0.272512
6493.000000;0.272674
6492.000000;0.272975
6491.000000;0.273383
6490.000000;0.273739
6489.000000;0.273923
6488.000000;0.273996
6487.000000;0.274151
6486.000000;0.274512
6485.000000;0.275005
6484.000000;0.275478
6483.000000;0.275906
6482.000000;0.276362
6481.000000;0.276811
6480.000000;0.277078
6479.000000;0.277115
6478.000000;0.277143
6477.000000;0.277434
6476.000000;0.278009
6475.000000;0.278661
6474.000000;0.279195
6473.000000;0.279549
6472.000000;0.279754
6471.000000;0.279896
6470.000000;0.280102
6469.000000;0.280422
6468.000000;0.280760
6467.000000;0.281004
6466.000000;0.281209
6465.000000;0.281531
6464.000000;0.281992
6463.000000;0.282441
6462.000000;0.282768
6461.000000;0.283031
6460.000000;0.283343
6459.000000;0.283728
6458.000000;0.284122
6457.000000;0.284450
6456.000000;0.284660
6455.000000;0.284748
6454.000000;0.284804
6453.000000;0.284959
6452.000000;0.285268
6451.000000;0.285683
6450.000000;0.286135
6449.000000;0.286585
6448.000000;0.286976
6447.000000;0.287242
6446.000000;0.287388
6445.000000;0.287505
6444.000000;0.287667
6443.000000;0.287873
6442.000000;0.288127
6441.000000;0.288475
6440.000000;0.288905
6439.000000;0.289287
6438.000000;0.289502
6437.000000;0.289613
6436.000000;0.289816
6435.000000;0.290228
6434.000000;0.290759
6433.000000;0.291210
6432.000000;0.291434
6431.000000;0.291448
6430.000000;0.291423
6429.000000;0.291574
6428.000000;0.291997
6427.000000;0.292566
6426.000000;0.293023
6425.000000;0.293198
6424.000000;0.293146
6423.000000;0.293063
6422.000000;0.293099
6421.000000;0.293266
6420.000000;0.293524
6419.000000;0.293870
6418.000000;0.294309
6417.000000;0.294772
6416.000000;0.295133
6415.000000;0.295323
6414.000000;0.295407
6413.000000;0.295516
6412.000000;0.295731
6411.000000;0.296036
6410.000000;0.296357
6409.000000;0.296633
6408.000000;0.296862
6407.000000;0.297091
6406.000000;0.297359
6405.000000;0.297636
6404.000000;0.297840
6403.000000;0.297941
6402.000000;0.297997
6401.000000;0.298105
6400.000000;0.298313
6399.000000;0.298623
6398.000000;0.299008
6397.000000;0.299395
6396.000000;0.299686
6395.000000;0.299830
6394.000000;0.299877
6393.000000;0.299931
6392.000000;0.300062
6391.000000;0.300286
6390.000000;0.300580
6389.000000;0.300874
6388.000000;0.301072
6387.000000;0.301135
6386.000000;0.301141
6385.000000;0.301213
6384.000000;0.301406
6383.000000;0.301696
6382.000000;0.302039
6381.000000;0.302380
6380.000000;0.302642
6379.000000;0.302780
6378.000000;0.302840
6377.000000;0.302921
6376.000000;0.303072
6375.000000;0.303280
6374.000000;0.303517
6373.000000;0.303748
6372.000000;0.303902
6371.000000;0.303938
6370.000000;0.303936
6369.000000;0.304045
6368.000000;0.304322
6367.000000;0.304675
6366.000000;0.304980
6365.000000;0.305199
6364.000000;0.305360
6363.000000;0.305500
6362.000000;0.305656
6361.000000;0.305850
6360.000000;0.306048
6359.000000;0.306178
6358.000000;0.306220
6357.000000;0.306243
6356.000000;0.306312
6355.000000;0.306418
6354.000000;0.306543
6353.000000;0.306735
6352.000000;0.307041
6351.000000;0.307405
6350.000000;0.307690
6349.000000;0.307812
6348.000000;0.307824
6347.000000;0.307847
6346.000000;0.307967
6345.000000;0.308179
6344.000000;0.308415
6343.000000;0.308599
6342.000000;0.308692
6341.000000;0.308710
6340.000000;0.308703
6339.000000;0.308723
6338.000000;0.308811
6337.000000;0.308979
6336.000000;0.309196
6335.000000;0.309407
6334.000000;0.309582
6333.000000;0.309722
6332.000000;0.309841
6331.000000;0.309941
6330.000000;0.310025
6329.000000;0.310104
6328.000000;0.310185
6327.000000;0.310267
6326.000000;0.310366
6325.000000;0.310516
6324.000000;0.310732
6323.000000;0.310980
6322.000000;0.311205
6321.000000;0.311354
6320.000000;0.311388
6319.000000;0.311312
6318.000000;0.311214
6317.000000;0.311242
6316.000000;0.311460
6315.000000;0.311766
6314.000000;0.311983
6313.000000;0.312052
6312.000000;0.312081
6311.000000;0.312200
6310.000000;0.312408
6309.000000;0.312592
6308.000000;0.312667
6307.000000;0.312658
6306.000000;0.312652
6305.000000;0.312726
6304.000000;0.312899
6303.000000;0.313131
6302.000000;0.313331
6301.000000;0.313413
6300.000000;0.313376
6299.000000;0.313314
6298.000000;0.313325
6297.000000;0.313420
6296.000000;0.313533
6295.000000;0.313618
6294.000000;0.313688
6293.000000;0.313771
6292.000000;0.313855
6291.000000;0.313924
6290.000000;0.314005
6289.000000;0.314141
6288.000000;0.314335
6287.000000;0.314519
6286.000000;0.314617
6285.000000;0.314607
6284.000000;0.314556
6283.000000;0.314565
6282.000000;0.314689
6281.000000;0.314889
6280.000000;0.315077
6279.000000;0.315202
6278.000000;0.315276
6277.000000;0.315330
6276.000000;0.315367
6275.000000;0.315381
6274.000000;0.315394
6273.000000;0.315443
6272.000000;0.315537
6271.000000;0.315650
6270.000000;0.315742
6269.000000;0.315788
6268.000000;0.315799
6267.000000;0.315817
6266.000000;0.315884
6265.000000;0.315993
6264.000000;0.316103
6263.000000;0.316194
6262.000000;0.316281
6261.000000;0.316361
6260.000000;0.316401
6259.000000;0.316386
6258.000000;0.316362
6257.000000;0.316385
6256.000000;0.316451
6255.000000;0.316521
6254.000000;0.316577
6253.000000;0.316633
6252.000000;0.316700
6251.000000;0.316775
6250.000000;0.316860
6249.000000;0.316937
6248.000000;0.316960
6247.000000;0.316907
6246.000000;0.316834
6245.000000;0.316826
6244.000000;0.316890
6243.000000;0.316960
6242.000000;0.317003
6241.000000;0.317061
6240.000000;0.317172
6239.000000;0.317297
6238.000000;0.317364
6237.000000;0.317358
6236.000000;0.317331
6235.000000;0.317341
6234.000000;0.317418
6233.000000;0.317556
6232.000000;0.317716
6231.000000;0.317828
6230.000000;0.317848
6229.000000;0.317800
6228.000000;0.317756
6227.000000;0.317768
6226.000000;0.317830
6225.000000;0.317893
6224.000000;0.317915
6223.000000;0.317879
6222.000000;0.317818
6221.000000;0.317812
6220.000000;0.317936
6219.000000;0.318172
6218.000000;0.318381
6217.000000;0.318416
6216.000000;0.318268
6215.000000;0.318081
6214.000000;0.318012
6213.000000;0.318088
6212.000000;0.318234
6211.000000;0.318378
6210.000000;0.318494
6209.000000;0.318556
6208.000000;0.318541
6207.000000;0.318483
6206.000000;0.318483
6205.000000;0.318594
6204.000000;0.318743
6203.000000;0.318788
6202.000000;0.318674
6201.000000;0.318479
6200.000000;0.318336
6199.000000;0.318328
6198.000000;0.318449
6197.000000;0.318626
6196.000000;0.318775
6195.000000;0.318844
6194.000000;0.318838
6193.000000;0.318784
6192.000000;0.318725
6191.000000;0.318715
6190.000000;0.318797
6189.000000;0.318937
6188.000000;0.319027
6187.000000;0.318996
6186.000000;0.318907
6185.000000;0.318885
6184.000000;0.318960
6183.000000;0.319038
6182.000000;0.319032
6181.000000;0.318962
6180.000000;0.318891
6179.000000;0.318829
6178.000000;0.318748
6177.000000;0.318669
6176.000000;0.318668
6175.000000;0.318783
6174.000000;0.318949
6173.000000;0.319050
6172.000000;0.319022
6171.000000;0.318903
6170.000000;0.318794
6169.000000;0.318783
6168.000000;0.318875
6167.000000;0.319008
6166.000000;0.319100
6165.000000;0.319117
6164.000000;0.319081
6163.000000;0.319039
6162.000000;0.319013
6161.000000;0.318987
6160.000000;0.318951
6159.000000;0.318930
6158.000000;0.318968
6157.000000;0.319073
6156.000000;0.319188
6155.000000;0.319243
6154.000000;0.319227
6153.000000;0.319200
6152.000000;0.319225
6151.000000;0.319288
6150.000000;0.319312
6149.000000;0.319242
6148.000000;0.319115
6147.000000;0.319022
6146.000000;0.319024
6145.000000;0.319111
6144.000000;0.319238
6143.000000;0.319360
6142.000000;0.319431
6141.000000;0.319402
6140.000000;0.319276
6139.000000;0.319131
6138.000000;0.319059
6137.000000;0.319084
6136.000000;0.319156
6135.000000;0.319223
6134.000000;0.319272
6133.000000;0.319302
6132.000000;0.319308
6131.000000;0.319296
6130.000000;0.319289
6129.000000;0.319291
6128.000000;0.319279
6127.000000;0.319231
6126.000000;0.319157
6125.000000;0.319083
6124.000000;0.319039
6123.000000;0.319051
6122.000000;0.319121
6121.000000;0.319213
6120.000000;0.319288
6119.000000;0.319348
6118.000000;0.319407
6117.000000;0.319438
6116.000000;0.319387
6115.000000;0.319270
6114.000000;0.319171
6113.000000;0.319148
6112.000000;0.319166
6111.000000;0.319176
6110.000000;0.319189
6109.000000;0.319233
6108.000000;0.319291
6107.000000;0.319330
6106.000000;0.319351
6105.000000;0.319371
6104.000000;0.319380
6103.000000;0.319359
6102.000000;0.319320
6101.000000;0.319278
6100.000000;0.319218
6099.000000;0.319138
6098.000000;0.319097
6097.000000;0.319162
6096.000000;0.319310
6095.000000;0.319450
6094.000000;0.319523
6093.000000;0.319534
6092.000000;0.319493
6091.000000;0.319392
6090.000000;0.319264
6089.000000;0.319178
6088.000000;0.319182
6087.000000;0.319264
6086.000000;0.319389
6085.000000;0.319513
6084.000000;0.319574
6083.000000;0.319529
6082.000000;0.319420
6081.000000;0.319356
6080.000000;0.319404
6079.000000;0.319522
6078.000000;0.319626
6077.000000;0.319649
6076.000000;0.319562
6075.000000;0.319374
6074.000000;0.319171
6073.000000;0.319091
6072.000000;0.319192
6071.000000;0.319394
6070.000000;0.319555
6069.000000;0.319603
6068.000000;0.319541
6067.000000;0.319388
6066.000000;0.319176
6065.000000;0.318995
6064.000000;0.318954
6063.000000;0.319067
6062.000000;0.319227
6061.000000;0.319322
6060.000000;0.319342
6059.000000;0.319353
6058.000000;0.319391
6057.000000;0.319423
6056.000000;0.319407
6055.000000;0.319352
6054.000000;0.319315
6053.000000;0.319333
6052.000000;0.319387
6051.000000;0.319412
6050.000000;0.319359
6049.000000;0.319252
6048.000000;0.319182
6047.000000;0.319240
6046.000000;0.319431
6045.000000;0.319663
6044.000000;0.319822
6043.000000;0.319862
6042.000000;0.319818
6041.000000;0.319742
6040.000000;0.319655
6039.000000;0.319570
6038.000000;0.319530
6037.000000;0.319588
6036.000000;0.319731
6035.000000;0.319867
6034.000000;0.319895
6033.000000;0.319786
6032.000000;0.319618
6031.000000;0.319518
6030.000000;0.319566
6029.000000;0.319715
6028.000000;0.319820
6027.000000;0.319756
6026.000000;0.319538
6025.000000;0.319302
6024.000000;0.319193
6023.000000;0.319266
6022.000000;0.319483
6021.000000;0.319760
6020.000000;0.319994
6019.000000;0.320081
6018.000000;0.319983
6017.000000;0.319769
6016.000000;0.319577
6015.000000;0.319509
6014.000000;0.319574
6013.000000;0.319712
6012.000000;0.319862
6011.000000;0.319987
6010.000000;0.320068
6009.000000;0.320082
6008.000000;0.320017
6007.000000;0.319894
6006.000000;0.319767
6005.000000;0.319698
6004.000000;0.319720
6003.000000;0.319812
6002.000000;0.319920
6001.000000;0.319997
6000.000000;0.320030
5999.000000;0.320025
5998.000000;0.319984
5997.000000;0.319911
5996.000000;0.319841
5995.000000;0.319832
5994.000000;0.319909
5993.000000;0.320034
5992.000000;0.320138
5991.000000;0.320177
5990.000000;0.320154
5989.000000;0.320097
5988.000000;0.320036
5987.000000;0.319991
5986.000000;0.319965
5985.000000;0.319952
5984.000000;0.319962
5983.000000;0.320012
5982.000000;0.320087
5981.000000;0.320139
5980.000000;0.320137
5979.000000;0.320111
5978.000000;0.320102
5977.000000;0.320112
5976.000000;0.320129
5975.000000;0.320184
5974.000000;0.320328
5973.000000;0.320526
5972.000000;0.320660
5971.000000;0.320659
5970.000000;0.320580
5969.000000;0.320532
5968.000000;0.320552
5967.000000;0.320598
5966.000000;0.320621
5965.000000;0.320612
5964.000000;0.320580
5963.000000;0.320543
5962.000000;0.320527
5961.000000;0.320540
5960.000000;0.320562
5959.000000;0.320570
5958.000000;0.320581
5957.000000;0.320623
5956.000000;0.320682
5955.000000;0.320705
5954.000000;0.320670
5953.000000;0.320617
5952.000000;0.320605
5951.000000;0.320652
5950.000000;0.320728
5949.000000;0.320800
5948.000000;0.320860
5947.000000;0.320920
5946.000000;0.320985
5945.000000;0.321052
5944.000000;0.321120
5943.000000;0.321188
5942.000000;0.321247
5941.000000;0.321270
5940.000000;0.321249
5939.000000;0.321226
5938.000000;0.321259
5937.000000;0.321352
5936.000000;0.321442
5935.000000;0.321469
5934.000000;0.321446
5933.000000;0.321441
5932.000000;0.321489
5931.000000;0.321558
5930.000000;0.321591
5929.000000;0.321575
5928.000000;0.321556
5927.000000;0.321592
5926.000000;0.321697
5925.000000;0.321829
5924.000000;0.321930
5923.000000;0.321978
5922.000000;0.321985
5921.000000;0.321954
5920.000000;0.321884
5919.000000;0.321804
5918.000000;0.321773
5917.000000;0.321822
5916.000000;0.321908
5915.000000;0.321960
5914.000000;0.321951
5913.000000;0.321921
5912.000000;0.321922
5911.000000;0.321960
5910.000000;0.321998
5909.000000;0.321997
5908.000000;0.321957
5907.000000;0.321908
5906.000000;0.321879
5905.000000;0.321870
5904.000000;0.321874
5903.000000;0.321901
5902.000000;0.321964
5901.000000;0.322041
5900.000000;0.322088
5899.000000;0.322094
5898.000000;0.322098
5897.000000;0.322137
5896.000000;0.322208
5895.000000;0.322274
5894.000000;0.322303
5893.000000;0.322289
5892.000000;0.322255
5891.000000;0.322227
5890.000000;0.322209
5889.000000;0.322172
5888.000000;0.322100
5887.000000;0.322034
5886.000000;0.322034
5885.000000;0.322098
5884.000000;0.322146
5883.000000;0.322116
5882.000000;0.322038
5881.000000;0.322006
5880.000000;0.322086
5879.000000;0.322252
5878.000000;0.322399
5877.000000;0.322434
5876.000000;0.322364
5875.000000;0.322310
5874.000000;0.322377
5873.000000;0.322546
5872.000000;0.322703
5871.000000;0.322776
5870.000000;0.322772
5869.000000;0.322705
5868.000000;0.322560
5867.000000;0.322378
5866.000000;0.322278
5865.000000;0.322343
5864.000000;0.322524
5863.000000;0.322704
5862.000000;0.322834
5861.000000;0.322941
5860.000000;0.323035
5859.000000;0.323063
5858.000000;0.322980
5857.000000;0.322815
5856.000000;0.322677
5855.000000;0.322675
5854.000000;0.322827
5853.000000;0.323019
5852.000000;0.323093
5851.000000;0.322993
5850.000000;0.322818
5849.000000;0.322712
5848.000000;0.322747
5847.000000;0.322903
5846.000000;0.323127
5845.000000;0.323343
5844.000000;0.323464
5843.000000;0.323440
5842.000000;0.323311
5841.000000;0.323171
5840.000000;0.323097
5839.000000;0.323109
5838.000000;0.323187
5837.000000;0.323276
5836.000000;0.323317
5835.000000;0.323304
5834.000000;0.323284
5833.000000;0.323298
5832.000000;0.323333
5831.000000;0.323371
5830.000000;0.323439
5829.000000;0.323565
5828.000000;0.323712
5827.000000;0.323812
5826.000000;0.323831
5825.000000;0.323787
5824.000000;0.323702
5823.000000;0.323609
5822.000000;0.323570
5821.000000;0.323639
5820.000000;0.323802
5819.000000;0.323974
5818.000000;0.324078
5817.000000;0.324090
5816.000000;0.324044
5815.000000;0.324008
5814.000000;0.324029
5813.000000;0.324088
5812.000000;0.324120
5811.000000;0.324116
5810.000000;0.324149
5809.000000;0.324256
5808.000000;0.324359
5807.000000;0.324361
5806.000000;0.324284
5805.000000;0.324232
5804.000000;0.324232
5803.000000;0.324217
5802.000000;0.324151
5801.000000;0.324096
5800.000000;0.324136
5799.000000;0.324276
5798.000000;0.324454
5797.000000;0.324578
5796.000000;0.324584
5795.000000;0.324491
5794.000000;0.324414
5793.000000;0.324460
5792.000000;0.324603
5791.000000;0.324720
5790.000000;0.324751
5789.000000;0.324754
5788.000000;0.324787
5787.000000;0.324823
5786.000000;0.324814
5785.000000;0.324786
5784.000000;0.324799
5783.000000;0.324862
5782.000000;0.324933
5781.000000;0.324979
5780.000000;0.324992
5779.000000;0.324975
5778.000000;0.324931
5777.000000;0.324869
5776.000000;0.324800
5775.000000;0.324751
5774.000000;0.324761
5773.000000;0.324849
5772.000000;0.324950
5771.000000;0.324963
5770.000000;0.324875
5769.000000;0.324792
5768.000000;0.324805
5767.000000;0.324871
5766.000000;0.324887
5765.000000;0.324843
5764.000000;0.324845
5763.000000;0.324962
5762.000000;0.325125
5761.000000;0.325188
5760.000000;0.325096
5759.000000;0.324939
5758.000000;0.324861
5757.000000;0.324911
5756.000000;0.325000
5755.000000;0.325010
5754.000000;0.324931
5753.000000;0.324862
5752.000000;0.324879
5751.000000;0.324953
5750.000000;0.325009
5749.000000;0.325037
5748.000000;0.325092
5747.000000;0.325186
5746.000000;0.325241
5745.000000;0.325168
5744.000000;0.324979
5743.000000;0.324801
5742.000000;0.324753
5741.000000;0.324826
5740.000000;0.324909
5739.000000;0.324913
5738.000000;0.324865
5737.000000;0.324840
5736.000000;0.324860
5735.000000;0.324885
5734.000000;0.324889
5733.000000;0.324895
5732.000000;0.324929
5731.000000;0.324969
5730.000000;0.324981
5729.000000;0.324958
5728.000000;0.324916
5727.000000;0.324870
5726.000000;0.324831
5725.000000;0.324815
5724.000000;0.324825
5723.000000;0.324842
5722.000000;0.324838
5721.000000;0.324802
5720.000000;0.324736
5719.000000;0.324650
5718.000000;0.324580
5717.000000;0.324576
5716.000000;0.324660
5715.000000;0.324779
5714.000000;0.324842
5713.000000;0.324801
5712.000000;0.324700
5711.000000;0.324623
5710.000000;0.324609
5709.000000;0.324624
5708.000000;0.324616
5707.000000;0.324578
5706.000000;0.324535
5705.000000;0.324499
5704.000000;0.324468
5703.000000;0.324447
5702.000000;0.324453
5701.000000;0.324494
5700.000000;0.324545
5699.000000;0.324588
5698.000000;0.324632
5697.000000;0.324684
5696.000000;0.324724
5695.000000;0.324733
5694.000000;0.324720
5693.000000;0.324705
5692.000000;0.324678
5691.000000;0.324618
5690.000000;0.324538
5689.000000;0.324475
5688.000000;0.324457
5687.000000;0.324479
5686.000000;0.324528
5685.000000;0.324586
5684.000000;0.324619
5683.000000;0.324607
5682.000000;0.324580
5681.000000;0.324597
5680.000000;0.324670
5679.000000;0.324734
5678.000000;0.324718
5677.000000;0.324624
5676.000000;0.324529
5675.000000;0.324502
5674.000000;0.324553
5673.000000;0.324636
5672.000000;0.324719
5671.000000;0.324811
5670.000000;0.324924
5669.000000;0.325020
5668.000000;0.325030
5667.000000;0.324949
5666.000000;0.324867
5665.000000;0.324872
5664.000000;0.324942
5663.000000;0.324992
5662.000000;0.325009
5661.000000;0.325076
5660.000000;0.325242
5659.000000;0.325432
5658.000000;0.325523
5657.000000;0.325475
5656.000000;0.325356
5655.000000;0.325253
5654.000000;0.325216
5653.000000;0.325274
5652.000000;0.325433
5651.000000;0.325641
5650.000000;0.325788
5649.000000;0.325790
5648.000000;0.325682
5647.000000;0.325595
5646.000000;0.325641
5645.000000;0.325821
5644.000000;0.326056
5643.000000;0.326263
5642.000000;0.326411
5641.000000;0.326496
5640.000000;0.326520
5639.000000;0.326499
5638.000000;0.326471
5637.000000;0.326488
5636.000000;0.326588
5635.000000;0.326767
5634.000000;0.326971
5633.000000;0.327133
5632.000000;0.327235
5631.000000;0.327313
5630.000000;0.327402
5629.000000;0.327489
5628.000000;0.327571
5627.000000;0.327693
5626.000000;0.327888
5625.000000;0.328079
5624.000000;0.328137
5623.000000;0.328060
5622.000000;0.328011
5621.000000;0.328132
5620.000000;0.328382
5619.000000;0.328603
5618.000000;0.328715
5617.000000;0.328779
5616.000000;0.328891
5615.000000;0.329081
5614.000000;0.329299
5613.000000;0.329467
5612.000000;0.329546
5611.000000;0.329573
5610.000000;0.329637
5609.000000;0.329777
5608.000000;0.329951
5607.000000;0.330109
5606.000000;0.330270
5605.000000;0.330470
5604.000000;0.330678
5603.000000;0.330824
5602.000000;0.330913
5601.000000;0.331030
5600.000000;0.331233
5599.000000;0.331475
5598.000000;0.331653
5597.000000;0.331715
5596.000000;0.331702
5595.000000;0.331714
5594.000000;0.331832
5593.000000;0.332055
5592.000000;0.332310
5591.000000;0.332525
5590.000000;0.332691
5589.000000;0.332835
5588.000000;0.332967
5587.000000;0.333086
5586.000000;0.333212
5585.000000;0.333360
5584.000000;0.333515
5583.000000;0.333662
5582.000000;0.333821
5581.000000;0.334014
5580.000000;0.334198
5579.000000;0.334302
5578.000000;0.334330
5577.000000;0.334380
5576.000000;0.334529
5575.000000;0.334755
5574.000000;0.334984
5573.000000;0.335175
5572.000000;0.335335
5571.000000;0.335472
5570.000000;0.335563
5569.000000;0.335580
5568.000000;0.335557
5567.000000;0.335604
5566.000000;0.335823
5565.000000;0.336186
5564.000000;0.336534
5563.000000;0.336723
5562.000000;0.336773
5561.000000;0.336814
5560.000000;0.336943
5559.000000;0.337146
5558.000000;0.337357
5557.000000;0.337518
5556.000000;0.337599
5555.000000;0.337613
5554.000000;0.337618
5553.000000;0.337672
5552.000000;0.337775
5551.000000;0.337895
5550.000000;0.338023
5549.000000;0.338172
5548.000000;0.338334
5547.000000;0.338474
5546.000000;0.338596
5545.000000;0.338740
5544.000000;0.338925
5543.000000;0.339110
5542.000000;0.339258
5541.000000;0.339370
5540.000000;0.339454
5539.000000;0.339483
5538.000000;0.339427
5537.000000;0.339328
5536.000000;0.339307
5535.000000;0.339474
5534.000000;0.339806
5533.000000;0.340152
5532.000000;0.340363
5531.000000;0.340439
5530.000000;0.340508
5529.000000;0.340657
5528.000000;0.340829
5527.000000;0.340907
5526.000000;0.340878
5525.000000;0.340846
5524.000000;0.340920
5523.000000;0.341107
5522.000000;0.341323
5521.000000;0.341468
5520.000000;0.341506
5519.000000;0.341488
5518.000000;0.341490
5517.000000;0.341517
5516.000000;0.341518
5515.000000;0.341502
5514.000000;0.341570
5513.000000;0.341772
5512.000000;0.342005
5511.000000;0.342107
5510.000000;0.342032
5509.000000;0.341891
5508.000000;0.341834
5507.000000;0.341956
5506.000000;0.342280
5505.000000;0.342731
5504.000000;0.343126
5503.000000;0.343268
5502.000000;0.343108
5501.000000;0.342788
5500.000000;0.342502
5499.000000;0.342325
5498.000000;0.342216
5497.000000;0.342135
5496.000000;0.342102
5495.000000;0.342151
5494.000000;0.342273
5493.000000;0.342438
5492.000000;0.342643
5491.000000;0.342919
5490.000000;0.343269
5489.000000;0.343653
5488.000000;0.344042
5487.000000;0.344437
5486.000000;0.344783
5485.000000;0.344890
5484.000000;0.344567
5483.000000;0.343892
5482.000000;0.343195
5481.000000;0.342720
5480.000000;0.342451
5479.000000;0.342324
5478.000000;0.342468
5477.000000;0.343044
5476.000000;0.343954
5475.000000;0.344869
5474.000000;0.345509
5473.000000;0.345798
5472.000000;0.345790
5471.000000;0.345556
5470.000000;0.345166
5469.000000;0.344740
5468.000000;0.344434
5467.000000;0.344336
5466.000000;0.344405
5465.000000;0.344537
5464.000000;0.344705
5463.000000;0.344989
5462.000000;0.345453
5461.000000;0.346032
5460.000000;0.346570
5459.000000;0.346948
5458.000000;0.347144
5457.000000;0.347205
5456.000000;0.347156
5455.000000;0.346944
5454.000000;0.346523
5453.000000;0.345989
5452.000000;0.345540
5451.000000;0.345267
5450.000000;0.345070
5449.000000;0.344866
5448.000000;0.344772
5447.000000;0.344962
5446.000000;0.345420
5445.000000;0.345943
5444.000000;0.346345
5443.000000;0.346620
5442.000000;0.346884
5441.000000;0.347253
5440.000000;0.347740
5439.000000;0.348188
5438.000000;0.348371
5437.000000;0.348233
5436.000000;0.347978
5435.000000;0.347881
5434.000000;0.348070
5433.000000;0.348492
5432.000000;0.349047
5431.000000;0.349677
5430.000000;0.350345
5429.000000;0.351065
5428.000000;0.351886
5427.000000;0.352758
5426.000000;0.353508
5425.000000;0.353985
5424.000000;0.354161
5423.000000;0.354099
5422.000000;0.353868
5421.000000;0.353507
5420.000000;0.353054
5419.000000;0.352570
5418.000000;0.352113
5417.000000;0.351751
5416.000000;0.351567
5415.000000;0.351663
5414.000000;0.352129
5413.000000;0.352981
5412.000000;0.354098
5411.000000;0.355275
5410.000000;0.356337
5409.000000;0.357227
5408.000000;0.357967
5407.000000;0.358587
5406.000000;0.359072
5405.000000;0.359375
5404.000000;0.359480
5403.000000;0.359420
5402.000000;0.359276
5401.000000;0.359140
5400.000000;0.359049
5399.000000;0.358993
5398.000000;0.359020
5397.000000;0.359282
5396.000000;0.359870
5395.000000;0.360657
5394.000000;0.361433
5393.000000;0.362097
5392.000000;0.362690
5391.000000;0.363283
5390.000000;0.363883
5389.000000;0.364478
5388.000000;0.365079
5387.000000;0.365657
5386.000000;0.366117
5385.000000;0.366419
5384.000000;0.366665
5383.000000;0.367025
5382.000000;0.367589
5381.000000;0.368276
5380.000000;0.368937
5379.000000;0.369537
5378.000000;0.370188
5377.000000;0.371049
5376.000000;0.372184
5375.000000;0.373486
5374.000000;0.374774
5373.000000;0.375930
5372.000000;0.376928
5371.000000;0.377807
5370.000000;0.378677
5369.000000;0.379655
5368.000000;0.380694
5367.000000;0.381580
5366.000000;0.382184
5365.000000;0.382701
5364.000000;0.383451
5363.000000;0.384451
5362.000000;0.385403
5361.000000;0.386119
5360.000000;0.386761
5359.000000;0.387528
5358.000000;0.388356
5357.000000;0.389125
5356.000000;0.389924
5355.000000;0.390909
5354.000000;0.392051
5353.000000;0.393211
5352.000000;0.394338
5351.000000;0.395484
5350.000000;0.396698
5349.000000;0.397991
5348.000000;0.399398
5347.000000;0.400900
5346.000000;0.402318
5345.000000;0.403542
5344.000000;0.404869
5343.000000;0.406727
5342.000000;0.409024
5341.000000;0.411223
5340.000000;0.413042
5339.000000;0.414733
5338.000000;0.416633
5337.000000;0.418670
5336.000000;0.420589
5335.000000;0.422492
5334.000000;0.424634
5333.000000;0.426800
5332.000000;0.428415
5331.000000;0.429379
5330.000000;0.430361
5329.000000;0.432018
5328.000000;0.434340
5327.000000;0.436970
5326.000000;0.439687
5325.000000;0.442178
5324.000000;0.443789
5323.000000;0.444079
5322.000000;0.443449
5321.000000;0.442765
5320.000000;0.442512
5319.000000;0.442570
5318.000000;0.442459
5317.000000;0.441503
5316.000000;0.439125
5315.000000;0.435500
5314.000000;0.431571
5313.000000;0.427731
5312.000000;0.422835
5311.000000;0.415478
5310.000000;0.406128
5309.000000;0.397068
5308.000000;0.390086
5307.000000;0.384274
5306.000000;0.376198
5305.000000;0.362785
5304.000000;0.344222
5303.000000;0.324172
5302.000000;0.306662
5301.000000;0.292838
5300.000000;0.281555
5299.000000;0.273386
5298.000000;0.273251
5297.000000;0.286925
5296.000000;0.314641
5295.000000;0.351558
5294.000000;0.395016
5293.000000;0.444532
5292.000000;0.494774
5291.000000;0.538100
5290.000000;0.574451
5289.000000;0.608713
5288.000000;0.640772
5287.000000;0.669303
5286.000000;0.699457
5285.000000;0.734290
5284.000000;0.764291
5283.000000;0.777958
5282.000000;0.780599
5281.000000;0.788576
5280.000000;0.810334
5279.000000;0.844684
5278.000000;0.888095
5277.000000;0.929681
5276.000000;0.945444
5275.000000;0.927946
5274.000000;0.902770
5273.000000;0.891386
5272.000000;0.894660
5271.000000;0.906230
5270.000000;0.921199
5269.000000;0.932828
5268.000000;0.932479
5267.000000;0.918607
5266.000000;0.905095
5265.000000;0.910027
5264.000000;0.936443
5263.000000;0.969455
5262.000000;0.985659
5261.000000;0.968802
5260.000000;0.926879
5259.000000;0.889930
5258.000000;0.885491
5257.000000;0.916272
5256.000000;0.950805
5255.000000;0.956338
5254.000000;0.947428
5253.000000;0.949766
5252.000000;0.964598
5251.000000;0.981315
5250.000000;0.984690
5249.000000;0.968323
5248.000000;0.945382
5247.000000;0.930589
5246.000000;0.928296
5245.000000;0.932675
5244.000000;0.938503
5243.000000;0.953284
5242.000000;0.984081
5241.000000;1.014234
5240.000000;1.016789
5239.000000;0.989397
5238.000000;0.951502
5237.000000;0.926246
5236.000000;0.922660
5235.000000;0.936876
5234.000000;0.961563
5233.000000;0.980470
5232.000000;0.971155
5231.000000;0.934882
5230.000000;0.903223
5229.000000;0.902790
5228.000000;0.932622
5227.000000;0.970842
5226.000000;0.997429
5225.000000;1.005788
5224.000000;0.993198
5223.000000;0.967997
5222.000000;0.945546
5221.000000;0.925779
5220.000000;0.901931
5219.000000;0.881981
5218.000000;0.883040
5217.000000;0.909670
5216.000000;0.943535
5215.000000;0.958770
5214.000000;0.952252
5213.000000;0.940843
5212.000000;0.934047
5211.000000;0.929199
5210.000000;0.923776
5209.000000;0.922773
5208.000000;0.933815
5207.000000;0.961367
5206.000000;1.002033
5205.000000;1.031972
5204.000000;1.017284
5203.000000;0.964727
5202.000000;0.918987
5201.000000;0.909304
5200.000000;0.932151
5199.000000;0.961996
5198.000000;0.973801
5197.000000;0.962985
5196.000000;0.942104
5195.000000;0.928690
5194.000000;0.936079
5193.000000;0.961309
5192.000000;0.982130
5191.000000;0.977947
5190.000000;0.956551
5189.000000;0.939834
5188.000000;0.932259
5187.000000;0.929070
5186.000000;0.937340
5185.000000;0.964991
5184.000000;0.997108
5183.000000;1.001850
5182.000000;0.975050
5181.000000;0.948627
5180.000000;0.945871
5179.000000;0.963134
5178.000000;0.983422
5177.000000;0.995884
5176.000000;0.998726
5175.000000;0.991449
5174.000000;0.975697
5173.000000;0.958627
5172.000000;0.947001
5171.000000;0.941498
5170.000000;0.939702
5169.000000;0.935953
5168.000000;0.927029
5167.000000;0.919382
5166.000000;0.920429
5165.000000;0.931043
5164.000000;0.945837
5163.000000;0.957372
5162.000000;0.961897
5161.000000;0.959648
5160.000000;0.953027
5159.000000;0.947663
5158.000000;0.950275
5157.000000;0.961093
5156.000000;0.970210
5155.000000;0.968573
5154.000000;0.960980
5153.000000;0.959210
5152.000000;0.967484
5151.000000;0.978785
5150.000000;0.989756
5149.000000;0.997447
5148.000000;0.987780
5147.000000;0.968405
5146.000000;0.956007
5145.000000;0.944385
5144.000000;0.930678
5143.000000;0.930788
5142.000000;0.956957
5141.000000;0.996768
5140.000000;1.017522
5139.000000;1.007899
5138.000000;0.996354
5137.000000;1.007476
5136.000000;1.031524
5135.000000;1.037564
5134.000000;1.012954
5133.000000;0.972228
5132.000000;0.933706
5131.000000;0.913277
5130.000000;0.920261
5129.000000;0.954213
5128.000000;1.003142
5127.000000;1.037273
5126.000000;1.030124
5125.000000;0.991218
5124.000000;0.950793
5123.000000;0.932501
5122.000000;0.942720
5121.000000;0.968906
5120.000000;0.985393
5119.000000;0.984516
5118.000000;0.987556
5117.000000;0.996543
5116.000000;0.986910
5115.000000;0.955913
5114.000000;0.933567
5113.000000;0.950965
5112.000000;1.008676
5111.000000;1.062413
5110.000000;1.056319
5109.000000;0.993765
5108.000000;0.927643
5107.000000;0.900901
5106.000000;0.925848
5105.000000;0.980740
5104.000000;1.014666
5103.000000;0.999799
5102.000000;0.969674
5101.000000;0.961203
5100.000000;0.973042
5099.000000;0.983229
5098.000000;0.981841
5097.000000;0.972991
5096.000000;0.958673
5095.000000;0.943932
5094.000000;0.938334
5093.000000;0.944510
5092.000000;0.956217
5091.000000;0.963720
5090.000000;0.966330
5089.000000;0.974682
5088.000000;0.987120
5087.000000;0.988683
5086.000000;0.982703
5085.000000;0.991397
5084.000000;1.017544
5083.000000;1.027783
5082.000000;0.997555
5081.000000;0.952930
5080.000000;0.929575
5079.000000;0.936313
5078.000000;0.961858
5077.000000;0.991562
5076.000000;1.016693
5075.000000;1.025745
5074.000000;1.004817
5073.000000;0.966823
5072.000000;0.935215
5071.000000;0.920162
5070.000000;0.926911
5069.000000;0.952966
5068.000000;0.983979
5067.000000;1.002958
5066.000000;1.002184
5065.000000;0.985274
5064.000000;0.960832
5063.000000;0.940950
5062.000000;0.940612
5061.000000;0.963739
5060.000000;0.987989
5059.000000;0.982178
5058.000000;0.948383
5057.000000;0.917230
5056.000000;0.910812
5055.000000;0.927178
5054.000000;0.947437
5053.000000;0.953642
5052.000000;0.941564
5051.000000;0.919061
5050.000000;0.898444
5049.000000;0.891453
5048.000000;0.900401
5047.000000;0.915786
5046.000000;0.928810
5045.000000;0.935145
5044.000000;0.932244
5043.000000;0.921769
5042.000000;0.907196
5041.000000;0.893400
5040.000000;0.885969
5039.000000;0.886287
5038.000000;0.889536
5037.000000;0.888008
5036.000000;0.878410
5035.000000;0.866923
5034.000000;0.866568
5033.000000;0.887159
5032.000000;0.922198
5031.000000;0.943414
5030.000000;0.923941
5029.000000;0.877177
5028.000000;0.841276
5027.000000;0.836546
5026.000000;0.854500
5025.000000;0.869279
5024.000000;0.863021
5023.000000;0.842936
5022.000000;0.825769
5021.000000;0.818982
5020.000000;0.820488
5019.000000;0.827329
5018.000000;0.841390
5017.000000;0.857950
5016.000000;0.862186
5015.000000;0.851017
5014.000000;0.830450
5013.000000;0.804039
5012.000000;0.778818
5011.000000;0.765379
5010.000000;0.770484
5009.000000;0.786583
5008.000000;0.794804
5007.000000;0.785837
5006.000000;0.770233
5005.000000;0.762554
5004.000000;0.763930
5003.000000;0.764283
5002.000000;0.756032
5001.000000;0.739707
5000.000000;0.719624
4999.000000;0.701311
4998.000000;0.689941
4997.000000;0.687346
4996.000000;0.691069
4995.000000;0.696524
4994.000000;0.700412
4993.000000;0.701122
4992.000000;0.696576
4991.000000;0.686003
4990.000000;0.673578
4989.000000;0.665650
4988.000000;0.663799
4987.000000;0.663172
4986.000000;0.658965
4985.000000;0.653005
4984.000000;0.651486
4983.000000;0.656812
4982.000000;0.662509
4981.000000;0.656831
4980.000000;0.633897
4979.000000;0.601497
4978.000000;0.575579
4977.000000;0.567249
4976.000000;0.575682
4975.000000;0.589996
4974.000000;0.596546
4973.000000;0.588506
4972.000000;0.570743
4971.000000;0.554960
4970.000000;0.549113
4969.000000;0.549292
4968.000000;0.543687
4967.000000;0.528059
4966.000000;0.510478
4965.000000;0.499165
4964.000000;0.494587
4963.000000;0.492072
4962.000000;0.486540
4961.000000;0.474575
4960.000000;0.456774
4959.000000;0.439992
4958.000000;0.433003
4957.000000;0.437486
4956.000000;0.444426
4955.000000;0.442370
4954.000000;0.430264
4953.000000;0.416786
4952.000000;0.407854
4951.000000;0.401298
4950.000000;0.392402
4949.000000;0.380493
4948.000000;0.369685
4947.000000;0.364049
4946.000000;0.361633
4945.000000;0.355212
4944.000000;0.341016
4943.000000;0.324029
4942.000000;0.312529
4941.000000;0.309123
4940.000000;0.308743
4939.000000;0.305083
4938.000000;0.296225
4937.000000;0.283098
4936.000000;0.266952
4935.000000;0.251254
4934.000000;0.242031
4933.000000;0.241972
4932.000000;0.245103
4931.000000;0.240927
4930.000000;0.226091
4929.000000;0.208242
4928.000000;0.196715
4927.000000;0.194135
4926.000000;0.196546
4925.000000;0.197658
4924.000000;0.192545
4923.000000;0.180494
4922.000000;0.165453
4921.000000;0.152080
4920.000000;0.142324
4919.000000;0.135927
4918.000000;0.131455
4917.000000;0.126362
4916.000000;0.118348
4915.000000;0.107898
4914.000000;0.098118
4913.000000;0.090845
4912.000000;0.083987
4911.000000;0.074213
4910.000000;0.061736
4909.000000;0.050477
4908.000000;0.043434
4907.000000;0.039409
4906.000000;0.034556
4905.000000;0.026383
4904.000000;0.016045
4903.000000;0.006960
4902.000000;0.001029
4901.000000;-0.003541
4900.000000;-0.010319
4899.000000;-0.021268
4898.000000;-0.035421
4897.000000;-0.049599
4896.000000;-0.059972
4895.000000;-0.064121
4894.000000;-0.063080
4893.000000;-0.061375
4892.000000;-0.063667
4891.000000;-0.070407
4890.000000;-0.078517
4889.000000;-0.086632
4888.000000;-0.096062
4887.000000;-0.106256
4886.000000;-0.113381
4885.000000;-0.114995
4884.000000;-0.113640
4883.000000;-0.113991
4882.000000;-0.117678
4881.000000;-0.122927
4880.000000;-0.128384
4879.000000;-0.134585
4878.000000;-0.141531
4877.000000;-0.147251
4876.000000;-0.150114
4875.000000;-0.151351
4874.000000;-0.153955
4873.000000;-0.159271
4872.000000;-0.165464
4871.000000;-0.169446
4870.000000;-0.169635
4869.000000;-0.166661
4868.000000;-0.162362
4867.000000;-0.158908
4866.000000;-0.158074
4865.000000;-0.160284
4864.000000;-0.164252
4863.000000;-0.167751
4862.000000;-0.169016
4861.000000;-0.167568
4860.000000;-0.163972
4859.000000;-0.159523
4858.000000;-0.156134
4857.000000;-0.155586
4856.000000;-0.158038
4855.000000;-0.161434
4854.000000;-0.163014
4853.000000;-0.161589
4852.000000;-0.158094
4851.000000;-0.154019
4850.000000;-0.149844
4849.000000;-0.145254
4848.000000;-0.140443
4847.000000;-0.136612
4846.000000;-0.135068
4845.000000;-0.135842
4844.000000;-0.137143
4843.000000;-0.136533
4842.000000;-0.133044
4841.000000;-0.128017
4840.000000;-0.123563
4839.000000;-0.120354
4838.000000;-0.117418
4837.000000;-0.114064
4836.000000;-0.110920
4835.000000;-0.108510
4834.000000;-0.105803
4833.000000;-0.101471
4832.000000;-0.096219
4831.000000;-0.092461
4830.000000;-0.091458
4829.000000;-0.091829
4828.000000;-0.090976
4827.000000;-0.087277
4826.000000;-0.081047
4825.000000;-0.074262
4824.000000;-0.069575
4823.000000;-0.068490
4822.000000;-0.069756
4821.000000;-0.070067
4820.000000;-0.066781
4819.000000;-0.060039
4818.000000;-0.052396
4817.000000;-0.046519
4816.000000;-0.043357
4815.000000;-0.042063
4814.000000;-0.041216
4813.000000;-0.040006
4812.000000;-0.038257
4811.000000;-0.035703
4810.000000;-0.031946
4809.000000;-0.027395
4808.000000;-0.023458
4807.000000;-0.021087
4806.000000;-0.019508
4805.000000;-0.017225
4804.000000;-0.014019
4803.000000;-0.011077
4802.000000;-0.009128
4801.000000;-0.007361
4800.000000;-0.004537
4799.000000;-0.000462
4798.000000;0.004011
4797.000000;0.007845
4796.000000;0.010377
4795.000000;0.011611
4794.000000;0.012430
4793.000000;0.014077
4792.000000;0.016971
4791.000000;0.020349
4790.000000;0.023332
4789.000000;0.025884
4788.000000;0.028414
4787.000000;0.030984
4786.000000;0.033369
4785.000000;0.035517
4784.000000;0.037463
4783.000000;0.039167
4782.000000;0.040878
4781.000000;0.043255
4780.000000;0.046607
4779.000000;0.050243
4778.000000;0.053097
4777.000000;0.054917
4776.000000;0.056386
4775.000000;0.058193
4774.000000;0.060464
4773.000000;0.062974
4772.000000;0.065485
4771.000000;0.067849
4770.000000;0.070072
4769.000000;0.072251
4768.000000;0.074279
4767.000000;0.075854
4766.000000;0.077038
4765.000000;0.078517
4764.000000;0.080873
4763.000000;0.083762
4762.000000;0.086242
4761.000000;0.087821
4760.000000;0.088799
4759.000000;0.089736
4758.000000;0.091063
4757.000000;0.093117
4756.000000;0.095926
4755.000000;0.098903
4754.000000;0.101221
4753.000000;0.102654
4752.000000;0.103745
4751.000000;0.105078
4750.000000;0.106787
4749.000000;0.108820
4748.000000;0.111176
4747.000000;0.113644
4746.000000;0.115663
4745.000000;0.116785
4744.000000;0.117168
4743.000000;0.117496
4742.000000;0.118521
4741.000000;0.120624
4740.000000;0.123496
4739.000000;0.126202
4738.000000;0.127915
4737.000000;0.128750
4736.000000;0.129608
4735.000000;0.131113
4734.000000;0.133008
4733.000000;0.134687
4732.000000;0.135905
4731.000000;0.136735
4730.000000;0.137273
4729.000000;0.137784
4728.000000;0.138866
4727.000000;0.140939
4726.000000;0.143632
4725.000000;0.146049
4724.000000;0.147639
4723.000000;0.148538
4722.000000;0.149122
4721.000000;0.149657
4720.000000;0.150430
4719.000000;0.151748
4718.000000;0.153560
4717.000000;0.155305
4716.000000;0.156431
4715.000000;0.157011
4714.000000;0.157666
4713.000000;0.158912
4712.000000;0.160694
4711.000000;0.162522
4710.000000;0.163986
4709.000000;0.165119
4708.000000;0.166296
4707.000000;0.167771
4706.000000;0.169364
4705.000000;0.170662
4704.000000;0.171473
4703.000000;0.172059
4702.000000;0.172906
4701.000000;0.174247
4700.000000;0.175738
4699.000000;0.176606
4698.000000;0.176378
4697.000000;0.175609
4696.000000;0.175644
4695.000000;0.177348
4694.000000;0.180149
4693.000000;0.182629
4692.000000;0.184056
4691.000000;0.184918
4690.000000;0.185898
4689.000000;0.186873
4688.000000;0.187320
4687.000000;0.187352
4686.000000;0.187773
4685.000000;0.189116
4684.000000;0.191020
4683.000000;0.192674
4682.000000;0.193580
4681.000000;0.193776
4680.000000;0.193638
4679.000000;0.193685
4678.000000;0.194375
4677.000000;0.195763
4676.000000;0.197344
4675.000000;0.198462
4674.000000;0.198984
4673.000000;0.199422
4672.000000;0.200309
4671.000000;0.201571
4670.000000;0.202672
4669.000000;0.203331
4668.000000;0.203887
4667.000000;0.204850
4666.000000;0.206231
4665.000000;0.207510
4664.000000;0.208207
4663.000000;0.208314
4662.000000;0.208223
4661.000000;0.208410
4660.000000;0.209209
4659.000000;0.210620
4658.000000;0.212210
4657.000000;0.213379
4656.000000;0.213916
4655.000000;0.214187
4654.000000;0.214677
4653.000000;0.215469
4652.000000;0.216278
4651.000000;0.216857
4650.000000;0.217189
4649.000000;0.217393
4648.000000;0.217616
4647.000000;0.217998
4646.000000;0.218608
4645.000000;0.219432
4644.000000;0.220469
4643.000000;0.221714
4642.000000;0.222929
4641.000000;0.223675
4640.000000;0.223797
4639.000000;0.223759
4638.000000;0.224173
4637.000000;0.225078
4636.000000;0.225972
4635.000000;0.226524
4634.000000;0.226956
4633.000000;0.227674
4632.000000;0.228794
4631.000000;0.230060
4630.000000;0.231046
4629.000000;0.231434
4628.000000;0.231320
4627.000000;0.231246
4626.000000;0.231642
4625.000000;0.232249
4624.000000;0.232434
4623.000000;0.232191
4622.000000;0.232380
4621.000000;0.233699
4620.000000;0.235716
4619.000000;0.237246
4618.000000;0.237572
4617.000000;0.237009
4616.000000;0.236369
4615.000000;0.236224
4614.000000;0.236687
4613.000000;0.237608
4612.000000;0.238768
4611.000000;0.239940
4610.000000;0.240883
4609.000000;0.241366
4608.000000;0.241275
4607.000000;0.240775
4606.000000;0.240275
4605.000000;0.240162
4604.000000;0.240581
4603.000000;0.241456
4602.000000;0.242608
4601.000000;0.243767
4600.000000;0.244600
4599.000000;0.244916
4598.000000;0.244870
4597.000000;0.244910
4596.000000;0.245436
4595.000000;0.246407
4594.000000;0.247264
4593.000000;0.247401
4592.000000;0.246898
4591.000000;0.246607
4590.000000;0.247214
4589.000000;0.248317
4588.000000;0.248832
4587.000000;0.248391
4586.000000;0.247856
4585.000000;0.248219
4584.000000;0.249424
4583.000000;0.250597
4582.000000;0.251147
4581.000000;0.251185
4580.000000;0.251038
4579.000000;0.250873
4578.000000;0.250838
4577.000000;0.251130
4576.000000;0.251751
4575.000000;0.252434
4574.000000;0.252935
4573.000000;0.253238
4572.000000;0.253371
4571.000000;0.253211
4570.000000;0.252664
4569.000000;0.251967
4568.000000;0.251696
4567.000000;0.252388
4566.000000;0.254061
4565.000000;0.256022
4564.000000;0.257258
4563.000000;0.257253
4562.000000;0.256418
4561.000000;0.255607
4560.000000;0.255345
4559.000000;0.255667
4558.000000;0.256461
4557.000000;0.257534
4556.000000;0.258356
4555.000000;0.258260
4554.000000;0.257183
4553.000000;0.255946
4552.000000;0.255543
4551.000000;0.256225
4550.000000;0.257334
4549.000000;0.257951
4548.000000;0.257666
4547.000000;0.256850
4546.000000;0.256329
4545.000000;0.256719
4544.000000;0.257962
4543.000000;0.259481
4542.000000;0.260721
4541.000000;0.261436
4540.000000;0.261514
4539.000000;0.260891
4538.000000;0.259839
4537.000000;0.259065
4536.000000;0.259106
4535.000000;0.259704
4534.000000;0.260098
4533.000000;0.260002
4532.000000;0.259942
4531.000000;0.260466
4530.000000;0.261341
4529.000000;0.261828
4528.000000;0.261628
4527.000000;0.261230
4526.000000;0.261330
4525.000000;0.262120
4524.000000;0.263153
4523.000000;0.263689
4522.000000;0.263190
4521.000000;0.261768
4520.000000;0.260276
4519.000000;0.259735
4518.000000;0.260424
4517.000000;0.261695
4516.000000;0.262749
4515.000000;0.263375
4514.000000;0.263744
4513.000000;0.263786
4512.000000;0.263269
4511.000000;0.262488
4510.000000;0.262279
4509.000000;0.263109
4508.000000;0.264420
4507.000000;0.265135
4506.000000;0.264718
4505.000000;0.263609
4504.000000;0.262787
4503.000000;0.262970
4502.000000;0.264029
4501.000000;0.264978
4500.000000;0.264806
4499.000000;0.263602
4498.000000;0.262660
4497.000000;0.263130
4496.000000;0.264650
4495.000000;0.265633
4494.000000;0.264974
4493.000000;0.263217
4492.000000;0.261885
4491.000000;0.261930
4490.000000;0.262972
4489.000000;0.263934
4488.000000;0.264185
4487.000000;0.263989
4486.000000;0.263987
4485.000000;0.264462
4484.000000;0.265111
4483.000000;0.265451
4482.000000;0.265353
4481.000000;0.265111
4480.000000;0.265027
4479.000000;0.265014
4478.000000;0.264717
4477.000000;0.264056
4476.000000;0.263547
4475.000000;0.263878
4474.000000;0.265041
4473.000000;0.266105
4472.000000;0.266160
4471.000000;0.265342
4470.000000;0.264596
4469.000000;0.264517
4468.000000;0.264875
4467.000000;0.265314
4466.000000;0.265957
4465.000000;0.266932
4464.000000;0.267669
4463.000000;0.267200
4462.000000;0.265235
4461.000000;0.262721
4460.000000;0.261277
4459.000000;0.262039
4458.000000;0.264710
4457.000000;0.267464
4456.000000;0.268150
4455.000000;0.266192
4454.000000;0.263208
4453.000000;0.261498
4452.000000;0.262096
4451.000000;0.264363
4450.000000;0.266970
4449.000000;0.268808
4448.000000;0.269230
4447.000000;0.268190
4446.000000;0.266373
4445.000000;0.264748
4444.000000;0.263810
4443.000000;0.263471
4442.000000;0.263600
4441.000000;0.264234
4440.000000;0.265158
4439.000000;0.265756
4438.000000;0.265595
4437.000000;0.264969
4436.000000;0.264605
4435.000000;0.265003
4434.000000;0.266184
4433.000000;0.267782
4432.000000;0.269108
4431.000000;0.269367
4430.000000;0.268232
4429.000000;0.266215
4428.000000;0.264294
4427.000000;0.263214
4426.000000;0.263240
4425.000000;0.264269
4424.000000;0.265851
4423.000000;0.267245
4422.000000;0.267756
4421.000000;0.267120
4420.000000;0.265628
4419.000000;0.264027
4418.000000;0.263215
4417.000000;0.263630
4416.000000;0.264686
4415.000000;0.265143
4414.000000;0.264424
4413.000000;0.263333
4412.000000;0.263093
4411.000000;0.263921
4410.000000;0.264978
4409.000000;0.265478
4408.000000;0.265201
4407.000000;0.264037
4406.000000;0.261900
4405.000000;0.259361
4404.000000;0.257699
4403.000000;0.257822
4402.000000;0.259376
4401.000000;0.261250
4400.000000;0.262614
4399.000000;0.263051
4398.000000;0.262252
4397.000000;0.260385
4396.000000;0.258491
4395.000000;0.257637
4394.000000;0.257654
4393.000000;0.257473
4392.000000;0.256715
4391.000000;0.256146
4390.000000;0.256364
4389.000000;0.256898
4388.000000;0.256986
4387.000000;0.256507
4386.000000;0.255585
4385.000000;0.253961
4384.000000;0.251585
4383.000000;0.249402
4382.000000;0.248667
4381.000000;0.249510
4380.000000;0.250700
4379.000000;0.250828
4378.000000;0.249518
4377.000000;0.247634
4376.000000;0.246545
4375.000000;0.246830
4374.000000;0.247393
4373.000000;0.246359
4372.000000;0.243366
4371.000000;0.240303
4370.000000;0.239118
4369.000000;0.239521
4368.000000;0.239636
4367.000000;0.238471
4366.000000;0.236727
4365.000000;0.235374
4364.000000;0.234691
4363.000000;0.234664
4362.000000;0.235088
4361.000000;0.235107
4360.000000;0.233764
4359.000000;0.231278
4358.000000;0.228763
4357.000000;0.226527
4356.000000;0.223930
4355.000000;0.221281
4354.000000;0.220338
4353.000000;0.221964
4352.000000;0.224386
4351.000000;0.224997
4350.000000;0.223407
4349.000000;0.221467
4348.000000;0.220659
4347.000000;0.220615
4346.000000;0.220102
4345.000000;0.218550
4344.000000;0.216424
4343.000000;0.214585
4342.000000;0.213473
4341.000000;0.212642
4340.000000;0.211228
4339.000000;0.209043
4338.000000;0.206898
4337.000000;0.205583
4336.000000;0.205022
4335.000000;0.204757
4334.000000;0.204682
4333.000000;0.204775
4332.000000;0.204436
4331.000000;0.202538
4330.000000;0.198154
4329.000000;0.191535
4328.000000;0.184813
4327.000000;0.181155
4326.000000;0.182020
4325.000000;0.185262
4324.000000;0.187117
4323.000000;0.186395
4322.000000;0.185212
4321.000000;0.185158
4320.000000;0.185167
4319.000000;0.184353
4318.000000;0.184359
4317.000000;0.186427
4316.000000;0.188024
4315.000000;0.185254
4314.000000;0.177918
4313.000000;0.169944
4312.000000;0.165264
4311.000000;0.164938
4310.000000;0.167738
4309.000000;0.171406
4308.000000;0.173331
4307.000000;0.172273
4306.000000;0.170193
4305.000000;0.170586
4304.000000;0.174274
4303.000000;0.177957
4302.000000;0.177170
4301.000000;0.170165
4300.000000;0.159163
4299.000000;0.149193
4298.000000;0.145733
4297.000000;0.151122
4296.000000;0.161352
4295.000000;0.167363
4294.000000;0.162615
4293.000000;0.149928
4292.000000;0.138893
4291.000000;0.137730
4290.000000;0.148514
4289.000000;0.166834
4288.000000;0.183165
4287.000000;0.187600
4286.000000;0.178379
4285.000000;0.163347
4284.000000;0.151667
4283.000000;0.148199
4282.000000;0.153666
4281.000000;0.165754
4280.000000;0.179393
4279.000000;0.188585
4278.000000;0.190963
4277.000000;0.189499
4276.000000;0.188376
4275.000000;0.189449
4274.000000;0.192599
4273.000000;0.196926
4272.000000;0.200883
4271.000000;0.203084
4270.000000;0.204143
4269.000000;0.206628
4268.000000;0.212611
4267.000000;0.221809
4266.000000;0.232016
4265.000000;0.240512
4264.000000;0.245591
4263.000000;0.248996
4262.000000;0.256051
4261.000000;0.269739
4260.000000;0.284503
4259.000000;0.290348
4258.000000;0.286119
4257.000000;0.282716
4256.000000;0.290761
4255.000000;0.310765
4254.000000;0.334195
4253.000000;0.351210
4252.000000;0.357827
4251.000000;0.357122
4250.000000;0.355842
4249.000000;0.359715
4248.000000;0.369061
4247.000000;0.379130
4246.000000;0.386002
4245.000000;0.391413
4244.000000;0.399747
4243.000000;0.411046
4242.000000;0.421885
4241.000000;0.431386
4240.000000;0.440493
4239.000000;0.448409
4238.000000;0.454388
4237.000000;0.460658
4236.000000;0.470633
4235.000000;0.486359
4234.000000;0.507732
4233.000000;0.529762
4232.000000;0.543186
4231.000000;0.544538
4230.000000;0.540837
4229.000000;0.541190
4228.000000;0.549297
4227.000000;0.563465
4226.000000;0.579528
4225.000000;0.593044
4224.000000;0.602654
4223.000000;0.610257
4222.000000;0.619221
4221.000000;0.633141
4220.000000;0.651884
4219.000000;0.672534
4218.000000;0.694956
4217.000000;0.720458
4216.000000;0.742617
4215.000000;0.749085
4214.000000;0.738237
4213.000000;0.722075
4212.000000;0.712117
4211.000000;0.711414
4210.000000;0.719116
4209.000000;0.736598
4208.000000;0.764953
4207.000000;0.795667
4206.000000;0.809191
4205.000000;0.798012
4204.000000;0.782180
4203.000000;0.785132
4202.000000;0.814700
4201.000000;0.866955
4200.000000;0.932013
4199.000000;0.988211
4198.000000;0.990901
4197.000000;0.935006
4196.000000;0.878920
4195.000000;0.857454
4194.000000;0.873315
4193.000000;0.917256
4192.000000;0.979386
4191.000000;1.048300
4190.000000;1.093686
4189.000000;1.087063
4188.000000;1.044367
4187.000000;0.994448
4186.000000;0.962344
4185.000000;0.959997
4184.000000;0.984191
4183.000000;1.026219
4182.000000;1.068897
4181.000000;1.091011
4180.000000;1.089300
4179.000000;1.075902
4178.000000;1.059535
4177.000000;1.055737
4176.000000;1.092298
4175.000000;1.185964
4174.000000;1.275805
4173.000000;1.247453
4172.000000;1.160076
4171.000000;1.091011
4170.000000;1.081157
4169.000000;1.140254
4168.000000;1.235720
4167.000000;1.312088
4166.000000;1.338226
4165.000000;1.309851
4164.000000;1.242482
4163.000000;1.183038
4162.000000;1.155125
4161.000000;1.162465
4160.000000;1.210035
4159.000000;1.302844
4158.000000;1.429086
4157.000000;1.542730
4156.000000;1.527331
4155.000000;1.409749
4154.000000;1.338575
4153.000000;1.326861
4152.000000;1.324988
4151.000000;1.293840
4150.000000;1.247165
4149.000000;1.226928
4148.000000;1.253166
4147.000000;1.316585
4146.000000;1.384001
4145.000000;1.439268
4144.000000;1.433139
4143.000000;1.324008
4142.000000;1.247959
4141.000000;1.259360
4140.000000;1.295771
4139.000000;1.254806
4138.000000;1.225972
4137.000000;1.315504
4136.000000;1.552262
4135.000000;1.855874
4134.000000;1.859102
4133.000000;1.707899
4132.000000;1.621494
4131.000000;1.595160
4130.000000;1.600043
4129.000000;1.592708
4128.000000;1.507933
4127.000000;1.417862
4126.000000;1.412130
4125.000000;1.435664
4124.000000;1.446226
4123.000000;1.493223
4122.000000;1.606581
4121.000000;1.793312
4120.000000;1.930009
4119.000000;1.790203
4118.000000;1.549684
4117.000000;1.467168
4116.000000;1.565853
4115.000000;1.695019
4114.000000;1.701032
4113.000000;1.811307
4112.000000;1.690854
4111.000000;1.480488
4110.000000;1.439035
4109.000000;1.561850
4108.000000;1.837901
4107.000000;1.929647
4106.000000;1.968556
4105.000000;2.031586
4104.000000;1.790737
4103.000000;1.612119
4102.000000;1.519972
4101.000000;1.528505
4100.000000;1.693609
4099.000000;2.111689
4098.000000;2.082939
4097.000000;2.352308
4096.000000;2.134961
4095.000000;1.670822
4094.000000;1.563025
4093.000000;1.617022
4092.000000;1.646396
4091.000000;1.560993
4090.000000;1.516582
4089.000000;1.535488
4088.000000;1.551526
4087.000000;1.518964
4086.000000;1.518340
4085.000000;1.603276
4084.000000;1.722231
4083.000000;1.725768
4082.000000;1.578707
4081.000000;1.473881
4080.000000;1.485631
4079.000000;1.654763
4078.000000;1.832632
4077.000000;1.740370
4076.000000;1.770044
4075.000000;1.987987
4074.000000;2.084447
4073.000000;2.234683
4072.000000;2.538984
4071.000000;1.927567
4070.000000;1.635938
4069.000000;1.603152
4068.000000;1.691833
4067.000000;1.651327
4066.000000;1.522547
4065.000000;1.469283
4064.000000;1.514416
4063.000000;1.646097
4062.000000;1.810107
4061.000000;1.953836
4060.000000;2.037213
4059.000000;2.002383
4058.000000;1.832328
4057.000000;1.641245
4056.000000;1.505688
4055.000000;1.453036
4054.000000;1.450396
4053.000000;1.446684
4052.000000;1.478993
4051.000000;1.656772
4050.000000;1.941220
4049.000000;1.839881
4048.000000;1.741277
4047.000000;2.057626
4046.000000;2.114976
4045.000000;1.792294
4044.000000;1.785214
4043.000000;2.061515
4042.000000;2.482461
4041.000000;2.041889
4040.000000;1.732106
4039.000000;1.628938
4038.000000;1.706068
4037.000000;1.725272
4036.000000;1.583272
4035.000000;1.657862
4034.000000;2.121348
4033.000000;1.867604
4032.000000;1.578155
4031.000000;1.514109
4030.000000;1.510583
4029.000000;1.508681
4028.000000;1.525187
4027.000000;1.542682
4026.000000;1.559904
4025.000000;1.936972
4024.000000;2.050328
4023.000000;1.544280
4022.000000;1.479506
4021.000000;1.558037
4020.000000;1.897778
4019.000000;2.114309
4018.000000;1.802871
4017.000000;1.725945
4016.000000;1.699096
4015.000000;1.615784
4014.000000;1.581997
4013.000000;1.697599
4012.000000;1.863473
4011.000000;1.761231
4010.000000;1.717253
4009.000000;1.743908
4008.000000;1.693992
4007.000000;1.718517
4006.000000;1.926179
4005.000000;2.137134
4004.000000;2.130779
4003.000000;2.177570
4002.000000;1.950756
4001.000000;1.828759
4000.000000;1.965455
3999.000000;2.059320
3998.000000;1.882039
3997.000000;1.770003
3996.000000;1.736058
3995.000000;1.827754
3994.000000;2.363338
3993.000000;2.235112
3992.000000;1.788875
3991.000000;1.669615
3990.000000;1.762323
3989.000000;2.272395
3988.000000;1.723071
3987.000000;1.464048
3986.000000;1.484727
3985.000000;1.559566
3984.000000;1.606756
3983.000000;1.636966
3982.000000;1.680680
3981.000000;1.689505
3980.000000;1.659316
3979.000000;1.612234
3978.000000;1.703723
3977.000000;2.012563
3976.000000;1.905517
3975.000000;1.722815
3974.000000;1.803424
3973.000000;1.959920
3972.000000;1.954182
3971.000000;1.899623
3970.000000;1.908872
3969.000000;1.905992
3968.000000;1.844145
3967.000000;1.760291
3966.000000;1.775655
3965.000000;1.902969
3964.000000;1.898163
3963.000000;1.769405
3962.000000;1.603885
3961.000000;1.494959
3960.000000;1.506361
3959.000000;1.568709
3958.000000;1.614642
3957.000000;1.673352
3956.000000;1.792107
3955.000000;1.888495
3954.000000;1.709278
3953.000000;1.522071
3952.000000;1.561936
3951.000000;1.897065
3950.000000;1.784352
3949.000000;1.615460
3948.000000;1.957805
3947.000000;1.835911
3946.000000;1.395991
3945.000000;1.356022
3944.000000;1.436546
3943.000000;1.379637
3942.000000;1.307236
3941.000000;1.385217
3940.000000;1.634883
3939.000000;2.364035
3938.000000;2.288221
3937.000000;1.783146
3936.000000;1.678451
3935.000000;1.671219
3934.000000;1.736418
3933.000000;1.699742
3932.000000;1.653260
3931.000000;1.565845
3930.000000;1.459792
3929.000000;1.452587
3928.000000;1.671106
3927.000000;1.984874
3926.000000;1.895470
3925.000000;2.218641
3924.000000;2.198721
3923.000000;1.895455
3922.000000;1.937506
3921.000000;1.897355
3920.000000;1.838216
3919.000000;1.926531
3918.000000;1.790694
3917.000000;1.559616
3916.000000;1.547927
3915.000000;1.838468
3914.000000;2.057114
3913.000000;1.808335
3912.000000;1.803347
3911.000000;1.845891
3910.000000;1.933035
3909.000000;2.239797
3908.000000;2.181371
3907.000000;2.190873
3906.000000;2.689475
3905.000000;2.045376
3904.000000;1.760294
3903.000000;1.666366
3902.000000;1.693007
3901.000000;1.819238
3900.000000;1.709341
3899.000000;1.689381
3898.000000;1.777206
3897.000000;1.794351
3896.000000;1.748235
3895.000000;1.713691
3894.000000;1.754194
3893.000000;1.602584
3892.000000;1.456063
3891.000000;1.494202
3890.000000;1.602708
3889.000000;1.594901
3888.000000;1.475209
3887.000000;1.465316
3886.000000;1.602961
3885.000000;1.757306
3884.000000;1.822910
3883.000000;1.807705
3882.000000;1.795106
3881.000000;1.822466
3880.000000;1.959620
3879.000000;2.302006
3878.000000;2.174065
3877.000000;1.799114
3876.000000;1.651414
3875.000000;1.736265
3874.000000;2.154116
3873.000000;2.278630
3872.000000;1.877403
3871.000000;1.727281
3870.000000;1.912427
3869.000000;2.473835
3868.000000;2.154360
3867.000000;1.969441
3866.000000;2.031145
3865.000000;2.276748
3864.000000;2.279874
3863.000000;1.947280
3862.000000;1.815714
3861.000000;1.832782
3860.000000;2.195663
3859.000000;2.147985
3858.000000;1.658573
3857.000000;1.372209
3856.000000;1.223371
3855.000000;1.302182
3854.000000;1.359647
3853.000000;1.462460
3852.000000;1.819048
3851.000000;2.252044
3850.000000;2.175517
3849.000000;1.880804
3848.000000;1.946182
3847.000000;2.379068
3846.000000;2.378518
3845.000000;2.192538
3844.000000;2.371810
3843.000000;1.847058
3842.000000;1.578643
3841.000000;1.499049
3840.000000;1.563995
3839.000000;2.047319
3838.000000;2.561670
3837.000000;2.075714
3836.000000;2.062921
3835.000000;2.008591
3834.000000;1.942220
3833.000000;2.053586
3832.000000;2.019284
3831.000000;1.743406
3830.000000;1.721694
3829.000000;2.205844
3828.000000;2.227486
3827.000000;2.082952
3826.000000;2.535710
3825.000000;2.505651
3824.000000;2.116179
3823.000000;1.962987
3822.000000;1.938171
3821.000000;1.557873
3820.000000;1.346729
3819.000000;1.373923
3818.000000;1.292546
3817.000000;1.188750
3816.000000;1.337495
3815.000000;1.581091
3814.000000;1.612038
3813.000000;1.733645
3812.000000;2.118343
3811.000000;2.354133
3810.000000;2.077793
3809.000000;2.382167
3808.000000;2.062939
3807.000000;1.767424
3806.000000;1.874083
3805.000000;2.180475
3804.000000;1.589711
3803.000000;1.443404
3802.000000;1.894675
3801.000000;1.888342
3800.000000;1.594771
3799.000000;1.566607
3798.000000;1.786920
3797.000000;1.984111
3796.000000;1.601673
3795.000000;1.590759
3794.000000;1.692659
3793.000000;1.534091
3792.000000;1.422901
3791.000000;1.409482
3790.000000;1.476087
3789.000000;1.561745
3788.000000;1.619398
3787.000000;1.684360
3786.000000;1.705706
3785.000000;1.749679
3784.000000;1.915046
3783.000000;1.954102
3782.000000;1.745773
3781.000000;1.595814
3780.000000;1.579864
3779.000000;1.621297
3778.000000;1.614530
3777.000000;1.683947
3776.000000;1.798654
3775.000000;1.767872
3774.000000;1.744807
3773.000000;1.811324
3772.000000;2.038911
3771.000000;2.167466
3770.000000;2.102463
3769.000000;2.184476
3768.000000;2.141822
3767.000000;1.926149
3766.000000;1.999908
3765.000000;2.473662
3764.000000;2.198778
3763.000000;1.887342
3762.000000;1.832220
3761.000000;2.021208
3760.000000;2.206570
3759.000000;2.009544
3758.000000;1.902735
3757.000000;1.744144
3756.000000;1.722068
3755.000000;1.861018
3754.000000;2.057900
3753.000000;1.693557
3752.000000;1.561004
3751.000000;2.080651
3750.000000;1.831113
3749.000000;1.475080
3748.000000;1.417951
3747.000000;1.464255
3746.000000;2.002297
3745.000000;2.102220
3744.000000;1.612658
3743.000000;1.487220
3742.000000;1.485708
3741.000000;1.626884
3740.000000;1.729207
3739.000000;1.764277
3738.000000;1.811863
3737.000000;1.912295
3736.000000;1.964435
3735.000000;2.008809
3734.000000;1.962433
3733.000000;2.002612
3732.000000;2.138769
3731.000000;2.038145
3730.000000;2.051117
3729.000000;1.826537
3728.000000;1.547015
3727.000000;1.482964
3726.000000;1.562066
3725.000000;1.655728
3724.000000;1.566408
3723.000000;1.432532
3722.000000;1.419903
3721.000000;1.549611
3720.000000;1.654391
3719.000000;1.665341
3718.000000;1.821859
3717.000000;1.895410
3716.000000;1.754794
3715.000000;1.660635
3714.000000;1.762309
3713.000000;1.970186
3712.000000;1.728211
3711.000000;1.646893
3710.000000;1.929488
3709.000000;2.554513
3708.000000;2.582834
3707.000000;2.211859
3706.000000;2.026419
3705.000000;2.040984
3704.000000;2.366559
3703.000000;2.057241
3702.000000;1.796932
3701.000000;1.834918
3700.000000;1.870573
3699.000000;1.881770
3698.000000;2.139373
3697.000000;2.567774
3696.000000;2.264730
3695.000000;2.189316
3694.000000;2.082731
3693.000000;1.632985
3692.000000;1.311920
3691.000000;1.401250
3690.000000;1.406863
3689.000000;1.273842
3688.000000;1.528544
3687.000000;1.678810
3686.000000;1.644809
3685.000000;1.828666
3684.000000;1.802110
3683.000000;1.712631
3682.000000;1.912808
3681.000000;2.211165
3680.000000;2.038507
3679.000000;2.040776
3678.000000;2.056838
3677.000000;1.916323
3676.000000;2.070611
3675.000000;2.074048
3674.000000;1.895114
3673.000000;1.944057
3672.000000;1.965072
3671.000000;1.769877
3670.000000;1.695953
3669.000000;2.182593
3668.000000;1.986931
3667.000000;1.604741
3666.000000;2.057466
3665.000000;1.954415
3664.000000;1.709832
3663.000000;2.210338
3662.000000;1.922447
3661.000000;1.654187
3660.000000;1.847285
3659.000000;2.576512
3658.000000;1.823645
3657.000000;1.765743
3656.000000;2.184052
3655.000000;2.094421
3654.000000;2.030142
3653.000000;1.852411
3652.000000;2.052266
3651.000000;2.375217
3650.000000;1.720765
3649.000000;1.640666
3648.000000;2.003394
3647.000000;2.018114
3646.000000;1.641047
3645.000000;1.581448
3644.000000;1.625565
3643.000000;1.724628
3642.000000;1.929087
3641.000000;2.154967
3640.000000;2.641129
3639.000000;1.990780
3638.000000;1.708310
3637.000000;1.737081
3636.000000;1.953759
3635.000000;2.205479
3634.000000;2.267842
3633.000000;2.151267
3632.000000;1.960227
3631.000000;1.691666
3630.000000;1.716047
3629.000000;2.183267
3628.000000;1.949977
3627.000000;1.854096
3626.000000;2.066739
3625.000000;2.013722
3624.000000;1.952545
3623.000000;1.928129
3622.000000;2.237890
3621.000000;2.357375
3620.000000;1.898113
3619.000000;1.941718
3618.000000;1.815271
3617.000000;1.559617
3616.000000;1.513651
3615.000000;1.606270
3614.000000;1.874643
3613.000000;2.154819
3612.000000;2.287855
3611.000000;2.364851
3610.000000;1.838912
3609.000000;1.564070
3608.000000;1.546905
3607.000000;1.692581
3606.000000;2.031614
3605.000000;2.119936
3604.000000;2.207932
3603.000000;2.229014
3602.000000;1.674377
3601.000000;1.535348
3600.000000;1.675212
3599.000000;1.686400
3598.000000;1.473903
3597.000000;1.429313
3596.000000;1.567121
3595.000000;1.929809
3594.000000;2.436326
3593.000000;2.098207
3592.000000;1.852490
3591.000000;1.695030
3590.000000;1.594423
3589.000000;1.613851
3588.000000;1.891151
3587.000000;1.878379
3586.000000;1.628852
3585.000000;1.565967
3584.000000;1.630596
3583.000000;1.974113
3582.000000;2.086727
3581.000000;1.782588
3580.000000;1.865181
3579.000000;2.414764
3578.000000;1.963436
3577.000000;1.652110
3576.000000;1.624169
3575.000000;1.746959
3574.000000;2.160691
3573.000000;2.039004
3572.000000;1.596673
3571.000000;1.446982
3570.000000;1.479554
3569.000000;1.414325
3568.000000;1.243729
3567.000000;1.225597
3566.000000;1.268977
3565.000000;1.318526
3564.000000;1.516366
3563.000000;1.844026
3562.000000;1.650878
3561.000000;1.498751
3560.000000;1.537888
3559.000000;1.716579
3558.000000;2.241128
3557.000000;1.926039
3556.000000;1.575725
3555.000000;1.433164
3554.000000;1.369284
3553.000000;1.376286
3552.000000;1.397657
3551.000000;1.422344
3550.000000;1.445982
3549.000000;1.389668
3548.000000;1.291404
3547.000000;1.262122
3546.000000;1.427639
3545.000000;1.738028
3544.000000;1.528927
3543.000000;1.386823
3542.000000;1.580404
3541.000000;1.756180
3540.000000;1.514992
3539.000000;1.509231
3538.000000;1.793028
3537.000000;2.287034
3536.000000;2.281688
3535.000000;2.055047
3534.000000;1.988601
3533.000000;1.788886
3532.000000;1.723266
3531.000000;1.759265
3530.000000;1.468750
3529.000000;1.246948
3528.000000;1.241529
3527.000000;1.346811
3526.000000;1.338506
3525.000000;1.315737
3524.000000;1.454567
3523.000000;1.747634
3522.000000;1.991267
3521.000000;1.865226
3520.000000;1.720201
3519.000000;1.669506
3518.000000;1.585052
3517.000000;1.607318
3516.000000;1.809729
3515.000000;1.843074
3514.000000;2.120852
3513.000000;2.193773
3512.000000;1.547180
3511.000000;1.509849
3510.000000;1.910934
3509.000000;1.658879
3508.000000;1.388046
3507.000000;1.502927
3506.000000;1.693154
3505.000000;1.617196
3504.000000;1.577879
3503.000000;1.560950
3502.000000;1.441012
3501.000000;1.427553
3500.000000;1.501883
3499.000000;1.548727
3498.000000;1.634762
3497.000000;1.551253
3496.000000;1.435220
3495.000000;1.590817
3494.000000;2.085351
3493.000000;1.888719
3492.000000;1.796983
3491.000000;1.806242
3490.000000;1.666981
3489.000000;1.829368
3488.000000;2.061113
3487.000000;1.767102
3486.000000;1.639652
3485.000000;1.585879
3484.000000;1.558421
3483.000000;1.623831
3482.000000;1.758439
3481.000000;1.682285
3480.000000;1.500745
3479.000000;1.479909
3478.000000;1.713706
3477.000000;1.970609
3476.000000;1.700052
3475.000000;1.700849
3474.000000;2.171063
3473.000000;2.006106
3472.000000;1.705419
3471.000000;1.590725
3470.000000;1.496430
3469.000000;1.464697
3468.000000;1.569843
3467.000000;1.832171
3466.000000;1.946006
3465.000000;2.058851
3464.000000;2.038821
3463.000000;1.691763
3462.000000;1.596666
3461.000000;1.653286
3460.000000;1.961064
3459.000000;1.856498
3458.000000;1.547212
3457.000000;1.730199
3456.000000;1.839834
3455.000000;1.493609
3454.000000;1.465286
3453.000000;1.768278
3452.000000;1.685363
3451.000000;1.476153
3450.000000;1.553077
3449.000000;1.733477
3448.000000;1.636746
3447.000000;1.495484
3446.000000;1.578265
3445.000000;2.044624
3444.000000;1.830182
3443.000000;1.679622
3442.000000;1.932671
3441.000000;2.086197
3440.000000;1.832934
3439.000000;1.726329
3438.000000;1.679411
3437.000000;1.628996
3436.000000;1.556383
3435.000000;1.483211
3434.000000;1.422096
3433.000000;1.358235
3432.000000;1.301782
3431.000000;1.297862
3430.000000;1.412099
3429.000000;1.591629
3428.000000;1.519576
3427.000000;1.399346
3426.000000;1.426613
3425.000000;1.495514
3424.000000;1.534533
3423.000000;1.625540
3422.000000;1.598887
3421.000000;1.470388
3420.000000;1.549145
3419.000000;2.127582
3418.000000;1.812046
3417.000000;1.612172
3416.000000;1.797789
3415.000000;1.943078
3414.000000;1.851963
3413.000000;1.799338
3412.000000;1.526146
3411.000000;1.372831
3410.000000;1.362779
3409.000000;1.417009
3408.000000;1.455301
3407.000000;1.539219
3406.000000;1.739012
3405.000000;1.939506
3404.000000;2.176710
3403.000000;1.871890
3402.000000;1.748793
3401.000000;2.233685
3400.000000;1.875938
3399.000000;1.878474
3398.000000;2.031897
3397.000000;1.591623
3396.000000;1.553199
3395.000000;1.703159
3394.000000;1.622204
3393.000000;1.593903
3392.000000;1.778307
3391.000000;2.005046
3390.000000;1.890913
3389.000000;1.773749
3388.000000;1.792917
3387.000000;2.079650
3386.000000;2.931998
3385.000000;2.167960
3384.000000;1.805765
3383.000000;1.622919
3382.000000;1.597327
3381.000000;1.752562
3380.000000;1.946710
3379.000000;1.836597
3378.000000;1.707641
3377.000000;1.589241
3376.000000;1.554019
3375.000000;1.579510
3374.000000;1.663414
3373.000000;1.809302
3372.000000;1.542679
3371.000000;1.362204
3370.000000;1.446901
3369.000000;1.779331
3368.000000;1.540719
3367.000000;1.364509
3366.000000;1.420022
3365.000000;1.577805
3364.000000;1.780510
3363.000000;1.716442
3362.000000;1.486966
3361.000000;1.376971
3360.000000;1.381760
3359.000000;1.525523
3358.000000;1.803979
3357.000000;1.735908
3356.000000;1.517351
3355.000000;1.424222
3354.000000;1.405049
3353.000000;1.459218
3352.000000;1.582675
3351.000000;1.638487
3350.000000;1.563181
3349.000000;1.565624
3348.000000;1.762625
3347.000000;2.223862
3346.000000;1.868903
3345.000000;1.647156
3344.000000;1.863453
3343.000000;2.000352
3342.000000;1.839607
3341.000000;2.056456
3340.000000;1.932208
3339.000000;1.685165
3338.000000;1.633148
3337.000000;1.804950
3336.000000;2.399885
3335.000000;2.296687
3334.000000;2.397310
3333.000000;1.753289
3332.000000;1.541191
3331.000000;1.496374
3330.000000;1.782526
3329.000000;2.062246
3328.000000;1.401332
3327.000000;1.273219
3326.000000;1.349243
3325.000000;1.559770
3324.000000;1.384922
3323.000000;1.200081
3322.000000;1.209185
3321.000000;1.352236
3320.000000;1.553558
3319.000000;1.596452
3318.000000;1.524613
3317.000000;1.503090
3316.000000;1.614171
3315.000000;1.638740
3314.000000;1.655650
3313.000000;1.959196
3312.000000;1.500950
3311.000000;1.333323
3310.000000;1.447151
3309.000000;1.900558
3308.000000;1.913157
3307.000000;1.752776
3306.000000;1.904695
3305.000000;1.955727
3304.000000;2.122332
3303.000000;1.818638
3302.000000;1.544135
3301.000000;1.669243
3300.000000;2.045084
3299.000000;2.051504
3298.000000;1.869544
3297.000000;1.669228
3296.000000;1.602818
3295.000000;1.685648
3294.000000;1.780530
3293.000000;1.675535
3292.000000;1.555033
3291.000000;1.602039
3290.000000;1.874238
3289.000000;2.690377
3288.000000;2.079343
3287.000000;1.711946
3286.000000;1.649422
3285.000000;2.051208
3284.000000;1.875772
3283.000000;1.470835
3282.000000;1.363618
3281.000000;1.407743
3280.000000;1.473977
3279.000000;1.367032
3278.000000;1.293026
3277.000000;1.366660
3276.000000;1.633085
3275.000000;1.678388
3274.000000;1.416099
3273.000000;1.398737
3272.000000;1.522266
3271.000000;1.530219
3270.000000;1.427751
3269.000000;1.554048
3268.000000;1.813121
3267.000000;1.606557
3266.000000;1.454238
3265.000000;1.522673
3264.000000;1.783425
3263.000000;2.153658
3262.000000;2.009157
3261.000000;2.197870
3260.000000;2.317841
3259.000000;1.889425
3258.000000;1.677303
3257.000000;1.535865
3256.000000;1.534415
3255.000000;1.776360
3254.000000;2.049995
3253.000000;1.633034
3252.000000;1.577649
3251.000000;1.803407
3250.000000;1.736568
3249.000000;1.375862
3248.000000;1.366920
3247.000000;1.462297
3246.000000;1.369367
3245.000000;1.280579
3244.000000;1.328722
3243.000000;1.447609
3242.000000;1.470964
3241.000000;1.338469
3240.000000;1.248437
3239.000000;1.272862
3238.000000;1.419383
3237.000000;1.715414
3236.000000;1.639561
3235.000000;1.480335
3234.000000;1.550848
3233.000000;1.749573
3232.000000;1.608261
3231.000000;1.535610
3230.000000;1.722552
3229.000000;1.785339
3228.000000;1.519408
3227.000000;1.394648
3226.000000;1.362339
3225.000000;1.465523
3224.000000;1.776092
3223.000000;1.760461
3222.000000;1.640685
3221.000000;1.966044
3220.000000;2.150922
3219.000000;2.225405
3218.000000;2.392259
3217.000000;1.733348
3216.000000;1.705851
3215.000000;1.794801
3214.000000;1.809524
3213.000000;1.779000
3212.000000;2.197487
3211.000000;1.774956
3210.000000;1.521503
3209.000000;1.600321
3208.000000;2.027356
3207.000000;1.724498
3206.000000;1.385500
3205.000000;1.229620
3204.000000;1.188982
3203.000000;1.265902
3202.000000;1.354664
3201.000000;1.240456
3200.000000;1.124543
3199.000000;1.121718
3198.000000;1.287172
3197.000000;1.686250
3196.000000;1.569088
3195.000000;1.429727
3194.000000;1.574422
3193.000000;1.735771
3192.000000;1.784786
3191.000000;2.116891
3190.000000;1.833775
3189.000000;1.567083
3188.000000;1.616007
3187.000000;1.771571
3186.000000;1.841437
3185.000000;1.760573
3184.000000;1.743754
3183.000000;1.859410
3182.000000;2.090971
3181.000000;2.141400
3180.000000;1.917106
3179.000000;1.768743
3178.000000;1.762721
3177.000000;2.215149
3176.000000;1.805919
3175.000000;1.539511
3174.000000;1.559523
3173.000000;1.810571
3172.000000;1.781844
3171.000000;1.644607
3170.000000;1.760004
3169.000000;1.722346
3168.000000;1.552346
3167.000000;1.587444
3166.000000;1.691755
3165.000000;1.861861
3164.000000;1.991431
3163.000000;1.826751
3162.000000;2.164245
3161.000000;1.820890
3160.000000;1.475467
3159.000000;1.557380
3158.000000;1.477810
3157.000000;1.272407
3156.000000;1.213791
3155.000000;1.292700
3154.000000;1.417455
3153.000000;1.418978
3152.000000;1.373925
3151.000000;1.390743
3150.000000;1.489093
3149.000000;1.550852
3148.000000;1.565457
3147.000000;1.740496
3146.000000;1.949780
3145.000000;1.785622
3144.000000;1.758855
3143.000000;1.678048
3142.000000;1.479796
3141.000000;1.562916
3140.000000;1.950262
3139.000000;1.629556
3138.000000;1.521071
3137.000000;1.476977
3136.000000;1.343151
3135.000000;1.329226
3134.000000;1.344006
3133.000000;1.328809
3132.000000;1.386247
3131.000000;1.536490
3130.000000;1.513561
3129.000000;1.413704
3128.000000;1.420830
3127.000000;1.461017
3126.000000;1.457704
3125.000000;1.421350
3124.000000;1.406399
3123.000000;1.475884
3122.000000;1.864837
3121.000000;1.539804
3120.000000;1.278987
3119.000000;1.353316
3118.000000;1.867829
3117.000000;1.228735
3116.000000;1.034996
3115.000000;1.109230
3114.000000;1.413689
3113.000000;1.286554
3112.000000;1.104315
3111.000000;1.167791
3110.000000;1.383136
3109.000000;1.925064
3108.000000;1.834953
3107.000000;1.387315
3106.000000;1.309079
3105.000000;1.386893
3104.000000;1.384875
3103.000000;1.250368
3102.000000;1.257406
3101.000000;1.450042
3100.000000;2.038216
3099.000000;1.944874
3098.000000;1.751702
3097.000000;1.599102
3096.000000;1.416867
3095.000000;1.343459
3094.000000;1.389076
3093.000000;1.459976
3092.000000;1.347285
3091.000000;1.216350
3090.000000;1.181761
3089.000000;1.255828
3088.000000;1.378326
3087.000000;1.377414
3086.000000;1.354618
3085.000000;1.477594
3084.000000;1.673688
3083.000000;1.545408
3082.000000;1.405089
3081.000000;1.640251
3080.000000;1.466781
3079.000000;1.135746
3078.000000;1.101141
3077.000000;1.308595
3076.000000;1.593051
3075.000000;1.397280
3074.000000;1.345738
3073.000000;1.480470
3072.000000;1.746886
3071.000000;2.273751
3070.000000;1.694915
3069.000000;1.647368
3068.000000;1.791873
3067.000000;1.550307
3066.000000;1.562204
3065.000000;1.853537
3064.000000;2.135589
3063.000000;2.426724
3062.000000;1.886626
3061.000000;1.703463
3060.000000;1.729724
3059.000000;1.829809
3058.000000;2.177772
3057.000000;2.211286
3056.000000;1.714276
3055.000000;1.815326
3054.000000;1.954655
3053.000000;1.532437
3052.000000;1.379188
3051.000000;1.446129
3050.000000;2.104525
3049.000000;1.794759
3048.000000;1.416312
3047.000000;1.429030
3046.000000;1.654919
3045.000000;1.944931
3044.000000;1.616834
3043.000000;1.517433
3042.000000;1.591383
3041.000000;1.615295
3040.000000;1.646527
3039.000000;1.722651
3038.000000;1.564138
3037.000000;1.465507
3036.000000;1.386954
3035.000000;1.306501
3034.000000;1.318682
3033.000000;1.390431
3032.000000;1.480883
3031.000000;1.728596
3030.000000;1.943046
3029.000000;1.885240
3028.000000;1.916963
3027.000000;1.775570
3026.000000;1.623623
3025.000000;1.469225
3024.000000;1.415937
3023.000000;1.431250
3022.000000;1.440120
3021.000000;1.492249
3020.000000;1.572209
3019.000000;1.567889
3018.000000;1.502840
3017.000000;1.497047
3016.000000;1.477472
3015.000000;1.342742
3014.000000;1.244908
3013.000000;1.254907
3012.000000;1.366080
3011.000000;1.453366
3010.000000;1.445560
3009.000000;1.447271
3008.000000;1.455991
3007.000000;1.541240
3006.000000;1.516697
3005.000000;1.306786
3004.000000;1.217331
3003.000000;1.269068
3002.000000;1.379645
3001.000000;1.334477
3000.000000;1.260678
2999.000000;1.320555
2998.000000;1.428095
2997.000000;1.404673
2996.000000;1.351472
2995.000000;1.363553
2994.000000;1.489741
2993.000000;1.895892
2992.000000;1.662078
2991.000000;1.541484
2990.000000;1.839732
2989.000000;2.061764
2988.000000;1.701656
2987.000000;1.470287
2986.000000;1.576248
2985.000000;1.886293
2984.000000;1.452212
2983.000000;1.417006
2982.000000;1.722374
2981.000000;2.311832
2980.000000;1.949893
2979.000000;1.783602
2978.000000;2.107699
2977.000000;2.241628
2976.000000;1.739574
2975.000000;1.867374
2974.000000;1.695924
2973.000000;1.495277
2972.000000;1.601109
2971.000000;1.863127
2970.000000;2.275214
2969.000000;1.936543
2968.000000;1.748024
2967.000000;1.883840
2966.000000;1.562379
2965.000000;1.396892
2964.000000;1.451312
2963.000000;1.404388
2962.000000;1.314401
2961.000000;1.361152
2960.000000;1.391028
2959.000000;1.273755
2958.000000;1.246143
2957.000000;1.335334
2956.000000;1.409544
2955.000000;1.478275
2954.000000;1.625316
2953.000000;1.575127
2952.000000;1.501796
2951.000000;1.626017
2950.000000;1.755310
2949.000000;1.708188
2948.000000;1.668041
2947.000000;1.852360
2946.000000;2.071776
2945.000000;1.659540
2944.000000;1.492839
2943.000000;1.504297
2942.000000;1.579770
2941.000000;2.073988
2940.000000;1.857083
2939.000000;1.475874
2938.000000;1.518674
2937.000000;1.764026
2936.000000;1.426579
2935.000000;1.219305
2934.000000;1.203783
2933.000000;1.341562
2932.000000;1.675247
2931.000000;1.628313
2930.000000;1.519726
2929.000000;1.535516
2928.000000;1.523137
2927.000000;1.824434
2926.000000;2.512238
2925.000000;1.766803
2924.000000;1.612843
2923.000000;1.434826
2922.000000;1.309766
2921.000000;1.310150
2920.000000;1.583008
2919.000000;2.102281
2918.000000;1.849359
2917.000000;2.196230
2916.000000;1.974948
2915.000000;1.515322
2914.000000;1.427824
2913.000000;1.502641
2912.000000;1.505392
2911.000000;1.331232
2910.000000;1.327648
2909.000000;1.590879
2908.000000;1.702816
2907.000000;1.526731
2906.000000;1.637655
2905.000000;1.922131
2904.000000;1.588798
2903.000000;1.406045
2902.000000;1.669994
2901.000000;2.320574
2900.000000;1.460176
2899.000000;1.345965
2898.000000;1.374074
2897.000000;1.594910
2896.000000;1.880190
2895.000000;1.408845
2894.000000;1.182458
2893.000000;1.135923
2892.000000;1.303832
2891.000000;1.573621
2890.000000;1.363812
2889.000000;1.238803
2888.000000;1.387894
2887.000000;1.840255
2886.000000;1.729217
2885.000000;1.597443
2884.000000;1.752668
2883.000000;1.590503
2882.000000;1.470252
2881.000000;1.646977
2880.000000;1.992205
2879.000000;1.430664
2878.000000;1.193237
2877.000000;1.155779
2876.000000;1.439717
2875.000000;1.891134
2874.000000;1.245395
2873.000000;1.160810
2872.000000;1.282288
2871.000000;1.698138
2870.000000;2.022362
2869.000000;1.572210
2868.000000;1.787644
2867.000000;2.113989
2866.000000;1.727410
2865.000000;1.582176
2864.000000;1.714792
2863.000000;1.745896
2862.000000;1.592322
2861.000000;1.626736
2860.000000;1.893326
2859.000000;1.835632
2858.000000;1.813247
2857.000000;2.477293
2856.000000;1.751104
2855.000000;1.456334
2854.000000;1.431753
2853.000000;1.585651
2852.000000;2.231414
2851.000000;1.936405
2850.000000;1.890566
2849.000000;2.097938
2848.000000;1.529093
2847.000000;1.266688
2846.000000;1.173197
2845.000000;1.222911
2844.000000;1.479214
2843.000000;1.781810
2842.000000;1.646411
2841.000000;1.527372
2840.000000;1.469584
2839.000000;1.452249
2838.000000;1.511310
2837.000000;1.593897
2836.000000;1.710536
2835.000000;2.105602
2834.000000;2.226755
2833.000000;1.654654
2832.000000;1.364575
2831.000000;1.210338
2830.000000;1.162719
2829.000000;1.211617
2828.000000;1.331104
2827.000000;1.492805
2826.000000;1.723931
2825.000000;1.752796
2824.000000;1.462456
2823.000000;1.282493
2822.000000;1.215836
2821.000000;1.261570
2820.000000;1.415833
2819.000000;1.629416
2818.000000;1.636776
2817.000000;1.378630
2816.000000;1.244631
2815.000000;1.257634
2814.000000;1.400431
2813.000000;1.505899
2812.000000;1.395351
2811.000000;1.262690
2810.000000;1.256450
2809.000000;1.552340
2808.000000;1.623341
2807.000000;1.339180
2806.000000;1.347394
2805.000000;1.515000
2804.000000;1.686892
2803.000000;1.690612
2802.000000;1.627238
2801.000000;1.511877
2800.000000;1.356174
2799.000000;1.314460
2798.000000;1.434717
2797.000000;1.661081
2796.000000;1.822027
2795.000000;1.796224
2794.000000;1.541661
2793.000000;1.299315
2792.000000;1.183997
2791.000000;1.196525
2790.000000;1.303606
2789.000000;1.451031
2788.000000;1.651971
2787.000000;2.242518
2786.000000;2.679223
2785.000000;1.940860
2784.000000;1.647137
2783.000000;1.441715
2782.000000;1.433162
2781.000000;1.371056
2780.000000;1.226156
2779.000000;1.204249
2778.000000;1.303321
2777.000000;1.406782
2776.000000;1.658914
2775.000000;2.229448
2774.000000;1.739861
2773.000000;1.781975
2772.000000;1.760580
2771.000000;1.427564
2770.000000;1.468532
2769.000000;1.854017
2768.000000;3.002215
2767.000000;2.024858
2766.000000;1.408388
2765.000000;1.160595
2764.000000;1.088379
2763.000000;1.151118
2762.000000;1.286188
2761.000000;1.435775
2760.000000;1.724027
2759.000000;1.890662
2758.000000;1.743433
2757.000000;1.553880
2756.000000;1.348837
2755.000000;1.448262
2754.000000;1.796833
2753.000000;1.480924
2752.000000;1.341439
2751.000000;1.475466
2750.000000;1.425351
2749.000000;1.263282
2748.000000;1.223818
2747.000000;1.329272
2746.000000;1.451624
2745.000000;1.481662
2744.000000;1.514979
2743.000000;1.486347
2742.000000;1.435680
2741.000000;1.561795
2740.000000;1.820339
2739.000000;1.710946
2738.000000;1.624875
2737.000000;1.621843
2736.000000;1.767669
2735.000000;1.769675
2734.000000;1.404662
2733.000000;1.326171
2732.000000;1.561624
2731.000000;1.548702
2730.000000;1.245697
2729.000000;1.155722
2728.000000;1.247133
2727.000000;1.478650
2726.000000;1.696850
2725.000000;1.593531
2724.000000;1.663977
2723.000000;2.253913
2722.000000;1.553535
2721.000000;1.244173
2720.000000;1.255486
2719.000000;1.484037
2718.000000;1.715795
2717.000000;1.488492
2716.000000;1.594583
2715.000000;1.744320
2714.000000;1.443628
2713.000000;1.429040
2712.000000;1.586549
2711.000000;1.480775
2710.000000;1.376347
2709.000000;1.678081
2708.000000;1.764273
2707.000000;1.342689
2706.000000;1.302551
2705.000000;1.392681
2704.000000;1.454918
2703.000000;1.386777
2702.000000;1.248849
2701.000000;1.182966
2700.000000;1.206160
2699.000000;1.281611
2698.000000;1.304598
2697.000000;1.386752
2696.000000;1.583063
2695.000000;1.362868
2694.000000;1.257418
2693.000000;1.568558
2692.000000;1.476616
2691.000000;1.158443
2690.000000;1.152834
2689.000000;1.330382
2688.000000;1.439009
2687.000000;1.405978
2686.000000;1.574435
2685.000000;1.963417
2684.000000;1.934093
2683.000000;1.677491
2682.000000;1.707751
2681.000000;1.867644
2680.000000;1.439492
2679.000000;1.194537
2678.000000;1.233226
2677.000000;1.598890
2676.000000;2.149319
2675.000000;1.853829
2674.000000;1.610126
2673.000000;1.430221
2672.000000;1.405701
2671.000000;1.591824
2670.000000;1.886587
2669.000000;1.731779
2668.000000;1.624448
2667.000000;1.629707
2666.000000;1.709320
2665.000000;1.789165
2664.000000;1.751439
2663.000000;1.756299
2662.000000;1.478566
2661.000000;1.331350
2660.000000;1.528051
2659.000000;1.537923
2658.000000;1.213662
2657.000000;1.138154
2656.000000;1.321005
2655.000000;1.808755
2654.000000;1.612862
2653.000000;1.405649
2652.000000;1.601045
2651.000000;1.619151
2650.000000;1.396470
2649.000000;1.288118
2648.000000;1.503547
2647.000000;1.802967
2646.000000;1.355652
2645.000000;1.190404
2644.000000;1.264645
2643.000000;1.435737
2642.000000;1.604715
2641.000000;1.868892
2640.000000;1.713781
2639.000000;1.294140
2638.000000;1.191615
2637.000000;1.270521
2636.000000;1.193566
2635.000000;1.230840
2634.000000;1.656651
2633.000000;1.465626
2632.000000;1.321280
2631.000000;1.539600
2630.000000;1.678517
2629.000000;1.939816
2628.000000;1.774529
2627.000000;1.337540
2626.000000;1.244479
2625.000000;1.647944
2624.000000;1.656873
2623.000000;1.140322
2622.000000;1.066924
2621.000000;1.140048
2620.000000;1.229690
2619.000000;1.489305
2618.000000;1.713504
2617.000000;1.301213
2616.000000;1.112841
2615.000000;1.284720
2614.000000;1.491570
2613.000000;1.169307
2612.000000;1.059063
2611.000000;1.289748
2610.000000;1.553437
2609.000000;1.326958
2608.000000;1.322275
2607.000000;1.480880
2606.000000;1.549628
2605.000000;1.470065
2604.000000;1.274152
2603.000000;1.207163
2602.000000;1.262445
2601.000000;1.542944
2600.000000;1.376601
2599.000000;1.015480
2598.000000;0.908731
2597.000000;0.963710
2596.000000;1.312285
2595.000000;1.471965
2594.000000;1.109421
2593.000000;1.021068
2592.000000;1.085484
2591.000000;1.271204
2590.000000;1.380977
2589.000000;1.434700
2588.000000;1.716892
2587.000000;2.089957
2586.000000;1.879179
2585.000000;1.906763
2584.000000;2.132480
2583.000000;1.573661
2582.000000;1.285273
2581.000000;1.189526
2580.000000;1.191087
2579.000000;1.260343
2578.000000;1.370552
2577.000000;1.599036
2576.000000;2.127259
2575.000000;2.129093
2574.000000;1.652681
2573.000000;1.469549
2572.000000;1.378600
2571.000000;1.363565
2570.000000;1.415359
2569.000000;1.562526
2568.000000;2.000761
2567.000000;2.209056
2566.000000;1.852090
2565.000000;1.842966
2564.000000;1.734980
2563.000000;1.441552
2562.000000;1.330226
2561.000000;1.451749
2560.000000;1.549108
2559.000000;1.439510
2558.000000;1.346348
2557.000000;1.240391
2556.000000;1.207417
2555.000000;1.261109
2554.000000;1.223999
2553.000000;1.137646
2552.000000;1.189538
2551.000000;1.429823
2550.000000;1.637459
2549.000000;1.681751
2548.000000;1.694143
2547.000000;1.538575
2546.000000;1.506380
2545.000000;1.729874
2544.000000;1.839690
2543.000000;1.362666
2542.000000;1.153205
2541.000000;1.085922
2540.000000;1.199115
2539.000000;1.705286
2538.000000;1.531918
2537.000000;1.224389
2536.000000;1.358470
2535.000000;1.956285
2534.000000;1.456079
2533.000000;1.137266
2532.000000;1.085042
2531.000000;1.101989
2530.000000;1.285536
2529.000000;1.391928
2528.000000;1.185622
2527.000000;1.160517
2526.000000;1.412198
2525.000000;1.651878
2524.000000;1.472362
2523.000000;1.369434
2522.000000;1.367007
2521.000000;1.505149
2520.000000;1.518437
2519.000000;1.341361
2518.000000;1.226543
2517.000000;1.133196
2516.000000;1.131497
2515.000000;1.347784
2514.000000;1.637209
2513.000000;1.247750
2512.000000;0.985553
2511.000000;0.931130
2510.000000;0.999914
2509.000000;1.284150
2508.000000;1.690355
2507.000000;1.689525
2506.000000;1.748085
2505.000000;1.408235
2504.000000;1.268790
2503.000000;1.458097
2502.000000;1.537761
2501.000000;1.262381
2500.000000;1.138181
2499.000000;1.169201
2498.000000;1.339961
2497.000000;1.455858
2496.000000;1.313239
2495.000000;1.296876
2494.000000;1.553408
2493.000000;1.904140
2492.000000;1.648833
2491.000000;1.664540
2490.000000;1.722919
2489.000000;1.392973
2488.000000;1.192076
2487.000000;1.201579
2486.000000;1.398100
2485.000000;1.394177
2484.000000;1.331358
2483.000000;1.617141
2482.000000;1.543833
2481.000000;1.258338
2480.000000;1.239068
2479.000000;1.372931
2478.000000;1.437913
2477.000000;1.335576
2476.000000;1.326520
2475.000000;1.405057
2474.000000;1.591761
2473.000000;1.818249
2472.000000;1.459798
2471.000000;1.423398
2470.000000;1.598665
2469.000000;1.310528
2468.000000;1.147648
2467.000000;1.499340
2466.000000;1.942337
2465.000000;1.239668
2464.000000;1.151394
2463.000000;1.185812
2462.000000;1.252137
2461.000000;1.166617
2460.000000;0.989263
2459.000000;0.926019
2458.000000;0.961663
2457.000000;1.075007
2456.000000;1.234963
2455.000000;1.475608
2454.000000;1.592698
2453.000000;1.537623
2452.000000;1.802123
2451.000000;1.910741
2450.000000;1.440526
2449.000000;1.312103
2448.000000;1.449592
2447.000000;1.632656
2446.000000;1.696471
2445.000000;2.048740
2444.000000;1.477560
2443.000000;1.137354
2442.000000;1.058963
2441.000000;1.124043
2440.000000;1.339584
2439.000000;1.541450
2438.000000;1.424116
2437.000000;1.296801
2436.000000;1.354933
2435.000000;1.386514
2434.000000;1.255811
2433.000000;1.175491
2432.000000;1.213399
2431.000000;1.537479
2430.000000;1.413669
2429.000000;1.046097
2428.000000;0.946419
2427.000000;1.006415
2426.000000;1.214938
2425.000000;1.324227
2424.000000;1.173324
2423.000000;1.097826
2422.000000;1.163664
2421.000000;1.510756
2420.000000;1.593263
2419.000000;1.143257
2418.000000;1.036474
2417.000000;1.097521
2416.000000;1.374471
2415.000000;1.569035
2414.000000;1.230377
2413.000000;1.224096
2412.000000;1.395713
2411.000000;1.267627
2410.000000;1.070992
2409.000000;1.045284
2408.000000;1.108989
2407.000000;1.286826
2406.000000;1.501148
2405.000000;1.337812
2404.000000;1.197109
2403.000000;1.312281
2402.000000;1.923071
2401.000000;1.433717
2400.000000;1.247341
2399.000000;1.546479
2398.000000;1.267281
2397.000000;1.038599
2396.000000;1.093097
2395.000000;1.438735
2394.000000;1.595303
2393.000000;1.366890
2392.000000;1.377990
2391.000000;1.344567
2390.000000;1.217968
2389.000000;1.102437
2388.000000;1.053592
2387.000000;1.108807
2386.000000;1.288930
2385.000000;1.510121
2384.000000;1.399850
2383.000000;1.253733
2382.000000;1.323037
2381.000000;1.260746
2380.000000;1.004861
2379.000000;0.928226
2378.000000;1.183064
2377.000000;1.553140
2376.000000;1.156292
2375.000000;1.036701
2374.000000;1.088878
2373.000000;1.142182
2372.000000;1.175682
2371.000000;1.212872
2370.000000;1.237665
2369.000000;1.243539
2368.000000;1.218575
2367.000000;1.079908
2366.000000;0.966884
2365.000000;1.210448
2364.000000;2.035041
2363.000000;1.357027
2362.000000;1.699395
2361.000000;1.484451
2360.000000;1.636156
2359.000000;1.957469
2358.000000;1.107196
2357.000000;0.974850
2356.000000;1.013872
2355.000000;1.395657
2354.000000;1.590969
2353.000000;1.189499
2352.000000;1.100796
2351.000000;1.098018
2350.000000;1.085099
2349.000000;1.230871
2348.000000;1.412432
2347.000000;0.970016
2346.000000;0.893879
2345.000000;1.001156
2344.000000;1.113715
2343.000000;1.313085
2342.000000;1.703040
2341.000000;1.267319
2340.000000;0.990931
2339.000000;0.900569
2338.000000;0.924509
2337.000000;1.009304
2336.000000;0.973215
2335.000000;0.856186
2334.000000;0.850434
2333.000000;0.939648
2332.000000;0.899167
2331.000000;0.886350
2330.000000;1.005031
2329.000000;1.352224
2328.000000;1.729950
2327.000000;1.364921
2326.000000;1.203682
2325.000000;1.293502
2324.000000;1.173439
2323.000000;0.912170
2322.000000;0.853986
2321.000000;0.931875
2320.000000;0.989386
2319.000000;0.943215
2318.000000;0.895668
2317.000000;0.967511
2316.000000;1.061756
2315.000000;1.013454
2314.000000;0.960869
2313.000000;1.027682
2312.000000;1.223925
2311.000000;1.618852
2310.000000;1.493333
2309.000000;0.882871
2308.000000;0.705568
2307.000000;0.838760
2306.000000;1.152936
2305.000000;0.931312
2304.000000;0.911589
2303.000000;1.021804
2302.000000;0.958012
2301.000000;1.048940
2300.000000;1.386746
2299.000000;1.120944
2298.000000;0.906355
2297.000000;0.956178
2296.000000;1.525479
2295.000000;1.425599
2294.000000;1.053905
2293.000000;1.038429
2292.000000;1.110060
2291.000000;1.287789
2290.000000;1.212880
2289.000000;1.072468
2288.000000;1.144178
2287.000000;1.367466
2286.000000;1.159484
2285.000000;1.062444
2284.000000;1.225599
2283.000000;1.465888
2282.000000;1.370108
2281.000000;1.398088
2280.000000;1.374581
2279.000000;1.320137
2278.000000;1.341168
2277.000000;1.327494
2276.000000;1.232430
2275.000000;1.129286
2274.000000;1.055639
2273.000000;1.039476
2272.000000;1.204247
2271.000000;1.266046
2270.000000;1.032591
2269.000000;0.952189
2268.000000;1.007397
2267.000000;1.082031
2266.000000;1.103595
2265.000000;1.119090
2264.000000;1.186709
2263.000000;1.344862
2262.000000;1.351946
2261.000000;1.204474
2260.000000;1.225598
2259.000000;1.537282
2258.000000;1.562572
2257.000000;1.286068
2256.000000;1.354027
2255.000000;1.618998
2254.000000;1.641578
2253.000000;1.395618
2252.000000;1.330535
2251.000000;1.629427
2250.000000;1.296392
2249.000000;0.933020
2248.000000;0.871837
2247.000000;0.927243
2246.000000;1.094797
2245.000000;1.427214
2244.000000;2.075877
2243.000000;1.830396
2242.000000;1.686311
2241.000000;1.807154
2240.000000;1.714460
2239.000000;1.588890
2238.000000;1.581703
2237.000000;1.606433
2236.000000;1.554892
2235.000000;1.597361
2234.000000;1.905618
2233.000000;2.191518
2232.000000;1.902485
2231.000000;1.661152
2230.000000;1.434064
2229.000000;1.374797
2228.000000;1.585660
2227.000000;1.841729
2226.000000;1.310928
2225.000000;1.099322
2224.000000;1.028155
2223.000000;1.112380
2222.000000;1.388967
2221.000000;1.544199
2220.000000;1.666472
2219.000000;1.648401
2218.000000;1.327478
2217.000000;1.300334
2216.000000;1.404405
2215.000000;1.452500
2214.000000;1.494366
2213.000000;1.585748
2212.000000;1.278278
2211.000000;1.073426
2210.000000;1.033964
2209.000000;1.097824
2208.000000;1.242668
2207.000000;1.271253
2206.000000;1.073364
2205.000000;0.969741
2204.000000;1.038522
2203.000000;1.325912
2202.000000;1.476527
2201.000000;1.329593
2200.000000;1.439045
2199.000000;1.673634
2198.000000;1.822651
2197.000000;1.564112
2196.000000;1.334098
2195.000000;1.221351
2194.000000;1.147870
2193.000000;1.134310
2192.000000;1.276407
2191.000000;1.847753
2190.000000;1.595779
2189.000000;1.604535
2188.000000;1.590300
2187.000000;1.235049
2186.000000;1.214267
2185.000000;1.394451
2184.000000;1.501724
2183.000000;1.343308
2182.000000;1.130244
2181.000000;1.056518
2180.000000;1.193625
2179.000000;1.856050
2178.000000;1.344239
2177.000000;1.133068
2176.000000;1.099217
2175.000000;1.120717
2174.000000;1.089587
2173.000000;1.022728
2172.000000;1.008197
2171.000000;1.070130
2170.000000;1.369885
2169.000000;1.560461
2168.000000;1.161640
2167.000000;1.102425
2166.000000;1.355637
2165.000000;1.453827
2164.000000;1.166525
2163.000000;1.145636
2162.000000;1.415498
2161.000000;1.522770
2160.000000;1.144164
2159.000000;1.009297
2158.000000;1.038028
2157.000000;1.419149
2156.000000;1.461101
2155.000000;1.065998
2154.000000;1.023643
2153.000000;1.144280
2152.000000;1.141686
2151.000000;1.140743
2150.000000;1.198848
2149.000000;1.047298
2148.000000;1.005602
2147.000000;1.256174
2146.000000;1.512043
2145.000000;1.230551
2144.000000;1.301060
2143.000000;1.228412
2142.000000;1.169317
2141.000000;1.149439
2140.000000;1.091862
2139.000000;1.109062
2138.000000;1.231908
2137.000000;1.281736
2136.000000;1.173502
2135.000000;1.157985
2134.000000;1.273033
2133.000000;1.531216
2132.000000;1.980034
2131.000000;1.645868
2130.000000;1.616039
2129.000000;1.841483
2128.000000;1.711163
2127.000000;1.512423
2126.000000;1.445588
2125.000000;1.589057
2124.000000;1.939785
2123.000000;1.593816
2122.000000;1.511527
2121.000000;1.649946
2120.000000;1.695382
2119.000000;1.549285
2118.000000;1.525215
2117.000000;1.504194
2116.000000;1.736026
2115.000000;1.879504
2114.000000;1.449141
2113.000000;1.504159
2112.000000;1.720137
2111.000000;2.169320
2110.000000;2.042276
2109.000000;1.625932
2108.000000;1.863536
2107.000000;1.224982
2106.000000;0.931778
2105.000000;0.909760
2104.000000;1.016124
2103.000000;1.100956
2102.000000;1.085310
2101.000000;1.064876
2100.000000;1.001892
2099.000000;0.944343
2098.000000;0.966127
2097.000000;1.111275
2096.000000;1.420642
2095.000000;1.815119
2094.000000;1.763618
2093.000000;1.255833
2092.000000;1.089930
2091.000000;1.247725
2090.000000;1.700145
2089.000000;1.265038
2088.000000;1.091649
2087.000000;1.256774
2086.000000;1.706187
2085.000000;1.380586
2084.000000;1.179350
2083.000000;1.138250
2082.000000;1.103255
2081.000000;1.137125
2080.000000;1.200235
2079.000000;1.331566
2078.000000;1.541629
2077.000000;1.610928
2076.000000;1.432853
2075.000000;1.093695
2074.000000;0.931580
2073.000000;0.938041
2072.000000;1.088007
2071.000000;1.440627
2070.000000;1.804153
2069.000000;1.098066
2068.000000;0.920892
2067.000000;0.953411
2066.000000;1.306592
2065.000000;1.942374
2064.000000;1.386063
2063.000000;1.182928
2062.000000;1.021044
2061.000000;1.036755
2060.000000;1.165540
2059.000000;1.250067
2058.000000;1.353407
2057.000000;1.522622
2056.000000;1.243742
2055.000000;1.127100
2054.000000;1.208406
2053.000000;1.203474
2052.000000;1.220500
2051.000000;1.403041
2050.000000;1.393876
2049.000000;1.316744
2048.000000;1.286682
2047.000000;1.155483
2046.000000;1.106410
2045.000000;1.234448
2044.000000;1.409319
2043.000000;1.227904
2042.000000;1.085367
2041.000000;1.050436
2040.000000;1.162670
2039.000000;1.370343
2038.000000;1.274929
2037.000000;1.148505
2036.000000;1.342350
2035.000000;1.511430
2034.000000;1.059731
2033.000000;0.870753
2032.000000;0.855695
2031.000000;1.022730
2030.000000;1.655634
2029.000000;1.490450
2028.000000;1.220995
2027.000000;1.235813
2026.000000;1.117056
2025.000000;1.210419
2024.000000;1.281196
2023.000000;0.968296
2022.000000;0.816488
2021.000000;0.839305
2020.000000;1.012760
2019.000000;1.410287
2018.000000;1.197027
2017.000000;0.992994
2016.000000;0.990022
2015.000000;1.192772
2014.000000;1.517339
2013.000000;1.181826
2012.000000;1.085375
2011.000000;1.225032
2010.000000;1.523110
2009.000000;1.470220
2008.000000;1.252390
2007.000000;1.103921
2006.000000;1.103395
2005.000000;1.506002
2004.000000;1.346888
2003.000000;0.927330
2002.000000;0.840616
2001.000000;0.894648
2000.000000;1.145591
1999.000000;1.581960
1998.000000;1.491679
1997.000000;1.398930
1996.000000;2.076086
1995.000000;1.404347
1994.000000;1.082968
1993.000000;1.090142
1992.000000;1.282230
1991.000000;1.313740
1990.000000;1.286477
1989.000000;1.550485
1988.000000;1.689752
1987.000000;1.356413
1986.000000;1.246857
1985.000000;1.300418
1984.000000;1.698056
1983.000000;1.513326
1982.000000;1.098198
1981.000000;0.976301
1980.000000;0.936018
1979.000000;0.994789
1978.000000;1.189339
1977.000000;1.675868
1976.000000;1.922923
1975.000000;1.774246
1974.000000;1.690840
1973.000000;1.624878
1972.000000;1.506370
1971.000000;1.219832
1970.000000;1.049777
1969.000000;1.032572
1968.000000;1.241578
1967.000000;1.353755
1966.000000;1.096467
1965.000000;1.019962
1964.000000;1.016386
1963.000000;0.951368
1962.000000;0.926711
1961.000000;1.070639
1960.000000;1.457383
1959.000000;1.299450
1958.000000;1.051444
1957.000000;1.026210
1956.000000;1.072777
1955.000000;1.299581
1954.000000;1.795224
1953.000000;1.390009
1952.000000;1.731885
1951.000000;1.445198
1950.000000;0.916313
1949.000000;0.863133
1948.000000;1.269887
1947.000000;1.380732
1946.000000;0.960459
1945.000000;1.020175
1944.000000;1.199217
1943.000000;1.030889
1942.000000;0.992433
1941.000000;1.208637
1940.000000;1.757701
1939.000000;1.475387
1938.000000;1.249928
1937.000000;1.137658
1936.000000;1.068593
1935.000000;1.054600
1934.000000;0.995206
1933.000000;0.931514
1932.000000;0.969159
1931.000000;1.258191
1930.000000;1.404351
1929.000000;0.963369
1928.000000;0.853883
1927.000000;0.892519
1926.000000;1.007961
1925.000000;1.046015
1924.000000;1.061024
1923.000000;1.173047
1922.000000;1.230641
1921.000000;1.254171
1920.000000;1.445460
1919.000000;1.263550
1918.000000;1.065001
1917.000000;1.068748
1916.000000;1.148776
1915.000000;1.235097
1914.000000;1.312446
1913.000000;1.193178
1912.000000;0.993794
1911.000000;0.948778
1910.000000;1.123548
1909.000000;1.588920
1908.000000;1.542059
1907.000000;1.354915
1906.000000;1.604577
1905.000000;1.815680
1904.000000;1.201219
1903.000000;1.095819
1902.000000;1.321395
1901.000000;1.569884
1900.000000;1.191793
1899.000000;1.125598
1898.000000;1.190955
1897.000000;1.170957
1896.000000;1.455804
1895.000000;1.619791
1894.000000;1.169118
1893.000000;1.108110
1892.000000;1.220920
1891.000000;1.185195
1890.000000;1.159100
1889.000000;1.218466
1888.000000;1.200547
1887.000000;1.111995
1886.000000;1.069727
1885.000000;1.135994
1884.000000;1.388416
1883.000000;1.829471
1882.000000;1.406910
1881.000000;1.174861
1880.000000;1.116113
1879.000000;1.189434
1878.000000;1.460772
1877.000000;1.546188
1876.000000;1.379506
1875.000000;1.429887
1874.000000;1.237441
1873.000000;1.043070
1872.000000;1.097457
1871.000000;1.384143
1870.000000;1.197614
1869.000000;1.035125
1868.000000;1.129906
1867.000000;1.181878
1866.000000;1.089074
1865.000000;1.130889
1864.000000;1.680691
1863.000000;1.198878
1862.000000;0.910736
1861.000000;1.047130
1860.000000;1.846241
1859.000000;1.111075
1858.000000;0.863896
1857.000000;0.890170
1856.000000;1.072399
1855.000000;1.541391
1854.000000;1.373831
1853.000000;1.117392
1852.000000;1.090968
1851.000000;1.366138
1850.000000;1.535706
1849.000000;1.165731
1848.000000;1.176878
1847.000000;1.355663
1846.000000;1.156449
1845.000000;0.973808
1844.000000;0.928220
1843.000000;0.798810
1842.000000;0.682588
1841.000000;0.669007
1840.000000;0.733160
1839.000000;0.817758
1838.000000;0.886066
1837.000000;1.099174
1836.000000;1.566337
1835.000000;1.238376
1834.000000;1.130265
1833.000000;1.328485
1832.000000;1.515455
1831.000000;1.221649
1830.000000;0.984765
1829.000000;0.948334
1828.000000;1.188133
1827.000000;1.633583
1826.000000;0.931968
1825.000000;0.909681
1824.000000;1.231786
1823.000000;0.997049
1822.000000;0.746439
1821.000000;0.793598
1820.000000;1.277136
1819.000000;1.715181
1818.000000;1.182683
1817.000000;1.265313
1816.000000;1.697330
1815.000000;1.480571
1814.000000;1.213257
1813.000000;1.552815
1812.000000;1.274497
1811.000000;0.919492
1810.000000;0.946671
1809.000000;1.499639
1808.000000;1.330258
1807.000000;1.011588
1806.000000;1.035097
1805.000000;1.122525
1804.000000;1.482764
1803.000000;1.415724
1802.000000;1.147233
1801.000000;1.245421
1800.000000;1.567591
1799.000000;1.861956
1798.000000;1.931485
1797.000000;1.633073
1796.000000;1.412888
1795.000000;1.448558
1794.000000;1.365327
1793.000000;1.139962
1792.000000;1.126998
1791.000000;1.063264
1790.000000;0.954312
1789.000000;1.126783
1788.000000;1.444309
1787.000000;1.058294
1786.000000;0.848986
1785.000000;0.838066
1784.000000;0.873024
1783.000000;0.953451
1782.000000;1.099261
1781.000000;1.319771
1780.000000;1.686853
1779.000000;1.686150
1778.000000;1.738633
1777.000000;2.299023
1776.000000;1.577287
1775.000000;1.267275
1774.000000;1.115275
1773.000000;1.295432
1772.000000;1.668291
1771.000000;1.348397
1770.000000;1.280936
1769.000000;1.665795
1768.000000;1.719175
1767.000000;1.058204
1766.000000;0.856780
1765.000000;0.821704
1764.000000;0.957166
1763.000000;1.250619
1762.000000;1.521704
1761.000000;1.805642
1760.000000;1.280809
1759.000000;0.934942
1758.000000;0.857811
1757.000000;1.048624
1756.000000;1.428374
1755.000000;1.149163
1754.000000;0.999317
1753.000000;1.309750
1752.000000;1.427686
1751.000000;1.174055
1750.000000;1.191065
1749.000000;1.333380
1748.000000;1.498379
1747.000000;1.528286
1746.000000;1.858579
1745.000000;1.389804
1744.000000;1.351345
1743.000000;1.605931
1742.000000;0.980464
1741.000000;0.802192
1740.000000;1.092842
1739.000000;1.651381
1738.000000;1.244143
1737.000000;1.028892
1736.000000;0.850314
1735.000000;0.834729
1734.000000;1.054087
1733.000000;1.356033
1732.000000;1.304438
1731.000000;1.098470
1730.000000;1.038828
1729.000000;1.030539
1728.000000;1.037472
1727.000000;1.051683
1726.000000;1.032288
1725.000000;0.996364
1724.000000;1.075544
1723.000000;1.262390
1722.000000;1.398425
1721.000000;1.484868
1720.000000;1.373418
1719.000000;1.208084
1718.000000;1.362283
1717.000000;1.515496
1716.000000;1.190666
1715.000000;1.043171
1714.000000;1.070254
1713.000000;1.382741
1712.000000;1.342642
1711.000000;1.095134
1710.000000;1.118706
1709.000000;1.094122
1708.000000;0.980023
1707.000000;1.049954
1706.000000;1.623726
1705.000000;1.766109
1704.000000;1.348370
1703.000000;1.421996
1702.000000;1.611460
1701.000000;1.269772
1700.000000;1.095054
1699.000000;1.053483
1698.000000;0.950891
1697.000000;1.081296
1696.000000;1.264601
1695.000000;1.203615
1694.000000;1.437849
1693.000000;1.497406
1692.000000;0.975949
1691.000000;0.791932
1690.000000;0.800840
1689.000000;0.884159
1688.000000;0.976593
1687.000000;0.997343
1686.000000;1.015829
1685.000000;1.024067
1684.000000;1.006857
1683.000000;0.967012
1682.000000;0.996875
1681.000000;1.366927
1680.000000;1.554077
1679.000000;1.233983
1678.000000;1.166572
1677.000000;1.146086
1676.000000;1.144550
1675.000000;1.082818
1674.000000;1.029550
1673.000000;1.033241
1672.000000;1.011171
1671.000000;0.950011
1670.000000;0.926977
1669.000000;1.068246
1668.000000;1.507039
1667.000000;1.487442
1666.000000;1.139909
1665.000000;1.148377
1664.000000;1.500823
1663.000000;1.663151
1662.000000;1.767163
1661.000000;1.466169
1660.000000;0.992336
1659.000000;0.919564
1658.000000;1.084859
1657.000000;1.440725
1656.000000;1.544016
1655.000000;1.494368
1654.000000;1.480728
1653.000000;1.245077
1652.000000;1.213034
1651.000000;1.283341
1650.000000;1.498191
1649.000000;1.753340
1648.000000;1.240382
1647.000000;1.065949
1646.000000;1.119427
1645.000000;1.307251
1644.000000;1.494826
1643.000000;1.218856
1642.000000;1.098493
1641.000000;1.188783
1640.000000;1.291115
1639.000000;1.133094
1638.000000;0.859031
1637.000000;0.713040
1636.000000;0.756612
1635.000000;0.968918
1634.000000;1.154619
1633.000000;1.060315
1632.000000;0.899850
1631.000000;0.785253
1630.000000;0.735915
1629.000000;0.749491
1628.000000;0.777860
1627.000000;0.821092
1626.000000;1.063521
1625.000000;1.459371
1624.000000;1.071114
1623.000000;0.920998
1622.000000;0.901515
1621.000000;0.826708
1620.000000;0.821357
1619.000000;0.906715
1618.000000;1.112096
1617.000000;1.174642
1616.000000;1.251397
1615.000000;1.623500
1614.000000;1.373079
1613.000000;1.043167
1612.000000;0.939436
1611.000000;0.988368
1610.000000;1.364012
1609.000000;1.477282
1608.000000;1.037212
1607.000000;0.960164
1606.000000;1.014318
1605.000000;1.270358
1604.000000;1.401267
1603.000000;1.353254
1602.000000;1.568226
1601.000000;1.448287
1600.000000;1.170523
1599.000000;0.938110
1598.000000;0.788946
1597.000000;0.807557
1596.000000;1.131627
1595.000000;1.042265
1594.000000;0.740436
1593.000000;0.743436
1592.000000;0.932168
1591.000000;1.096290
1590.000000;0.904022
1589.000000;0.779634
1588.000000;0.783205
1587.000000;1.067459
1586.000000;1.629325
1585.000000;1.058626
1584.000000;1.154014
1583.000000;1.696191
1582.000000;1.250200
1581.000000;1.085583
1580.000000;1.005107
1579.000000;0.931356
1578.000000;0.934474
1577.000000;1.130490
1576.000000;1.715610
1575.000000;1.630051
1574.000000;1.154790
1573.000000;0.987030
1572.000000;0.917441
1571.000000;1.041740
1570.000000;1.480575
1569.000000;1.489909
1568.000000;1.518803
1567.000000;1.703666
1566.000000;1.312868
1565.000000;1.486905
1564.000000;2.053606
1563.000000;1.768870
1562.000000;1.670257
1561.000000;1.215319
1560.000000;1.098089
1559.000000;1.148545
1558.000000;1.108248
1557.000000;0.959237
1556.000000;1.066426
1555.000000;1.357240
1554.000000;0.942264
1553.000000;0.818653
1552.000000;1.045054
1551.000000;1.135634
1550.000000;0.941300
1549.000000;0.982089
1548.000000;1.043849
1547.000000;0.988658
1546.000000;1.022175
1545.000000;1.084255
1544.000000;1.144891
1543.000000;1.362324
1542.000000;1.323944
1541.000000;0.873591
1540.000000;0.733588
1539.000000;0.849612
1538.000000;1.158898
1537.000000;1.437996
1536.000000;1.070363
1535.000000;0.776616
1534.000000;0.700890
1533.000000;0.778556
1532.000000;1.040464
1531.000000;1.594390
1530.000000;1.292655
1529.000000;1.260307
1528.000000;1.469366
1527.000000;1.100431
1526.000000;0.961324
1525.000000;0.984253
1524.000000;1.017857
1523.000000;1.024190
1522.000000;1.136240
1521.000000;1.372869
1520.000000;1.401305
1519.000000;1.223228
1518.000000;1.128367
1517.000000;1.268986
1516.000000;1.340687
1515.000000;1.132489
1514.000000;1.109985
1513.000000;1.195858
1512.000000;1.129213
1511.000000;1.061879
1510.000000;1.081061
1509.000000;1.112883
1508.000000;1.410052
1507.000000;2.044818
1506.000000;1.550361
1505.000000;1.510350
1504.000000;1.560584
1503.000000;1.425791
1502.000000;1.140953
1501.000000;0.948646
1500.000000;0.903042
1499.000000;1.046484
1498.000000;1.461402
1497.000000;1.352333
1496.000000;1.177140
1495.000000;1.301167
1494.000000;1.421209
1493.000000;1.485366
1492.000000;1.413662
1491.000000;1.215430
1490.000000;1.072342
1489.000000;1.022119
1488.000000;0.978956
1487.000000;0.945009
1486.000000;0.995105
1485.000000;1.139913
1484.000000;1.424011
1483.000000;1.296704
1482.000000;1.282695
1481.000000;1.452705
1480.000000;1.080112
1479.000000;0.903997
1478.000000;1.061725
1477.000000;1.699925
1476.000000;1.275476
1475.000000;1.206294
1474.000000;1.567588
1473.000000;1.148117
1472.000000;0.941172
1471.000000;1.098674
1470.000000;1.334636
1469.000000;1.126978
1468.000000;0.995551
1467.000000;1.065703
1466.000000;1.580289
1465.000000;1.246482
1464.000000;0.823557
1463.000000;0.756730
1462.000000;0.835829
1461.000000;1.204641
1460.000000;1.443981
1459.000000;1.000583
1458.000000;0.958500
1457.000000;1.311420
1456.000000;1.248341
1455.000000;1.013415
1454.000000;0.956186
1453.000000;1.036239
1452.000000;1.162804
1451.000000;1.030465
1450.000000;0.828164
1449.000000;0.691773
1448.000000;0.638334
1447.000000;0.677795
1446.000000;0.873637
1445.000000;1.108471
1444.000000;0.992943
1443.000000;0.993101
1442.000000;1.231407
1441.000000;1.418422
1440.000000;1.329290
1439.000000;1.103575
1438.000000;0.893288
1437.000000;0.816342
1436.000000;0.909823
1435.000000;1.051795
1434.000000;1.085837
1433.000000;1.186453
1432.000000;1.325383
1431.000000;1.144016
1430.000000;1.181811
1429.000000;1.550405
1428.000000;1.242521
1427.000000;1.086965
1426.000000;1.077460
1425.000000;0.972722
1424.000000;0.951015
1423.000000;0.975083
1422.000000;0.902287
1421.000000;0.798730
1420.000000;0.806758
1419.000000;1.177894
1418.000000;1.379363
1417.000000;0.902425
1416.000000;0.849478
1415.000000;0.999288
1414.000000;1.438181
1413.000000;2.349967
1412.000000;1.781123
1411.000000;1.625019
1410.000000;1.948752
1409.000000;1.464833
1408.000000;1.095553
1407.000000;1.059116
1406.000000;0.977850
1405.000000;0.775164
1404.000000;0.663389
1403.000000;0.679282
1402.000000;0.785151
1401.000000;0.819686
1400.000000;0.885753
1399.000000;1.316248
1398.000000;1.185962
1397.000000;0.794540
1396.000000;0.681852
1395.000000;0.701505
1394.000000;0.860589
1393.000000;1.107341
1392.000000;1.036661
1391.000000;0.908245
1390.000000;0.938995
1389.000000;1.055381
1388.000000;1.073413
1387.000000;0.951570
1386.000000;0.916351
1385.000000;1.027526
1384.000000;1.144093
1383.000000;1.030756
1382.000000;1.047290
1381.000000;1.244369
1380.000000;1.035762
1379.000000;0.942603
1378.000000;1.056820
1377.000000;1.173911
1376.000000;1.499236
1375.000000;1.239811
1374.000000;0.976105
1373.000000;0.974487
1372.000000;0.983339
1371.000000;0.917433
1370.000000;1.036150
1369.000000;1.124184
1368.000000;0.774355
1367.000000;0.700843
1366.000000;0.911830
1365.000000;0.813366
1364.000000;0.498098
1363.000000;0.460760
1362.000000;0.659116
1361.000000;1.075718
1360.000000;0.995173
1359.000000;0.815091
1358.000000;0.906117
1357.000000;1.154906
1356.000000;1.720042
1355.000000;1.268616
1354.000000;0.928366
1353.000000;0.834267
1352.000000;0.867873
1351.000000;0.995426
1350.000000;1.127947
1349.000000;1.196125
1348.000000;1.368951
1347.000000;1.665382
1346.000000;1.073943
1345.000000;0.885222
1344.000000;0.871936
1343.000000;0.877293
1342.000000;1.167737
1341.000000;1.667750
1340.000000;1.065089
1339.000000;1.259294
1338.000000;1.811534
1337.000000;1.161029
1336.000000;0.849854
1335.000000;0.653671
1334.000000;0.551957
1333.000000;0.562602
1332.000000;0.763683
1331.000000;1.075812
1330.000000;0.949937
1329.000000;0.844177
1328.000000;0.906954
1327.000000;1.072566
1326.000000;1.252709
1325.000000;0.921800
1324.000000;0.683919
1323.000000;0.628510
1322.000000;0.726935
1321.000000;1.065335
1320.000000;0.987567
1319.000000;0.719164
1318.000000;0.673859
1317.000000;0.691540
1316.000000;0.654096
1315.000000;0.634156
1314.000000;0.717280
1313.000000;0.952029
1312.000000;1.344166
1311.000000;1.561694
1310.000000;1.349842
1309.000000;1.051429
1308.000000;0.889658
1307.000000;0.982582
1306.000000;1.187840
1305.000000;0.850754
1304.000000;0.622110
1303.000000;0.612365
1302.000000;0.731337
1301.000000;1.069408
1300.000000;1.390685
1299.000000;0.859813
1298.000000;0.626653
1297.000000;0.624734
1296.000000;0.866806
1295.000000;1.715639
1294.000000;1.159517
1293.000000;1.042195
1292.000000;1.074224
1291.000000;0.914370
1290.000000;0.718073
1289.000000;0.588660
1288.000000;0.562647
1287.000000;0.639810
1286.000000;0.731632
1285.000000;0.674802
1284.000000;0.591155
1283.000000;0.824476
1282.000000;1.230312
1281.000000;0.679948
1280.000000;0.607543
1279.000000;0.845738
1278.000000;0.842572
1277.000000;0.685907
1276.000000;0.679231
1275.000000;0.603579
1274.000000;0.597407
1273.000000;0.932822
1272.000000;1.081515
1271.000000;0.787726
1270.000000;0.975772
1269.000000;1.127383
1268.000000;0.734472
1267.000000;0.765197
1266.000000;1.551755
1265.000000;0.839889
1264.000000;0.680706
1263.000000;0.830518
1262.000000;1.151788
1261.000000;1.384742
1260.000000;1.430896
1259.000000;1.196641
1258.000000;0.745628
1257.000000;0.578875
1256.000000;0.649913
1255.000000;0.853693
1254.000000;0.718601
1253.000000;0.551493
1252.000000;0.556545
1251.000000;0.778208
1250.000000;0.973522
1249.000000;0.749727
1248.000000;0.706114
1247.000000;0.840311
1246.000000;0.964301
1245.000000;1.190414
1244.000000;1.633939
1243.000000;1.211451
1242.000000;1.367680
1241.000000;1.189546
1240.000000;0.747402
1239.000000;0.639894
1238.000000;0.832461
1237.000000;1.251573
1236.000000;0.778880
1235.000000;0.700169
1234.000000;0.798101
1233.000000;0.947430
1232.000000;0.980916
1231.000000;0.927161
1230.000000;0.970816
1229.000000;1.147274
1228.000000;1.373709
1227.000000;1.194994
1226.000000;0.860326
1225.000000;0.675370
1224.000000;0.651951
1223.000000;0.770131
1222.000000;1.020615
1221.000000;1.292332
1220.000000;1.839015
1219.000000;1.261538
1218.000000;0.855418
1217.000000;0.811829
1216.000000;1.233613
1215.000000;1.128646
1214.000000;0.848813
1213.000000;0.854235
1212.000000;0.913688
1211.000000;1.006106
1210.000000;1.110351
1209.000000;0.869887
1208.000000;0.706403
1207.000000;0.753065
1206.000000;1.073189
1205.000000;1.581406
1204.000000;1.512506
1203.000000;1.241082
1202.000000;1.039239
1201.000000;1.238696
1200.000000;1.506696
