Criado como novo conjunto de dados;"2706_e01_daniel.spp","19263.2 Secs"
cm-1;Abs
10000.000000;0.699017
9999.000000;0.699846
9998.000000;0.700754
9997.000000;0.701215
9996.000000;0.700906
9995.000000;0.699895
9994.000000;0.698609
9993.000000;0.697696
9992.000000;0.697310
9991.000000;0.697114
9990.000000;0.696920
9989.000000;0.697001
9988.000000;0.697460
9987.000000;0.697900
9986.000000;0.697978
9985.000000;0.697808
9984.000000;0.697537
9983.000000;0.697049
9982.000000;0.696378
9981.000000;0.695878
9980.000000;0.695703
9979.000000;0.695610
9978.000000;0.695525
9977.000000;0.695700
9976.000000;0.696071
9975.000000;0.696127
9974.000000;0.695772
9973.000000;0.695619
9972.000000;0.696041
9971.000000;0.696577
9970.000000;0.696733
9969.000000;0.696691
9968.000000;0.696740
9967.000000;0.696637
9966.000000;0.696150
9965.000000;0.695645
9964.000000;0.695517
9963.000000;0.695539
9962.000000;0.695359
9961.000000;0.695158
9960.000000;0.695215
9959.000000;0.695282
9958.000000;0.694982
9957.000000;0.694441
9956.000000;0.693961
9955.000000;0.693433
9954.000000;0.692698
9953.000000;0.692150
9952.000000;0.692343
9951.000000;0.693192
9950.000000;0.694068
9949.000000;0.694495
9948.000000;0.694384
9947.000000;0.693846
9946.000000;0.693237
9945.000000;0.693103
9944.000000;0.693626
9943.000000;0.694297
9942.000000;0.694504
9941.000000;0.694192
9940.000000;0.693673
9939.000000;0.693121
9938.000000;0.692643
9937.000000;0.692468
9936.000000;0.692615
9935.000000;0.692658
9934.000000;0.692263
9933.000000;0.691691
9932.000000;0.691389
9931.000000;0.691359
9930.000000;0.691333
9929.000000;0.691309
9928.000000;0.691458
9927.000000;0.691682
9926.000000;0.691687
9925.000000;0.691410
9924.000000;0.691072
9923.000000;0.690882
9922.000000;0.690923
9921.000000;0.691180
9920.000000;0.691467
9919.000000;0.691490
9918.000000;0.691168
9917.000000;0.690750
9916.000000;0.690499
9915.000000;0.690450
9914.000000;0.690536
9913.000000;0.690681
9912.000000;0.690738
9911.000000;0.690639
9910.000000;0.690613
9909.000000;0.690875
9908.000000;0.691132
9907.000000;0.690889
9906.000000;0.690255
9905.000000;0.689881
9904.000000;0.690002
9903.000000;0.690159
9902.000000;0.690052
9901.000000;0.689996
9900.000000;0.690238
9899.000000;0.690442
9898.000000;0.690254
9897.000000;0.689874
9896.000000;0.689662
9895.000000;0.689607
9894.000000;0.689558
9893.000000;0.689550
9892.000000;0.689570
9891.000000;0.689387
9890.000000;0.688941
9889.000000;0.688533
9888.000000;0.688338
9887.000000;0.688132
9886.000000;0.687788
9885.000000;0.687604
9884.000000;0.687806
9883.000000;0.688114
9882.000000;0.688137
9881.000000;0.687835
9880.000000;0.687328
9879.000000;0.686669
9878.000000;0.686105
9877.000000;0.686132
9876.000000;0.686880
9875.000000;0.687751
9874.000000;0.688014
9873.000000;0.687532
9872.000000;0.686711
9871.000000;0.686074
9870.000000;0.686072
9869.000000;0.686863
9868.000000;0.687979
9867.000000;0.688572
9866.000000;0.688304
9865.000000;0.687666
9864.000000;0.687244
9863.000000;0.687073
9862.000000;0.686917
9861.000000;0.686716
9860.000000;0.686474
9859.000000;0.686109
9858.000000;0.685726
9857.000000;0.685657
9856.000000;0.685964
9855.000000;0.686263
9854.000000;0.686262
9853.000000;0.686122
9852.000000;0.686046
9851.000000;0.685963
9850.000000;0.685833
9849.000000;0.685833
9848.000000;0.685956
9847.000000;0.685849
9846.000000;0.685359
9845.000000;0.684852
9844.000000;0.684702
9843.000000;0.684813
9842.000000;0.684898
9841.000000;0.684871
9840.000000;0.684719
9839.000000;0.684379
9838.000000;0.683986
9837.000000;0.683890
9836.000000;0.684177
9835.000000;0.684530
9834.000000;0.684738
9833.000000;0.684951
9832.000000;0.685226
9831.000000;0.685277
9830.000000;0.684932
9829.000000;0.684419
9828.000000;0.683947
9827.000000;0.683392
9826.000000;0.682686
9825.000000;0.682133
9824.000000;0.682062
9823.000000;0.682440
9822.000000;0.683022
9821.000000;0.683586
9820.000000;0.683912
9819.000000;0.683913
9818.000000;0.683860
9817.000000;0.684086
9816.000000;0.684370
9815.000000;0.684142
9814.000000;0.683371
9813.000000;0.682721
9812.000000;0.682644
9811.000000;0.682897
9810.000000;0.683103
9809.000000;0.683207
9808.000000;0.683167
9807.000000;0.682778
9806.000000;0.682117
9805.000000;0.681619
9804.000000;0.681461
9803.000000;0.681344
9802.000000;0.681130
9801.000000;0.681140
9800.000000;0.681554
9799.000000;0.682069
9798.000000;0.682450
9797.000000;0.682829
9796.000000;0.683159
9795.000000;0.682977
9794.000000;0.682127
9793.000000;0.681155
9792.000000;0.680570
9791.000000;0.680256
9790.000000;0.679976
9789.000000;0.679916
9788.000000;0.680221
9787.000000;0.680493
9786.000000;0.680302
9785.000000;0.679827
9784.000000;0.679517
9783.000000;0.679469
9782.000000;0.679542
9781.000000;0.679736
9780.000000;0.680012
9779.000000;0.680069
9778.000000;0.679733
9777.000000;0.679288
9776.000000;0.679078
9775.000000;0.679064
9774.000000;0.679088
9773.000000;0.679209
9772.000000;0.679448
9771.000000;0.679586
9770.000000;0.679558
9769.000000;0.679689
9768.000000;0.680101
9767.000000;0.680285
9766.000000;0.679751
9765.000000;0.678857
9764.000000;0.678491
9763.000000;0.679015
9762.000000;0.679895
9761.000000;0.680293
9760.000000;0.679792
9759.000000;0.678652
9758.000000;0.677554
9757.000000;0.677011
9756.000000;0.676937
9755.000000;0.676901
9754.000000;0.676773
9753.000000;0.676809
9752.000000;0.677088
9751.000000;0.677293
9750.000000;0.677193
9749.000000;0.676943
9748.000000;0.676753
9747.000000;0.676635
9746.000000;0.676604
9745.000000;0.676764
9744.000000;0.677057
9743.000000;0.677290
9742.000000;0.677506
9741.000000;0.677929
9740.000000;0.678429
9739.000000;0.678539
9738.000000;0.678152
9737.000000;0.677696
9736.000000;0.677416
9735.000000;0.677031
9734.000000;0.676341
9733.000000;0.675688
9732.000000;0.675494
9731.000000;0.675715
9730.000000;0.676043
9729.000000;0.676278
9728.000000;0.676303
9727.000000;0.676065
9726.000000;0.675788
9725.000000;0.675837
9724.000000;0.676221
9723.000000;0.676597
9722.000000;0.676860
9721.000000;0.677257
9720.000000;0.677749
9719.000000;0.677849
9718.000000;0.677331
9717.000000;0.676630
9716.000000;0.676262
9715.000000;0.676241
9714.000000;0.676273
9713.000000;0.676116
9712.000000;0.675606
9711.000000;0.674810
9710.000000;0.674226
9709.000000;0.674329
9708.000000;0.674785
9707.000000;0.674746
9706.000000;0.674068
9705.000000;0.673560
9704.000000;0.673789
9703.000000;0.674373
9702.000000;0.674747
9701.000000;0.674899
9700.000000;0.674919
9699.000000;0.674557
9698.000000;0.673775
9697.000000;0.673133
9696.000000;0.673042
9695.000000;0.673132
9694.000000;0.672923
9693.000000;0.672619
9692.000000;0.672692
9691.000000;0.673104
9690.000000;0.673514
9689.000000;0.673876
9688.000000;0.674272
9687.000000;0.674508
9686.000000;0.674413
9685.000000;0.674205
9684.000000;0.674074
9683.000000;0.673763
9682.000000;0.673092
9681.000000;0.672521
9680.000000;0.672579
9679.000000;0.673005
9678.000000;0.673075
9677.000000;0.672616
9676.000000;0.672121
9675.000000;0.671945
9674.000000;0.671962
9673.000000;0.671962
9672.000000;0.671906
9671.000000;0.671776
9670.000000;0.671588
9669.000000;0.671554
9668.000000;0.671888
9667.000000;0.672432
9666.000000;0.672755
9665.000000;0.672647
9664.000000;0.672307
9663.000000;0.672029
9662.000000;0.671899
9661.000000;0.671803
9660.000000;0.671607
9659.000000;0.671336
9658.000000;0.671199
9657.000000;0.671354
9656.000000;0.671610
9655.000000;0.671536
9654.000000;0.670940
9653.000000;0.670142
9652.000000;0.669719
9651.000000;0.670045
9650.000000;0.670984
9649.000000;0.671884
9648.000000;0.672020
9647.000000;0.671321
9646.000000;0.670542
9645.000000;0.670378
9644.000000;0.670615
9643.000000;0.670550
9642.000000;0.670077
9641.000000;0.669756
9640.000000;0.669849
9639.000000;0.669966
9638.000000;0.669799
9637.000000;0.669608
9636.000000;0.669752
9635.000000;0.670211
9634.000000;0.670768
9633.000000;0.671230
9632.000000;0.671302
9631.000000;0.670731
9630.000000;0.669754
9629.000000;0.668990
9628.000000;0.668713
9627.000000;0.668676
9626.000000;0.668704
9625.000000;0.668917
9624.000000;0.669201
9623.000000;0.669116
9622.000000;0.668595
9621.000000;0.668190
9620.000000;0.668272
9619.000000;0.668483
9618.000000;0.668321
9617.000000;0.667834
9616.000000;0.667385
9615.000000;0.667153
9614.000000;0.667178
9613.000000;0.667506
9612.000000;0.667961
9611.000000;0.668112
9610.000000;0.667787
9609.000000;0.667299
9608.000000;0.666957
9607.000000;0.666729
9606.000000;0.666581
9605.000000;0.666693
9604.000000;0.667035
9603.000000;0.667197
9602.000000;0.666973
9601.000000;0.666734
9600.000000;0.666876
9599.000000;0.667263
9598.000000;0.667554
9597.000000;0.667714
9596.000000;0.667864
9595.000000;0.667945
9594.000000;0.667868
9593.000000;0.667752
9592.000000;0.667736
9591.000000;0.667757
9590.000000;0.667742
9589.000000;0.667725
9588.000000;0.667652
9587.000000;0.667405
9586.000000;0.667149
9585.000000;0.667243
9584.000000;0.667632
9583.000000;0.667769
9582.000000;0.667362
9581.000000;0.666782
9580.000000;0.666458
9579.000000;0.666312
9578.000000;0.666084
9577.000000;0.665791
9576.000000;0.665548
9575.000000;0.665325
9574.000000;0.665194
9573.000000;0.665419
9572.000000;0.666000
9571.000000;0.666480
9570.000000;0.666533
9569.000000;0.666365
9568.000000;0.666237
9567.000000;0.666005
9566.000000;0.665507
9565.000000;0.665024
9564.000000;0.664909
9563.000000;0.665038
9562.000000;0.665047
9561.000000;0.664870
9560.000000;0.664691
9559.000000;0.664577
9558.000000;0.664497
9557.000000;0.664526
9556.000000;0.664726
9555.000000;0.664993
9554.000000;0.665239
9553.000000;0.665477
9552.000000;0.665561
9551.000000;0.665166
9550.000000;0.664321
9549.000000;0.663610
9548.000000;0.663526
9547.000000;0.663881
9546.000000;0.664152
9545.000000;0.664140
9544.000000;0.663977
9543.000000;0.663756
9542.000000;0.663503
9541.000000;0.663329
9540.000000;0.663290
9539.000000;0.663244
9538.000000;0.663110
9537.000000;0.663081
9536.000000;0.663322
9535.000000;0.663628
9534.000000;0.663645
9533.000000;0.663316
9532.000000;0.662869
9531.000000;0.662510
9530.000000;0.662313
9529.000000;0.662268
9528.000000;0.662288
9527.000000;0.662283
9526.000000;0.662330
9525.000000;0.662597
9524.000000;0.663017
9523.000000;0.663280
9522.000000;0.663262
9521.000000;0.663189
9520.000000;0.663218
9519.000000;0.663144
9518.000000;0.662703
9517.000000;0.661993
9516.000000;0.661372
9515.000000;0.661097
9514.000000;0.661175
9513.000000;0.661418
9512.000000;0.661561
9511.000000;0.661480
9510.000000;0.661339
9509.000000;0.661349
9508.000000;0.661414
9507.000000;0.661287
9506.000000;0.661049
9505.000000;0.661066
9504.000000;0.661415
9503.000000;0.661713
9502.000000;0.661662
9501.000000;0.661441
9500.000000;0.661413
9499.000000;0.661672
9498.000000;0.662016
9497.000000;0.662163
9496.000000;0.661918
9495.000000;0.661356
9494.000000;0.660830
9493.000000;0.660595
9492.000000;0.660495
9491.000000;0.660305
9490.000000;0.660243
9489.000000;0.660663
9488.000000;0.661323
9487.000000;0.661510
9486.000000;0.660988
9485.000000;0.660292
9484.000000;0.659952
9483.000000;0.659913
9482.000000;0.659881
9481.000000;0.659752
9480.000000;0.659506
9479.000000;0.659102
9478.000000;0.658693
9477.000000;0.658581
9476.000000;0.658755
9475.000000;0.658852
9474.000000;0.658713
9473.000000;0.658585
9472.000000;0.658612
9471.000000;0.658561
9470.000000;0.658275
9469.000000;0.657966
9468.000000;0.657836
9467.000000;0.657765
9466.000000;0.657619
9465.000000;0.657514
9464.000000;0.657538
9463.000000;0.657543
9462.000000;0.657452
9461.000000;0.657444
9460.000000;0.657617
9459.000000;0.657774
9458.000000;0.657755
9457.000000;0.657694
9456.000000;0.657751
9455.000000;0.657886
9454.000000;0.658036
9453.000000;0.658216
9452.000000;0.658290
9451.000000;0.658010
9450.000000;0.657468
9449.000000;0.657164
9448.000000;0.657380
9447.000000;0.657797
9446.000000;0.657939
9445.000000;0.657752
9444.000000;0.657513
9443.000000;0.657416
9442.000000;0.657436
9441.000000;0.657403
9440.000000;0.657093
9439.000000;0.656465
9438.000000;0.655852
9437.000000;0.655615
9436.000000;0.655616
9435.000000;0.655390
9434.000000;0.654898
9433.000000;0.654651
9432.000000;0.654939
9431.000000;0.655413
9430.000000;0.655624
9429.000000;0.655591
9428.000000;0.655575
9427.000000;0.655669
9426.000000;0.655857
9425.000000;0.656159
9424.000000;0.656445
9423.000000;0.656394
9422.000000;0.655906
9421.000000;0.655298
9420.000000;0.654899
9419.000000;0.654689
9418.000000;0.654508
9417.000000;0.654359
9416.000000;0.654299
9415.000000;0.654302
9414.000000;0.654403
9413.000000;0.654722
9412.000000;0.655163
9411.000000;0.655343
9410.000000;0.655015
9409.000000;0.654384
9408.000000;0.653851
9407.000000;0.653630
9406.000000;0.653716
9405.000000;0.653986
9404.000000;0.654223
9403.000000;0.654222
9402.000000;0.653979
9401.000000;0.653627
9400.000000;0.653219
9399.000000;0.652789
9398.000000;0.652545
9397.000000;0.652676
9396.000000;0.652995
9395.000000;0.653118
9394.000000;0.652997
9393.000000;0.652922
9392.000000;0.653023
9391.000000;0.653151
9390.000000;0.653265
9389.000000;0.653482
9388.000000;0.653688
9387.000000;0.653581
9386.000000;0.653176
9385.000000;0.652846
9384.000000;0.652737
9383.000000;0.652578
9382.000000;0.652177
9381.000000;0.651720
9380.000000;0.651394
9379.000000;0.651144
9378.000000;0.650945
9377.000000;0.650971
9376.000000;0.651281
9375.000000;0.651661
9374.000000;0.651919
9373.000000;0.652053
9372.000000;0.652067
9371.000000;0.651917
9370.000000;0.651711
9369.000000;0.651646
9368.000000;0.651707
9367.000000;0.651728
9366.000000;0.651715
9365.000000;0.651772
9364.000000;0.651767
9363.000000;0.651509
9362.000000;0.651195
9361.000000;0.651210
9360.000000;0.651502
9359.000000;0.651656
9358.000000;0.651555
9357.000000;0.651416
9356.000000;0.651217
9355.000000;0.650713
9354.000000;0.650099
9353.000000;0.649943
9352.000000;0.650353
9351.000000;0.650791
9350.000000;0.650907
9349.000000;0.650907
9348.000000;0.650952
9347.000000;0.650846
9346.000000;0.650567
9345.000000;0.650454
9344.000000;0.650579
9343.000000;0.650540
9342.000000;0.650183
9341.000000;0.649920
9340.000000;0.650011
9339.000000;0.650139
9338.000000;0.650075
9337.000000;0.650128
9336.000000;0.650531
9335.000000;0.650914
9334.000000;0.650866
9333.000000;0.650540
9332.000000;0.650254
9331.000000;0.649952
9330.000000;0.649538
9329.000000;0.649259
9328.000000;0.649296
9327.000000;0.649373
9326.000000;0.649230
9325.000000;0.649112
9324.000000;0.649305
9323.000000;0.649572
9322.000000;0.649532
9321.000000;0.649279
9320.000000;0.649119
9319.000000;0.649018
9318.000000;0.648797
9317.000000;0.648599
9316.000000;0.648668
9315.000000;0.648866
9314.000000;0.648874
9313.000000;0.648715
9312.000000;0.648653
9311.000000;0.648710
9310.000000;0.648689
9309.000000;0.648543
9308.000000;0.648383
9307.000000;0.648243
9306.000000;0.648140
9305.000000;0.648217
9304.000000;0.648510
9303.000000;0.648737
9302.000000;0.648616
9301.000000;0.648271
9300.000000;0.648049
9299.000000;0.648047
9298.000000;0.648075
9297.000000;0.647942
9296.000000;0.647608
9295.000000;0.647174
9294.000000;0.646875
9293.000000;0.646896
9292.000000;0.647048
9291.000000;0.646902
9290.000000;0.646381
9289.000000;0.645944
9288.000000;0.645973
9287.000000;0.646321
9286.000000;0.646641
9285.000000;0.646853
9284.000000;0.647019
9283.000000;0.647070
9282.000000;0.646970
9281.000000;0.646885
9280.000000;0.646890
9279.000000;0.646787
9278.000000;0.646500
9277.000000;0.646337
9276.000000;0.646551
9275.000000;0.646902
9274.000000;0.647034
9273.000000;0.647020
9272.000000;0.647149
9271.000000;0.647378
9270.000000;0.647382
9269.000000;0.647063
9268.000000;0.646627
9267.000000;0.646258
9266.000000;0.646025
9265.000000;0.645988
9264.000000;0.646115
9263.000000;0.646159
9262.000000;0.645900
9261.000000;0.645471
9260.000000;0.645175
9259.000000;0.645086
9258.000000;0.645040
9257.000000;0.644971
9256.000000;0.644985
9255.000000;0.645143
9254.000000;0.645362
9253.000000;0.645521
9252.000000;0.645562
9251.000000;0.645519
9250.000000;0.645519
9249.000000;0.645669
9248.000000;0.645868
9247.000000;0.645855
9246.000000;0.645532
9245.000000;0.645096
9244.000000;0.644796
9243.000000;0.644702
9242.000000;0.644765
9241.000000;0.644899
9240.000000;0.644928
9239.000000;0.644692
9238.000000;0.644308
9237.000000;0.644122
9236.000000;0.644270
9235.000000;0.644486
9234.000000;0.644466
9233.000000;0.644228
9232.000000;0.643986
9231.000000;0.643860
9230.000000;0.643840
9229.000000;0.643849
9228.000000;0.643741
9227.000000;0.643427
9226.000000;0.643088
9225.000000;0.643061
9224.000000;0.643422
9223.000000;0.643884
9222.000000;0.644160
9221.000000;0.644187
9220.000000;0.643947
9219.000000;0.643404
9218.000000;0.642756
9217.000000;0.642431
9216.000000;0.642609
9215.000000;0.642996
9214.000000;0.643241
9213.000000;0.643334
9212.000000;0.643442
9211.000000;0.643589
9210.000000;0.643704
9209.000000;0.643775
9208.000000;0.643776
9207.000000;0.643632
9206.000000;0.643401
9205.000000;0.643294
9204.000000;0.643363
9203.000000;0.643370
9202.000000;0.643135
9201.000000;0.642801
9200.000000;0.642576
9199.000000;0.642451
9198.000000;0.642324
9197.000000;0.642213
9196.000000;0.642141
9195.000000;0.641978
9194.000000;0.641601
9193.000000;0.641100
9192.000000;0.640683
9191.000000;0.640490
9190.000000;0.640544
9189.000000;0.640751
9188.000000;0.640873
9187.000000;0.640717
9186.000000;0.640422
9185.000000;0.640337
9184.000000;0.640537
9183.000000;0.640682
9182.000000;0.640469
9181.000000;0.640024
9180.000000;0.639710
9179.000000;0.639761
9178.000000;0.640196
9177.000000;0.640877
9176.000000;0.641505
9175.000000;0.641763
9174.000000;0.641622
9173.000000;0.641360
9172.000000;0.641199
9171.000000;0.641103
9170.000000;0.640994
9169.000000;0.640926
9168.000000;0.640942
9167.000000;0.640956
9166.000000;0.640904
9165.000000;0.640814
9164.000000;0.640646
9163.000000;0.640281
9162.000000;0.639769
9161.000000;0.639374
9160.000000;0.639259
9159.000000;0.639313
9158.000000;0.639375
9157.000000;0.639406
9156.000000;0.639376
9155.000000;0.639203
9154.000000;0.638945
9153.000000;0.638830
9152.000000;0.638962
9151.000000;0.639164
9150.000000;0.639221
9149.000000;0.639128
9148.000000;0.638994
9147.000000;0.638869
9146.000000;0.638758
9145.000000;0.638674
9144.000000;0.638605
9143.000000;0.638532
9142.000000;0.638494
9141.000000;0.638518
9140.000000;0.638490
9139.000000;0.638287
9138.000000;0.638001
9137.000000;0.637855
9136.000000;0.637930
9135.000000;0.638158
9134.000000;0.638494
9133.000000;0.638851
9132.000000;0.638965
9131.000000;0.638650
9130.000000;0.638132
9129.000000;0.637845
9128.000000;0.637888
9127.000000;0.637996
9126.000000;0.637987
9125.000000;0.637904
9124.000000;0.637780
9123.000000;0.637613
9122.000000;0.637547
9121.000000;0.637693
9120.000000;0.637809
9119.000000;0.637574
9118.000000;0.637152
9117.000000;0.637028
9116.000000;0.637267
9115.000000;0.637441
9114.000000;0.637343
9113.000000;0.637260
9112.000000;0.637384
9111.000000;0.637480
9110.000000;0.637358
9109.000000;0.637218
9108.000000;0.637259
9107.000000;0.637338
9106.000000;0.637263
9105.000000;0.637083
9104.000000;0.636856
9103.000000;0.636472
9102.000000;0.635948
9101.000000;0.635578
9100.000000;0.635555
9099.000000;0.635762
9098.000000;0.636067
9097.000000;0.636484
9096.000000;0.636862
9095.000000;0.636821
9094.000000;0.636298
9093.000000;0.635781
9092.000000;0.635715
9091.000000;0.635961
9090.000000;0.636102
9089.000000;0.636006
9088.000000;0.635791
9087.000000;0.635530
9086.000000;0.635301
9085.000000;0.635273
9084.000000;0.635431
9083.000000;0.635438
9082.000000;0.635040
9081.000000;0.634454
9080.000000;0.634076
9079.000000;0.633999
9078.000000;0.634049
9077.000000;0.634102
9076.000000;0.634127
9075.000000;0.634097
9074.000000;0.634073
9073.000000;0.634227
9072.000000;0.634553
9071.000000;0.634751
9070.000000;0.634600
9069.000000;0.634276
9068.000000;0.634086
9067.000000;0.634083
9066.000000;0.634141
9065.000000;0.634216
9064.000000;0.634281
9063.000000;0.634195
9062.000000;0.633887
9061.000000;0.633551
9060.000000;0.633402
9059.000000;0.633382
9058.000000;0.633308
9057.000000;0.633187
9056.000000;0.633151
9055.000000;0.633172
9054.000000;0.633085
9053.000000;0.632855
9052.000000;0.632631
9051.000000;0.632553
9050.000000;0.632644
9049.000000;0.632842
9048.000000;0.632996
9047.000000;0.632915
9046.000000;0.632532
9045.000000;0.632017
9044.000000;0.631636
9043.000000;0.631543
9042.000000;0.631724
9041.000000;0.632039
9040.000000;0.632283
9039.000000;0.632303
9038.000000;0.632129
9037.000000;0.631928
9036.000000;0.631821
9035.000000;0.631814
9034.000000;0.631879
9033.000000;0.631966
9032.000000;0.631992
9031.000000;0.631945
9030.000000;0.631964
9029.000000;0.632154
9028.000000;0.632369
9027.000000;0.632383
9026.000000;0.632203
9025.000000;0.632015
9024.000000;0.631854
9023.000000;0.631620
9022.000000;0.631376
9021.000000;0.631320
9020.000000;0.631441
9019.000000;0.631517
9018.000000;0.631482
9017.000000;0.631504
9016.000000;0.631609
9015.000000;0.631548
9014.000000;0.631147
9013.000000;0.630567
9012.000000;0.630102
9011.000000;0.629924
9010.000000;0.630064
9009.000000;0.630417
9008.000000;0.630737
9007.000000;0.630874
9006.000000;0.630996
9005.000000;0.631322
9004.000000;0.631653
9003.000000;0.631537
9002.000000;0.630943
9001.000000;0.630390
9000.000000;0.630299
8999.000000;0.630566
8998.000000;0.630861
8997.000000;0.630966
8996.000000;0.630714
8995.000000;0.630024
8994.000000;0.629212
8993.000000;0.628889
8992.000000;0.629269
8991.000000;0.629874
8990.000000;0.630135
8989.000000;0.630019
8988.000000;0.629826
8987.000000;0.629686
8986.000000;0.629573
8985.000000;0.629553
8984.000000;0.629683
8983.000000;0.629818
8982.000000;0.629798
8981.000000;0.629697
8980.000000;0.629649
8979.000000;0.629581
8978.000000;0.629374
8977.000000;0.629163
8976.000000;0.629183
8975.000000;0.629416
8974.000000;0.629615
8973.000000;0.629622
8972.000000;0.629452
8971.000000;0.629146
8970.000000;0.628746
8969.000000;0.628380
8968.000000;0.628184
8967.000000;0.628156
8966.000000;0.628207
8965.000000;0.628317
8964.000000;0.628503
8963.000000;0.628681
8962.000000;0.628721
8961.000000;0.628650
8960.000000;0.628674
8959.000000;0.628926
8958.000000;0.629258
8957.000000;0.629335
8956.000000;0.628972
8955.000000;0.628360
8954.000000;0.627910
8953.000000;0.627828
8952.000000;0.627935
8951.000000;0.627946
8950.000000;0.627829
8949.000000;0.627764
8948.000000;0.627837
8947.000000;0.627947
8946.000000;0.627957
8945.000000;0.627803
8944.000000;0.627491
8943.000000;0.627147
8942.000000;0.627007
8941.000000;0.627175
8940.000000;0.627432
8939.000000;0.627456
8938.000000;0.627206
8937.000000;0.626897
8936.000000;0.626667
8935.000000;0.626511
8934.000000;0.626480
8933.000000;0.626682
8932.000000;0.627050
8931.000000;0.627336
8930.000000;0.627385
8929.000000;0.627267
8928.000000;0.627101
8927.000000;0.626944
8926.000000;0.626839
8925.000000;0.626796
8924.000000;0.626714
8923.000000;0.626502
8922.000000;0.626266
8921.000000;0.626206
8920.000000;0.626340
8919.000000;0.626508
8918.000000;0.626596
8917.000000;0.626583
8916.000000;0.626415
8915.000000;0.626094
8914.000000;0.625819
8913.000000;0.625788
8912.000000;0.625888
8911.000000;0.625814
8910.000000;0.625504
8909.000000;0.625219
8908.000000;0.625193
8907.000000;0.625425
8906.000000;0.625787
8905.000000;0.626097
8904.000000;0.626130
8903.000000;0.625821
8902.000000;0.625453
8901.000000;0.625378
8900.000000;0.625563
8899.000000;0.625666
8898.000000;0.625520
8897.000000;0.625263
8896.000000;0.625015
8895.000000;0.624741
8894.000000;0.624462
8893.000000;0.624274
8892.000000;0.624140
8891.000000;0.623923
8890.000000;0.623658
8889.000000;0.623512
8888.000000;0.623477
8887.000000;0.623413
8886.000000;0.623389
8885.000000;0.623651
8884.000000;0.624200
8883.000000;0.624718
8882.000000;0.624986
8881.000000;0.625062
8880.000000;0.624997
8879.000000;0.624710
8878.000000;0.624253
8877.000000;0.623879
8876.000000;0.623710
8875.000000;0.623608
8874.000000;0.623469
8873.000000;0.623379
8872.000000;0.623381
8871.000000;0.623350
8870.000000;0.623226
8869.000000;0.623135
8868.000000;0.623148
8867.000000;0.623158
8866.000000;0.623094
8865.000000;0.623055
8864.000000;0.623119
8863.000000;0.623233
8862.000000;0.623357
8861.000000;0.623507
8860.000000;0.623605
8859.000000;0.623520
8858.000000;0.623320
8857.000000;0.623241
8856.000000;0.623318
8855.000000;0.623294
8854.000000;0.623001
8853.000000;0.622604
8852.000000;0.622359
8851.000000;0.622343
8850.000000;0.622507
8849.000000;0.622778
8848.000000;0.623017
8847.000000;0.623062
8846.000000;0.622909
8845.000000;0.622707
8844.000000;0.622539
8843.000000;0.622389
8842.000000;0.622323
8841.000000;0.622454
8840.000000;0.622700
8839.000000;0.622804
8838.000000;0.622666
8837.000000;0.622427
8836.000000;0.622194
8835.000000;0.621929
8834.000000;0.621669
8833.000000;0.621588
8832.000000;0.621742
8831.000000;0.621979
8830.000000;0.622170
8829.000000;0.622310
8828.000000;0.622357
8827.000000;0.622232
8826.000000;0.622053
8825.000000;0.622115
8824.000000;0.622479
8823.000000;0.622837
8822.000000;0.622904
8821.000000;0.622772
8820.000000;0.622720
8819.000000;0.622847
8818.000000;0.623011
8817.000000;0.623007
8816.000000;0.622711
8815.000000;0.622196
8814.000000;0.621746
8813.000000;0.621631
8812.000000;0.621806
8811.000000;0.621942
8810.000000;0.621794
8809.000000;0.621397
8808.000000;0.620927
8807.000000;0.620535
8806.000000;0.620343
8805.000000;0.620411
8804.000000;0.620648
8803.000000;0.620886
8802.000000;0.621020
8801.000000;0.621008
8800.000000;0.620807
8799.000000;0.620464
8798.000000;0.620198
8797.000000;0.620191
8796.000000;0.620375
8795.000000;0.620562
8794.000000;0.620693
8793.000000;0.620777
8792.000000;0.620744
8791.000000;0.620598
8790.000000;0.620584
8789.000000;0.620868
8788.000000;0.621206
8787.000000;0.621230
8786.000000;0.620966
8785.000000;0.620735
8784.000000;0.620638
8783.000000;0.620527
8782.000000;0.620381
8781.000000;0.620305
8780.000000;0.620190
8779.000000;0.619831
8778.000000;0.619372
8777.000000;0.619209
8776.000000;0.619416
8775.000000;0.619676
8774.000000;0.619807
8773.000000;0.619944
8772.000000;0.620144
8771.000000;0.620251
8770.000000;0.620244
8769.000000;0.620290
8768.000000;0.620369
8767.000000;0.620238
8766.000000;0.619908
8765.000000;0.619725
8764.000000;0.619846
8763.000000;0.620013
8762.000000;0.620012
8761.000000;0.619951
8760.000000;0.619923
8759.000000;0.619796
8758.000000;0.619546
8757.000000;0.619417
8756.000000;0.619513
8755.000000;0.619584
8754.000000;0.619434
8753.000000;0.619243
8752.000000;0.619242
8751.000000;0.619357
8750.000000;0.619425
8749.000000;0.619486
8748.000000;0.619599
8747.000000;0.619616
8746.000000;0.619434
8745.000000;0.619239
8744.000000;0.619234
8743.000000;0.619310
8742.000000;0.619240
8741.000000;0.619058
8740.000000;0.619001
8739.000000;0.619177
8738.000000;0.619488
8737.000000;0.619789
8736.000000;0.619950
8735.000000;0.619868
8734.000000;0.619567
8733.000000;0.619217
8732.000000;0.618967
8731.000000;0.618819
8730.000000;0.618732
8729.000000;0.618728
8728.000000;0.618824
8727.000000;0.618981
8726.000000;0.619168
8725.000000;0.619359
8724.000000;0.619468
8723.000000;0.619437
8722.000000;0.619387
8721.000000;0.619499
8720.000000;0.619729
8719.000000;0.619838
8718.000000;0.619739
8717.000000;0.619612
8716.000000;0.619625
8715.000000;0.619745
8714.000000;0.619863
8713.000000;0.619922
8712.000000;0.619874
8711.000000;0.619699
8710.000000;0.619484
8709.000000;0.619324
8708.000000;0.619153
8707.000000;0.618872
8706.000000;0.618597
8705.000000;0.618543
8704.000000;0.618676
8703.000000;0.618742
8702.000000;0.618646
8701.000000;0.618550
8700.000000;0.618573
8699.000000;0.618661
8698.000000;0.618773
8697.000000;0.618937
8696.000000;0.619072
8695.000000;0.619033
8694.000000;0.618836
8693.000000;0.618644
8692.000000;0.618511
8691.000000;0.618400
8690.000000;0.618380
8689.000000;0.618528
8688.000000;0.618668
8687.000000;0.618544
8686.000000;0.618244
8685.000000;0.618105
8684.000000;0.618213
8683.000000;0.618336
8682.000000;0.618349
8681.000000;0.618344
8680.000000;0.618299
8679.000000;0.618070
8678.000000;0.617744
8677.000000;0.617611
8676.000000;0.617691
8675.000000;0.617721
8674.000000;0.617698
8673.000000;0.617946
8672.000000;0.618500
8671.000000;0.618857
8670.000000;0.618616
8669.000000;0.617997
8668.000000;0.617478
8667.000000;0.617235
8666.000000;0.617169
8665.000000;0.617180
8664.000000;0.617144
8663.000000;0.616922
8662.000000;0.616604
8661.000000;0.616501
8660.000000;0.616686
8659.000000;0.616810
8658.000000;0.616574
8657.000000;0.616139
8656.000000;0.615850
8655.000000;0.615789
8654.000000;0.615818
8653.000000;0.615856
8652.000000;0.615880
8651.000000;0.615851
8650.000000;0.615810
8649.000000;0.615867
8648.000000;0.615971
8647.000000;0.615901
8646.000000;0.615618
8645.000000;0.615393
8644.000000;0.615403
8643.000000;0.615469
8642.000000;0.615352
8641.000000;0.615108
8640.000000;0.614931
8639.000000;0.614861
8638.000000;0.614835
8637.000000;0.614850
8636.000000;0.614896
8635.000000;0.614869
8634.000000;0.614724
8633.000000;0.614564
8632.000000;0.614469
8631.000000;0.614386
8630.000000;0.614279
8629.000000;0.614193
8628.000000;0.614105
8627.000000;0.613912
8626.000000;0.613659
8625.000000;0.613520
8624.000000;0.613490
8623.000000;0.613352
8622.000000;0.613058
8621.000000;0.612852
8620.000000;0.612868
8619.000000;0.612919
8618.000000;0.612836
8617.000000;0.612712
8616.000000;0.612638
8615.000000;0.612496
8614.000000;0.612233
8613.000000;0.612042
8612.000000;0.612050
8611.000000;0.612080
8610.000000;0.611984
8609.000000;0.611921
8608.000000;0.612032
8607.000000;0.612106
8606.000000;0.611888
8605.000000;0.611503
8604.000000;0.611260
8603.000000;0.611195
8602.000000;0.611122
8601.000000;0.611002
8600.000000;0.610911
8599.000000;0.610772
8598.000000;0.610453
8597.000000;0.610064
8596.000000;0.609866
8595.000000;0.609895
8594.000000;0.609954
8593.000000;0.609945
8592.000000;0.609957
8591.000000;0.610035
8590.000000;0.610096
8589.000000;0.610097
8588.000000;0.610071
8587.000000;0.609979
8586.000000;0.609718
8585.000000;0.609322
8584.000000;0.609003
8583.000000;0.608928
8582.000000;0.609060
8581.000000;0.609235
8580.000000;0.609314
8579.000000;0.609253
8578.000000;0.609121
8577.000000;0.609024
8576.000000;0.608975
8575.000000;0.608843
8574.000000;0.608535
8573.000000;0.608174
8572.000000;0.608010
8571.000000;0.608138
8570.000000;0.608379
8569.000000;0.608455
8568.000000;0.608249
8567.000000;0.607891
8566.000000;0.607613
8565.000000;0.607515
8564.000000;0.607503
8563.000000;0.607462
8562.000000;0.607437
8561.000000;0.607554
8560.000000;0.607783
8559.000000;0.607916
8558.000000;0.607799
8557.000000;0.607497
8556.000000;0.607194
8555.000000;0.607012
8554.000000;0.606934
8553.000000;0.606838
8552.000000;0.606604
8551.000000;0.606255
8550.000000;0.605984
8549.000000;0.605943
8548.000000;0.606034
8547.000000;0.606037
8546.000000;0.605896
8545.000000;0.605745
8544.000000;0.605656
8543.000000;0.605531
8542.000000;0.605300
8541.000000;0.605068
8540.000000;0.604988
8539.000000;0.605078
8538.000000;0.605227
8537.000000;0.605306
8536.000000;0.605237
8535.000000;0.605042
8534.000000;0.604841
8533.000000;0.604732
8532.000000;0.604659
8531.000000;0.604475
8530.000000;0.604144
8529.000000;0.603785
8528.000000;0.603535
8527.000000;0.603432
8526.000000;0.603423
8525.000000;0.603404
8524.000000;0.603278
8523.000000;0.603049
8522.000000;0.602848
8521.000000;0.602779
8520.000000;0.602794
8519.000000;0.602795
8518.000000;0.602767
8517.000000;0.602727
8516.000000;0.602621
8515.000000;0.602406
8514.000000;0.602166
8513.000000;0.601990
8512.000000;0.601833
8511.000000;0.601634
8510.000000;0.601486
8509.000000;0.601505
8508.000000;0.601610
8507.000000;0.601625
8506.000000;0.601533
8505.000000;0.601449
8504.000000;0.601407
8503.000000;0.601370
8502.000000;0.601360
8501.000000;0.601361
8500.000000;0.601200
8499.000000;0.600776
8498.000000;0.600350
8497.000000;0.600308
8496.000000;0.600642
8495.000000;0.600953
8494.000000;0.600972
8493.000000;0.600804
8492.000000;0.600643
8491.000000;0.600537
8490.000000;0.600495
8489.000000;0.600539
8488.000000;0.600556
8487.000000;0.600357
8486.000000;0.599972
8485.000000;0.599672
8484.000000;0.599591
8483.000000;0.599560
8482.000000;0.599401
8481.000000;0.599185
8480.000000;0.599061
8479.000000;0.599028
8478.000000;0.599019
8477.000000;0.599052
8476.000000;0.599140
8475.000000;0.599179
8474.000000;0.599063
8473.000000;0.598849
8472.000000;0.598698
8471.000000;0.598704
8470.000000;0.598843
8469.000000;0.599010
8468.000000;0.599068
8467.000000;0.598938
8466.000000;0.598691
8465.000000;0.598493
8464.000000;0.598416
8463.000000;0.598349
8462.000000;0.598124
8461.000000;0.597667
8460.000000;0.597072
8459.000000;0.596553
8458.000000;0.596316
8457.000000;0.596397
8456.000000;0.596637
8455.000000;0.596871
8454.000000;0.597061
8453.000000;0.597204
8452.000000;0.597236
8451.000000;0.597136
8450.000000;0.597001
8449.000000;0.596887
8448.000000;0.596708
8447.000000;0.596429
8446.000000;0.596225
8445.000000;0.596253
8444.000000;0.596388
8443.000000;0.596396
8442.000000;0.596253
8441.000000;0.596070
8440.000000;0.595821
8439.000000;0.595420
8438.000000;0.594979
8437.000000;0.594709
8436.000000;0.594613
8435.000000;0.594537
8434.000000;0.594465
8433.000000;0.594502
8432.000000;0.594598
8431.000000;0.594596
8430.000000;0.594523
8429.000000;0.594555
8428.000000;0.594681
8427.000000;0.594715
8426.000000;0.594648
8425.000000;0.594667
8424.000000;0.594778
8423.000000;0.594736
8422.000000;0.594432
8421.000000;0.594085
8420.000000;0.593917
8419.000000;0.593890
8418.000000;0.593858
8417.000000;0.593759
8416.000000;0.593574
8415.000000;0.593308
8414.000000;0.593107
8413.000000;0.593160
8412.000000;0.593404
8411.000000;0.593536
8410.000000;0.593413
8409.000000;0.593242
8408.000000;0.593249
8407.000000;0.593387
8406.000000;0.593476
8405.000000;0.593447
8404.000000;0.593308
8403.000000;0.593061
8402.000000;0.592795
8401.000000;0.592699
8400.000000;0.592819
8399.000000;0.592921
8398.000000;0.592767
8397.000000;0.592399
8396.000000;0.592048
8395.000000;0.591839
8394.000000;0.591737
8393.000000;0.591684
8392.000000;0.591662
8391.000000;0.591645
8390.000000;0.591597
8389.000000;0.591515
8388.000000;0.591403
8387.000000;0.591244
8386.000000;0.591029
8385.000000;0.590799
8384.000000;0.590607
8383.000000;0.590473
8382.000000;0.590389
8381.000000;0.590356
8380.000000;0.590391
8379.000000;0.590481
8378.000000;0.590550
8377.000000;0.590490
8376.000000;0.590296
8375.000000;0.590127
8374.000000;0.590133
8373.000000;0.590220
8372.000000;0.590131
8371.000000;0.589812
8370.000000;0.589537
8369.000000;0.589556
8368.000000;0.589784
8367.000000;0.589979
8366.000000;0.590050
8365.000000;0.590045
8364.000000;0.589965
8363.000000;0.589795
8362.000000;0.589599
8361.000000;0.589393
8360.000000;0.589043
8359.000000;0.588489
8358.000000;0.587968
8357.000000;0.587783
8356.000000;0.587906
8355.000000;0.588040
8354.000000;0.588035
8353.000000;0.588005
8352.000000;0.588076
8351.000000;0.588227
8350.000000;0.588365
8349.000000;0.588384
8348.000000;0.588169
8347.000000;0.587734
8346.000000;0.587329
8345.000000;0.587203
8344.000000;0.587301
8343.000000;0.587357
8342.000000;0.587240
8341.000000;0.587028
8340.000000;0.586809
8339.000000;0.586628
8338.000000;0.586576
8337.000000;0.586697
8336.000000;0.586823
8335.000000;0.586756
8334.000000;0.586578
8333.000000;0.586558
8332.000000;0.586741
8331.000000;0.586861
8330.000000;0.586708
8329.000000;0.586368
8328.000000;0.586055
8327.000000;0.585877
8326.000000;0.585807
8325.000000;0.585747
8324.000000;0.585597
8323.000000;0.585381
8322.000000;0.585274
8321.000000;0.585380
8320.000000;0.585547
8319.000000;0.585550
8318.000000;0.585388
8317.000000;0.585222
8316.000000;0.585099
8315.000000;0.584940
8314.000000;0.584738
8313.000000;0.584572
8312.000000;0.584441
8311.000000;0.584302
8310.000000;0.584214
8309.000000;0.584268
8308.000000;0.584415
8307.000000;0.584547
8306.000000;0.584680
8305.000000;0.584848
8304.000000;0.584901
8303.000000;0.584677
8302.000000;0.584305
8301.000000;0.584066
8300.000000;0.584004
8299.000000;0.583943
8298.000000;0.583819
8297.000000;0.583704
8296.000000;0.583536
8295.000000;0.583173
8294.000000;0.582730
8293.000000;0.582526
8292.000000;0.582642
8291.000000;0.582816
8290.000000;0.582855
8289.000000;0.582849
8288.000000;0.582899
8287.000000;0.582916
8286.000000;0.582832
8285.000000;0.582772
8284.000000;0.582837
8283.000000;0.582936
8282.000000;0.582941
8281.000000;0.582866
8280.000000;0.582764
8279.000000;0.582622
8278.000000;0.582463
8277.000000;0.582389
8276.000000;0.582417
8275.000000;0.582414
8274.000000;0.582309
8273.000000;0.582209
8272.000000;0.582213
8271.000000;0.582242
8270.000000;0.582174
8269.000000;0.582043
8268.000000;0.581969
8267.000000;0.581974
8266.000000;0.581964
8265.000000;0.581846
8264.000000;0.581615
8263.000000;0.581335
8262.000000;0.581081
8261.000000;0.580890
8260.000000;0.580755
8259.000000;0.580690
8258.000000;0.580737
8257.000000;0.580873
8256.000000;0.580988
8255.000000;0.581013
8254.000000;0.581003
8253.000000;0.580996
8252.000000;0.580900
8251.000000;0.580651
8250.000000;0.580370
8249.000000;0.580206
8248.000000;0.580122
8247.000000;0.579980
8246.000000;0.579788
8245.000000;0.579671
8244.000000;0.579656
8243.000000;0.579661
8242.000000;0.579648
8241.000000;0.579635
8240.000000;0.579586
8239.000000;0.579465
8238.000000;0.579328
8237.000000;0.579232
8236.000000;0.579104
8235.000000;0.578874
8234.000000;0.578656
8233.000000;0.578627
8232.000000;0.578777
8231.000000;0.578955
8230.000000;0.579082
8229.000000;0.579158
8228.000000;0.579143
8227.000000;0.579003
8226.000000;0.578809
8225.000000;0.578597
8224.000000;0.578258
8223.000000;0.577766
8222.000000;0.577386
8221.000000;0.577382
8220.000000;0.577598
8219.000000;0.577631
8218.000000;0.577363
8217.000000;0.577057
8216.000000;0.576938
8215.000000;0.576962
8214.000000;0.577024
8213.000000;0.577085
8212.000000;0.577085
8211.000000;0.576976
8210.000000;0.576870
8209.000000;0.576949
8208.000000;0.577166
8207.000000;0.577271
8206.000000;0.577147
8205.000000;0.576911
8204.000000;0.576690
8203.000000;0.576497
8202.000000;0.576368
8201.000000;0.576379
8200.000000;0.576471
8199.000000;0.576474
8198.000000;0.576349
8197.000000;0.576230
8196.000000;0.576217
8195.000000;0.576280
8194.000000;0.576388
8193.000000;0.576528
8192.000000;0.576600
8191.000000;0.576477
8190.000000;0.576209
8189.000000;0.575980
8188.000000;0.575869
8187.000000;0.575792
8186.000000;0.575691
8185.000000;0.575591
8184.000000;0.575491
8183.000000;0.575376
8182.000000;0.575313
8181.000000;0.575368
8180.000000;0.575447
8179.000000;0.575398
8178.000000;0.575257
8177.000000;0.575169
8176.000000;0.575127
8175.000000;0.574995
8174.000000;0.574758
8173.000000;0.574535
8172.000000;0.574378
8171.000000;0.574267
8170.000000;0.574253
8169.000000;0.574361
8168.000000;0.574403
8167.000000;0.574168
8166.000000;0.573778
8165.000000;0.573564
8164.000000;0.573612
8163.000000;0.573704
8162.000000;0.573710
8161.000000;0.573715
8160.000000;0.573751
8159.000000;0.573722
8158.000000;0.573651
8157.000000;0.573687
8156.000000;0.573790
8155.000000;0.573722
8154.000000;0.573447
8153.000000;0.573220
8152.000000;0.573185
8151.000000;0.573169
8150.000000;0.573018
8149.000000;0.572842
8148.000000;0.572771
8147.000000;0.572723
8146.000000;0.572612
8145.000000;0.572546
8144.000000;0.572624
8143.000000;0.572738
8142.000000;0.572749
8141.000000;0.572693
8140.000000;0.572639
8139.000000;0.572510
8138.000000;0.572236
8137.000000;0.571939
8136.000000;0.571797
8135.000000;0.571819
8134.000000;0.571915
8133.000000;0.572054
8132.000000;0.572217
8131.000000;0.572305
8130.000000;0.572253
8129.000000;0.572145
8128.000000;0.572071
8127.000000;0.571970
8126.000000;0.571748
8125.000000;0.571477
8124.000000;0.571328
8123.000000;0.571352
8122.000000;0.571441
8121.000000;0.571487
8120.000000;0.571475
8119.000000;0.571436
8118.000000;0.571386
8117.000000;0.571315
8116.000000;0.571196
8115.000000;0.571013
8114.000000;0.570809
8113.000000;0.570658
8112.000000;0.570575
8111.000000;0.570505
8110.000000;0.570414
8109.000000;0.570339
8108.000000;0.570347
8107.000000;0.570450
8106.000000;0.570592
8105.000000;0.570675
8104.000000;0.570619
8103.000000;0.570442
8102.000000;0.570252
8101.000000;0.570123
8100.000000;0.570008
8099.000000;0.569834
8098.000000;0.569632
8097.000000;0.569494
8096.000000;0.569446
8095.000000;0.569445
8094.000000;0.569442
8093.000000;0.569405
8092.000000;0.569319
8091.000000;0.569254
8090.000000;0.569328
8089.000000;0.569532
8088.000000;0.569677
8087.000000;0.569629
8086.000000;0.569483
8085.000000;0.569386
8084.000000;0.569292
8083.000000;0.569075
8082.000000;0.568795
8081.000000;0.568645
8080.000000;0.568680
8079.000000;0.568767
8078.000000;0.568800
8077.000000;0.568785
8076.000000;0.568752
8075.000000;0.568721
8074.000000;0.568753
8073.000000;0.568874
8072.000000;0.568964
8071.000000;0.568894
8070.000000;0.568714
8069.000000;0.568568
8068.000000;0.568447
8067.000000;0.568224
8066.000000;0.567928
8065.000000;0.567769
8064.000000;0.567870
8063.000000;0.568110
8062.000000;0.568301
8061.000000;0.568367
8060.000000;0.568345
8059.000000;0.568296
8058.000000;0.568254
8057.000000;0.568188
8056.000000;0.568005
8055.000000;0.567670
8054.000000;0.567296
8053.000000;0.567033
8052.000000;0.566903
8051.000000;0.566831
8050.000000;0.566759
8049.000000;0.566647
8048.000000;0.566458
8047.000000;0.566239
8046.000000;0.566151
8045.000000;0.566267
8044.000000;0.566440
8043.000000;0.566494
8042.000000;0.566460
8041.000000;0.566461
8040.000000;0.566472
8039.000000;0.566371
8038.000000;0.566169
8037.000000;0.566003
8036.000000;0.565943
8035.000000;0.565954
8034.000000;0.565999
8033.000000;0.566020
8032.000000;0.565908
8031.000000;0.565651
8030.000000;0.565443
8029.000000;0.565460
8028.000000;0.565613
8027.000000;0.565698
8026.000000;0.565704
8025.000000;0.565765
8024.000000;0.565881
8023.000000;0.565912
8022.000000;0.565819
8021.000000;0.565691
8020.000000;0.565557
8019.000000;0.565377
8018.000000;0.565208
8017.000000;0.565145
8016.000000;0.565138
8015.000000;0.565044
8014.000000;0.564879
8013.000000;0.564814
8012.000000;0.564910
8011.000000;0.565029
8010.000000;0.565015
8009.000000;0.564832
8008.000000;0.564541
8007.000000;0.564272
8006.000000;0.564181
8005.000000;0.564280
8004.000000;0.564369
8003.000000;0.564264
8002.000000;0.564049
8001.000000;0.563944
8000.000000;0.564003
7999.000000;0.564102
7998.000000;0.564143
7997.000000;0.564090
7996.000000;0.563901
7995.000000;0.563624
7994.000000;0.563456
7993.000000;0.563514
7992.000000;0.563613
7991.000000;0.563507
7990.000000;0.563247
7989.000000;0.563084
7988.000000;0.563082
7987.000000;0.563100
7986.000000;0.563081
7985.000000;0.563082
7984.000000;0.563072
7983.000000;0.562961
7982.000000;0.562815
7981.000000;0.562776
7980.000000;0.562786
7979.000000;0.562669
7978.000000;0.562473
7977.000000;0.562440
7976.000000;0.562639
7975.000000;0.562869
7974.000000;0.562953
7973.000000;0.562910
7972.000000;0.562804
7971.000000;0.562670
7970.000000;0.562578
7969.000000;0.562570
7968.000000;0.562533
7967.000000;0.562341
7966.000000;0.562113
7965.000000;0.562059
7964.000000;0.562124
7963.000000;0.562056
7962.000000;0.561811
7961.000000;0.561613
7960.000000;0.561581
7959.000000;0.561595
7958.000000;0.561571
7957.000000;0.561584
7956.000000;0.561657
7955.000000;0.561709
7954.000000;0.561752
7953.000000;0.561895
7952.000000;0.562086
7951.000000;0.562102
7950.000000;0.561888
7949.000000;0.561661
7948.000000;0.561590
7947.000000;0.561614
7946.000000;0.561644
7945.000000;0.561703
7944.000000;0.561755
7943.000000;0.561656
7942.000000;0.561384
7941.000000;0.561131
7940.000000;0.561037
7939.000000;0.561012
7938.000000;0.560918
7937.000000;0.560750
7936.000000;0.560548
7935.000000;0.560319
7934.000000;0.560126
7933.000000;0.560094
7932.000000;0.560218
7931.000000;0.560324
7930.000000;0.560314
7929.000000;0.560282
7928.000000;0.560319
7927.000000;0.560366
7926.000000;0.560349
7925.000000;0.560306
7924.000000;0.560284
7923.000000;0.560255
7922.000000;0.560222
7921.000000;0.560253
7920.000000;0.560343
7919.000000;0.560353
7918.000000;0.560179
7917.000000;0.559870
7916.000000;0.559535
7915.000000;0.559246
7914.000000;0.559083
7913.000000;0.559107
7912.000000;0.559242
7911.000000;0.559294
7910.000000;0.559176
7909.000000;0.559013
7908.000000;0.558978
7907.000000;0.559106
7906.000000;0.559301
7905.000000;0.559431
7904.000000;0.559424
7903.000000;0.559343
7902.000000;0.559344
7901.000000;0.559473
7900.000000;0.559565
7899.000000;0.559459
7898.000000;0.559235
7897.000000;0.559080
7896.000000;0.559008
7895.000000;0.558912
7894.000000;0.558816
7893.000000;0.558831
7892.000000;0.558907
7891.000000;0.558862
7890.000000;0.558667
7889.000000;0.558468
7888.000000;0.558319
7887.000000;0.558145
7886.000000;0.557961
7885.000000;0.557884
7884.000000;0.557893
7883.000000;0.557844
7882.000000;0.557724
7881.000000;0.557662
7880.000000;0.557645
7879.000000;0.557529
7878.000000;0.557337
7877.000000;0.557281
7876.000000;0.557376
7875.000000;0.557375
7874.000000;0.557181
7873.000000;0.557043
7872.000000;0.557171
7871.000000;0.557406
7870.000000;0.557482
7869.000000;0.557388
7868.000000;0.557285
7867.000000;0.557230
7866.000000;0.557178
7865.000000;0.557130
7864.000000;0.557109
7863.000000;0.557086
7862.000000;0.557062
7861.000000;0.557101
7860.000000;0.557194
7859.000000;0.557201
7858.000000;0.557062
7857.000000;0.556919
7856.000000;0.556909
7855.000000;0.556954
7854.000000;0.556886
7853.000000;0.556667
7852.000000;0.556395
7851.000000;0.556169
7850.000000;0.556055
7849.000000;0.556075
7848.000000;0.556135
7847.000000;0.556078
7846.000000;0.555883
7845.000000;0.555726
7844.000000;0.555752
7843.000000;0.555895
7842.000000;0.556013
7841.000000;0.556064
7840.000000;0.556075
7839.000000;0.556054
7838.000000;0.556021
7837.000000;0.556031
7836.000000;0.556090
7835.000000;0.556125
7834.000000;0.556109
7833.000000;0.556088
7832.000000;0.556054
7831.000000;0.555929
7830.000000;0.555724
7829.000000;0.555580
7828.000000;0.555545
7827.000000;0.555479
7826.000000;0.555285
7825.000000;0.555091
7824.000000;0.555061
7823.000000;0.555146
7822.000000;0.555156
7821.000000;0.555008
7820.000000;0.554760
7819.000000;0.554492
7818.000000;0.554282
7817.000000;0.554222
7816.000000;0.554328
7815.000000;0.554466
7814.000000;0.554480
7813.000000;0.554379
7812.000000;0.554294
7811.000000;0.554292
7810.000000;0.554324
7809.000000;0.554330
7808.000000;0.554301
7807.000000;0.554245
7806.000000;0.554159
7805.000000;0.554057
7804.000000;0.553952
7803.000000;0.553841
7802.000000;0.553724
7801.000000;0.553636
7800.000000;0.553617
7799.000000;0.553650
7798.000000;0.553677
7797.000000;0.553670
7796.000000;0.553664
7795.000000;0.553728
7794.000000;0.553874
7793.000000;0.554000
7792.000000;0.553956
7791.000000;0.553716
7790.000000;0.553443
7789.000000;0.553331
7788.000000;0.553405
7787.000000;0.553517
7786.000000;0.553539
7785.000000;0.553477
7784.000000;0.553398
7783.000000;0.553335
7782.000000;0.553272
7781.000000;0.553193
7780.000000;0.553122
7779.000000;0.553112
7778.000000;0.553187
7777.000000;0.553269
7776.000000;0.553229
7775.000000;0.553035
7774.000000;0.552786
7773.000000;0.552574
7772.000000;0.552392
7771.000000;0.552211
7770.000000;0.552068
7769.000000;0.551982
7768.000000;0.551907
7767.000000;0.551836
7766.000000;0.551838
7765.000000;0.551911
7764.000000;0.551913
7763.000000;0.551788
7762.000000;0.551721
7761.000000;0.551885
7760.000000;0.552151
7759.000000;0.552241
7758.000000;0.552097
7757.000000;0.551894
7756.000000;0.551733
7755.000000;0.551568
7754.000000;0.551392
7753.000000;0.551273
7752.000000;0.551194
7751.000000;0.551062
7750.000000;0.550904
7749.000000;0.550846
7748.000000;0.550885
7747.000000;0.550878
7746.000000;0.550779
7745.000000;0.550690
7744.000000;0.550650
7743.000000;0.550569
7742.000000;0.550431
7741.000000;0.550368
7740.000000;0.550448
7739.000000;0.550570
7738.000000;0.550631
7737.000000;0.550666
7736.000000;0.550716
7735.000000;0.550730
7734.000000;0.550676
7733.000000;0.550628
7732.000000;0.550649
7731.000000;0.550682
7730.000000;0.550654
7729.000000;0.550572
7728.000000;0.550470
7727.000000;0.550332
7726.000000;0.550155
7725.000000;0.549985
7724.000000;0.549847
7723.000000;0.549720
7722.000000;0.549622
7721.000000;0.549615
7720.000000;0.549687
7719.000000;0.549727
7718.000000;0.549659
7717.000000;0.549529
7716.000000;0.549410
7715.000000;0.549323
7714.000000;0.549281
7713.000000;0.549304
7712.000000;0.549346
7711.000000;0.549290
7710.000000;0.549098
7709.000000;0.548867
7708.000000;0.548704
7707.000000;0.548607
7706.000000;0.548530
7705.000000;0.548468
7704.000000;0.548435
7703.000000;0.548405
7702.000000;0.548346
7701.000000;0.548262
7700.000000;0.548186
7699.000000;0.548150
7698.000000;0.548183
7697.000000;0.548277
7696.000000;0.548362
7695.000000;0.548363
7694.000000;0.548302
7693.000000;0.548278
7692.000000;0.548342
7691.000000;0.548444
7690.000000;0.548503
7689.000000;0.548480
7688.000000;0.548376
7687.000000;0.548241
7686.000000;0.548170
7685.000000;0.548212
7684.000000;0.548286
7683.000000;0.548259
7682.000000;0.548102
7681.000000;0.547914
7680.000000;0.547789
7679.000000;0.547746
7678.000000;0.547754
7677.000000;0.547761
7676.000000;0.547710
7675.000000;0.547599
7674.000000;0.547520
7673.000000;0.547565
7672.000000;0.547711
7671.000000;0.547843
7670.000000;0.547887
7669.000000;0.547851
7668.000000;0.547771
7667.000000;0.547668
7666.000000;0.547546
7665.000000;0.547366
7664.000000;0.547076
7663.000000;0.546714
7662.000000;0.546425
7661.000000;0.546301
7660.000000;0.546279
7659.000000;0.546252
7658.000000;0.546218
7657.000000;0.546224
7656.000000;0.546251
7655.000000;0.546261
7654.000000;0.546280
7653.000000;0.546324
7652.000000;0.546323
7651.000000;0.546218
7650.000000;0.546086
7649.000000;0.546017
7648.000000;0.545964
7647.000000;0.545853
7646.000000;0.545763
7645.000000;0.545842
7644.000000;0.546070
7643.000000;0.546281
7642.000000;0.546381
7641.000000;0.546389
7640.000000;0.546335
7639.000000;0.546251
7638.000000;0.546233
7637.000000;0.546332
7636.000000;0.546413
7635.000000;0.546305
7634.000000;0.546046
7633.000000;0.545826
7632.000000;0.545718
7631.000000;0.545639
7630.000000;0.545555
7629.000000;0.545515
7628.000000;0.545495
7627.000000;0.545405
7626.000000;0.545278
7625.000000;0.545266
7624.000000;0.545400
7623.000000;0.545521
7622.000000;0.545491
7621.000000;0.545347
7620.000000;0.545207
7619.000000;0.545140
7618.000000;0.545147
7617.000000;0.545170
7616.000000;0.545107
7615.000000;0.544934
7614.000000;0.544777
7613.000000;0.544774
7612.000000;0.544871
7611.000000;0.544899
7610.000000;0.544810
7609.000000;0.544700
7608.000000;0.544632
7607.000000;0.544597
7606.000000;0.544612
7605.000000;0.544700
7604.000000;0.544775
7603.000000;0.544727
7602.000000;0.544601
7601.000000;0.544535
7600.000000;0.544520
7599.000000;0.544427
7598.000000;0.544249
7597.000000;0.544128
7596.000000;0.544128
7595.000000;0.544163
7594.000000;0.544166
7593.000000;0.544151
7592.000000;0.544099
7591.000000;0.543946
7590.000000;0.543745
7589.000000;0.543632
7588.000000;0.543622
7587.000000;0.543608
7586.000000;0.543577
7585.000000;0.543642
7584.000000;0.543804
7583.000000;0.543905
7582.000000;0.543865
7581.000000;0.543800
7580.000000;0.543805
7579.000000;0.543811
7578.000000;0.543742
7577.000000;0.543652
7576.000000;0.543604
7575.000000;0.543555
7574.000000;0.543463
7573.000000;0.543364
7572.000000;0.543276
7571.000000;0.543148
7570.000000;0.542979
7569.000000;0.542871
7568.000000;0.542874
7567.000000;0.542902
7566.000000;0.542877
7565.000000;0.542857
7564.000000;0.542926
7563.000000;0.543058
7562.000000;0.543158
7561.000000;0.543172
7560.000000;0.543095
7559.000000;0.542946
7558.000000;0.542784
7557.000000;0.542674
7556.000000;0.542610
7555.000000;0.542542
7554.000000;0.542482
7553.000000;0.542510
7552.000000;0.542629
7551.000000;0.542740
7550.000000;0.542754
7549.000000;0.542664
7548.000000;0.542506
7547.000000;0.542344
7546.000000;0.542289
7545.000000;0.542398
7544.000000;0.542562
7543.000000;0.542617
7542.000000;0.542558
7541.000000;0.542507
7540.000000;0.542496
7539.000000;0.542454
7538.000000;0.542400
7537.000000;0.542441
7536.000000;0.542551
7535.000000;0.542557
7534.000000;0.542398
7533.000000;0.542218
7532.000000;0.542128
7531.000000;0.542070
7530.000000;0.541996
7529.000000;0.541988
7528.000000;0.542091
7527.000000;0.542171
7526.000000;0.542097
7525.000000;0.541940
7524.000000;0.541866
7523.000000;0.541923
7522.000000;0.542038
7521.000000;0.542140
7520.000000;0.542190
7519.000000;0.542171
7518.000000;0.542125
7517.000000;0.542147
7516.000000;0.542245
7515.000000;0.542294
7514.000000;0.542203
7513.000000;0.542056
7512.000000;0.541997
7511.000000;0.542051
7510.000000;0.542118
7509.000000;0.542104
7508.000000;0.541972
7507.000000;0.541740
7506.000000;0.541488
7505.000000;0.541340
7504.000000;0.541360
7503.000000;0.541519
7502.000000;0.541716
7501.000000;0.541871
7500.000000;0.541944
7499.000000;0.541963
7498.000000;0.542021
7497.000000;0.542169
7496.000000;0.542316
7495.000000;0.542305
7494.000000;0.542122
7493.000000;0.541922
7492.000000;0.541831
7491.000000;0.541828
7490.000000;0.541831
7489.000000;0.541807
7488.000000;0.541737
7487.000000;0.541605
7486.000000;0.541459
7485.000000;0.541394
7484.000000;0.541425
7483.000000;0.541462
7482.000000;0.541453
7481.000000;0.541469
7480.000000;0.541587
7479.000000;0.541772
7478.000000;0.541929
7477.000000;0.541997
7476.000000;0.541964
7475.000000;0.541854
7474.000000;0.541752
7473.000000;0.541764
7472.000000;0.541875
7471.000000;0.541931
7470.000000;0.541818
7469.000000;0.541618
7468.000000;0.541525
7467.000000;0.541621
7466.000000;0.541797
7465.000000;0.541873
7464.000000;0.541773
7463.000000;0.541588
7462.000000;0.541491
7461.000000;0.541560
7460.000000;0.541712
7459.000000;0.541812
7458.000000;0.541815
7457.000000;0.541784
7456.000000;0.541783
7455.000000;0.541825
7454.000000;0.541882
7453.000000;0.541931
7452.000000;0.541975
7451.000000;0.542065
7450.000000;0.542239
7449.000000;0.542439
7448.000000;0.542542
7447.000000;0.542510
7446.000000;0.542447
7445.000000;0.542435
7444.000000;0.542431
7443.000000;0.542379
7442.000000;0.542335
7441.000000;0.542372
7440.000000;0.542457
7439.000000;0.542526
7438.000000;0.542587
7437.000000;0.542644
7436.000000;0.542620
7435.000000;0.542500
7434.000000;0.542438
7433.000000;0.542544
7432.000000;0.542665
7431.000000;0.542577
7430.000000;0.542327
7429.000000;0.542167
7428.000000;0.542198
7427.000000;0.542286
7426.000000;0.542314
7425.000000;0.542315
7424.000000;0.542334
7423.000000;0.542362
7422.000000;0.542416
7421.000000;0.542514
7420.000000;0.542572
7419.000000;0.542495
7418.000000;0.542376
7417.000000;0.542408
7416.000000;0.542580
7415.000000;0.542670
7414.000000;0.542567
7413.000000;0.542399
7412.000000;0.542293
7411.000000;0.542223
7410.000000;0.542159
7409.000000;0.542165
7408.000000;0.542257
7407.000000;0.542339
7406.000000;0.542372
7405.000000;0.542445
7404.000000;0.542589
7403.000000;0.542690
7402.000000;0.542671
7401.000000;0.542624
7400.000000;0.542660
7399.000000;0.542740
7398.000000;0.542770
7397.000000;0.542734
7396.000000;0.542664
7395.000000;0.542567
7394.000000;0.542478
7393.000000;0.542480
7392.000000;0.542588
7391.000000;0.542703
7390.000000;0.542748
7389.000000;0.542774
7388.000000;0.542855
7387.000000;0.542974
7386.000000;0.543078
7385.000000;0.543173
7384.000000;0.543270
7383.000000;0.543333
7382.000000;0.543351
7381.000000;0.543396
7380.000000;0.543528
7379.000000;0.543683
7378.000000;0.543731
7377.000000;0.543607
7376.000000;0.543366
7375.000000;0.543168
7374.000000;0.543182
7373.000000;0.543433
7372.000000;0.543729
7371.000000;0.543829
7370.000000;0.543705
7369.000000;0.543556
7368.000000;0.543561
7367.000000;0.543708
7366.000000;0.543875
7365.000000;0.543974
7364.000000;0.543971
7363.000000;0.543887
7362.000000;0.543840
7361.000000;0.543985
7360.000000;0.544323
7359.000000;0.544677
7358.000000;0.544888
7357.000000;0.544960
7356.000000;0.544954
7355.000000;0.544876
7354.000000;0.544718
7353.000000;0.544528
7352.000000;0.544358
7351.000000;0.544211
7350.000000;0.544093
7349.000000;0.544035
7348.000000;0.544039
7347.000000;0.544082
7346.000000;0.544185
7345.000000;0.544391
7344.000000;0.544643
7343.000000;0.544799
7342.000000;0.544815
7341.000000;0.544807
7340.000000;0.544871
7339.000000;0.544979
7338.000000;0.545086
7337.000000;0.545215
7336.000000;0.545337
7335.000000;0.545352
7334.000000;0.545263
7333.000000;0.545240
7332.000000;0.545380
7331.000000;0.545532
7330.000000;0.545530
7329.000000;0.545460
7328.000000;0.545522
7327.000000;0.545711
7326.000000;0.545849
7325.000000;0.545885
7324.000000;0.545962
7323.000000;0.546161
7322.000000;0.546375
7321.000000;0.546481
7320.000000;0.546511
7319.000000;0.546583
7318.000000;0.546761
7317.000000;0.547022
7316.000000;0.547261
7315.000000;0.547327
7314.000000;0.547157
7313.000000;0.546934
7312.000000;0.546981
7311.000000;0.547432
7310.000000;0.548061
7309.000000;0.548513
7308.000000;0.548636
7307.000000;0.548582
7306.000000;0.548625
7305.000000;0.548929
7304.000000;0.549418
7303.000000;0.549816
7302.000000;0.549880
7301.000000;0.549646
7300.000000;0.549420
7299.000000;0.549459
7298.000000;0.549704
7297.000000;0.549915
7296.000000;0.549991
7295.000000;0.550028
7294.000000;0.550127
7293.000000;0.550278
7292.000000;0.550447
7291.000000;0.550625
7290.000000;0.550777
7289.000000;0.550867
7288.000000;0.550987
7287.000000;0.551328
7286.000000;0.551916
7285.000000;0.552502
7284.000000;0.552824
7283.000000;0.552886
7282.000000;0.552881
7281.000000;0.552920
7280.000000;0.552992
7279.000000;0.553091
7278.000000;0.553229
7277.000000;0.553355
7276.000000;0.553412
7275.000000;0.553468
7274.000000;0.553626
7273.000000;0.553837
7272.000000;0.553960
7271.000000;0.554001
7270.000000;0.554133
7269.000000;0.554442
7268.000000;0.554837
7267.000000;0.555225
7266.000000;0.555606
7265.000000;0.555962
7264.000000;0.556220
7263.000000;0.556406
7262.000000;0.556667
7261.000000;0.557065
7260.000000;0.557493
7259.000000;0.557874
7258.000000;0.558266
7257.000000;0.558691
7256.000000;0.559052
7255.000000;0.559301
7254.000000;0.559547
7253.000000;0.559865
7252.000000;0.560151
7251.000000;0.560314
7250.000000;0.560460
7249.000000;0.560758
7248.000000;0.561208
7247.000000;0.561692
7246.000000;0.562127
7245.000000;0.562474
7244.000000;0.562689
7243.000000;0.562803
7242.000000;0.562947
7241.000000;0.563173
7240.000000;0.563387
7239.000000;0.563580
7238.000000;0.563941
7237.000000;0.564604
7236.000000;0.565400
7235.000000;0.566032
7234.000000;0.566380
7233.000000;0.566555
7232.000000;0.566745
7231.000000;0.567119
7230.000000;0.567752
7229.000000;0.568479
7228.000000;0.568977
7227.000000;0.569117
7226.000000;0.569147
7225.000000;0.569379
7224.000000;0.569819
7223.000000;0.570275
7222.000000;0.570682
7221.000000;0.571102
7220.000000;0.571536
7219.000000;0.571975
7218.000000;0.572504
7217.000000;0.573165
7216.000000;0.573804
7215.000000;0.574293
7214.000000;0.574763
7213.000000;0.575391
7212.000000;0.576088
7211.000000;0.576645
7210.000000;0.577092
7209.000000;0.577606
7208.000000;0.578159
7207.000000;0.578560
7206.000000;0.578814
7205.000000;0.579138
7204.000000;0.579636
7203.000000;0.580218
7202.000000;0.580846
7201.000000;0.581556
7200.000000;0.582254
7199.000000;0.582783
7198.000000;0.583198
7197.000000;0.583720
7196.000000;0.584392
7195.000000;0.585026
7194.000000;0.585508
7193.000000;0.585912
7192.000000;0.586317
7191.000000;0.586745
7190.000000;0.587274
7189.000000;0.587930
7188.000000;0.588522
7187.000000;0.588876
7186.000000;0.589206
7185.000000;0.589914
7184.000000;0.590969
7183.000000;0.591864
7182.000000;0.592319
7181.000000;0.592688
7180.000000;0.593453
7179.000000;0.594564
7178.000000;0.595556
7177.000000;0.596162
7176.000000;0.596527
7175.000000;0.596944
7174.000000;0.597551
7173.000000;0.598291
7172.000000;0.599040
7171.000000;0.599739
7170.000000;0.600404
7169.000000;0.601017
7168.000000;0.601504
7167.000000;0.601850
7166.000000;0.602182
7165.000000;0.602648
7164.000000;0.603293
7163.000000;0.604096
7162.000000;0.604997
7161.000000;0.605878
7160.000000;0.606663
7159.000000;0.607491
7158.000000;0.608542
7157.000000;0.609661
7156.000000;0.610468
7155.000000;0.610948
7154.000000;0.611548
7153.000000;0.612507
7152.000000;0.613482
7151.000000;0.614127
7150.000000;0.614639
7149.000000;0.615379
7148.000000;0.616288
7147.000000;0.617080
7146.000000;0.617695
7145.000000;0.618203
7144.000000;0.618554
7143.000000;0.618803
7142.000000;0.619228
7141.000000;0.619823
7140.000000;0.620145
7139.000000;0.620088
7138.000000;0.620318
7137.000000;0.621274
7136.000000;0.622317
7135.000000;0.622679
7134.000000;0.622800
7133.000000;0.623708
7132.000000;0.625297
7131.000000;0.626327
7130.000000;0.626169
7129.000000;0.625595
7128.000000;0.625598
7127.000000;0.626236
7126.000000;0.626921
7125.000000;0.627206
7124.000000;0.627042
7123.000000;0.626780
7122.000000;0.627070
7121.000000;0.628241
7120.000000;0.629670
7119.000000;0.630272
7118.000000;0.629801
7117.000000;0.629202
7116.000000;0.629458
7115.000000;0.630513
7114.000000;0.631544
7113.000000;0.631880
7112.000000;0.631483
7111.000000;0.630823
7110.000000;0.630384
7109.000000;0.630227
7108.000000;0.630071
7107.000000;0.629790
7106.000000;0.629513
7105.000000;0.629209
7104.000000;0.628693
7103.000000;0.628209
7102.000000;0.628326
7101.000000;0.628978
7100.000000;0.629379
7099.000000;0.629234
7098.000000;0.629197
7097.000000;0.629574
7096.000000;0.629563
7095.000000;0.628625
7094.000000;0.627670
7093.000000;0.627750
7092.000000;0.628375
7091.000000;0.628299
7090.000000;0.627284
7089.000000;0.625929
7088.000000;0.624446
7087.000000;0.622859
7086.000000;0.621778
7085.000000;0.621568
7084.000000;0.621224
7083.000000;0.619532
7082.000000;0.617033
7081.000000;0.615333
7080.000000;0.614758
7079.000000;0.614129
7078.000000;0.612743
7077.000000;0.611210
7076.000000;0.610148
7075.000000;0.609367
7074.000000;0.608635
7073.000000;0.608054
7072.000000;0.607362
7071.000000;0.605880
7070.000000;0.603511
7069.000000;0.601043
7068.000000;0.599242
7067.000000;0.598094
7066.000000;0.597003
7065.000000;0.595421
7064.000000;0.593445
7063.000000;0.591964
7062.000000;0.591767
7061.000000;0.592242
7060.000000;0.591685
7059.000000;0.589330
7058.000000;0.586185
7057.000000;0.583370
7056.000000;0.580835
7055.000000;0.578306
7054.000000;0.576143
7053.000000;0.574404
7052.000000;0.572447
7051.000000;0.570447
7050.000000;0.569768
7049.000000;0.570596
7048.000000;0.570770
7047.000000;0.568653
7046.000000;0.565749
7045.000000;0.564400
7044.000000;0.564217
7043.000000;0.563006
7042.000000;0.560167
7041.000000;0.556987
7040.000000;0.554371
7039.000000;0.552331
7038.000000;0.550857
7037.000000;0.549304
7036.000000;0.546015
7035.000000;0.540738
7034.000000;0.536198
7033.000000;0.534902
7032.000000;0.535414
7031.000000;0.534198
7030.000000;0.530542
7029.000000;0.527063
7028.000000;0.525634
7027.000000;0.525560
7026.000000;0.525558
7025.000000;0.524947
7024.000000;0.522942
7023.000000;0.519215
7022.000000;0.515389
7021.000000;0.513640
7020.000000;0.513529
7019.000000;0.512416
7018.000000;0.509224
7017.000000;0.505671
7016.000000;0.503480
7015.000000;0.502479
7014.000000;0.501593
7013.000000;0.499836
7012.000000;0.496356
7011.000000;0.491373
7010.000000;0.486957
7009.000000;0.484936
7008.000000;0.484077
7007.000000;0.481320
7006.000000;0.475968
7005.000000;0.470576
7004.000000;0.467417
7003.000000;0.466208
7002.000000;0.465485
7001.000000;0.464234
7000.000000;0.461894
6999.000000;0.458515
6998.000000;0.455280
6997.000000;0.453416
6996.000000;0.452357
6995.000000;0.450409
6994.000000;0.447226
6993.000000;0.444053
6992.000000;0.441597
6991.000000;0.439343
6990.000000;0.436988
6989.000000;0.434869
6988.000000;0.432880
6987.000000;0.430508
6986.000000;0.427939
6985.000000;0.425664
6984.000000;0.423110
6983.000000;0.419271
6982.000000;0.414550
6981.000000;0.410330
6980.000000;0.406968
6979.000000;0.403823
6978.000000;0.400894
6977.000000;0.398631
6976.000000;0.396394
6975.000000;0.393076
6974.000000;0.389186
6973.000000;0.386426
6972.000000;0.385160
6971.000000;0.383900
6970.000000;0.381482
6969.000000;0.378251
6968.000000;0.374963
6967.000000;0.372089
6966.000000;0.370161
6965.000000;0.369225
6964.000000;0.368040
6963.000000;0.365375
6962.000000;0.361985
6961.000000;0.359580
6960.000000;0.358043
6959.000000;0.355451
6958.000000;0.350958
6957.000000;0.345956
6956.000000;0.342075
6955.000000;0.339579
6954.000000;0.338001
6953.000000;0.336863
6952.000000;0.335528
6951.000000;0.333521
6950.000000;0.331223
6949.000000;0.329331
6948.000000;0.327624
6947.000000;0.325222
6946.000000;0.321984
6945.000000;0.318665
6944.000000;0.315805
6943.000000;0.313336
6942.000000;0.311115
6941.000000;0.309070
6940.000000;0.307121
6939.000000;0.305537
6938.000000;0.304811
6937.000000;0.304482
6936.000000;0.303013
6935.000000;0.299718
6934.000000;0.295811
6933.000000;0.292596
6932.000000;0.289759
6931.000000;0.286592
6930.000000;0.283670
6929.000000;0.281818
6928.000000;0.280427
6927.000000;0.278326
6926.000000;0.275600
6925.000000;0.273175
6924.000000;0.271406
6923.000000;0.270276
6922.000000;0.269968
6921.000000;0.269865
6920.000000;0.268230
6919.000000;0.264353
6918.000000;0.259862
6917.000000;0.256564
6916.000000;0.254289
6915.000000;0.252218
6914.000000;0.250857
6913.000000;0.250803
6912.000000;0.250903
6911.000000;0.249842
6910.000000;0.248496
6909.000000;0.248570
6908.000000;0.249701
6907.000000;0.250007
6906.000000;0.248822
6905.000000;0.246828
6904.000000;0.244325
6903.000000;0.241473
6902.000000;0.239339
6901.000000;0.238566
6900.000000;0.237700
6899.000000;0.234915
6898.000000;0.230768
6897.000000;0.227255
6896.000000;0.224811
6895.000000;0.222241
6894.000000;0.219119
6893.000000;0.216308
6892.000000;0.214429
6891.000000;0.213526
6890.000000;0.213768
6889.000000;0.214871
6888.000000;0.215360
6887.000000;0.214003
6886.000000;0.211585
6885.000000;0.209763
6884.000000;0.208859
6883.000000;0.208273
6882.000000;0.207961
6881.000000;0.207813
6880.000000;0.206789
6879.000000;0.204508
6878.000000;0.202659
6877.000000;0.202915
6876.000000;0.204394
6875.000000;0.204989
6874.000000;0.204321
6873.000000;0.203432
6872.000000;0.202600
6871.000000;0.201560
6870.000000;0.200815
6869.000000;0.200587
6868.000000;0.199527
6867.000000;0.196702
6866.000000;0.193825
6865.000000;0.193085
6864.000000;0.193879
6863.000000;0.194125
6862.000000;0.193718
6861.000000;0.193963
6860.000000;0.194439
6859.000000;0.193465
6858.000000;0.191352
6857.000000;0.190194
6856.000000;0.190488
6855.000000;0.190582
6854.000000;0.189537
6853.000000;0.188130
6852.000000;0.186829
6851.000000;0.185238
6850.000000;0.183732
6849.000000;0.183428
6848.000000;0.184290
6847.000000;0.185182
6846.000000;0.185831
6845.000000;0.186788
6844.000000;0.187547
6843.000000;0.186874
6842.000000;0.185114
6841.000000;0.184069
6840.000000;0.184284
6839.000000;0.184433
6838.000000;0.183724
6837.000000;0.183009
6836.000000;0.183065
6835.000000;0.183507
6834.000000;0.183863
6833.000000;0.184312
6832.000000;0.184885
6831.000000;0.185170
6830.000000;0.185144
6829.000000;0.185231
6828.000000;0.185373
6827.000000;0.185037
6826.000000;0.184145
6825.000000;0.183057
6824.000000;0.181830
6823.000000;0.180492
6822.000000;0.179729
6821.000000;0.180217
6820.000000;0.181610
6819.000000;0.183156
6818.000000;0.184850
6817.000000;0.186924
6816.000000;0.188850
6815.000000;0.190092
6814.000000;0.191213
6813.000000;0.192843
6812.000000;0.194182
6811.000000;0.194024
6810.000000;0.192762
6809.000000;0.191878
6808.000000;0.191875
6807.000000;0.192132
6806.000000;0.192321
6805.000000;0.192519
6804.000000;0.192328
6803.000000;0.191346
6802.000000;0.190178
6801.000000;0.189662
6800.000000;0.189585
6799.000000;0.189464
6798.000000;0.189905
6797.000000;0.191590
6796.000000;0.193590
6795.000000;0.194444
6794.000000;0.194543
6793.000000;0.195599
6792.000000;0.197995
6791.000000;0.200505
6790.000000;0.202546
6789.000000;0.204800
6788.000000;0.207324
6787.000000;0.208891
6786.000000;0.208806
6785.000000;0.207949
6784.000000;0.207452
6783.000000;0.207487
6782.000000;0.207741
6781.000000;0.207999
6780.000000;0.207903
6779.000000;0.207117
6778.000000;0.206068
6777.000000;0.205699
6776.000000;0.206320
6775.000000;0.207351
6774.000000;0.208215
6773.000000;0.208764
6772.000000;0.208928
6771.000000;0.208766
6770.000000;0.208822
6769.000000;0.209612
6768.000000;0.210843
6767.000000;0.211891
6766.000000;0.212856
6765.000000;0.214304
6764.000000;0.216148
6763.000000;0.217644
6762.000000;0.218456
6761.000000;0.218922
6760.000000;0.219351
6759.000000;0.219797
6758.000000;0.220406
6757.000000;0.221230
6756.000000;0.221845
6755.000000;0.221862
6754.000000;0.221665
6753.000000;0.221970
6752.000000;0.222838
6751.000000;0.223778
6750.000000;0.224572
6749.000000;0.225314
6748.000000;0.225914
6747.000000;0.226213
6746.000000;0.226396
6745.000000;0.226692
6744.000000;0.227017
6743.000000;0.227421
6742.000000;0.228364
6741.000000;0.229908
6740.000000;0.231208
6739.000000;0.231578
6738.000000;0.231528
6737.000000;0.231927
6736.000000;0.232744
6735.000000;0.233463
6734.000000;0.234142
6733.000000;0.235022
6732.000000;0.235684
6731.000000;0.235733
6730.000000;0.235864
6729.000000;0.237023
6728.000000;0.238837
6727.000000;0.240086
6726.000000;0.240498
6725.000000;0.240870
6724.000000;0.241550
6723.000000;0.242046
6722.000000;0.242153
6721.000000;0.242334
6720.000000;0.242835
6719.000000;0.243389
6718.000000;0.243909
6717.000000;0.244597
6716.000000;0.245350
6715.000000;0.245873
6714.000000;0.246402
6713.000000;0.247448
6712.000000;0.248867
6711.000000;0.250006
6710.000000;0.250768
6709.000000;0.251615
6708.000000;0.252559
6707.000000;0.253112
6706.000000;0.253230
6705.000000;0.253514
6704.000000;0.254232
6703.000000;0.255002
6702.000000;0.255584
6701.000000;0.256250
6700.000000;0.257157
6699.000000;0.258031
6698.000000;0.258654
6697.000000;0.259103
6696.000000;0.259394
6695.000000;0.259473
6694.000000;0.259596
6693.000000;0.260106
6692.000000;0.260841
6691.000000;0.261353
6690.000000;0.261707
6689.000000;0.262429
6688.000000;0.263582
6687.000000;0.264590
6686.000000;0.265081
6685.000000;0.265327
6684.000000;0.265728
6683.000000;0.266393
6682.000000;0.267314
6681.000000;0.268422
6680.000000;0.269405
6679.000000;0.269964
6678.000000;0.270284
6677.000000;0.270772
6676.000000;0.271379
6675.000000;0.271773
6674.000000;0.272091
6673.000000;0.272833
6672.000000;0.273975
6671.000000;0.274902
6670.000000;0.275361
6669.000000;0.275853
6668.000000;0.276800
6667.000000;0.277897
6666.000000;0.278595
6665.000000;0.278825
6664.000000;0.278967
6663.000000;0.279415
6662.000000;0.280321
6661.000000;0.281473
6660.000000;0.282342
6659.000000;0.282549
6658.000000;0.282356
6657.000000;0.282387
6656.000000;0.282870
6655.000000;0.283489
6654.000000;0.283963
6653.000000;0.284389
6652.000000;0.284977
6651.000000;0.285789
6650.000000;0.286787
6649.000000;0.287821
6648.000000;0.288581
6647.000000;0.288880
6646.000000;0.288998
6645.000000;0.289417
6644.000000;0.290223
6643.000000;0.291065
6642.000000;0.291660
6641.000000;0.292026
6640.000000;0.292277
6639.000000;0.292534
6638.000000;0.292990
6637.000000;0.293738
6636.000000;0.294544
6635.000000;0.295124
6634.000000;0.295551
6633.000000;0.296119
6632.000000;0.296865
6631.000000;0.297577
6630.000000;0.298167
6629.000000;0.298704
6628.000000;0.299178
6627.000000;0.299562
6626.000000;0.299983
6625.000000;0.300501
6624.000000;0.300869
6623.000000;0.300900
6622.000000;0.300926
6621.000000;0.301424
6620.000000;0.302317
6619.000000;0.303106
6618.000000;0.303605
6617.000000;0.304080
6616.000000;0.304708
6615.000000;0.305366
6614.000000;0.305961
6613.000000;0.306514
6612.000000;0.306915
6611.000000;0.307041
6610.000000;0.307133
6609.000000;0.307614
6608.000000;0.308502
6607.000000;0.309382
6606.000000;0.309988
6605.000000;0.310408
6604.000000;0.310735
6603.000000;0.310948
6602.000000;0.311187
6601.000000;0.311704
6600.000000;0.312446
6599.000000;0.313090
6598.000000;0.313561
6597.000000;0.314123
6596.000000;0.314883
6595.000000;0.315589
6594.000000;0.316037
6593.000000;0.316318
6592.000000;0.316561
6591.000000;0.316765
6590.000000;0.316995
6589.000000;0.317429
6588.000000;0.318043
6587.000000;0.318554
6586.000000;0.318799
6585.000000;0.318953
6584.000000;0.319255
6583.000000;0.319753
6582.000000;0.320380
6581.000000;0.321058
6580.000000;0.321647
6579.000000;0.322037
6578.000000;0.322348
6577.000000;0.322834
6576.000000;0.323528
6575.000000;0.324195
6574.000000;0.324672
6573.000000;0.325038
6572.000000;0.325421
6571.000000;0.325853
6570.000000;0.326348
6569.000000;0.326906
6568.000000;0.327407
6567.000000;0.327704
6566.000000;0.327866
6565.000000;0.328128
6564.000000;0.328565
6563.000000;0.329006
6562.000000;0.329293
6561.000000;0.329469
6560.000000;0.329678
6559.000000;0.330034
6558.000000;0.330575
6557.000000;0.331191
6556.000000;0.331664
6555.000000;0.331919
6554.000000;0.332158
6553.000000;0.332588
6552.000000;0.333133
6551.000000;0.333621
6550.000000;0.334095
6549.000000;0.334692
6548.000000;0.335314
6547.000000;0.335734
6546.000000;0.335965
6545.000000;0.336222
6544.000000;0.336582
6543.000000;0.336954
6542.000000;0.337332
6541.000000;0.337782
6540.000000;0.338214
6539.000000;0.338486
6538.000000;0.338701
6537.000000;0.339087
6536.000000;0.339619
6535.000000;0.340069
6534.000000;0.340435
6533.000000;0.340956
6532.000000;0.341674
6531.000000;0.342315
6530.000000;0.342692
6529.000000;0.342948
6528.000000;0.343287
6527.000000;0.343714
6526.000000;0.344119
6525.000000;0.344408
6524.000000;0.344492
6523.000000;0.344372
6522.000000;0.344264
6521.000000;0.344434
6520.000000;0.344871
6519.000000;0.345316
6518.000000;0.345639
6517.000000;0.345961
6516.000000;0.346379
6515.000000;0.346826
6514.000000;0.347237
6513.000000;0.347654
6512.000000;0.348106
6511.000000;0.348564
6510.000000;0.349062
6509.000000;0.349663
6508.000000;0.350291
6507.000000;0.350778
6506.000000;0.351106
6505.000000;0.351412
6504.000000;0.351749
6503.000000;0.352054
6502.000000;0.352327
6501.000000;0.352631
6500.000000;0.352896
6499.000000;0.352981
6498.000000;0.352949
6497.000000;0.353048
6496.000000;0.353346
6495.000000;0.353637
6494.000000;0.353776
6493.000000;0.353916
6492.000000;0.354285
6491.000000;0.354887
6490.000000;0.355535
6489.000000;0.356063
6488.000000;0.356469
6487.000000;0.356907
6486.000000;0.357553
6485.000000;0.358362
6484.000000;0.359009
6483.000000;0.359217
6482.000000;0.359115
6481.000000;0.359097
6480.000000;0.359361
6479.000000;0.359751
6478.000000;0.360031
6477.000000;0.360134
6476.000000;0.360148
6475.000000;0.360239
6474.000000;0.360546
6473.000000;0.361005
6472.000000;0.361324
6471.000000;0.361340
6470.000000;0.361315
6469.000000;0.361643
6468.000000;0.362299
6467.000000;0.362877
6466.000000;0.363163
6465.000000;0.363376
6464.000000;0.363774
6463.000000;0.364304
6462.000000;0.364764
6461.000000;0.365078
6460.000000;0.365300
6459.000000;0.365502
6458.000000;0.365755
6457.000000;0.366085
6456.000000;0.366396
6455.000000;0.366573
6454.000000;0.366685
6453.000000;0.366927
6452.000000;0.367340
6451.000000;0.367775
6450.000000;0.368131
6449.000000;0.368466
6448.000000;0.368816
6447.000000;0.369122
6446.000000;0.369361
6445.000000;0.369597
6444.000000;0.369837
6443.000000;0.370009
6442.000000;0.370118
6441.000000;0.370250
6440.000000;0.370403
6439.000000;0.370490
6438.000000;0.370538
6437.000000;0.370688
6436.000000;0.370959
6435.000000;0.371215
6434.000000;0.371417
6433.000000;0.371694
6432.000000;0.372088
6431.000000;0.372451
6430.000000;0.372681
6429.000000;0.372883
6428.000000;0.373171
6427.000000;0.373481
6426.000000;0.373711
6425.000000;0.373896
6424.000000;0.374123
6423.000000;0.374375
6422.000000;0.374571
6421.000000;0.374686
6420.000000;0.374753
6419.000000;0.374828
6418.000000;0.374993
6417.000000;0.375277
6416.000000;0.375559
6415.000000;0.375677
6414.000000;0.375689
6413.000000;0.375859
6412.000000;0.376299
6411.000000;0.376795
6410.000000;0.377095
6409.000000;0.377237
6408.000000;0.377460
6407.000000;0.377860
6406.000000;0.378308
6405.000000;0.378662
6404.000000;0.378931
6403.000000;0.379212
6402.000000;0.379545
6401.000000;0.379864
6400.000000;0.380078
6399.000000;0.380189
6398.000000;0.380305
6397.000000;0.380530
6396.000000;0.380836
6395.000000;0.381113
6394.000000;0.381289
6393.000000;0.381376
6392.000000;0.381414
6391.000000;0.381459
6390.000000;0.381592
6389.000000;0.381841
6388.000000;0.382122
6387.000000;0.382334
6386.000000;0.382490
6385.000000;0.382674
6384.000000;0.382880
6383.000000;0.383007
6382.000000;0.382998
6381.000000;0.382919
6380.000000;0.382896
6379.000000;0.383021
6378.000000;0.383291
6377.000000;0.383584
6376.000000;0.383735
6375.000000;0.383729
6374.000000;0.383741
6373.000000;0.383916
6372.000000;0.384208
6371.000000;0.384501
6370.000000;0.384794
6369.000000;0.385113
6368.000000;0.385367
6367.000000;0.385471
6366.000000;0.385534
6365.000000;0.385731
6364.000000;0.386021
6363.000000;0.386202
6362.000000;0.386222
6361.000000;0.386221
6360.000000;0.386297
6359.000000;0.386403
6358.000000;0.386504
6357.000000;0.386635
6356.000000;0.386779
6355.000000;0.386869
6354.000000;0.386929
6353.000000;0.387076
6352.000000;0.387326
6351.000000;0.387569
6350.000000;0.387743
6349.000000;0.387893
6348.000000;0.388029
6347.000000;0.388103
6346.000000;0.388145
6345.000000;0.388254
6344.000000;0.388425
6343.000000;0.388538
6342.000000;0.388560
6341.000000;0.388598
6340.000000;0.388722
6339.000000;0.388883
6338.000000;0.389059
6337.000000;0.389312
6336.000000;0.389622
6335.000000;0.389853
6334.000000;0.389942
6333.000000;0.389997
6332.000000;0.390105
6331.000000;0.390205
6330.000000;0.390232
6329.000000;0.390252
6328.000000;0.390339
6327.000000;0.390442
6326.000000;0.390475
6325.000000;0.390466
6324.000000;0.390507
6323.000000;0.390636
6322.000000;0.390841
6321.000000;0.391109
6320.000000;0.391394
6319.000000;0.391608
6318.000000;0.391721
6317.000000;0.391799
6316.000000;0.391903
6315.000000;0.392002
6314.000000;0.392047
6313.000000;0.392062
6312.000000;0.392108
6311.000000;0.392202
6310.000000;0.392315
6309.000000;0.392414
6308.000000;0.392478
6307.000000;0.392533
6306.000000;0.392652
6305.000000;0.392867
6304.000000;0.393080
6303.000000;0.393155
6302.000000;0.393109
6301.000000;0.393103
6300.000000;0.393238
6299.000000;0.393448
6298.000000;0.393608
6297.000000;0.393673
6296.000000;0.393677
6295.000000;0.393686
6294.000000;0.393775
6293.000000;0.393964
6292.000000;0.394157
6291.000000;0.394250
6290.000000;0.394280
6289.000000;0.394378
6288.000000;0.394548
6287.000000;0.394652
6286.000000;0.394632
6285.000000;0.394619
6284.000000;0.394735
6283.000000;0.394913
6282.000000;0.395005
6281.000000;0.394996
6280.000000;0.395001
6279.000000;0.395113
6278.000000;0.395305
6277.000000;0.395473
6276.000000;0.395517
6275.000000;0.395436
6274.000000;0.395343
6273.000000;0.395359
6272.000000;0.395469
6271.000000;0.395538
6270.000000;0.395496
6269.000000;0.395420
6268.000000;0.395432
6267.000000;0.395569
6266.000000;0.395785
6265.000000;0.395993
6264.000000;0.396100
6263.000000;0.396079
6262.000000;0.396025
6261.000000;0.396073
6260.000000;0.396235
6259.000000;0.396390
6258.000000;0.396439
6257.000000;0.396398
6256.000000;0.396344
6255.000000;0.396337
6254.000000;0.396432
6253.000000;0.396640
6252.000000;0.396859
6251.000000;0.396940
6250.000000;0.396876
6249.000000;0.396821
6248.000000;0.396883
6247.000000;0.396994
6246.000000;0.397043
6245.000000;0.397030
6244.000000;0.397013
6243.000000;0.397002
6242.000000;0.396990
6241.000000;0.397017
6240.000000;0.397124
6239.000000;0.397263
6238.000000;0.397351
6237.000000;0.397367
6236.000000;0.397357
6235.000000;0.397359
6234.000000;0.397393
6233.000000;0.397474
6232.000000;0.397584
6231.000000;0.397666
6230.000000;0.397699
6229.000000;0.397742
6228.000000;0.397844
6227.000000;0.397959
6226.000000;0.397996
6225.000000;0.397936
6224.000000;0.397856
6223.000000;0.397829
6222.000000;0.397879
6221.000000;0.397990
6220.000000;0.398127
6219.000000;0.398228
6218.000000;0.398244
6217.000000;0.398187
6216.000000;0.398123
6215.000000;0.398107
6214.000000;0.398131
6213.000000;0.398154
6212.000000;0.398151
6211.000000;0.398142
6210.000000;0.398158
6209.000000;0.398215
6208.000000;0.398302
6207.000000;0.398385
6206.000000;0.398419
6205.000000;0.398372
6204.000000;0.398273
6203.000000;0.398207
6202.000000;0.398227
6201.000000;0.398275
6200.000000;0.398249
6199.000000;0.398151
6198.000000;0.398093
6197.000000;0.398150
6196.000000;0.398274
6195.000000;0.398395
6194.000000;0.398520
6193.000000;0.398676
6192.000000;0.398822
6191.000000;0.398901
6190.000000;0.398927
6189.000000;0.398946
6188.000000;0.398948
6187.000000;0.398894
6186.000000;0.398819
6185.000000;0.398798
6184.000000;0.398826
6183.000000;0.398818
6182.000000;0.398734
6181.000000;0.398627
6180.000000;0.398565
6179.000000;0.398572
6178.000000;0.398636
6177.000000;0.398727
6176.000000;0.398776
6175.000000;0.398735
6174.000000;0.398648
6173.000000;0.398626
6172.000000;0.398717
6171.000000;0.398854
6170.000000;0.398929
6169.000000;0.398890
6168.000000;0.398760
6167.000000;0.398613
6166.000000;0.398548
6165.000000;0.398623
6164.000000;0.398793
6163.000000;0.398935
6162.000000;0.398966
6161.000000;0.398901
6160.000000;0.398815
6159.000000;0.398771
6158.000000;0.398793
6157.000000;0.398866
6156.000000;0.398937
6155.000000;0.398949
6154.000000;0.398889
6153.000000;0.398809
6152.000000;0.398785
6151.000000;0.398851
6150.000000;0.398957
6149.000000;0.399014
6148.000000;0.398992
6147.000000;0.398975
6146.000000;0.399064
6145.000000;0.399234
6144.000000;0.399360
6143.000000;0.399371
6142.000000;0.399330
6141.000000;0.399311
6140.000000;0.399287
6139.000000;0.399196
6138.000000;0.399054
6137.000000;0.398944
6136.000000;0.398910
6135.000000;0.398926
6134.000000;0.398933
6133.000000;0.398892
6132.000000;0.398808
6131.000000;0.398753
6130.000000;0.398804
6129.000000;0.398947
6128.000000;0.399075
6127.000000;0.399114
6126.000000;0.399094
6125.000000;0.399074
6124.000000;0.399066
6123.000000;0.399064
6122.000000;0.399072
6121.000000;0.399057
6120.000000;0.398961
6119.000000;0.398812
6118.000000;0.398722
6117.000000;0.398734
6116.000000;0.398748
6115.000000;0.398701
6114.000000;0.398683
6113.000000;0.398792
6112.000000;0.398947
6111.000000;0.398996
6110.000000;0.398943
6109.000000;0.398921
6108.000000;0.398988
6107.000000;0.399074
6106.000000;0.399111
6105.000000;0.399096
6104.000000;0.399029
6103.000000;0.398903
6102.000000;0.398765
6101.000000;0.398691
6100.000000;0.398700
6099.000000;0.398768
6098.000000;0.398883
6097.000000;0.399028
6096.000000;0.399124
6095.000000;0.399109
6094.000000;0.399025
6093.000000;0.398962
6092.000000;0.398929
6091.000000;0.398879
6090.000000;0.398825
6089.000000;0.398820
6088.000000;0.398849
6087.000000;0.398844
6086.000000;0.398799
6085.000000;0.398773
6084.000000;0.398782
6083.000000;0.398798
6082.000000;0.398838
6081.000000;0.398938
6080.000000;0.399056
6079.000000;0.399084
6078.000000;0.398990
6077.000000;0.398862
6076.000000;0.398786
6075.000000;0.398768
6074.000000;0.398781
6073.000000;0.398805
6072.000000;0.398819
6071.000000;0.398816
6070.000000;0.398827
6069.000000;0.398874
6068.000000;0.398902
6067.000000;0.398851
6066.000000;0.398769
6065.000000;0.398760
6064.000000;0.398833
6063.000000;0.398889
6062.000000;0.398867
6061.000000;0.398815
6060.000000;0.398796
6059.000000;0.398808
6058.000000;0.398822
6057.000000;0.398824
6056.000000;0.398805
6055.000000;0.398762
6054.000000;0.398722
6053.000000;0.398716
6052.000000;0.398719
6051.000000;0.398693
6050.000000;0.398670
6049.000000;0.398727
6048.000000;0.398864
6047.000000;0.398980
6046.000000;0.398994
6045.000000;0.398932
6044.000000;0.398872
6043.000000;0.398864
6042.000000;0.398901
6041.000000;0.398941
6040.000000;0.398951
6039.000000;0.398943
6038.000000;0.398961
6037.000000;0.399002
6036.000000;0.398999
6035.000000;0.398937
6034.000000;0.398911
6033.000000;0.399013
6032.000000;0.399183
6031.000000;0.399267
6030.000000;0.399219
6029.000000;0.399140
6028.000000;0.399124
6027.000000;0.399163
6026.000000;0.399185
6025.000000;0.399142
6024.000000;0.399035
6023.000000;0.398914
6022.000000;0.398855
6021.000000;0.398873
6020.000000;0.398892
6019.000000;0.398832
6018.000000;0.398722
6017.000000;0.398651
6016.000000;0.398660
6015.000000;0.398724
6014.000000;0.398825
6013.000000;0.398948
6012.000000;0.399052
6011.000000;0.399104
6010.000000;0.399146
6009.000000;0.399235
6008.000000;0.399357
6007.000000;0.399459
6006.000000;0.399537
6005.000000;0.399606
6004.000000;0.399625
6003.000000;0.399553
6002.000000;0.399445
6001.000000;0.399387
6000.000000;0.399368
5999.000000;0.399302
5998.000000;0.399172
5997.000000;0.399044
5996.000000;0.398953
5995.000000;0.398882
5994.000000;0.398839
5993.000000;0.398848
5992.000000;0.398883
5991.000000;0.398896
5990.000000;0.398918
5989.000000;0.399013
5988.000000;0.399150
5987.000000;0.399234
5986.000000;0.399257
5985.000000;0.399306
5984.000000;0.399403
5983.000000;0.399478
5982.000000;0.399509
5981.000000;0.399556
5980.000000;0.399629
5979.000000;0.399650
5978.000000;0.399584
5977.000000;0.399513
5976.000000;0.399504
5975.000000;0.399514
5974.000000;0.399489
5973.000000;0.399456
5972.000000;0.399470
5971.000000;0.399528
5970.000000;0.399602
5969.000000;0.399668
5968.000000;0.399682
5967.000000;0.399590
5966.000000;0.399428
5965.000000;0.399334
5964.000000;0.399376
5963.000000;0.399461
5962.000000;0.399469
5961.000000;0.399415
5960.000000;0.399399
5959.000000;0.399452
5958.000000;0.399509
5957.000000;0.399517
5956.000000;0.399490
5955.000000;0.399460
5954.000000;0.399435
5953.000000;0.399407
5952.000000;0.399380
5951.000000;0.399368
5950.000000;0.399382
5949.000000;0.399422
5948.000000;0.399474
5947.000000;0.399538
5946.000000;0.399634
5945.000000;0.399776
5944.000000;0.399929
5943.000000;0.400035
5942.000000;0.400070
5941.000000;0.400060
5940.000000;0.400052
5939.000000;0.400082
5938.000000;0.400160
5937.000000;0.400249
5936.000000;0.400286
5935.000000;0.400258
5934.000000;0.400229
5933.000000;0.400255
5932.000000;0.400312
5931.000000;0.400328
5930.000000;0.400286
5929.000000;0.400231
5928.000000;0.400191
5927.000000;0.400170
5926.000000;0.400172
5925.000000;0.400195
5924.000000;0.400210
5923.000000;0.400193
5922.000000;0.400180
5921.000000;0.400214
5920.000000;0.400277
5919.000000;0.400330
5918.000000;0.400394
5917.000000;0.400514
5916.000000;0.400648
5915.000000;0.400705
5914.000000;0.400676
5913.000000;0.400642
5912.000000;0.400641
5911.000000;0.400617
5910.000000;0.400531
5909.000000;0.400440
5908.000000;0.400414
5907.000000;0.400456
5906.000000;0.400530
5905.000000;0.400622
5904.000000;0.400716
5903.000000;0.400771
5902.000000;0.400759
5901.000000;0.400704
5900.000000;0.400651
5899.000000;0.400618
5898.000000;0.400600
5897.000000;0.400593
5896.000000;0.400597
5895.000000;0.400613
5894.000000;0.400637
5893.000000;0.400655
5892.000000;0.400644
5891.000000;0.400600
5890.000000;0.400548
5889.000000;0.400509
5888.000000;0.400479
5887.000000;0.400458
5886.000000;0.400458
5885.000000;0.400464
5884.000000;0.400431
5883.000000;0.400365
5882.000000;0.400370
5881.000000;0.400528
5880.000000;0.400765
5879.000000;0.400933
5878.000000;0.400984
5877.000000;0.401001
5876.000000;0.401060
5875.000000;0.401141
5874.000000;0.401207
5873.000000;0.401259
5872.000000;0.401307
5871.000000;0.401340
5870.000000;0.401358
5869.000000;0.401367
5868.000000;0.401353
5867.000000;0.401293
5866.000000;0.401229
5865.000000;0.401244
5864.000000;0.401344
5863.000000;0.401432
5862.000000;0.401420
5861.000000;0.401332
5860.000000;0.401249
5859.000000;0.401209
5858.000000;0.401192
5857.000000;0.401177
5856.000000;0.401172
5855.000000;0.401186
5854.000000;0.401225
5853.000000;0.401295
5852.000000;0.401392
5851.000000;0.401479
5850.000000;0.401502
5849.000000;0.401441
5848.000000;0.401358
5847.000000;0.401355
5846.000000;0.401464
5845.000000;0.401585
5844.000000;0.401599
5843.000000;0.401514
5842.000000;0.401455
5841.000000;0.401503
5840.000000;0.401603
5839.000000;0.401663
5838.000000;0.401659
5837.000000;0.401613
5836.000000;0.401534
5835.000000;0.401443
5834.000000;0.401405
5833.000000;0.401454
5832.000000;0.401534
5831.000000;0.401574
5830.000000;0.401585
5829.000000;0.401606
5828.000000;0.401617
5827.000000;0.401578
5826.000000;0.401530
5825.000000;0.401553
5824.000000;0.401658
5823.000000;0.401785
5822.000000;0.401905
5821.000000;0.402036
5820.000000;0.402167
5819.000000;0.402253
5818.000000;0.402284
5817.000000;0.402291
5816.000000;0.402302
5815.000000;0.402323
5814.000000;0.402371
5813.000000;0.402441
5812.000000;0.402476
5811.000000;0.402435
5810.000000;0.402376
5809.000000;0.402382
5808.000000;0.402435
5807.000000;0.402437
5806.000000;0.402368
5805.000000;0.402321
5804.000000;0.402366
5803.000000;0.402453
5802.000000;0.402489
5801.000000;0.402435
5800.000000;0.402325
5799.000000;0.402228
5798.000000;0.402208
5797.000000;0.402269
5796.000000;0.402326
5795.000000;0.402295
5794.000000;0.402201
5793.000000;0.402145
5792.000000;0.402165
5791.000000;0.402198
5790.000000;0.402187
5789.000000;0.402171
5788.000000;0.402214
5787.000000;0.402325
5786.000000;0.402473
5785.000000;0.402619
5784.000000;0.402713
5783.000000;0.402702
5782.000000;0.402594
5781.000000;0.402488
5780.000000;0.402495
5779.000000;0.402626
5778.000000;0.402774
5777.000000;0.402825
5776.000000;0.402768
5775.000000;0.402709
5774.000000;0.402758
5773.000000;0.402910
5772.000000;0.403038
5771.000000;0.403025
5770.000000;0.402879
5769.000000;0.402715
5768.000000;0.402642
5767.000000;0.402688
5766.000000;0.402809
5765.000000;0.402938
5764.000000;0.403031
5763.000000;0.403075
5762.000000;0.403070
5761.000000;0.403023
5760.000000;0.402967
5759.000000;0.402965
5758.000000;0.403035
5757.000000;0.403104
5756.000000;0.403084
5755.000000;0.402990
5754.000000;0.402910
5753.000000;0.402872
5752.000000;0.402833
5751.000000;0.402791
5750.000000;0.402798
5749.000000;0.402848
5748.000000;0.402867
5747.000000;0.402838
5746.000000;0.402835
5745.000000;0.402882
5744.000000;0.402923
5743.000000;0.402946
5742.000000;0.403022
5741.000000;0.403150
5740.000000;0.403203
5739.000000;0.403127
5738.000000;0.403042
5737.000000;0.403053
5736.000000;0.403081
5735.000000;0.403031
5734.000000;0.402977
5733.000000;0.403028
5732.000000;0.403118
5731.000000;0.403117
5730.000000;0.403052
5729.000000;0.403028
5728.000000;0.403009
5727.000000;0.402880
5726.000000;0.402679
5725.000000;0.402553
5724.000000;0.402511
5723.000000;0.402428
5722.000000;0.402286
5721.000000;0.402224
5720.000000;0.402308
5719.000000;0.402440
5718.000000;0.402531
5717.000000;0.402603
5716.000000;0.402671
5715.000000;0.402703
5714.000000;0.402735
5713.000000;0.402866
5712.000000;0.403067
5711.000000;0.403152
5710.000000;0.403022
5709.000000;0.402807
5708.000000;0.402683
5707.000000;0.402670
5706.000000;0.402680
5705.000000;0.402670
5704.000000;0.402650
5703.000000;0.402634
5702.000000;0.402656
5701.000000;0.402752
5700.000000;0.402893
5699.000000;0.402979
5698.000000;0.402975
5697.000000;0.402968
5696.000000;0.403032
5695.000000;0.403123
5694.000000;0.403167
5693.000000;0.403174
5692.000000;0.403190
5691.000000;0.403218
5690.000000;0.403234
5689.000000;0.403240
5688.000000;0.403230
5687.000000;0.403164
5686.000000;0.403042
5685.000000;0.402941
5684.000000;0.402929
5683.000000;0.402974
5682.000000;0.403007
5681.000000;0.403017
5680.000000;0.403036
5679.000000;0.403067
5678.000000;0.403096
5677.000000;0.403137
5676.000000;0.403202
5675.000000;0.403280
5674.000000;0.403376
5673.000000;0.403545
5672.000000;0.403807
5671.000000;0.404054
5670.000000;0.404133
5669.000000;0.404021
5668.000000;0.403852
5667.000000;0.403763
5666.000000;0.403769
5665.000000;0.403790
5664.000000;0.403760
5663.000000;0.403679
5662.000000;0.403590
5661.000000;0.403546
5660.000000;0.403591
5659.000000;0.403740
5658.000000;0.403960
5657.000000;0.404176
5656.000000;0.404322
5655.000000;0.404394
5654.000000;0.404454
5653.000000;0.404556
5652.000000;0.404681
5651.000000;0.404748
5650.000000;0.404708
5649.000000;0.404624
5648.000000;0.404625
5647.000000;0.404769
5646.000000;0.404947
5645.000000;0.404995
5644.000000;0.404885
5643.000000;0.404776
5642.000000;0.404826
5641.000000;0.405008
5640.000000;0.405183
5639.000000;0.405311
5638.000000;0.405479
5637.000000;0.405729
5636.000000;0.405977
5635.000000;0.406134
5634.000000;0.406210
5633.000000;0.406272
5632.000000;0.406356
5631.000000;0.406477
5630.000000;0.406637
5629.000000;0.406796
5628.000000;0.406888
5627.000000;0.406931
5626.000000;0.407019
5625.000000;0.407176
5624.000000;0.407301
5623.000000;0.407326
5622.000000;0.407318
5621.000000;0.407351
5620.000000;0.407393
5619.000000;0.407403
5618.000000;0.407447
5617.000000;0.407590
5616.000000;0.407765
5615.000000;0.407875
5614.000000;0.407957
5613.000000;0.408113
5612.000000;0.408325
5611.000000;0.408493
5610.000000;0.408623
5609.000000;0.408812
5608.000000;0.409070
5607.000000;0.409302
5606.000000;0.409472
5605.000000;0.409632
5604.000000;0.409784
5603.000000;0.409856
5602.000000;0.409864
5601.000000;0.409950
5600.000000;0.410183
5599.000000;0.410454
5598.000000;0.410649
5597.000000;0.410807
5596.000000;0.411027
5595.000000;0.411283
5594.000000;0.411472
5593.000000;0.411580
5592.000000;0.411685
5591.000000;0.411816
5590.000000;0.411918
5589.000000;0.411965
5588.000000;0.412010
5587.000000;0.412083
5586.000000;0.412131
5585.000000;0.412112
5584.000000;0.412094
5583.000000;0.412185
5582.000000;0.412394
5581.000000;0.412635
5580.000000;0.412861
5579.000000;0.413097
5578.000000;0.413347
5577.000000;0.413549
5576.000000;0.413683
5575.000000;0.413839
5574.000000;0.414082
5573.000000;0.414321
5572.000000;0.414414
5571.000000;0.414363
5570.000000;0.414312
5569.000000;0.414385
5568.000000;0.414600
5567.000000;0.414916
5566.000000;0.415254
5565.000000;0.415482
5564.000000;0.415534
5563.000000;0.415538
5562.000000;0.415701
5561.000000;0.416043
5560.000000;0.416368
5559.000000;0.416535
5558.000000;0.416599
5557.000000;0.416657
5556.000000;0.416682
5555.000000;0.416627
5554.000000;0.416540
5553.000000;0.416486
5552.000000;0.416441
5551.000000;0.416384
5550.000000;0.416398
5549.000000;0.416582
5548.000000;0.416890
5547.000000;0.417185
5546.000000;0.417387
5545.000000;0.417509
5544.000000;0.417590
5543.000000;0.417685
5542.000000;0.417865
5541.000000;0.418122
5540.000000;0.418320
5539.000000;0.418346
5538.000000;0.418274
5537.000000;0.418281
5536.000000;0.418432
5535.000000;0.418626
5534.000000;0.418767
5533.000000;0.418873
5532.000000;0.419019
5531.000000;0.419250
5530.000000;0.419551
5529.000000;0.419855
5528.000000;0.420059
5527.000000;0.420102
5526.000000;0.420035
5525.000000;0.419982
5524.000000;0.420019
5523.000000;0.420109
5522.000000;0.420155
5521.000000;0.420104
5520.000000;0.420001
5519.000000;0.419942
5518.000000;0.419990
5517.000000;0.420121
5516.000000;0.420261
5515.000000;0.420341
5514.000000;0.420334
5513.000000;0.420261
5512.000000;0.420208
5511.000000;0.420283
5510.000000;0.420512
5509.000000;0.420798
5508.000000;0.421025
5507.000000;0.421173
5506.000000;0.421282
5505.000000;0.421368
5504.000000;0.421456
5503.000000;0.421620
5502.000000;0.421876
5501.000000;0.422101
5500.000000;0.422187
5499.000000;0.422238
5498.000000;0.422437
5497.000000;0.422761
5496.000000;0.422998
5495.000000;0.423040
5494.000000;0.422994
5493.000000;0.422988
5492.000000;0.423044
5491.000000;0.423156
5490.000000;0.423324
5489.000000;0.423467
5488.000000;0.423492
5487.000000;0.423472
5486.000000;0.423575
5485.000000;0.423787
5484.000000;0.423927
5483.000000;0.423953
5482.000000;0.424032
5481.000000;0.424230
5480.000000;0.424401
5479.000000;0.424466
5478.000000;0.424563
5477.000000;0.424764
5476.000000;0.424891
5475.000000;0.424813
5474.000000;0.424719
5473.000000;0.424844
5472.000000;0.425105
5471.000000;0.425283
5470.000000;0.425381
5469.000000;0.425548
5468.000000;0.425754
5467.000000;0.425836
5466.000000;0.425817
5465.000000;0.425880
5464.000000;0.426059
5463.000000;0.426192
5462.000000;0.426202
5461.000000;0.426221
5460.000000;0.426385
5459.000000;0.426682
5458.000000;0.427023
5457.000000;0.427327
5456.000000;0.427517
5455.000000;0.427593
5454.000000;0.427679
5453.000000;0.427885
5452.000000;0.428154
5451.000000;0.428360
5450.000000;0.428499
5449.000000;0.428653
5448.000000;0.428790
5447.000000;0.428810
5446.000000;0.428744
5445.000000;0.428754
5444.000000;0.428898
5443.000000;0.429058
5442.000000;0.429122
5441.000000;0.429119
5440.000000;0.429161
5439.000000;0.429324
5438.000000;0.429579
5437.000000;0.429787
5436.000000;0.429812
5435.000000;0.429713
5434.000000;0.429748
5433.000000;0.430085
5432.000000;0.430607
5431.000000;0.431092
5430.000000;0.431473
5429.000000;0.431808
5428.000000;0.432113
5427.000000;0.432389
5426.000000;0.432712
5425.000000;0.433124
5424.000000;0.433512
5423.000000;0.433729
5422.000000;0.433785
5421.000000;0.433792
5420.000000;0.433777
5419.000000;0.433725
5418.000000;0.433727
5417.000000;0.433893
5416.000000;0.434179
5415.000000;0.434465
5414.000000;0.434766
5413.000000;0.435197
5412.000000;0.435763
5411.000000;0.436341
5410.000000;0.436870
5409.000000;0.437381
5408.000000;0.437883
5407.000000;0.438359
5406.000000;0.438855
5405.000000;0.439424
5404.000000;0.439971
5403.000000;0.440331
5402.000000;0.440493
5401.000000;0.440596
5400.000000;0.440746
5399.000000;0.440957
5398.000000;0.441254
5397.000000;0.441649
5396.000000;0.442062
5395.000000;0.442398
5394.000000;0.442716
5393.000000;0.443186
5392.000000;0.443857
5391.000000;0.444620
5390.000000;0.445369
5389.000000;0.446081
5388.000000;0.446752
5387.000000;0.447376
5386.000000;0.447971
5385.000000;0.448526
5384.000000;0.448971
5383.000000;0.449311
5382.000000;0.449722
5381.000000;0.450367
5380.000000;0.451171
5379.000000;0.451916
5378.000000;0.452539
5377.000000;0.453161
5376.000000;0.453886
5375.000000;0.454714
5374.000000;0.455633
5373.000000;0.456594
5372.000000;0.457461
5371.000000;0.458156
5370.000000;0.458807
5369.000000;0.459612
5368.000000;0.460601
5367.000000;0.461657
5366.000000;0.462708
5365.000000;0.463764
5364.000000;0.464834
5363.000000;0.465970
5362.000000;0.467263
5361.000000;0.468649
5360.000000;0.469883
5359.000000;0.470923
5358.000000;0.472113
5357.000000;0.473712
5356.000000;0.475452
5355.000000;0.476924
5354.000000;0.478207
5353.000000;0.479721
5352.000000;0.481507
5351.000000;0.483138
5350.000000;0.484327
5349.000000;0.485221
5348.000000;0.486077
5347.000000;0.487042
5346.000000;0.488222
5345.000000;0.489689
5344.000000;0.491384
5343.000000;0.493250
5342.000000;0.495358
5341.000000;0.497609
5340.000000;0.499656
5339.000000;0.501524
5338.000000;0.503887
5337.000000;0.507075
5336.000000;0.510212
5335.000000;0.512296
5334.000000;0.513709
5333.000000;0.515608
5332.000000;0.518111
5331.000000;0.520153
5330.000000;0.521182
5329.000000;0.521810
5328.000000;0.522607
5327.000000;0.523515
5326.000000;0.524714
5325.000000;0.526780
5324.000000;0.529511
5323.000000;0.531811
5322.000000;0.533239
5321.000000;0.534506
5320.000000;0.535860
5319.000000;0.536267
5318.000000;0.535044
5317.000000;0.533119
5316.000000;0.531635
5315.000000;0.530304
5314.000000;0.527857
5313.000000;0.523175
5312.000000;0.515563
5311.000000;0.505290
5310.000000;0.494315
5309.000000;0.484999
5308.000000;0.477545
5307.000000;0.469407
5306.000000;0.457687
5305.000000;0.441778
5304.000000;0.423676
5303.000000;0.406719
5302.000000;0.393600
5301.000000;0.384738
5300.000000;0.379704
5299.000000;0.380509
5298.000000;0.390948
5297.000000;0.410889
5296.000000;0.434363
5295.000000;0.459362
5294.000000;0.493972
5293.000000;0.541743
5292.000000;0.590137
5291.000000;0.627484
5290.000000;0.659297
5289.000000;0.689943
5288.000000;0.708610
5287.000000;0.712589
5286.000000;0.720663
5285.000000;0.743139
5284.000000;0.762687
5283.000000;0.765216
5282.000000;0.765946
5281.000000;0.781010
5280.000000;0.800156
5279.000000;0.807076
5278.000000;0.811190
5277.000000;0.828607
5276.000000;0.851051
5275.000000;0.862970
5274.000000;0.874954
5273.000000;0.901078
5272.000000;0.919525
5271.000000;0.902827
5270.000000;0.874846
5269.000000;0.867750
5268.000000;0.877076
5267.000000;0.879612
5266.000000;0.879348
5265.000000;0.898861
5264.000000;0.932992
5263.000000;0.953087
5262.000000;0.954528
5261.000000;0.963662
5260.000000;0.989707
5259.000000;1.010192
5258.000000;1.015907
5257.000000;1.025045
5256.000000;1.036886
5255.000000;1.022301
5254.000000;0.979572
5253.000000;0.941916
5252.000000;0.925644
5251.000000;0.924007
5250.000000;0.929805
5249.000000;0.944974
5248.000000;0.958893
5247.000000;0.952327
5246.000000;0.937129
5245.000000;0.944596
5244.000000;0.979232
5243.000000;1.011674
5242.000000;1.019575
5241.000000;1.015829
5240.000000;1.017934
5239.000000;1.025215
5238.000000;1.035477
5237.000000;1.052421
5236.000000;1.063955
5235.000000;1.044921
5234.000000;1.003072
5233.000000;0.979491
5232.000000;0.994400
5231.000000;1.024785
5230.000000;1.025106
5229.000000;0.982273
5228.000000;0.931289
5227.000000;0.905058
5226.000000;0.911541
5225.000000;0.939454
5224.000000;0.964973
5223.000000;0.969157
5222.000000;0.957613
5221.000000;0.949874
5220.000000;0.955349
5219.000000;0.966651
5218.000000;0.970932
5217.000000;0.961837
5216.000000;0.940174
5215.000000;0.918578
5214.000000;0.911589
5213.000000;0.916497
5212.000000;0.915819
5211.000000;0.901768
5210.000000;0.892902
5209.000000;0.907897
5208.000000;0.935454
5207.000000;0.948616
5206.000000;0.942539
5205.000000;0.931448
5204.000000;0.922186
5203.000000;0.918495
5202.000000;0.930672
5201.000000;0.960659
5200.000000;0.983306
5199.000000;0.972792
5198.000000;0.951584
5197.000000;0.955910
5196.000000;0.985936
5195.000000;1.014781
5194.000000;1.028718
5193.000000;1.038602
5192.000000;1.047318
5191.000000;1.044307
5190.000000;1.033037
5189.000000;1.026209
5188.000000;1.018844
5187.000000;0.995921
5186.000000;0.962841
5185.000000;0.938478
5184.000000;0.927487
5183.000000;0.919302
5182.000000;0.905497
5181.000000;0.885871
5180.000000;0.862906
5179.000000;0.843100
5178.000000;0.836546
5177.000000;0.846533
5176.000000;0.862663
5175.000000;0.872801
5174.000000;0.882115
5173.000000;0.905277
5172.000000;0.944387
5171.000000;0.984280
5170.000000;1.010754
5169.000000;1.025044
5168.000000;1.025382
5167.000000;1.012860
5166.000000;1.003632
5165.000000;1.007223
5164.000000;1.014831
5163.000000;1.010698
5162.000000;0.994912
5161.000000;0.979620
5160.000000;0.971208
5159.000000;0.971678
5158.000000;0.983168
5157.000000;0.998619
5156.000000;0.998733
5155.000000;0.982155
5154.000000;0.975434
5153.000000;0.992380
5152.000000;1.012043
5151.000000;1.004623
5150.000000;0.976797
5149.000000;0.951803
5148.000000;0.931492
5147.000000;0.911821
5146.000000;0.901844
5145.000000;0.906502
5144.000000;0.907987
5143.000000;0.888889
5142.000000;0.864777
5141.000000;0.862296
5140.000000;0.882735
5139.000000;0.902567
5138.000000;0.906849
5137.000000;0.906328
5136.000000;0.912389
5135.000000;0.921809
5134.000000;0.932896
5133.000000;0.947642
5132.000000;0.955326
5131.000000;0.947392
5130.000000;0.937278
5129.000000;0.945481
5128.000000;0.970832
5127.000000;0.989346
5126.000000;0.992062
5125.000000;0.996208
5124.000000;1.007731
5123.000000;1.012232
5122.000000;1.005257
5121.000000;1.000834
5120.000000;1.005770
5119.000000;1.009604
5118.000000;1.007445
5117.000000;1.008852
5116.000000;1.010734
5115.000000;0.994921
5114.000000;0.962702
5113.000000;0.937857
5112.000000;0.931635
5111.000000;0.930501
5110.000000;0.919441
5109.000000;0.906672
5108.000000;0.909578
5107.000000;0.927771
5106.000000;0.943770
5105.000000;0.946866
5104.000000;0.944424
5103.000000;0.948859
5102.000000;0.967579
5101.000000;0.995393
5100.000000;1.015795
5099.000000;1.018413
5098.000000;1.007251
5097.000000;0.993776
5096.000000;0.986739
5095.000000;0.986580
5094.000000;0.989153
5093.000000;0.990069
5092.000000;0.986153
5091.000000;0.982470
5090.000000;0.993475
5089.000000;1.023244
5088.000000;1.057415
5087.000000;1.075974
5086.000000;1.067161
5085.000000;1.043024
5084.000000;1.022009
5083.000000;1.012182
5082.000000;1.011419
5081.000000;1.009129
5080.000000;0.998141
5079.000000;0.980575
5078.000000;0.962927
5077.000000;0.947984
5076.000000;0.933408
5075.000000;0.917876
5074.000000;0.905499
5073.000000;0.901813
5072.000000;0.906291
5071.000000;0.913014
5070.000000;0.916204
5069.000000;0.914360
5068.000000;0.914437
5067.000000;0.928018
5066.000000;0.957562
5065.000000;0.982564
5064.000000;0.975995
5063.000000;0.947801
5062.000000;0.933302
5061.000000;0.945410
5060.000000;0.960382
5059.000000;0.949334
5058.000000;0.919169
5057.000000;0.893915
5056.000000;0.883078
5055.000000;0.884561
5054.000000;0.894826
5053.000000;0.906487
5052.000000;0.906365
5051.000000;0.891018
5050.000000;0.874778
5049.000000;0.871513
5048.000000;0.880632
5047.000000;0.893933
5046.000000;0.905004
5045.000000;0.905867
5044.000000;0.889555
5043.000000;0.864555
5042.000000;0.848827
5041.000000;0.845580
5040.000000;0.838795
5039.000000;0.818867
5038.000000;0.800113
5037.000000;0.799556
5036.000000;0.816102
5035.000000;0.835165
5034.000000;0.842725
5033.000000;0.834937
5032.000000;0.818504
5031.000000;0.809629
5030.000000;0.823776
5029.000000;0.855724
5028.000000;0.876492
5027.000000;0.865892
5026.000000;0.841552
5025.000000;0.830333
5024.000000;0.837775
5023.000000;0.853019
5022.000000;0.864189
5021.000000;0.862657
5020.000000;0.842884
5019.000000;0.814787
5018.000000;0.801053
5017.000000;0.810840
5016.000000;0.825393
5015.000000;0.819200
5014.000000;0.797953
5013.000000;0.785935
5012.000000;0.789408
5011.000000;0.796895
5010.000000;0.802012
5009.000000;0.810961
5008.000000;0.825477
5007.000000;0.838914
5006.000000;0.847232
5005.000000;0.845321
5004.000000;0.830203
5003.000000;0.811277
5002.000000;0.801523
5001.000000;0.796028
5000.000000;0.776447
4999.000000;0.744699
4998.000000;0.725157
4997.000000;0.728854
4996.000000;0.736018
4995.000000;0.722102
4994.000000;0.693795
4993.000000;0.674710
4992.000000;0.672863
4991.000000;0.679691
4990.000000;0.686387
4989.000000;0.689843
4988.000000;0.688890
4987.000000;0.687552
4986.000000;0.695680
4985.000000;0.713794
4984.000000;0.723736
4983.000000;0.710960
4982.000000;0.689796
4981.000000;0.681818
4980.000000;0.685879
4979.000000;0.684640
4978.000000;0.669186
4977.000000;0.647636
4976.000000;0.630551
4975.000000;0.619959
4974.000000;0.614711
4973.000000;0.611834
4972.000000;0.604442
4971.000000;0.590252
4970.000000;0.577479
4969.000000;0.573732
4968.000000;0.573446
4967.000000;0.566034
4966.000000;0.552834
4965.000000;0.542032
4964.000000;0.535317
4963.000000;0.530247
4962.000000;0.527142
4961.000000;0.524568
4960.000000;0.515001
4959.000000;0.497374
4958.000000;0.484717
4957.000000;0.487079
4956.000000;0.495207
4955.000000;0.490287
4954.000000;0.469834
4953.000000;0.447985
4952.000000;0.433518
4951.000000;0.424887
4950.000000;0.420648
4949.000000;0.421473
4948.000000;0.422624
4947.000000;0.417933
4946.000000;0.411680
4945.000000;0.412732
4944.000000;0.417707
4943.000000;0.412767
4942.000000;0.396395
4941.000000;0.383369
4940.000000;0.381799
4939.000000;0.383087
4938.000000;0.375270
4937.000000;0.359164
4936.000000;0.344569
4935.000000;0.336553
4934.000000;0.332699
4933.000000;0.328157
4932.000000;0.319498
4931.000000;0.307236
4930.000000;0.296805
4929.000000;0.293063
4928.000000;0.292602
4927.000000;0.286099
4926.000000;0.270344
4925.000000;0.251703
4924.000000;0.236156
4923.000000;0.223137
4922.000000;0.209704
4921.000000;0.195722
4920.000000;0.182971
4919.000000;0.172343
4918.000000;0.163636
4917.000000;0.156272
4916.000000;0.149783
4915.000000;0.144467
4914.000000;0.140761
4913.000000;0.137532
4912.000000;0.132957
4911.000000;0.127783
4910.000000;0.125036
4909.000000;0.125048
4908.000000;0.123707
4907.000000;0.118377
4906.000000;0.112346
4905.000000;0.109469
4904.000000;0.107993
4903.000000;0.103629
4902.000000;0.095544
4901.000000;0.084879
4900.000000;0.070848
4899.000000;0.053567
4898.000000;0.037529
4897.000000;0.026966
4896.000000;0.019826
4895.000000;0.011021
4894.000000;0.000104
4893.000000;-0.009622
4892.000000;-0.017651
4891.000000;-0.026235
4890.000000;-0.034683
4889.000000;-0.039075
4888.000000;-0.038404
4887.000000;-0.036505
4886.000000;-0.036999
4885.000000;-0.039924
4884.000000;-0.044174
4883.000000;-0.049181
4882.000000;-0.053487
4881.000000;-0.055846
4880.000000;-0.058440
4879.000000;-0.064980
4878.000000;-0.074360
4877.000000;-0.080538
4876.000000;-0.080655
4875.000000;-0.079358
4874.000000;-0.082559
4873.000000;-0.089420
4872.000000;-0.094273
4871.000000;-0.094363
4870.000000;-0.092090
4869.000000;-0.090447
4868.000000;-0.089332
4867.000000;-0.087504
4866.000000;-0.085542
4865.000000;-0.085351
4864.000000;-0.087817
4863.000000;-0.091604
4862.000000;-0.094416
4861.000000;-0.095219
4860.000000;-0.095046
4859.000000;-0.095723
4858.000000;-0.097743
4857.000000;-0.099556
4856.000000;-0.099115
4855.000000;-0.095737
4854.000000;-0.090529
4853.000000;-0.085626
4852.000000;-0.082411
4851.000000;-0.079939
4850.000000;-0.075860
4849.000000;-0.069301
4848.000000;-0.062588
4847.000000;-0.059093
4846.000000;-0.059027
4845.000000;-0.058894
4844.000000;-0.055724
4843.000000;-0.050564
4842.000000;-0.046993
4841.000000;-0.046800
4840.000000;-0.048080
4839.000000;-0.047362
4838.000000;-0.042873
4837.000000;-0.035969
4836.000000;-0.030149
4835.000000;-0.028205
4834.000000;-0.029380
4833.000000;-0.029847
4832.000000;-0.026750
4831.000000;-0.021431
4830.000000;-0.018001
4829.000000;-0.018519
4828.000000;-0.020462
4827.000000;-0.019720
4826.000000;-0.015202
4825.000000;-0.009578
4824.000000;-0.005883
4823.000000;-0.004329
4822.000000;-0.002799
4821.000000;0.000488
4820.000000;0.005657
4819.000000;0.011616
4818.000000;0.016934
4817.000000;0.020663
4816.000000;0.022971
4815.000000;0.024907
4814.000000;0.027092
4813.000000;0.029138
4812.000000;0.030904
4811.000000;0.033462
4810.000000;0.037852
4809.000000;0.043325
4808.000000;0.048102
4807.000000;0.051782
4806.000000;0.055642
4805.000000;0.060302
4804.000000;0.064535
4803.000000;0.067034
4802.000000;0.068126
4801.000000;0.069140
4800.000000;0.071021
4799.000000;0.073989
4798.000000;0.077728
4797.000000;0.081369
4796.000000;0.084013
4795.000000;0.085857
4794.000000;0.088188
4793.000000;0.091802
4792.000000;0.096062
4791.000000;0.099838
4790.000000;0.102640
4789.000000;0.104488
4788.000000;0.105531
4787.000000;0.106198
4786.000000;0.107119
4785.000000;0.108512
4784.000000;0.110110
4783.000000;0.111787
4782.000000;0.113620
4781.000000;0.115397
4780.000000;0.116915
4779.000000;0.118702
4778.000000;0.121429
4777.000000;0.124637
4776.000000;0.127230
4775.000000;0.129310
4774.000000;0.132104
4773.000000;0.135871
4772.000000;0.139333
4771.000000;0.141726
4770.000000;0.143966
4769.000000;0.146983
4768.000000;0.150259
4767.000000;0.152790
4766.000000;0.154330
4765.000000;0.154997
4764.000000;0.154865
4763.000000;0.154749
4762.000000;0.156087
4761.000000;0.159114
4760.000000;0.162225
4759.000000;0.164015
4758.000000;0.164929
4757.000000;0.166003
4756.000000;0.167336
4755.000000;0.168892
4754.000000;0.171444
4753.000000;0.175305
4752.000000;0.179080
4751.000000;0.181196
4750.000000;0.182019
4749.000000;0.182991
4748.000000;0.184356
4747.000000;0.185173
4746.000000;0.185121
4745.000000;0.184912
4744.000000;0.185087
4743.000000;0.185635
4742.000000;0.186642
4741.000000;0.188297
4740.000000;0.190350
4739.000000;0.192349
4738.000000;0.194349
4737.000000;0.196775
4736.000000;0.199739
4735.000000;0.203004
4734.000000;0.206228
4733.000000;0.208827
4732.000000;0.210201
4731.000000;0.210597
4730.000000;0.211067
4729.000000;0.212059
4728.000000;0.212917
4727.000000;0.213285
4726.000000;0.213889
4725.000000;0.215163
4724.000000;0.216285
4723.000000;0.216686
4722.000000;0.217436
4721.000000;0.219698
4720.000000;0.222624
4719.000000;0.224343
4718.000000;0.224672
4717.000000;0.225297
4716.000000;0.227329
4715.000000;0.230064
4714.000000;0.232168
4713.000000;0.233016
4712.000000;0.232873
4711.000000;0.232647
4710.000000;0.233370
4709.000000;0.235148
4708.000000;0.236847
4707.000000;0.237569
4706.000000;0.237929
4705.000000;0.239000
4704.000000;0.240659
4703.000000;0.242110
4702.000000;0.243456
4701.000000;0.245396
4700.000000;0.247638
4699.000000;0.249062
4698.000000;0.249473
4697.000000;0.249882
4696.000000;0.250935
4695.000000;0.252259
4694.000000;0.253451
4693.000000;0.254593
4692.000000;0.255661
4691.000000;0.256464
4690.000000;0.257368
4689.000000;0.259032
4688.000000;0.261209
4687.000000;0.262776
4686.000000;0.263203
4685.000000;0.263188
4684.000000;0.263604
4683.000000;0.264609
4682.000000;0.265940
4681.000000;0.267236
4680.000000;0.267869
4679.000000;0.267369
4678.000000;0.266328
4677.000000;0.266104
4676.000000;0.267246
4675.000000;0.268835
4674.000000;0.269764
4673.000000;0.270074
4672.000000;0.270587
4671.000000;0.271763
4670.000000;0.273389
4669.000000;0.275045
4668.000000;0.276369
4667.000000;0.277047
4666.000000;0.276966
4665.000000;0.276481
4664.000000;0.276378
4663.000000;0.277341
4662.000000;0.279258
4661.000000;0.281073
4660.000000;0.281746
4659.000000;0.281500
4658.000000;0.281650
4657.000000;0.282995
4656.000000;0.284883
4655.000000;0.286209
4654.000000;0.286791
4653.000000;0.287232
4652.000000;0.287894
4651.000000;0.288680
4650.000000;0.289468
4649.000000;0.290120
4648.000000;0.290348
4647.000000;0.290211
4646.000000;0.290418
4645.000000;0.291499
4644.000000;0.292973
4643.000000;0.293971
4642.000000;0.294430
4641.000000;0.294963
4640.000000;0.295830
4639.000000;0.296809
4638.000000;0.297838
4637.000000;0.298963
4636.000000;0.299759
4635.000000;0.299622
4634.000000;0.298689
4633.000000;0.297828
4632.000000;0.297704
4631.000000;0.298311
4630.000000;0.299301
4629.000000;0.300264
4628.000000;0.300834
4627.000000;0.301073
4626.000000;0.301549
4625.000000;0.302561
4624.000000;0.303592
4623.000000;0.304092
4622.000000;0.304454
4621.000000;0.305458
4620.000000;0.307049
4619.000000;0.308441
4618.000000;0.309211
4617.000000;0.309537
4616.000000;0.309567
4615.000000;0.309389
4614.000000;0.309404
4613.000000;0.309913
4612.000000;0.310521
4611.000000;0.310718
4610.000000;0.310857
4609.000000;0.311615
4608.000000;0.312702
4607.000000;0.313136
4606.000000;0.312806
4605.000000;0.312714
4604.000000;0.313496
4603.000000;0.314654
4602.000000;0.315446
4601.000000;0.315686
4600.000000;0.315466
4599.000000;0.314878
4598.000000;0.314273
4597.000000;0.314091
4596.000000;0.314224
4595.000000;0.314149
4594.000000;0.313811
4593.000000;0.313747
4592.000000;0.314241
4591.000000;0.315010
4590.000000;0.315799
4589.000000;0.316582
4588.000000;0.317170
4587.000000;0.317359
4586.000000;0.317551
4585.000000;0.318402
4584.000000;0.319718
4583.000000;0.320528
4582.000000;0.320494
4581.000000;0.320439
4580.000000;0.321146
4579.000000;0.322378
4578.000000;0.323406
4577.000000;0.323878
4576.000000;0.323844
4575.000000;0.323529
4574.000000;0.323402
4573.000000;0.323900
4572.000000;0.324795
4571.000000;0.325339
4570.000000;0.325268
4569.000000;0.325126
4568.000000;0.325403
4567.000000;0.325937
4566.000000;0.326427
4565.000000;0.326924
4564.000000;0.327500
4563.000000;0.327985
4562.000000;0.328304
4561.000000;0.328644
4560.000000;0.329061
4559.000000;0.329367
4558.000000;0.329554
4557.000000;0.329832
4556.000000;0.330146
4555.000000;0.330183
4554.000000;0.330001
4553.000000;0.330042
4552.000000;0.330398
4551.000000;0.330698
4550.000000;0.330864
4549.000000;0.331313
4548.000000;0.332152
4547.000000;0.332841
4546.000000;0.332980
4545.000000;0.332821
4544.000000;0.332691
4543.000000;0.332495
4542.000000;0.332146
4541.000000;0.331879
4540.000000;0.331771
4539.000000;0.331497
4538.000000;0.330917
4537.000000;0.330384
4536.000000;0.330139
4535.000000;0.329914
4534.000000;0.329469
4533.000000;0.329027
4532.000000;0.328879
4531.000000;0.329086
4530.000000;0.329803
4529.000000;0.331225
4528.000000;0.332849
4527.000000;0.333514
4526.000000;0.332764
4525.000000;0.331619
4524.000000;0.331397
4523.000000;0.332270
4522.000000;0.333495
4521.000000;0.334522
4520.000000;0.335177
4519.000000;0.335213
4518.000000;0.334534
4517.000000;0.333761
4516.000000;0.333813
4515.000000;0.334809
4514.000000;0.335874
4513.000000;0.336097
4512.000000;0.335368
4511.000000;0.334337
4510.000000;0.333835
4509.000000;0.334261
4508.000000;0.335211
4507.000000;0.335748
4506.000000;0.335356
4505.000000;0.334551
4504.000000;0.334256
4503.000000;0.334676
4502.000000;0.335126
4501.000000;0.334973
4500.000000;0.334418
4499.000000;0.334219
4498.000000;0.334792
4497.000000;0.335748
4496.000000;0.336346
4495.000000;0.336330
4494.000000;0.336223
4493.000000;0.336710
4492.000000;0.337826
4491.000000;0.338919
4490.000000;0.339381
4489.000000;0.339236
4488.000000;0.338985
4487.000000;0.339092
4486.000000;0.339628
4485.000000;0.340265
4484.000000;0.340575
4483.000000;0.340435
4482.000000;0.340097
4481.000000;0.339770
4480.000000;0.339331
4479.000000;0.338647
4478.000000;0.337999
4477.000000;0.337837
4476.000000;0.338217
4475.000000;0.338803
4474.000000;0.339371
4473.000000;0.339983
4472.000000;0.340737
4471.000000;0.341631
4470.000000;0.342627
4469.000000;0.343540
4468.000000;0.343978
4467.000000;0.343723
4466.000000;0.343073
4465.000000;0.342408
4464.000000;0.341590
4463.000000;0.340236
4462.000000;0.338533
4461.000000;0.337186
4460.000000;0.336463
4459.000000;0.335839
4458.000000;0.334815
4457.000000;0.333647
4456.000000;0.332968
4455.000000;0.332975
4454.000000;0.333252
4453.000000;0.333367
4452.000000;0.333455
4451.000000;0.334102
4450.000000;0.335600
4449.000000;0.337381
4448.000000;0.338462
4447.000000;0.338547
4446.000000;0.338371
4445.000000;0.338740
4444.000000;0.339585
4443.000000;0.340250
4442.000000;0.340355
4441.000000;0.340022
4440.000000;0.339560
4439.000000;0.339335
4438.000000;0.339609
4437.000000;0.340068
4436.000000;0.339876
4435.000000;0.338716
4434.000000;0.337432
4433.000000;0.337003
4432.000000;0.337215
4431.000000;0.337003
4430.000000;0.335904
4429.000000;0.334486
4428.000000;0.333417
4427.000000;0.332834
4426.000000;0.332611
4425.000000;0.332635
4424.000000;0.332746
4423.000000;0.332842
4422.000000;0.333072
4421.000000;0.333563
4420.000000;0.334069
4419.000000;0.334332
4418.000000;0.334669
4417.000000;0.335657
4416.000000;0.337250
4415.000000;0.338563
4414.000000;0.338583
4413.000000;0.337043
4412.000000;0.334846
4411.000000;0.333664
4410.000000;0.334505
4409.000000;0.336295
4408.000000;0.336620
4407.000000;0.334531
4406.000000;0.331850
4405.000000;0.330989
4404.000000;0.332358
4403.000000;0.334634
4402.000000;0.336675
4401.000000;0.338087
4400.000000;0.338563
4399.000000;0.338063
4398.000000;0.337363
4397.000000;0.337252
4396.000000;0.337351
4395.000000;0.336715
4394.000000;0.335235
4393.000000;0.333378
4392.000000;0.331158
4391.000000;0.328570
4390.000000;0.326391
4389.000000;0.325145
4388.000000;0.323907
4387.000000;0.321669
4386.000000;0.319368
4385.000000;0.318931
4384.000000;0.320573
4383.000000;0.322611
4382.000000;0.323749
4381.000000;0.323873
4380.000000;0.322808
4379.000000;0.320378
4378.000000;0.317823
4377.000000;0.316933
4376.000000;0.317270
4375.000000;0.316182
4374.000000;0.312397
4373.000000;0.307868
4372.000000;0.305211
4371.000000;0.305029
4370.000000;0.306315
4369.000000;0.307805
4368.000000;0.308222
4367.000000;0.306920
4366.000000;0.305404
4365.000000;0.306638
4364.000000;0.311549
4363.000000;0.317253
4362.000000;0.319928
4361.000000;0.318943
4360.000000;0.316909
4359.000000;0.316443
4358.000000;0.317932
4357.000000;0.319474
4356.000000;0.318282
4355.000000;0.313153
4354.000000;0.306207
4353.000000;0.301120
4352.000000;0.299080
4351.000000;0.297728
4350.000000;0.294590
4349.000000;0.289987
4348.000000;0.285485
4347.000000;0.281261
4346.000000;0.276885
4345.000000;0.273446
4344.000000;0.272730
4343.000000;0.274518
4342.000000;0.276293
4341.000000;0.276022
4340.000000;0.274162
4339.000000;0.272703
4338.000000;0.273190
4337.000000;0.275566
4336.000000;0.277941
4335.000000;0.277754
4334.000000;0.274444
4333.000000;0.270818
4332.000000;0.270480
4331.000000;0.273793
4330.000000;0.277216
4329.000000;0.276846
4328.000000;0.272606
4327.000000;0.268100
4326.000000;0.266706
4325.000000;0.268793
4324.000000;0.271648
4323.000000;0.271588
4322.000000;0.267083
4321.000000;0.260677
4320.000000;0.257344
4319.000000;0.259855
4318.000000;0.265509
4317.000000;0.268167
4316.000000;0.264439
4315.000000;0.256908
4314.000000;0.250362
4313.000000;0.246781
4312.000000;0.245318
4311.000000;0.244945
4310.000000;0.244416
4309.000000;0.241550
4308.000000;0.235583
4307.000000;0.229465
4306.000000;0.227233
4305.000000;0.229014
4304.000000;0.230901
4303.000000;0.230163
4302.000000;0.228202
4301.000000;0.227418
4300.000000;0.227796
4299.000000;0.227876
4298.000000;0.226691
4297.000000;0.223564
4296.000000;0.218767
4295.000000;0.215391
4294.000000;0.217571
4293.000000;0.224476
4292.000000;0.228849
4291.000000;0.225711
4290.000000;0.219571
4289.000000;0.218445
4288.000000;0.224431
4287.000000;0.232764
4286.000000;0.237714
4285.000000;0.237704
4284.000000;0.235276
4283.000000;0.234407
4282.000000;0.237871
4281.000000;0.244637
4280.000000;0.250652
4279.000000;0.253379
4278.000000;0.253734
4277.000000;0.253322
4276.000000;0.252979
4275.000000;0.254796
4274.000000;0.260941
4273.000000;0.269180
4272.000000;0.274749
4271.000000;0.278429
4270.000000;0.285863
4269.000000;0.296442
4268.000000;0.301222
4267.000000;0.297082
4266.000000;0.294136
4265.000000;0.301371
4264.000000;0.314129
4263.000000;0.321719
4262.000000;0.321982
4261.000000;0.320201
4260.000000;0.317275
4259.000000;0.311198
4258.000000;0.306838
4257.000000;0.311848
4256.000000;0.325696
4255.000000;0.340800
4254.000000;0.352939
4253.000000;0.363822
4252.000000;0.374567
4251.000000;0.385088
4250.000000;0.398822
4249.000000;0.419089
4248.000000;0.442530
4247.000000;0.463653
4246.000000;0.483625
4245.000000;0.504153
4244.000000;0.519858
4243.000000;0.525860
4242.000000;0.531836
4241.000000;0.549954
4240.000000;0.573235
4239.000000;0.586683
4238.000000;0.591851
4237.000000;0.599718
4236.000000;0.604119
4235.000000;0.592804
4234.000000;0.575408
4233.000000;0.570208
4232.000000;0.576787
4231.000000;0.578000
4230.000000;0.566836
4229.000000;0.559718
4228.000000;0.566639
4227.000000;0.575553
4226.000000;0.579290
4225.000000;0.582820
4224.000000;0.593506
4223.000000;0.613730
4222.000000;0.635256
4221.000000;0.660213
4220.000000;0.698063
4219.000000;0.737402
4218.000000;0.762287
4217.000000;0.783593
4216.000000;0.817696
4215.000000;0.852710
4214.000000;0.862412
4213.000000;0.851479
4212.000000;0.856921
4211.000000;0.898749
4210.000000;0.947259
4209.000000;0.950654
4208.000000;0.910231
4207.000000;0.878773
4206.000000;0.885348
4205.000000;0.921486
4204.000000;0.956735
4203.000000;0.952130
4202.000000;0.905873
4201.000000;0.859996
4200.000000;0.848771
4199.000000;0.872139
4198.000000;0.897378
4197.000000;0.893154
4196.000000;0.869372
4195.000000;0.862354
4194.000000;0.899374
4193.000000;0.975873
4192.000000;1.052935
4191.000000;1.090234
4190.000000;1.088344
4189.000000;1.076461
4188.000000;1.079794
4187.000000;1.107495
4186.000000;1.145700
4185.000000;1.164208
4184.000000;1.148588
4183.000000;1.087124
4182.000000;1.004690
4181.000000;0.948874
4180.000000;0.925363
4179.000000;0.925843
4178.000000;0.945003
4177.000000;0.963680
4176.000000;0.970505
4175.000000;0.983345
4174.000000;1.028825
4173.000000;1.106771
4172.000000;1.164859
4171.000000;1.165088
4170.000000;1.167325
4169.000000;1.236863
4168.000000;1.382196
4167.000000;1.533165
4166.000000;1.491963
4165.000000;1.381493
4164.000000;1.357005
4163.000000;1.349614
4162.000000;1.326312
4161.000000;1.340194
4160.000000;1.344977
4159.000000;1.295302
4158.000000;1.236638
4157.000000;1.197186
4156.000000;1.180948
4155.000000;1.170323
4154.000000;1.159879
4153.000000;1.176923
4152.000000;1.216015
4151.000000;1.222340
4150.000000;1.183940
4149.000000;1.155001
4148.000000;1.167505
4147.000000;1.199915
4146.000000;1.210332
4145.000000;1.199115
4144.000000;1.192936
4143.000000;1.192333
4142.000000;1.185251
4141.000000;1.172633
4140.000000;1.159606
4139.000000;1.164967
4138.000000;1.225826
4137.000000;1.365256
4136.000000;1.538055
4135.000000;1.603550
4134.000000;1.545382
4133.000000;1.508891
4132.000000;1.592756
4131.000000;1.725635
4130.000000;1.672691
4129.000000;1.596656
4128.000000;1.534133
4127.000000;1.399987
4126.000000;1.297451
4125.000000;1.265968
4124.000000;1.273448
4123.000000;1.302565
4122.000000;1.334877
4121.000000;1.370544
4120.000000;1.450530
4119.000000;1.550334
4118.000000;1.581269
4117.000000;1.545158
4116.000000;1.513389
4115.000000;1.508548
4114.000000;1.511707
4113.000000;1.521599
4112.000000;1.577725
4111.000000;1.737424
4110.000000;1.847995
4109.000000;1.733636
4108.000000;1.679218
4107.000000;1.629584
4106.000000;1.522327
4105.000000;1.423592
4104.000000;1.393457
4103.000000;1.399738
4102.000000;1.368682
4101.000000;1.291700
4100.000000;1.239379
4099.000000;1.241593
4098.000000;1.254151
4097.000000;1.218752
4096.000000;1.156895
4095.000000;1.132763
4094.000000;1.175004
4093.000000;1.264474
4092.000000;1.335081
4091.000000;1.347657
4090.000000;1.343738
4089.000000;1.376529
4088.000000;1.463493
4087.000000;1.572871
4086.000000;1.648931
4085.000000;1.688720
4084.000000;1.729790
4083.000000;1.946887
4082.000000;2.161821
4081.000000;1.761882
4080.000000;1.686320
4079.000000;1.811433
4078.000000;2.051675
4077.000000;1.970753
4076.000000;1.678509
4075.000000;1.632725
4074.000000;1.787242
4073.000000;1.996539
4072.000000;1.953305
4071.000000;1.743547
4070.000000;1.593310
4069.000000;1.601603
4068.000000;1.843970
4067.000000;2.302087
4066.000000;2.032776
4065.000000;1.659547
4064.000000;1.481566
4063.000000;1.429546
4062.000000;1.463635
4061.000000;1.526172
4060.000000;1.604530
4059.000000;1.663348
4058.000000;1.549186
4057.000000;1.404466
4056.000000;1.344656
4055.000000;1.365126
4054.000000;1.445027
4053.000000;1.571810
4052.000000;1.677186
4051.000000;1.638686
4050.000000;1.508390
4049.000000;1.419861
4048.000000;1.433471
4047.000000;1.501162
4046.000000;1.518764
4045.000000;1.504428
4044.000000;1.550528
4043.000000;1.643557
4042.000000;1.685202
4041.000000;1.743148
4040.000000;1.835548
4039.000000;1.666525
4038.000000;1.505466
4037.000000;1.466556
4036.000000;1.461937
4035.000000;1.454082
4034.000000;1.457832
4033.000000;1.475419
4032.000000;1.500760
4031.000000;1.545571
4030.000000;1.639335
4029.000000;1.994324
4028.000000;2.611438
4027.000000;1.958098
4026.000000;1.900501
4025.000000;2.037219
4024.000000;2.137128
4023.000000;2.220059
4022.000000;2.266202
4021.000000;2.118738
4020.000000;2.531917
4019.000000;2.015445
4018.000000;1.540852
4017.000000;1.383223
4016.000000;1.341689
4015.000000;1.363484
4014.000000;1.387787
4013.000000;1.405216
4012.000000;1.437092
4011.000000;1.501164
4010.000000;1.595541
4009.000000;1.656515
4008.000000;1.620331
4007.000000;1.668486
4006.000000;1.992596
4005.000000;2.252376
4004.000000;2.319024
4003.000000;2.072719
4002.000000;1.695117
4001.000000;1.686731
4000.000000;1.749164
3999.000000;1.731424
3998.000000;1.695992
3997.000000;1.682344
3996.000000;1.683023
3995.000000;1.672013
3994.000000;1.632186
3993.000000;1.519429
3992.000000;1.392987
3991.000000;1.337920
3990.000000;1.345056
3989.000000;1.336189
3988.000000;1.287428
3987.000000;1.268639
3986.000000;1.311216
3985.000000;1.370106
3984.000000;1.381675
3983.000000;1.372602
3982.000000;1.425204
3981.000000;1.585359
3980.000000;1.793892
3979.000000;1.878142
3978.000000;2.011035
3977.000000;2.264128
3976.000000;2.026967
3975.000000;1.662694
3974.000000;1.455902
3973.000000;1.401220
3972.000000;1.421716
3971.000000;1.435142
3970.000000;1.433612
3969.000000;1.444213
3968.000000;1.499612
3967.000000;1.596803
3966.000000;1.725337
3965.000000;1.937835
3964.000000;1.912831
3963.000000;1.669657
3962.000000;1.566974
3961.000000;1.593613
3960.000000;1.725435
3959.000000;1.880182
3958.000000;1.898796
3957.000000;1.837366
3956.000000;1.893753
3955.000000;1.995964
3954.000000;1.832148
3953.000000;1.699486
3952.000000;1.716168
3951.000000;1.896106
3950.000000;2.139465
3949.000000;2.334429
3948.000000;2.294272
3947.000000;1.958046
3946.000000;1.884435
3945.000000;1.886358
3944.000000;1.780603
3943.000000;1.691621
3942.000000;1.702799
3941.000000;1.765960
3940.000000;1.903752
3939.000000;1.768498
3938.000000;1.569772
3937.000000;1.568796
3936.000000;1.630123
3935.000000;1.662045
3934.000000;1.670319
3933.000000;1.635065
3932.000000;1.574887
3931.000000;1.544395
3930.000000;1.624739
3929.000000;1.854010
3928.000000;2.028937
3927.000000;2.036906
3926.000000;2.082665
3925.000000;1.979845
3924.000000;1.747772
3923.000000;1.618774
3922.000000;1.641827
3921.000000;1.683781
3920.000000;1.575766
3919.000000;1.459670
3918.000000;1.438408
3917.000000;1.538664
3916.000000;1.812764
3915.000000;2.059419
3914.000000;1.914504
3913.000000;1.908371
3912.000000;2.231031
3911.000000;1.957693
3910.000000;1.553345
3909.000000;1.396540
3908.000000;1.386261
3907.000000;1.479228
3906.000000;1.539812
3905.000000;1.470635
3904.000000;1.353791
3903.000000;1.328358
3902.000000;1.409264
3901.000000;1.453002
3900.000000;1.542520
3899.000000;1.955065
3898.000000;2.003998
3897.000000;1.967852
3896.000000;2.472242
3895.000000;1.673797
3894.000000;1.589378
3893.000000;1.602431
3892.000000;1.357728
3891.000000;1.222124
3890.000000;1.260236
3889.000000;1.480944
3888.000000;1.874002
3887.000000;2.341501
3886.000000;2.151986
3885.000000;1.753705
3884.000000;1.563093
3883.000000;1.665884
3882.000000;2.041607
3881.000000;1.886133
3880.000000;1.622008
3879.000000;1.467795
3878.000000;1.379118
3877.000000;1.350343
3876.000000;1.323668
3875.000000;1.283847
3874.000000;1.223585
3873.000000;1.169819
3872.000000;1.155613
3871.000000;1.208541
3870.000000;1.317937
3869.000000;1.456203
3868.000000;1.621283
3867.000000;1.854865
3866.000000;2.036508
3865.000000;1.815402
3864.000000;1.639067
3863.000000;1.563572
3862.000000;1.506167
3861.000000;1.468868
3860.000000;1.488438
3859.000000;1.572285
3858.000000;1.761325
3857.000000;1.969918
3856.000000;2.170355
3855.000000;2.411086
3854.000000;2.125199
3853.000000;2.149928
3852.000000;2.096569
3851.000000;1.835892
3850.000000;1.959422
3849.000000;1.966947
3848.000000;1.764153
3847.000000;1.604031
3846.000000;1.533452
3845.000000;1.642002
3844.000000;1.608138
3843.000000;1.593019
3842.000000;1.763570
3841.000000;1.861202
3840.000000;1.922870
3839.000000;1.763298
3838.000000;1.305106
3837.000000;1.212111
3836.000000;1.526862
3835.000000;2.217969
3834.000000;2.231529
3833.000000;1.984027
3832.000000;1.943904
3831.000000;1.838911
3830.000000;1.699556
3829.000000;1.674948
3828.000000;1.516430
3827.000000;1.279221
3826.000000;1.171380
3825.000000;1.255100
3824.000000;1.659742
3823.000000;1.768793
3822.000000;1.527599
3821.000000;1.641929
3820.000000;1.888474
3819.000000;2.163374
3818.000000;2.383862
3817.000000;1.980133
3816.000000;1.913788
3815.000000;2.263313
3814.000000;1.951380
3813.000000;1.903477
3812.000000;1.908083
3811.000000;1.472681
3810.000000;1.451330
3809.000000;1.672147
3808.000000;1.707004
3807.000000;1.652822
3806.000000;1.543564
3805.000000;1.468369
3804.000000;1.425948
3803.000000;1.366740
3802.000000;1.315786
3801.000000;1.340939
3800.000000;1.497458
3799.000000;1.845538
3798.000000;2.242312
3797.000000;1.926988
3796.000000;1.728850
3795.000000;1.729832
3794.000000;1.717673
3793.000000;1.592856
3792.000000;1.501261
3791.000000;1.549094
3790.000000;1.796687
3789.000000;2.123969
3788.000000;1.931906
3787.000000;1.689958
3786.000000;1.567036
3785.000000;1.477441
3784.000000;1.415622
3783.000000;1.526266
3782.000000;1.666048
3781.000000;1.535983
3780.000000;1.448525
3779.000000;1.466984
3778.000000;1.581228
3777.000000;1.674074
3776.000000;1.565068
3775.000000;1.475011
3774.000000;1.432560
3773.000000;1.450354
3772.000000;1.523944
3771.000000;1.505015
3770.000000;1.464238
3769.000000;1.438135
3768.000000;1.514391
3767.000000;1.697960
3766.000000;2.057829
3765.000000;2.378265
3764.000000;1.795498
3763.000000;1.827602
3762.000000;1.664221
3761.000000;1.383583
3760.000000;1.374920
3759.000000;1.497292
3758.000000;1.570614
3757.000000;1.512663
3756.000000;1.483562
3755.000000;1.422969
3754.000000;1.337363
3753.000000;1.297528
3752.000000;1.292003
3751.000000;1.317573
3750.000000;1.380722
3749.000000;1.414884
3748.000000;1.412495
3747.000000;1.470756
3746.000000;1.595718
3745.000000;1.702681
3744.000000;1.741810
3743.000000;1.766949
3742.000000;1.824684
3741.000000;1.791367
3740.000000;1.634320
3739.000000;1.510373
3738.000000;1.404864
3737.000000;1.291503
3736.000000;1.171152
3735.000000;1.093574
3734.000000;1.118159
3733.000000;1.234248
3732.000000;1.398031
3731.000000;1.589209
3730.000000;1.771168
3729.000000;1.922898
3728.000000;2.151190
3727.000000;2.538196
3726.000000;2.746000
3725.000000;2.174749
3724.000000;1.798956
3723.000000;1.848476
3722.000000;2.277871
3721.000000;1.993542
3720.000000;1.733475
3719.000000;1.655560
3718.000000;1.522209
3717.000000;1.427571
3716.000000;1.396606
3715.000000;1.333515
3714.000000;1.213444
3713.000000;1.158771
3712.000000;1.191631
3711.000000;1.250411
3710.000000;1.345664
3709.000000;1.483525
3708.000000;1.585761
3707.000000;1.542815
3706.000000;1.392983
3705.000000;1.347404
3704.000000;1.538437
3703.000000;1.945017
3702.000000;2.007101
3701.000000;1.797164
3700.000000;1.725554
3699.000000;1.719656
3698.000000;1.750924
3697.000000;1.896964
3696.000000;1.900782
3695.000000;1.777313
3694.000000;1.623635
3693.000000;1.439621
3692.000000;1.313677
3691.000000;1.246534
3690.000000;1.250328
3689.000000;1.331984
3688.000000;1.466942
3687.000000;1.510089
3686.000000;1.465635
3685.000000;1.470951
3684.000000;1.570165
3683.000000;1.526412
3682.000000;1.282694
3681.000000;1.146624
3680.000000;1.125233
3679.000000;1.157426
3678.000000;1.171342
3677.000000;1.140163
3676.000000;1.131977
3675.000000;1.187024
3674.000000;1.304813
3673.000000;1.549091
3672.000000;1.904885
3671.000000;2.055691
3670.000000;1.893525
3669.000000;1.674590
3668.000000;1.616177
3667.000000;1.796731
3666.000000;2.300726
3665.000000;2.185038
3664.000000;1.872793
3663.000000;1.612782
3662.000000;1.377254
3661.000000;1.272504
3660.000000;1.313846
3659.000000;1.403208
3658.000000;1.484571
3657.000000;1.517607
3656.000000;1.295212
3655.000000;1.144670
3654.000000;1.143384
3653.000000;1.246071
3652.000000;1.382581
3651.000000;1.443207
3650.000000;1.454963
3649.000000;1.437768
3648.000000;1.480198
3647.000000;1.564828
3646.000000;1.586618
3645.000000;1.583484
3644.000000;1.667131
3643.000000;1.908735
3642.000000;2.189490
3641.000000;1.940526
3640.000000;1.693618
3639.000000;1.598921
3638.000000;1.462799
3637.000000;1.355670
3636.000000;1.345192
3635.000000;1.402184
3634.000000;1.399587
3633.000000;1.345032
3632.000000;1.393688
3631.000000;1.711976
3630.000000;2.535545
3629.000000;1.998628
3628.000000;1.663765
3627.000000;1.476073
3626.000000;1.324422
3625.000000;1.216319
3624.000000;1.161217
3623.000000;1.169361
3622.000000;1.226733
3621.000000;1.306232
3620.000000;1.396685
3619.000000;1.545953
3618.000000;1.679208
3617.000000;1.648012
3616.000000;1.535667
3615.000000;1.394227
3614.000000;1.305850
3613.000000;1.336017
3612.000000;1.433003
3611.000000;1.498618
3610.000000;1.512198
3609.000000;1.549345
3608.000000;1.653503
3607.000000;1.649671
3606.000000;1.551081
3605.000000;1.571928
3604.000000;1.698362
3603.000000;1.812741
3602.000000;1.878364
3601.000000;2.143373
3600.000000;2.582342
3599.000000;2.093807
3598.000000;1.833734
3597.000000;1.720498
3596.000000;1.660405
3595.000000;1.566322
3594.000000;1.492395
3593.000000;1.484216
3592.000000;1.482604
3591.000000;1.534861
3590.000000;1.637267
3589.000000;1.863909
3588.000000;2.089573
3587.000000;2.085053
3586.000000;2.467303
3585.000000;2.905097
3584.000000;2.462572
3583.000000;2.010026
3582.000000;1.739803
3581.000000;1.661286
3580.000000;1.667375
3579.000000;1.748881
3578.000000;1.857275
3577.000000;1.836998
3576.000000;1.880738
3575.000000;1.920131
3574.000000;1.727836
3573.000000;1.652577
3572.000000;1.747331
3571.000000;1.957062
3570.000000;2.200085
3569.000000;2.378497
3568.000000;2.384460
3567.000000;2.028735
3566.000000;1.693949
3565.000000;1.530017
3564.000000;1.533675
3563.000000;1.713633
3562.000000;2.105580
3561.000000;2.513702
3560.000000;2.287412
3559.000000;2.168846
3558.000000;1.965446
3557.000000;1.632828
3556.000000;1.423918
3555.000000;1.300812
3554.000000;1.241290
3553.000000;1.276354
3552.000000;1.421396
3551.000000;1.601248
3550.000000;1.635738
3549.000000;1.592513
3548.000000;1.586913
3547.000000;1.780093
3546.000000;2.335927
3545.000000;2.062970
3544.000000;2.135345
3543.000000;2.086049
3542.000000;1.649385
3541.000000;1.613326
3540.000000;1.817282
3539.000000;2.230388
3538.000000;1.959576
3537.000000;1.608048
3536.000000;1.414969
3535.000000;1.357572
3534.000000;1.442520
3533.000000;1.526796
3532.000000;1.496667
3531.000000;1.499584
3530.000000;1.559527
3529.000000;1.700358
3528.000000;1.951099
3527.000000;1.721955
3526.000000;1.573040
3525.000000;1.843893
3524.000000;2.178960
3523.000000;1.836139
3522.000000;1.800631
3521.000000;1.684643
3520.000000;1.681980
3519.000000;1.664450
3518.000000;1.526514
3517.000000;1.501426
3516.000000;1.491051
3515.000000;1.534212
3514.000000;1.721179
3513.000000;1.954693
3512.000000;1.916881
3511.000000;1.743539
3510.000000;1.670979
3509.000000;1.725477
3508.000000;1.820724
3507.000000;1.875419
3506.000000;1.831186
3505.000000;1.933674
3504.000000;2.361447
3503.000000;1.800867
3502.000000;1.565073
3501.000000;1.602586
3500.000000;1.632202
3499.000000;1.542359
3498.000000;1.350850
3497.000000;1.203780
3496.000000;1.148141
3495.000000;1.198979
3494.000000;1.340277
3493.000000;1.500083
3492.000000;1.614331
3491.000000;1.704966
3490.000000;1.926985
3489.000000;1.864141
3488.000000;1.526266
3487.000000;1.430018
3486.000000;1.480524
3485.000000;1.595881
3484.000000;1.643006
3483.000000;1.572052
3482.000000;1.507624
3481.000000;1.521603
3480.000000;1.606139
3479.000000;1.690373
3478.000000;1.709336
3477.000000;1.684708
3476.000000;1.661870
3475.000000;1.656870
3474.000000;1.684477
3473.000000;1.832679
3472.000000;2.313547
3471.000000;2.361928
3470.000000;1.915936
3469.000000;1.666950
3468.000000;1.581164
3467.000000;1.726582
3466.000000;1.821475
3465.000000;1.542890
3464.000000;1.430888
3463.000000;1.469499
3462.000000;1.730202
3461.000000;2.319547
3460.000000;2.087771
3459.000000;2.359982
3458.000000;2.555237
3457.000000;2.116842
3456.000000;1.952873
3455.000000;1.714769
3454.000000;1.810918
3453.000000;1.726041
3452.000000;1.631306
3451.000000;1.629554
3450.000000;1.465897
3449.000000;1.394485
3448.000000;1.448434
3447.000000;1.478364
3446.000000;1.560156
3445.000000;2.012411
3444.000000;1.831139
3443.000000;1.666545
3442.000000;1.620153
3441.000000;1.346558
3440.000000;1.248307
3439.000000;1.232003
3438.000000;1.219285
3437.000000;1.255719
3436.000000;1.319526
3435.000000;1.386759
3434.000000;1.557011
3433.000000;2.042642
3432.000000;1.919382
3431.000000;1.595957
3430.000000;1.631684
3429.000000;1.596706
3428.000000;1.483744
3427.000000;1.502671
3426.000000;1.676949
3425.000000;1.749225
3424.000000;1.760765
3423.000000;2.018587
3422.000000;1.922775
3421.000000;1.604840
3420.000000;1.559764
3419.000000;1.725579
3418.000000;1.874885
3417.000000;1.754122
3416.000000;1.735184
3415.000000;2.106599
3414.000000;1.947316
3413.000000;1.670733
3412.000000;1.649036
3411.000000;1.598056
3410.000000;1.517133
3409.000000;1.496146
3408.000000;1.518047
3407.000000;1.528309
3406.000000;1.546937
3405.000000;1.614413
3404.000000;1.649892
3403.000000;1.713412
3402.000000;1.758165
3401.000000;1.592398
3400.000000;1.391821
3399.000000;1.260016
3398.000000;1.241059
3397.000000;1.284543
3396.000000;1.298796
3395.000000;1.262262
3394.000000;1.164945
3393.000000;1.092798
3392.000000;1.120697
3391.000000;1.203629
3390.000000;1.249284
3389.000000;1.302311
3388.000000;1.348945
3387.000000;1.386223
3386.000000;1.454087
3385.000000;1.547097
3384.000000;1.657224
3383.000000;1.503941
3382.000000;1.280355
3381.000000;1.149844
3380.000000;1.087167
3379.000000;1.096396
3378.000000;1.185783
3377.000000;1.352250
3376.000000;1.474254
3375.000000;1.456139
3374.000000;1.440912
3373.000000;1.474736
3372.000000;1.550297
3371.000000;1.611458
3370.000000;1.556043
3369.000000;1.445466
3368.000000;1.407705
3367.000000;1.495111
3366.000000;1.744279
3365.000000;1.884004
3364.000000;1.657383
3363.000000;1.594288
3362.000000;1.696469
3361.000000;1.868449
3360.000000;2.247542
3359.000000;2.296120
3358.000000;1.996836
3357.000000;2.290670
3356.000000;1.969262
3355.000000;1.674998
3354.000000;1.571328
3353.000000;1.528609
3352.000000;1.583284
3351.000000;1.700458
3350.000000;1.793127
3349.000000;1.765034
3348.000000;1.673403
3347.000000;1.604158
3346.000000;1.588317
3345.000000;1.640542
3344.000000;1.747152
3343.000000;2.019362
3342.000000;2.363164
3341.000000;1.818288
3340.000000;1.634058
3339.000000;1.755942
3338.000000;2.129329
3337.000000;1.782556
3336.000000;1.744806
3335.000000;1.922698
3334.000000;2.049107
3333.000000;1.463594
3332.000000;1.156736
3331.000000;1.059351
3330.000000;1.088622
3329.000000;1.187103
3328.000000;1.250245
3327.000000;1.232804
3326.000000;1.224719
3325.000000;1.247240
3324.000000;1.289688
3323.000000;1.270969
3322.000000;1.200408
3321.000000;1.209603
3320.000000;1.369683
3319.000000;1.692872
3318.000000;1.601536
3317.000000;1.527453
3316.000000;1.698630
3315.000000;1.772083
3314.000000;1.524040
3313.000000;1.322532
3312.000000;1.309938
3311.000000;1.513996
3310.000000;2.262010
3309.000000;1.924725
3308.000000;1.781266
3307.000000;1.797769
3306.000000;1.850527
3305.000000;1.618836
3304.000000;1.326826
3303.000000;1.230339
3302.000000;1.324927
3301.000000;1.597159
3300.000000;2.167012
3299.000000;2.319475
3298.000000;1.811105
3297.000000;2.027398
3296.000000;1.872792
3295.000000;1.643400
3294.000000;1.682702
3293.000000;1.644317
3292.000000;1.477182
3291.000000;1.304999
3290.000000;1.192934
3289.000000;1.154611
3288.000000;1.184006
3287.000000;1.248933
3286.000000;1.276852
3285.000000;1.252086
3284.000000;1.219335
3283.000000;1.207921
3282.000000;1.235726
3281.000000;1.301185
3280.000000;1.400060
3279.000000;1.571162
3278.000000;1.739635
3277.000000;1.725600
3276.000000;1.740386
3275.000000;1.850347
3274.000000;2.058080
3273.000000;1.825451
3272.000000;1.731196
3271.000000;1.693588
3270.000000;1.561199
3269.000000;1.548800
3268.000000;1.522277
3267.000000;1.457773
3266.000000;1.429504
3265.000000;1.407075
3264.000000;1.350103
3263.000000;1.303557
3262.000000;1.332806
3261.000000;1.388277
3260.000000;1.439205
3259.000000;1.593684
3258.000000;1.587501
3257.000000;1.471272
3256.000000;1.336324
3255.000000;1.265024
3254.000000;1.330219
3253.000000;1.511183
3252.000000;1.708305
3251.000000;1.866053
3250.000000;1.979112
3249.000000;2.094034
3248.000000;2.142543
3247.000000;1.881409
3246.000000;1.658368
3245.000000;1.660952
3244.000000;1.793894
3243.000000;1.736981
3242.000000;1.549695
3241.000000;1.488978
3240.000000;1.623186
3239.000000;1.681691
3238.000000;1.411876
3237.000000;1.237280
3236.000000;1.187289
3235.000000;1.187396
3234.000000;1.147929
3233.000000;1.043296
3232.000000;0.958696
3231.000000;0.940770
3230.000000;0.984387
3229.000000;1.061136
3228.000000;1.147845
3227.000000;1.179346
3226.000000;1.155138
3225.000000;1.227832
3224.000000;1.558037
3223.000000;1.732353
3222.000000;1.305651
3221.000000;1.231783
3220.000000;1.234474
3219.000000;1.281580
3218.000000;1.294104
3217.000000;1.280378
3216.000000;1.268056
3215.000000;1.234173
3214.000000;1.171133
3213.000000;1.150534
3212.000000;1.211433
3211.000000;1.331064
3210.000000;1.433721
3209.000000;1.413655
3208.000000;1.234846
3207.000000;1.060439
3206.000000;0.979929
3205.000000;0.982631
3204.000000;1.038208
3203.000000;1.105689
3202.000000;1.128018
3201.000000;1.115022
3200.000000;1.116015
3199.000000;1.160931
3198.000000;1.279144
3197.000000;1.532811
3196.000000;1.953247
3195.000000;1.822246
3194.000000;1.647383
3193.000000;1.726394
3192.000000;1.800123
3191.000000;1.446027
3190.000000;1.250185
3189.000000;1.223606
3188.000000;1.292997
3187.000000;1.396381
3186.000000;1.430355
3185.000000;1.292976
3184.000000;1.173332
3183.000000;1.177236
3182.000000;1.293927
3181.000000;1.430723
3180.000000;1.470283
3179.000000;1.545918
3178.000000;1.727245
3177.000000;2.381115
3176.000000;1.858548
3175.000000;1.492991
3174.000000;1.313806
3173.000000;1.235006
3172.000000;1.234124
3171.000000;1.250054
3170.000000;1.193220
3169.000000;1.107187
3168.000000;1.101365
3167.000000;1.281506
3166.000000;1.576843
3165.000000;1.475986
3164.000000;1.501374
3163.000000;1.722405
3162.000000;2.258305
3161.000000;2.416196
3160.000000;1.834164
3159.000000;1.708368
3158.000000;1.586255
3157.000000;1.440182
3156.000000;1.378746
3155.000000;1.467609
3154.000000;1.618554
3153.000000;1.492256
3152.000000;1.409881
3151.000000;1.396253
3150.000000;1.370345
3149.000000;1.406920
3148.000000;1.387130
3147.000000;1.298043
3146.000000;1.264290
3145.000000;1.266766
3144.000000;1.268533
3143.000000;1.265560
3142.000000;1.239447
3141.000000;1.147903
3140.000000;1.022820
3139.000000;0.937105
3138.000000;0.924234
3137.000000;0.964010
3136.000000;0.971666
3135.000000;0.941259
3134.000000;0.955841
3133.000000;1.015884
3132.000000;1.081734
3131.000000;1.103910
3130.000000;1.045952
3129.000000;1.014877
3128.000000;1.072294
3127.000000;1.135041
3126.000000;1.127974
3125.000000;1.065209
3124.000000;0.990011
3123.000000;0.961664
3122.000000;0.998301
3121.000000;1.078961
3120.000000;1.142101
3119.000000;1.119784
3118.000000;1.040201
3117.000000;0.981420
3116.000000;0.978452
3115.000000;1.025651
3114.000000;1.111278
3113.000000;1.255777
3112.000000;1.522518
3111.000000;2.018676
3110.000000;2.413502
3109.000000;1.981569
3108.000000;1.801500
3107.000000;1.731979
3106.000000;1.647124
3105.000000;1.631321
3104.000000;1.672274
3103.000000;1.653843
3102.000000;1.621737
3101.000000;1.605038
3100.000000;1.514856
3099.000000;1.505601
3098.000000;1.716935
3097.000000;1.946183
3096.000000;1.880320
3095.000000;2.483049
3094.000000;1.733475
3093.000000;1.512104
3092.000000;1.532054
3091.000000;1.526828
3090.000000;1.415381
3089.000000;1.369507
3088.000000;1.366225
3087.000000;1.397321
3086.000000;1.442315
3085.000000;1.434852
3084.000000;1.383301
3083.000000;1.333600
3082.000000;1.296621
3081.000000;1.259133
3080.000000;1.222204
3079.000000;1.228797
3078.000000;1.323789
3077.000000;1.493475
3076.000000;1.572107
3075.000000;1.477959
3074.000000;1.434130
3073.000000;1.538001
3072.000000;1.512075
3071.000000;1.375757
3070.000000;1.333023
3069.000000;1.346286
3068.000000;1.320245
3067.000000;1.222546
3066.000000;1.186961
3065.000000;1.250253
3064.000000;1.319152
3063.000000;1.387682
3062.000000;1.412257
3061.000000;1.409022
3060.000000;1.502390
3059.000000;1.530490
3058.000000;1.532421
3057.000000;1.573391
3056.000000;1.534473
3055.000000;1.541033
3054.000000;1.896923
3053.000000;1.874314
3052.000000;1.637061
3051.000000;1.808974
3050.000000;1.679246
3049.000000;1.488330
3048.000000;1.407499
3047.000000;1.431230
3046.000000;1.537267
3045.000000;1.560361
3044.000000;1.433255
3043.000000;1.297410
3042.000000;1.295112
3041.000000;1.472421
3040.000000;1.702310
3039.000000;1.710919
3038.000000;1.616180
3037.000000;1.469178
3036.000000;1.423514
3035.000000;1.421940
3034.000000;1.409053
3033.000000;1.336081
3032.000000;1.313857
3031.000000;1.407367
3030.000000;1.430024
3029.000000;1.375427
3028.000000;1.334934
3027.000000;1.245482
3026.000000;1.162792
3025.000000;1.112117
3024.000000;1.083256
3023.000000;1.086425
3022.000000;1.137490
3021.000000;1.200899
3020.000000;1.228092
3019.000000;1.320687
3018.000000;1.515328
3017.000000;1.669737
3016.000000;2.152501
3015.000000;1.487303
3014.000000;1.306717
3013.000000;1.415468
3012.000000;1.617554
3011.000000;1.583496
3010.000000;1.495613
3009.000000;1.694730
3008.000000;2.065396
3007.000000;1.702695
3006.000000;1.502796
3005.000000;1.405293
3004.000000;1.509033
3003.000000;1.472193
3002.000000;1.361509
3001.000000;1.502321
3000.000000;1.629854
2999.000000;1.514918
2998.000000;1.527239
2997.000000;1.642294
2996.000000;1.563278
2995.000000;1.422642
2994.000000;1.407661
2993.000000;1.655685
2992.000000;1.604555
2991.000000;1.368517
2990.000000;1.335787
2989.000000;1.396893
2988.000000;1.445412
2987.000000;1.502197
2986.000000;1.730650
2985.000000;2.148129
2984.000000;1.880954
2983.000000;1.614848
2982.000000;1.617690
2981.000000;1.907561
2980.000000;1.796850
2979.000000;1.465721
2978.000000;1.402553
2977.000000;1.549637
2976.000000;1.669608
2975.000000;1.535759
2974.000000;1.531904
2973.000000;1.554710
2972.000000;1.440174
2971.000000;1.285359
2970.000000;1.196742
2969.000000;1.188861
2968.000000;1.215189
2967.000000;1.231504
2966.000000;1.253204
2965.000000;1.385534
2964.000000;1.893157
2963.000000;1.885879
2962.000000;1.599135
2961.000000;1.429985
2960.000000;1.293196
2959.000000;1.393419
2958.000000;1.899431
2957.000000;1.595026
2956.000000;1.545700
2955.000000;1.983381
2954.000000;1.746132
2953.000000;1.719955
2952.000000;1.659662
2951.000000;1.296334
2950.000000;1.207704
2949.000000;1.200249
2948.000000;1.141264
2947.000000;1.139337
2946.000000;1.271848
2945.000000;1.399385
2944.000000;1.542772
2943.000000;1.677896
2942.000000;1.694613
2941.000000;1.879501
2940.000000;1.477518
2939.000000;1.244270
2938.000000;1.281181
2937.000000;1.504771
2936.000000;1.517326
2935.000000;1.408926
2934.000000;1.508599
2933.000000;1.830224
2932.000000;1.860174
2931.000000;1.358495
2930.000000;1.154363
2929.000000;1.129217
2928.000000;1.217488
2927.000000;1.250395
2926.000000;1.156725
2925.000000;1.153437
2924.000000;1.294572
2923.000000;1.665989
2922.000000;1.690319
2921.000000;1.288961
2920.000000;1.211282
2919.000000;1.304443
2918.000000;1.361179
2917.000000;1.420908
2916.000000;1.669986
2915.000000;1.682732
2914.000000;1.535082
2913.000000;1.540986
2912.000000;1.630087
2911.000000;1.642440
2910.000000;1.527401
2909.000000;1.421502
2908.000000;1.473696
2907.000000;1.791220
2906.000000;1.513048
2905.000000;1.275940
2904.000000;1.277086
2903.000000;1.425962
2902.000000;1.468806
2901.000000;1.308367
2900.000000;1.268843
2899.000000;1.262905
2898.000000;1.253688
2897.000000;1.493790
2896.000000;1.891925
2895.000000;1.526738
2894.000000;1.378843
2893.000000;1.317503
2892.000000;1.262053
2891.000000;1.220227
2890.000000;1.191023
2889.000000;1.228250
2888.000000;1.354901
2887.000000;1.545823
2886.000000;1.775547
2885.000000;2.431987
2884.000000;1.995140
2883.000000;1.593864
2882.000000;1.509153
2881.000000;1.504980
2880.000000;1.485336
2879.000000;1.445088
2878.000000;1.460934
2877.000000;1.475160
2876.000000;1.398841
2875.000000;1.312454
2874.000000;1.402602
2873.000000;1.730151
2872.000000;1.707493
2871.000000;1.521314
2870.000000;1.377930
2869.000000;1.221496
2868.000000;1.148715
2867.000000;1.117716
2866.000000;1.076582
2865.000000;1.022371
2864.000000;1.011390
2863.000000;1.087292
2862.000000;1.250424
2861.000000;1.475184
2860.000000;1.653832
2859.000000;1.568899
2858.000000;1.292828
2857.000000;1.126587
2856.000000;1.077382
2855.000000;1.086900
2854.000000;1.151631
2853.000000;1.347579
2852.000000;1.793849
2851.000000;1.684443
2850.000000;1.359955
2849.000000;1.248066
2848.000000;1.216920
2847.000000;1.233020
2846.000000;1.264137
2845.000000;1.294950
2844.000000;1.332548
2843.000000;1.363391
2842.000000;1.710543
2841.000000;1.969783
2840.000000;1.355116
2839.000000;1.200880
2838.000000;1.204248
2837.000000;1.264080
2836.000000;1.289765
2835.000000;1.252985
2834.000000;1.251139
2833.000000;1.256874
2832.000000;1.217930
2831.000000;1.168273
2830.000000;1.182444
2829.000000;1.236414
2828.000000;1.336832
2827.000000;1.488059
2826.000000;1.324265
2825.000000;1.114835
2824.000000;1.063181
2823.000000;1.150419
2822.000000;1.331010
2821.000000;1.364610
2820.000000;1.250379
2819.000000;1.162031
2818.000000;1.147486
2817.000000;1.202681
2816.000000;1.301041
2815.000000;1.457452
2814.000000;1.666446
2813.000000;1.679683
2812.000000;1.505103
2811.000000;1.372533
2810.000000;1.429444
2809.000000;1.965714
2808.000000;1.961893
2807.000000;1.659048
2806.000000;1.834592
2805.000000;1.843523
2804.000000;1.683933
2803.000000;1.563001
2802.000000;1.498555
2801.000000;1.500960
2800.000000;1.638849
2799.000000;2.062121
2798.000000;2.119308
2797.000000;1.717696
2796.000000;1.488787
2795.000000;1.310910
2794.000000;1.233323
2793.000000;1.295252
2792.000000;1.451119
2791.000000;1.451981
2790.000000;1.272213
2789.000000;1.148863
2788.000000;1.078095
2787.000000;1.028589
2786.000000;1.000546
2785.000000;1.025485
2784.000000;1.155567
2783.000000;1.498153
2782.000000;1.886513
2781.000000;1.662280
2780.000000;1.594915
2779.000000;1.608881
2778.000000;1.503132
2777.000000;1.330277
2776.000000;1.202869
2775.000000;1.154691
2774.000000;1.196196
2773.000000;1.248261
2772.000000;1.167987
2771.000000;1.101557
2770.000000;1.152293
2769.000000;1.339257
2768.000000;1.667905
2767.000000;1.834527
2766.000000;1.469666
2765.000000;1.159605
2764.000000;1.022514
2763.000000;1.020071
2762.000000;1.087987
2761.000000;1.077129
2760.000000;1.017519
2759.000000;1.089113
2758.000000;1.392838
2757.000000;1.700442
2756.000000;1.456001
2755.000000;1.269264
2754.000000;1.132592
2753.000000;0.996929
2752.000000;0.956358
2751.000000;1.021949
2750.000000;1.085324
2749.000000;1.103265
2748.000000;1.168788
2747.000000;1.325612
2746.000000;1.437592
2745.000000;1.356209
2744.000000;1.307795
2743.000000;1.370395
2742.000000;1.528574
2741.000000;1.619140
2740.000000;1.420900
2739.000000;1.197228
2738.000000;1.157242
2737.000000;1.327166
2736.000000;1.321973
2735.000000;1.278151
2734.000000;1.616742
2733.000000;2.006737
2732.000000;2.122634
2731.000000;1.875696
2730.000000;1.475551
2729.000000;1.463399
2728.000000;1.536715
2727.000000;1.451306
2726.000000;1.331032
2725.000000;1.487764
2724.000000;2.027498
2723.000000;1.476361
2722.000000;1.178024
2721.000000;1.067172
2720.000000;0.989081
2719.000000;0.954898
2718.000000;0.955224
2717.000000;0.990234
2716.000000;1.017590
2715.000000;1.049437
2714.000000;1.149484
2713.000000;1.406044
2712.000000;1.581347
2711.000000;1.354755
2710.000000;1.245657
2709.000000;1.268330
2708.000000;1.365760
2707.000000;1.400528
2706.000000;1.254701
2705.000000;1.107281
2704.000000;1.046651
2703.000000;1.057112
2702.000000;1.126266
2701.000000;1.228868
2700.000000;1.208802
2699.000000;1.082415
2698.000000;0.990450
2697.000000;0.988824
2696.000000;1.063786
2695.000000;1.086498
2694.000000;1.005089
2693.000000;0.948672
2692.000000;0.993144
2691.000000;1.131829
2690.000000;1.223186
2689.000000;1.371206
2688.000000;1.571426
2687.000000;1.329968
2686.000000;1.203400
2685.000000;1.214150
2684.000000;1.202891
2683.000000;1.142082
2682.000000;1.123442
2681.000000;1.203134
2680.000000;1.456541
2679.000000;2.010004
2678.000000;1.686563
2677.000000;1.287946
2676.000000;1.152540
2675.000000;1.181382
2674.000000;1.319081
2673.000000;1.378442
2672.000000;1.339668
2671.000000;1.386663
2670.000000;1.313672
2669.000000;1.123062
2668.000000;1.016769
2667.000000;0.966142
2666.000000;1.023418
2665.000000;1.167636
2664.000000;1.272920
2663.000000;1.279972
2662.000000;1.437046
2661.000000;1.687200
2660.000000;1.284229
2659.000000;1.144060
2658.000000;1.171589
2657.000000;1.142063
2656.000000;1.034916
2655.000000;0.920602
2654.000000;0.870625
2653.000000;0.868342
2652.000000;0.913001
2651.000000;1.036870
2650.000000;1.257038
2649.000000;1.373894
2648.000000;1.309439
2647.000000;1.265739
2646.000000;1.329210
2645.000000;1.416961
2644.000000;1.288887
2643.000000;1.153539
2642.000000;1.117301
2641.000000;1.224762
2640.000000;1.526540
2639.000000;1.765252
2638.000000;1.754565
2637.000000;1.584993
2636.000000;1.488088
2635.000000;1.431937
2634.000000;1.284956
2633.000000;1.212136
2632.000000;1.222225
2631.000000;1.191920
2630.000000;1.082141
2629.000000;1.001855
2628.000000;1.008921
2627.000000;1.093213
2626.000000;1.220330
2625.000000;1.388733
2624.000000;1.516215
2623.000000;1.552008
2622.000000;1.774146
2621.000000;1.784672
2620.000000;1.440585
2619.000000;1.327429
2618.000000;1.435784
2617.000000;1.696732
2616.000000;1.710940
2615.000000;1.469690
2614.000000;1.305349
2613.000000;1.201702
2612.000000;1.108177
2611.000000;1.026843
2610.000000;1.005072
2609.000000;1.085536
2608.000000;1.253043
2607.000000;1.340830
2606.000000;1.270521
2605.000000;1.179085
2604.000000;1.118210
2603.000000;1.119586
2602.000000;1.227811
2601.000000;1.586754
2600.000000;1.845295
2599.000000;1.686394
2598.000000;2.174881
2597.000000;1.865967
2596.000000;1.363188
2595.000000;1.228049
2594.000000;1.234141
2593.000000;1.363226
2592.000000;1.435885
2591.000000;1.288015
2590.000000;1.207967
2589.000000;1.310812
2588.000000;1.496504
2587.000000;1.587039
2586.000000;1.423863
2585.000000;1.239093
2584.000000;1.195727
2583.000000;1.306898
2582.000000;1.519202
2581.000000;1.331057
2580.000000;1.083177
2579.000000;1.015115
2578.000000;1.134024
2577.000000;1.377187
2576.000000;1.263692
2575.000000;1.071500
2574.000000;1.024249
2573.000000;1.046017
2572.000000;1.024587
2571.000000;0.976345
2570.000000;1.008688
2569.000000;1.113042
2568.000000;1.284221
2567.000000;1.580410
2566.000000;2.123696
2565.000000;2.530404
2564.000000;1.959102
2563.000000;1.463988
2562.000000;1.195099
2561.000000;1.116195
2560.000000;1.268139
2559.000000;1.818547
2558.000000;1.980255
2557.000000;1.730813
2556.000000;1.694981
2555.000000;1.539293
2554.000000;1.519441
2553.000000;1.623974
2552.000000;1.387607
2551.000000;1.107371
2550.000000;0.974909
2549.000000;0.949815
2548.000000;1.012262
2547.000000;1.033246
2546.000000;0.929210
2545.000000;0.825853
2544.000000;0.793093
2543.000000;0.831888
2542.000000;0.920007
2541.000000;1.021017
2540.000000;1.113320
2539.000000;1.160102
2538.000000;1.242434
2537.000000;1.343370
2536.000000;1.483477
2535.000000;1.969124
2534.000000;1.625191
2533.000000;1.344557
2532.000000;1.446649
2531.000000;1.856168
2530.000000;2.303292
2529.000000;1.796396
2528.000000;1.472009
2527.000000;1.336261
2526.000000;1.380835
2525.000000;1.539223
2524.000000;1.394837
2523.000000;1.162448
2522.000000;1.125932
2521.000000;1.239128
2520.000000;1.311745
2519.000000;1.189725
2518.000000;1.086361
2517.000000;1.123683
2516.000000;1.266265
2515.000000;1.323769
2514.000000;1.307750
2513.000000;1.440133
2512.000000;1.500379
2511.000000;1.262652
2510.000000;1.115931
2509.000000;1.069895
2508.000000;1.054024
2507.000000;1.090982
2506.000000;1.167592
2505.000000;1.209584
2504.000000;1.187776
2503.000000;1.268887
2502.000000;1.418729
2501.000000;1.251868
2500.000000;1.147324
2499.000000;1.161087
2498.000000;1.165835
2497.000000;1.139879
2496.000000;1.104545
2495.000000;1.165976
2494.000000;1.413972
2493.000000;1.453695
2492.000000;1.245026
2491.000000;1.462683
2490.000000;1.578766
2489.000000;1.151237
2488.000000;1.040186
2487.000000;1.098603
2486.000000;1.249268
2485.000000;1.393454
2484.000000;1.356196
2483.000000;1.271532
2482.000000;1.261995
2481.000000;1.296920
2480.000000;1.299729
2479.000000;1.300874
2478.000000;1.324727
2477.000000;1.268523
2476.000000;1.137074
2475.000000;1.051475
2474.000000;1.043164
2473.000000;1.092986
2472.000000;1.152859
2471.000000;1.170113
2470.000000;1.129209
2469.000000;1.051870
2468.000000;0.987818
2467.000000;0.972723
2466.000000;1.022690
2465.000000;1.135252
2464.000000;1.256430
2463.000000;1.341587
2462.000000;1.550807
2461.000000;1.794259
2460.000000;1.818960
2459.000000;2.080210
2458.000000;1.725826
2457.000000;1.353077
2456.000000;1.248726
2455.000000;1.201335
2454.000000;1.276172
2453.000000;1.619379
2452.000000;1.298033
2451.000000;1.009776
2450.000000;0.928355
2449.000000;0.905577
2448.000000;0.882867
2447.000000;0.849898
2446.000000;0.862039
2445.000000;0.913604
2444.000000;0.941232
2443.000000;0.896269
2442.000000;0.841712
2441.000000;0.874164
2440.000000;1.023058
2439.000000;1.217627
2438.000000;1.280300
2437.000000;1.180497
2436.000000;1.061039
2435.000000;1.062327
2434.000000;1.261115
2433.000000;1.525926
2432.000000;1.558551
2431.000000;1.498944
2430.000000;1.401231
2429.000000;1.416971
2428.000000;1.548796
2427.000000;1.835156
2426.000000;2.360890
2425.000000;1.874201
2424.000000;1.760072
2423.000000;1.896926
2422.000000;1.867356
2421.000000;1.579375
2420.000000;1.308243
2419.000000;1.158366
2418.000000;1.135670
2417.000000;1.215839
2416.000000;1.270441
2415.000000;1.156599
2414.000000;0.988389
2413.000000;0.889458
2412.000000;0.870786
2411.000000;0.908233
2410.000000;0.966488
2409.000000;1.025212
2408.000000;1.093613
2407.000000;1.190658
2406.000000;1.407396
2405.000000;1.444333
2404.000000;1.183502
2403.000000;1.072343
2402.000000;1.075088
2401.000000;1.119523
2400.000000;1.156132
2399.000000;1.172791
2398.000000;1.194364
2397.000000;1.335573
2396.000000;1.676226
2395.000000;1.429835
2394.000000;1.239238
2393.000000;1.252200
2392.000000;1.341963
2391.000000;1.429783
2390.000000;1.338415
2389.000000;1.191048
2388.000000;1.182345
2387.000000;1.320565
2386.000000;1.499372
2385.000000;1.499989
2384.000000;1.342144
2383.000000;1.191367
2382.000000;1.122709
2381.000000;1.156594
2380.000000;1.310015
2379.000000;1.578713
2378.000000;1.768835
2377.000000;1.833090
2376.000000;1.758243
2375.000000;1.585123
2374.000000;1.536792
2373.000000;1.586736
2372.000000;1.547082
2371.000000;1.407526
2370.000000;1.316890
2369.000000;1.304286
2368.000000;1.344889
2367.000000;1.394094
2366.000000;1.419018
2365.000000;1.437189
2364.000000;1.465433
2363.000000;1.497545
2362.000000;1.511448
2361.000000;1.465691
2360.000000;1.412604
2359.000000;1.424342
2358.000000;1.488101
2357.000000;1.535105
2356.000000;1.509229
2355.000000;1.480574
2354.000000;1.506595
2353.000000;1.708741
2352.000000;1.968083
2351.000000;1.521942
2350.000000;1.255308
2349.000000;1.174330
2348.000000;1.199502
2347.000000;1.357567
2346.000000;1.670343
2345.000000;1.917716
2344.000000;1.700866
2343.000000;1.504774
2342.000000;1.459751
2341.000000;1.591396
2340.000000;2.013903
2339.000000;2.017938
2338.000000;1.626552
2337.000000;1.515603
2336.000000;1.552862
2335.000000;1.642752
2334.000000;1.741046
2333.000000;1.943473
2332.000000;1.969584
2331.000000;1.638591
2330.000000;1.425050
2329.000000;1.353045
2328.000000;1.401674
2327.000000;1.519279
2326.000000;1.564288
2325.000000;1.487976
2324.000000;1.436471
2323.000000;1.468303
2322.000000;1.516769
2321.000000;1.549140
2320.000000;1.603851
2319.000000;1.714602
2318.000000;1.855390
2317.000000;1.758363
2316.000000;1.650180
2315.000000;1.543291
2314.000000;1.441959
2313.000000;1.443492
2312.000000;1.556824
2311.000000;1.585772
2310.000000;1.420573
2309.000000;1.300427
2308.000000;1.248222
2307.000000;1.272995
2306.000000;1.373014
2305.000000;1.407661
2304.000000;1.508951
2303.000000;1.861918
2302.000000;1.603119
2301.000000;1.441973
2300.000000;1.726729
2299.000000;1.731617
2298.000000;1.473942
2297.000000;1.335312
2296.000000;1.142597
2295.000000;0.952918
2294.000000;0.800128
2293.000000;0.700193
2292.000000;0.654857
2291.000000;0.658459
2290.000000;0.695493
2289.000000;0.735214
2288.000000;0.762000
2287.000000;0.803128
2286.000000;0.879149
2285.000000;0.967909
2284.000000;1.041476
2283.000000;1.051783
2282.000000;0.973584
2281.000000;0.939637
2280.000000;0.970892
2279.000000;0.936493
2278.000000;0.899276
2277.000000;1.051642
2276.000000;1.311977
2275.000000;1.226468
2274.000000;1.257291
2273.000000;1.493340
2272.000000;1.296534
2271.000000;1.144079
2270.000000;1.182822
2269.000000;1.197934
2268.000000;1.292569
2267.000000;1.459619
2266.000000;1.270628
2265.000000;1.275523
2264.000000;1.844589
2263.000000;1.362551
2262.000000;1.193267
2261.000000;1.304832
2260.000000;1.420970
2259.000000;1.167552
2258.000000;0.999070
2257.000000;0.948541
2256.000000;0.983794
2255.000000;1.074708
2254.000000;1.165505
2253.000000;1.213725
2252.000000;1.207484
2251.000000;1.197556
2250.000000;1.293300
2249.000000;1.535796
2248.000000;1.654956
2247.000000;1.635272
2246.000000;1.505294
2245.000000;1.340398
2244.000000;1.300193
2243.000000;1.317758
2242.000000;1.382694
2241.000000;1.430825
2240.000000;1.463569
2239.000000;1.628332
2238.000000;1.820061
2237.000000;1.562572
2236.000000;1.407902
2235.000000;1.309851
2234.000000;1.238969
2233.000000;1.295835
2232.000000;1.603441
2231.000000;2.565994
2230.000000;1.761476
2229.000000;1.879711
2228.000000;1.831709
2227.000000;1.463081
2226.000000;1.263916
2225.000000;1.154033
2224.000000;1.087980
2223.000000;1.036134
2222.000000;1.010067
2221.000000;1.037781
2220.000000;1.153098
2219.000000;1.331231
2218.000000;1.316462
2217.000000;1.209603
2216.000000;1.172257
2215.000000;1.134848
2214.000000;1.080046
2213.000000;1.021475
2212.000000;1.020861
2211.000000;1.142626
2210.000000;1.522466
2209.000000;1.764270
2208.000000;1.429203
2207.000000;1.251887
2206.000000;1.101889
2205.000000;0.956899
2204.000000;0.867449
2203.000000;0.873891
2202.000000;0.958805
2201.000000;1.023357
2200.000000;0.975969
2199.000000;0.923913
2198.000000;0.953545
2197.000000;1.049547
2196.000000;1.154955
2195.000000;1.215344
2194.000000;1.258815
2193.000000;1.233759
2192.000000;1.057525
2191.000000;0.957741
2190.000000;1.027714
2189.000000;1.142596
2188.000000;1.137719
2187.000000;1.102113
2186.000000;1.000490
2185.000000;0.928530
2184.000000;0.954030
2183.000000;1.030175
2182.000000;1.111254
2181.000000;1.126125
2180.000000;1.063305
2179.000000;0.994911
2178.000000;0.916410
2177.000000;0.884977
2176.000000;0.954486
2175.000000;1.102246
2174.000000;1.297166
2173.000000;1.583341
2172.000000;2.106776
2171.000000;2.180374
2170.000000;1.369741
2169.000000;1.092960
2168.000000;0.975249
2167.000000;0.982420
2166.000000;1.115722
2165.000000;1.385313
2164.000000;1.434987
2163.000000;1.310157
2162.000000;1.254341
2161.000000;1.229194
2160.000000;1.276123
2159.000000;1.249276
2158.000000;1.195632
2157.000000;1.246813
2156.000000;1.354740
2155.000000;1.484877
2154.000000;2.125847
2153.000000;1.617884
2152.000000;1.506272
2151.000000;1.668310
2150.000000;1.297524
2149.000000;1.095021
2148.000000;1.038231
2147.000000;1.037216
2146.000000;1.040563
2145.000000;1.011530
2144.000000;0.950738
2143.000000;0.906292
2142.000000;0.879639
2141.000000;0.838029
2140.000000;0.802590
2139.000000;0.840328
2138.000000;0.950335
2137.000000;0.920352
2136.000000;0.860996
2135.000000;0.972152
2134.000000;1.294840
2133.000000;1.672672
2132.000000;1.613333
2131.000000;1.255474
2130.000000;1.119131
2129.000000;1.205277
2128.000000;1.195864
2127.000000;1.023605
2126.000000;0.896775
2125.000000;0.851233
2124.000000;0.871988
2123.000000;0.900785
2122.000000;0.933549
2121.000000;0.995573
2120.000000;1.077696
2119.000000;1.189599
2118.000000;1.299912
2117.000000;1.240760
2116.000000;1.142434
2115.000000;1.113223
2114.000000;1.093820
2113.000000;1.051052
2112.000000;1.023511
2111.000000;1.038352
2110.000000;1.097639
2109.000000;1.207328
2108.000000;1.515513
2107.000000;1.599271
2106.000000;1.323024
2105.000000;1.174034
2104.000000;1.051387
2103.000000;1.018060
2102.000000;1.117145
2101.000000;1.313475
2100.000000;1.418454
2099.000000;1.233630
2098.000000;0.987139
2097.000000;0.837732
2096.000000;0.810994
2095.000000;0.871630
2094.000000;0.935528
2093.000000;1.031754
2092.000000;1.283913
2091.000000;1.826704
2090.000000;1.598873
2089.000000;1.145408
2088.000000;0.991245
2087.000000;0.944647
2086.000000;0.972749
2085.000000;1.064765
2084.000000;1.157917
2083.000000;1.175072
2082.000000;1.182080
2081.000000;1.543059
2080.000000;1.429843
2079.000000;1.232340
2078.000000;1.374632
2077.000000;1.239467
2076.000000;1.164825
2075.000000;1.148505
2074.000000;1.069680
2073.000000;1.025191
2072.000000;1.075903
2071.000000;1.177799
2070.000000;1.094408
2069.000000;0.885399
2068.000000;0.802771
2067.000000;0.914237
2066.000000;1.319483
2065.000000;1.710718
2064.000000;1.614717
2063.000000;1.390476
2062.000000;1.036872
2061.000000;1.016643
2060.000000;1.422306
2059.000000;1.817932
2058.000000;1.292769
2057.000000;1.603207
2056.000000;2.060719
2055.000000;1.623906
2054.000000;1.215086
2053.000000;1.106084
2052.000000;1.203814
2051.000000;1.074579
2050.000000;0.934713
2049.000000;0.921521
2048.000000;0.905158
2047.000000;0.846121
2046.000000;0.829717
2045.000000;0.863197
2044.000000;0.869874
2043.000000;0.889265
2042.000000;0.928055
2041.000000;0.842159
2040.000000;0.788550
2039.000000;0.841584
2038.000000;0.906509
2037.000000;0.931095
2036.000000;0.959940
2035.000000;1.043035
2034.000000;1.151651
2033.000000;1.080351
2032.000000;0.986731
2031.000000;0.953788
2030.000000;0.943203
2029.000000;0.977378
2028.000000;1.053279
2027.000000;1.220907
2026.000000;1.238764
2025.000000;1.132591
2024.000000;1.130647
2023.000000;1.111209
2022.000000;0.982251
2021.000000;0.841710
2020.000000;0.767388
2019.000000;0.773335
2018.000000;0.819235
2017.000000;0.858365
2016.000000;0.968467
2015.000000;1.220196
2014.000000;1.598629
2013.000000;1.130085
2012.000000;0.805822
2011.000000;0.734146
2010.000000;0.788131
2009.000000;0.882912
2008.000000;0.965906
2007.000000;1.014964
2006.000000;1.033205
2005.000000;1.110185
2004.000000;1.107700
2003.000000;1.009979
2002.000000;1.044404
2001.000000;1.330169
2000.000000;1.290289
1999.000000;1.038113
1998.000000;0.939616
1997.000000;0.926004
1996.000000;1.009469
1995.000000;1.146510
1994.000000;1.168364
1993.000000;1.116509
1992.000000;1.157271
1991.000000;1.274553
1990.000000;1.351003
1989.000000;1.504354
1988.000000;1.964484
1987.000000;1.957071
1986.000000;1.466461
1985.000000;1.362875
1984.000000;1.480825
1983.000000;1.591519
1982.000000;1.485137
1981.000000;1.384530
1980.000000;1.227632
1979.000000;1.052603
1978.000000;0.927094
1977.000000;0.855431
1976.000000;0.798620
1975.000000;0.768390
1974.000000;0.806014
1973.000000;0.917706
1972.000000;1.085666
1971.000000;1.073511
1970.000000;1.015124
1969.000000;1.115296
1968.000000;1.208392
1967.000000;1.133962
1966.000000;1.014857
1965.000000;0.879486
1964.000000;0.777066
1963.000000;0.760452
1962.000000;0.870196
1961.000000;1.098211
1960.000000;1.237966
1959.000000;1.146985
1958.000000;1.112339
1957.000000;1.265209
1956.000000;1.426841
1955.000000;1.313194
1954.000000;1.263491
1953.000000;1.234309
1952.000000;1.133254
1951.000000;0.966817
1950.000000;0.818741
1949.000000;0.781006
1948.000000;0.845792
1947.000000;0.989317
1946.000000;1.241220
1945.000000;1.623683
1944.000000;1.610948
1943.000000;1.338275
1942.000000;1.343211
1941.000000;1.246067
1940.000000;0.922825
1939.000000;0.830045
1938.000000;0.813533
1937.000000;0.728632
1936.000000;0.718997
1935.000000;0.847142
1934.000000;1.082988
1933.000000;1.323431
1932.000000;1.424593
1931.000000;1.601919
1930.000000;1.507210
1929.000000;1.014640
1928.000000;0.804000
1927.000000;0.719656
1926.000000;0.726786
1925.000000;0.833000
1924.000000;1.071828
1923.000000;1.261202
1922.000000;1.048202
1921.000000;0.831906
1920.000000;0.766613
1919.000000;0.833420
1918.000000;1.135842
1917.000000;1.339739
1916.000000;1.249544
1915.000000;1.953678
1914.000000;1.340006
1913.000000;1.370063
1912.000000;1.483303
1911.000000;1.148467
1910.000000;1.363813
1909.000000;1.456509
1908.000000;1.088682
1907.000000;1.088256
1906.000000;1.125135
1905.000000;1.037543
1904.000000;1.075182
1903.000000;1.232858
1902.000000;0.981805
1901.000000;0.853559
1900.000000;0.923675
1899.000000;0.907446
1898.000000;0.906983
1897.000000;1.123085
1896.000000;1.690075
1895.000000;2.789525
1894.000000;1.636299
1893.000000;1.099387
1892.000000;0.853690
1891.000000;0.784327
1890.000000;0.832892
1889.000000;0.941280
1888.000000;0.979668
1887.000000;0.920200
1886.000000;0.877409
1885.000000;0.928026
1884.000000;1.067836
1883.000000;1.019236
1882.000000;0.891376
1881.000000;0.940439
1880.000000;1.144607
1879.000000;1.512270
1878.000000;1.496147
1877.000000;1.045271
1876.000000;1.139189
1875.000000;1.512381
1874.000000;1.171546
1873.000000;1.003502
1872.000000;0.992982
1871.000000;1.027533
1870.000000;1.114879
1869.000000;1.312157
1868.000000;1.504758
1867.000000;1.201104
1866.000000;0.958439
1865.000000;0.895208
1864.000000;0.961622
1863.000000;1.169941
1862.000000;1.418151
1861.000000;1.399287
1860.000000;1.221868
1859.000000;1.222867
1858.000000;1.737313
1857.000000;1.274773
1856.000000;0.943120
1855.000000;0.919163
1854.000000;1.062359
1853.000000;1.400048
1852.000000;1.386742
1851.000000;1.066775
1850.000000;1.013408
1849.000000;1.088362
1848.000000;1.214425
1847.000000;1.419921
1846.000000;1.627561
1845.000000;1.507437
1844.000000;1.182832
1843.000000;0.954998
1842.000000;0.873552
1841.000000;0.929370
1840.000000;1.110638
1839.000000;1.299211
1838.000000;1.210279
1837.000000;1.064070
1836.000000;1.048079
1835.000000;1.157667
1834.000000;1.264995
1833.000000;1.203873
1832.000000;1.114072
1831.000000;1.156830
1830.000000;1.416038
1829.000000;1.501207
1828.000000;1.426174
1827.000000;1.539412
1826.000000;1.399778
1825.000000;1.177354
1824.000000;1.055517
1823.000000;0.949709
1822.000000;0.853554
1821.000000;0.826558
1820.000000;0.876797
1819.000000;0.927424
1818.000000;0.979464
1817.000000;1.070298
1816.000000;1.010379
1815.000000;0.932806
1814.000000;0.946676
1813.000000;0.964407
1812.000000;1.047155
1811.000000;1.180518
1810.000000;1.304502
1809.000000;1.382077
1808.000000;1.075601
1807.000000;0.783405
1806.000000;0.652106
1805.000000;0.640281
1804.000000;0.685593
1803.000000;0.689336
1802.000000;0.614760
1801.000000;0.533947
1800.000000;0.519465
1799.000000;0.604154
1798.000000;0.808659
1797.000000;1.072688
1796.000000;1.307518
1795.000000;1.491383
1794.000000;1.393262
1793.000000;1.718574
1792.000000;1.882213
1791.000000;1.402775
1790.000000;1.911910
1789.000000;1.800127
1788.000000;1.187325
1787.000000;1.020515
1786.000000;0.959641
1785.000000;0.955734
1784.000000;0.910094
1783.000000;0.817379
1782.000000;0.777830
1781.000000;0.838658
1780.000000;0.965367
1779.000000;0.989444
1778.000000;0.885060
1777.000000;0.844315
1776.000000;0.899683
1775.000000;0.947312
1774.000000;0.895227
1773.000000;0.788853
1772.000000;0.753715
1771.000000;0.791901
1770.000000;0.798371
1769.000000;0.785578
1768.000000;0.818114
1767.000000;0.927234
1766.000000;1.053826
1765.000000;1.003003
1764.000000;0.879818
1763.000000;0.809047
1762.000000;0.805619
1761.000000;0.889601
1760.000000;1.050199
1759.000000;1.227313
1758.000000;1.416817
1757.000000;1.894679
1756.000000;8.000000
1755.000000;1.553217
1754.000000;1.034780
1753.000000;0.821019
1752.000000;0.734705
1751.000000;0.730729
1750.000000;0.756478
1749.000000;0.776208
1748.000000;0.822716
1747.000000;1.056112
1746.000000;1.613178
1745.000000;1.399558
1744.000000;1.238588
1743.000000;1.306238
1742.000000;1.539956
1741.000000;1.588039
1740.000000;1.144085
1739.000000;0.982487
1738.000000;0.994041
1737.000000;1.017855
1736.000000;1.040804
1735.000000;1.226478
1734.000000;1.678979
1733.000000;1.289537
1732.000000;0.972999
1731.000000;0.864927
1730.000000;0.805062
1729.000000;0.801091
1728.000000;0.802892
1727.000000;0.782796
1726.000000;0.769370
1725.000000;0.798168
1724.000000;0.894081
1723.000000;1.049664
1722.000000;1.184637
1721.000000;1.189129
1720.000000;1.133132
1719.000000;1.070232
1718.000000;1.003592
1717.000000;1.025245
1716.000000;1.156350
1715.000000;1.305363
1714.000000;1.267892
1713.000000;1.110273
1712.000000;1.099029
1711.000000;1.146622
1710.000000;1.086157
1709.000000;0.992086
1708.000000;0.888506
1707.000000;0.743575
1706.000000;0.605954
1705.000000;0.539544
1704.000000;0.548349
1703.000000;0.574855
1702.000000;0.573065
1701.000000;0.593612
1700.000000;0.668330
1699.000000;0.770990
1698.000000;0.894743
1697.000000;1.034258
1696.000000;1.174452
1695.000000;1.229005
1694.000000;1.323497
1693.000000;1.484930
1692.000000;1.480829
1691.000000;1.410278
1690.000000;1.249844
1689.000000;1.084878
1688.000000;1.041051
1687.000000;1.118467
1686.000000;1.235483
1685.000000;1.280766
1684.000000;1.283515
1683.000000;1.595090
1682.000000;1.906976
1681.000000;1.429901
1680.000000;1.161012
1679.000000;0.999151
1678.000000;0.948105
1677.000000;1.063864
1676.000000;1.573452
1675.000000;1.558337
1674.000000;1.003636
1673.000000;0.771042
1672.000000;0.680866
1671.000000;0.679601
1670.000000;0.730443
1669.000000;0.774109
1668.000000;0.765331
1667.000000;0.780391
1666.000000;0.842793
1665.000000;0.885020
1664.000000;0.873077
1663.000000;0.857944
1662.000000;0.849904
1661.000000;0.816150
1660.000000;0.788706
1659.000000;0.818149
1658.000000;0.846279
1657.000000;0.833321
1656.000000;0.820411
1655.000000;0.818187
1654.000000;0.840866
1653.000000;1.001085
1652.000000;1.559712
1651.000000;1.356148
1650.000000;1.020514
1649.000000;1.002997
1648.000000;0.993859
1647.000000;0.982542
1646.000000;0.890372
1645.000000;0.800370
1644.000000;0.786601
1643.000000;0.933746
1642.000000;1.224786
1641.000000;1.043716
1640.000000;0.829473
1639.000000;0.764942
1638.000000;0.786141
1637.000000;0.879851
1636.000000;1.258081
1635.000000;1.601295
1634.000000;1.153032
1633.000000;1.160364
1632.000000;1.228918
1631.000000;1.150606
1630.000000;0.905203
1629.000000;0.713684
1628.000000;0.661525
1627.000000;0.710893
1626.000000;0.825148
1625.000000;0.787416
1624.000000;0.617713
1623.000000;0.518587
1622.000000;0.540766
1621.000000;0.679937
1620.000000;0.880822
1619.000000;1.080803
1618.000000;1.193914
1617.000000;1.065571
1616.000000;0.885465
1615.000000;0.790120
1614.000000;0.768007
1613.000000;0.797665
1612.000000;0.893873
1611.000000;0.894510
1610.000000;0.762793
1609.000000;0.712840
1608.000000;0.750710
1607.000000;0.832500
1606.000000;0.928703
1605.000000;0.985262
1604.000000;1.000149
1603.000000;1.004918
1602.000000;1.047071
1601.000000;1.319089
1600.000000;1.523941
1599.000000;1.318566
1598.000000;1.243335
1597.000000;0.958216
1596.000000;0.744022
1595.000000;0.670139
1594.000000;0.631247
1593.000000;0.604759
1592.000000;0.610429
1591.000000;0.636195
1590.000000;0.637775
1589.000000;0.647848
1588.000000;0.746968
1587.000000;0.812858
1586.000000;0.707410
1585.000000;0.635210
1584.000000;0.629449
1583.000000;0.647547
1582.000000;0.713915
1581.000000;0.785343
1580.000000;0.829113
1579.000000;0.955105
1578.000000;1.160546
1577.000000;1.201954
1576.000000;0.938731
1575.000000;0.714709
1574.000000;0.681434
1573.000000;0.828412
1572.000000;1.043544
1571.000000;1.148218
1570.000000;1.228293
1569.000000;1.182133
1568.000000;1.038030
1567.000000;0.931028
1566.000000;0.834165
1565.000000;0.749386
1564.000000;0.689714
1563.000000;0.702631
1562.000000;0.758006
1561.000000;0.812598
1560.000000;0.791139
1559.000000;0.737763
1558.000000;0.808796
1557.000000;0.903294
1556.000000;0.896321
1555.000000;0.976896
1554.000000;1.214851
1553.000000;1.099891
1552.000000;0.833079
1551.000000;0.713025
1550.000000;0.672845
1549.000000;0.759222
1548.000000;0.965534
1547.000000;1.161118
1546.000000;1.402625
1545.000000;2.001803
1544.000000;2.773226
1543.000000;1.801045
1542.000000;1.336983
1541.000000;1.158959
1540.000000;1.002842
1539.000000;1.008626
1538.000000;1.364184
1537.000000;1.012829
1536.000000;0.742798
1535.000000;0.744921
1534.000000;0.902228
1533.000000;1.196739
1532.000000;1.030830
1531.000000;0.776685
1530.000000;0.667863
1529.000000;0.689173
1528.000000;0.819512
1527.000000;1.028338
1526.000000;1.247511
1525.000000;1.431540
1524.000000;1.782161
1523.000000;1.384206
1522.000000;0.970996
1521.000000;0.816844
1520.000000;0.803956
1519.000000;0.874356
1518.000000;0.958039
1517.000000;0.971324
1516.000000;1.017887
1515.000000;1.173055
1514.000000;1.101261
1513.000000;0.971242
1512.000000;1.009978
1511.000000;1.093098
1510.000000;1.110604
1509.000000;1.121287
1508.000000;1.097560
1507.000000;1.108675
1506.000000;1.210072
1505.000000;1.141850
1504.000000;1.016738
1503.000000;1.285884
1502.000000;1.538975
1501.000000;1.024497
1500.000000;1.110830
1499.000000;1.496026
1498.000000;1.257686
1497.000000;1.063521
1496.000000;0.965289
1495.000000;0.900822
1494.000000;0.853496
1493.000000;0.849935
1492.000000;0.882381
1491.000000;0.928691
1490.000000;0.932380
1489.000000;0.858629
1488.000000;0.815855
1487.000000;0.871278
1486.000000;0.902467
1485.000000;0.815510
1484.000000;0.706673
1483.000000;0.637294
1482.000000;0.633946
1481.000000;0.708198
1480.000000;0.855241
1479.000000;1.069602
1478.000000;1.179890
1477.000000;1.051883
1476.000000;0.942714
1475.000000;0.904019
1474.000000;0.909414
1473.000000;0.961169
1472.000000;0.945060
1471.000000;0.788949
1470.000000;0.692912
1469.000000;0.709494
1468.000000;0.795395
1467.000000;0.891558
1466.000000;0.914079
1465.000000;0.853058
1464.000000;0.752805
1463.000000;0.678245
1462.000000;0.716499
1461.000000;0.878869
1460.000000;1.007397
1459.000000;1.008948
1458.000000;0.922253
1457.000000;0.823097
1456.000000;0.777999
1455.000000;0.694688
1454.000000;0.605680
1453.000000;0.602131
1452.000000;0.679591
1451.000000;0.728806
1450.000000;0.861894
1449.000000;1.219701
1448.000000;1.005798
1447.000000;0.830852
1446.000000;0.886891
1445.000000;0.948543
1444.000000;1.050925
1443.000000;1.503736
1442.000000;1.568632
1441.000000;1.043437
1440.000000;0.916878
1439.000000;0.850653
1438.000000;0.752739
1437.000000;0.638171
1436.000000;0.571110
1435.000000;0.547975
1434.000000;0.526654
1433.000000;0.548377
1432.000000;0.616907
1431.000000;0.715704
1430.000000;0.803964
1429.000000;1.064698
1428.000000;1.750106
1427.000000;1.131635
1426.000000;0.914189
1425.000000;0.919817
1424.000000;1.063066
1423.000000;1.094603
1422.000000;0.954902
1421.000000;0.993319
1420.000000;1.079337
1419.000000;1.145097
1418.000000;1.290739
1417.000000;1.575165
1416.000000;1.651406
1415.000000;1.349600
1414.000000;1.098389
1413.000000;0.956147
1412.000000;0.869366
1411.000000;0.921733
1410.000000;1.018102
1409.000000;0.929728
1408.000000;0.846222
1407.000000;0.808671
1406.000000;0.827343
1405.000000;0.919357
1404.000000;0.912229
1403.000000;0.807921
1402.000000;0.727589
1401.000000;0.676321
1400.000000;0.686569
1399.000000;0.766979
1398.000000;0.830708
1397.000000;0.748103
1396.000000;0.592346
1395.000000;0.496686
1394.000000;0.503620
1393.000000;0.597326
1392.000000;0.699078
1391.000000;0.670991
1390.000000;0.597062
1389.000000;0.605401
1388.000000;0.733971
1387.000000;0.906256
1386.000000;0.770418
1385.000000;0.598229
1384.000000;0.548213
1383.000000;0.592907
1382.000000;0.787153
1381.000000;1.078393
1380.000000;1.203707
1379.000000;1.228904
1378.000000;1.224937
1377.000000;1.057377
1376.000000;0.874199
1375.000000;0.773949
1374.000000;0.767092
1373.000000;0.872939
1372.000000;1.088870
1371.000000;1.220796
1370.000000;1.088737
1369.000000;0.965492
1368.000000;0.887566
1367.000000;0.813737
1366.000000;0.774499
1365.000000;0.875469
1364.000000;1.169391
1363.000000;1.099073
1362.000000;0.830243
1361.000000;0.723084
1360.000000;0.719977
1359.000000;0.798912
1358.000000;0.754024
1357.000000;0.634091
1356.000000;0.607916
1355.000000;0.691290
1354.000000;0.770190
1353.000000;0.728200
1352.000000;0.713451
1351.000000;0.669551
1350.000000;0.562111
1349.000000;0.511590
1348.000000;0.518653
1347.000000;0.530178
1346.000000;0.582298
1345.000000;0.768105
1344.000000;1.081978
1343.000000;1.076179
1342.000000;0.841027
1341.000000;0.715456
1340.000000;0.701344
1339.000000;0.778784
1338.000000;0.901779
1337.000000;0.929805
1336.000000;0.844919
1335.000000;0.815502
1334.000000;0.892098
1333.000000;1.200537
1332.000000;1.449092
1331.000000;0.982339
1330.000000;0.787273
1329.000000;0.739944
1328.000000;0.781632
1327.000000;0.802052
1326.000000;0.807870
1325.000000;1.234569
1324.000000;1.157293
1323.000000;0.774220
1322.000000;0.743596
1321.000000;0.884227
1320.000000;1.143393
1319.000000;1.193412
1318.000000;0.952811
1317.000000;0.731268
1316.000000;0.606893
1315.000000;0.574278
1314.000000;0.544238
1313.000000;0.498003
1312.000000;0.521870
1311.000000;0.672409
1310.000000;0.974877
1309.000000;1.019632
1308.000000;0.864665
1307.000000;1.175090
1306.000000;1.373832
1305.000000;0.881060
1304.000000;0.739316
1303.000000;0.705630
1302.000000;0.714261
1301.000000;0.652121
1300.000000;0.552319
1299.000000;0.534932
1298.000000;0.620328
1297.000000;0.770180
1296.000000;0.864142
1295.000000;0.666017
1294.000000;0.509768
1293.000000;0.535490
1292.000000;0.831869
1291.000000;1.686904
1290.000000;0.966513
1289.000000;0.775714
1288.000000;0.676822
1287.000000;0.685817
1286.000000;0.809030
1285.000000;0.894870
1284.000000;0.843575
1283.000000;0.755664
1282.000000;0.753072
1281.000000;0.898348
1280.000000;1.196180
1279.000000;1.350825
1278.000000;1.717026
1277.000000;1.339478
1276.000000;0.897720
1275.000000;0.763223
1274.000000;0.691166
1273.000000;0.646401
1272.000000;0.639411
1271.000000;0.691414
1270.000000;0.770125
1269.000000;0.793778
1268.000000;0.929971
1267.000000;1.441137
1266.000000;0.772263
1265.000000;0.495872
1264.000000;0.404016
1263.000000;0.387634
1262.000000;0.409646
1261.000000;0.426181
1260.000000;0.456815
1259.000000;0.546653
1258.000000;0.787690
1257.000000;1.078029
1256.000000;0.775878
1255.000000;0.574133
1254.000000;0.531918
1253.000000;0.589485
1252.000000;0.683068
1251.000000;0.729168
1250.000000;0.776685
1249.000000;0.889442
1248.000000;1.043247
1247.000000;0.956927
1246.000000;0.785392
1245.000000;0.748997
1244.000000;0.841828
1243.000000;1.023305
1242.000000;0.907110
1241.000000;0.641171
1240.000000;0.466793
1239.000000;0.379186
1238.000000;0.364650
1237.000000;0.405105
1236.000000;0.493946
1235.000000;0.596536
1234.000000;0.535181
1233.000000;0.400846
1232.000000;0.348020
1231.000000;0.363100
1230.000000;0.410820
1229.000000;0.461594
1228.000000;0.500044
1227.000000;0.539509
1226.000000;0.617964
1225.000000;0.723810
1224.000000;0.750130
1223.000000;0.711502
1222.000000;0.743785
1221.000000;0.808389
1220.000000;0.688807
1219.000000;0.581873
1218.000000;0.653297
1217.000000;0.866366
1216.000000;0.695528
1215.000000;0.533125
1214.000000;0.557893
1213.000000;0.688525
1212.000000;0.773961
1211.000000;0.669627
1210.000000;0.548440
1209.000000;0.547688
1208.000000;0.688614
1207.000000;0.906990
1206.000000;0.965404
1205.000000;0.869944
1204.000000;0.864104
1203.000000;0.998022
1202.000000;0.957084
1201.000000;0.751043
1200.000000;0.618959
