Criado como novo conjunto de dados;"2706_e01_daniel.spp","92886.9 Secs"
cm-1;Abs
10000.000000;0.842189
9999.000000;0.843007
9998.000000;0.843826
9997.000000;0.844647
9996.000000;0.845468
9995.000000;0.846295
9994.000000;0.847116
9993.000000;0.847951
9992.000000;0.848765
9991.000000;0.849622
9990.000000;0.850398
9989.000000;0.851497
9988.000000;0.852717
9987.000000;0.853255
9986.000000;0.853006
9985.000000;0.852243
9984.000000;0.851338
9983.000000;0.850346
9982.000000;0.849203
9981.000000;0.848042
9980.000000;0.847235
9979.000000;0.847105
9978.000000;0.847602
9977.000000;0.848278
9976.000000;0.848611
9975.000000;0.848461
9974.000000;0.848202
9973.000000;0.848313
9972.000000;0.848845
9971.000000;0.849406
9970.000000;0.849628
9969.000000;0.849497
9968.000000;0.849171
9967.000000;0.848747
9966.000000;0.848345
9965.000000;0.848240
9964.000000;0.848623
9963.000000;0.849246
9962.000000;0.849549
9961.000000;0.849197
9960.000000;0.848402
9959.000000;0.847665
9958.000000;0.847348
9957.000000;0.847491
9956.000000;0.847877
9955.000000;0.848188
9954.000000;0.848216
9953.000000;0.847991
9952.000000;0.847692
9951.000000;0.847405
9950.000000;0.847064
9949.000000;0.846625
9948.000000;0.846218
9947.000000;0.846025
9946.000000;0.846100
9945.000000;0.846350
9944.000000;0.846643
9943.000000;0.846861
9942.000000;0.846932
9941.000000;0.846896
9940.000000;0.846901
9939.000000;0.847016
9938.000000;0.847084
9937.000000;0.846863
9936.000000;0.846343
9935.000000;0.845812
9934.000000;0.845550
9933.000000;0.845532
9932.000000;0.845490
9931.000000;0.845229
9930.000000;0.844811
9929.000000;0.844428
9928.000000;0.844141
9927.000000;0.843815
9926.000000;0.843338
9925.000000;0.842860
9924.000000;0.842721
9923.000000;0.843074
9922.000000;0.843650
9921.000000;0.843998
9920.000000;0.843968
9919.000000;0.843837
9918.000000;0.843910
9917.000000;0.844154
9916.000000;0.844319
9915.000000;0.844329
9914.000000;0.844336
9913.000000;0.844416
9912.000000;0.844442
9911.000000;0.844334
9910.000000;0.844229
9909.000000;0.844229
9908.000000;0.844162
9907.000000;0.843839
9906.000000;0.843464
9905.000000;0.843479
9904.000000;0.843931
9903.000000;0.844286
9902.000000;0.844012
9901.000000;0.843173
9900.000000;0.842254
9899.000000;0.841597
9898.000000;0.841263
9897.000000;0.841305
9896.000000;0.841803
9895.000000;0.842572
9894.000000;0.843126
9893.000000;0.843093
9892.000000;0.842525
9891.000000;0.841726
9890.000000;0.840954
9889.000000;0.840435
9888.000000;0.840411
9887.000000;0.840913
9886.000000;0.841586
9885.000000;0.842005
9884.000000;0.842156
9883.000000;0.842361
9882.000000;0.842707
9881.000000;0.842825
9880.000000;0.842380
9879.000000;0.841578
9878.000000;0.841007
9877.000000;0.841018
9876.000000;0.841406
9875.000000;0.841630
9874.000000;0.841251
9873.000000;0.840267
9872.000000;0.839161
9871.000000;0.838598
9870.000000;0.838899
9869.000000;0.839756
9868.000000;0.840515
9867.000000;0.840774
9866.000000;0.840656
9865.000000;0.840526
9864.000000;0.840566
9863.000000;0.840658
9862.000000;0.840589
9861.000000;0.840298
9860.000000;0.839952
9859.000000;0.839806
9858.000000;0.839927
9857.000000;0.840058
9856.000000;0.839817
9855.000000;0.839106
9854.000000;0.838269
9853.000000;0.837807
9852.000000;0.837948
9851.000000;0.838484
9850.000000;0.838964
9849.000000;0.839046
9848.000000;0.838750
9847.000000;0.838403
9846.000000;0.838333
9845.000000;0.838578
9844.000000;0.838926
9843.000000;0.839170
9842.000000;0.839244
9841.000000;0.839099
9840.000000;0.838647
9839.000000;0.837956
9838.000000;0.837348
9837.000000;0.837129
9836.000000;0.837231
9835.000000;0.837300
9834.000000;0.837127
9833.000000;0.836878
9832.000000;0.836860
9831.000000;0.837178
9830.000000;0.837667
9829.000000;0.838075
9828.000000;0.838230
9827.000000;0.838117
9826.000000;0.837866
9825.000000;0.837674
9824.000000;0.837695
9823.000000;0.837950
9822.000000;0.838322
9821.000000;0.838610
9820.000000;0.838627
9819.000000;0.838305
9818.000000;0.837716
9817.000000;0.836999
9816.000000;0.836281
9815.000000;0.835669
9814.000000;0.835267
9813.000000;0.835140
9812.000000;0.835296
9811.000000;0.835734
9810.000000;0.836439
9809.000000;0.837245
9808.000000;0.837798
9807.000000;0.837793
9806.000000;0.837257
9805.000000;0.836505
9804.000000;0.835805
9803.000000;0.835207
9802.000000;0.834704
9801.000000;0.834398
9800.000000;0.834425
9799.000000;0.834783
9798.000000;0.835303
9797.000000;0.835742
9796.000000;0.835897
9795.000000;0.835701
9794.000000;0.835261
9793.000000;0.834758
9792.000000;0.834290
9791.000000;0.833891
9790.000000;0.833682
9789.000000;0.833840
9788.000000;0.834331
9787.000000;0.834786
9786.000000;0.834799
9785.000000;0.834323
9784.000000;0.833710
9783.000000;0.833356
9782.000000;0.833370
9781.000000;0.833549
9780.000000;0.833620
9779.000000;0.833499
9778.000000;0.833334
9777.000000;0.833286
9776.000000;0.833331
9775.000000;0.833344
9774.000000;0.833333
9773.000000;0.833403
9772.000000;0.833480
9771.000000;0.833281
9770.000000;0.832691
9769.000000;0.832016
9768.000000;0.831682
9767.000000;0.831758
9766.000000;0.831961
9765.000000;0.832064
9764.000000;0.832109
9763.000000;0.832220
9762.000000;0.832381
9761.000000;0.832497
9760.000000;0.832571
9759.000000;0.832733
9758.000000;0.833099
9757.000000;0.833620
9756.000000;0.834055
9755.000000;0.834129
9754.000000;0.833760
9753.000000;0.833121
9752.000000;0.832457
9751.000000;0.831905
9750.000000;0.831509
9749.000000;0.831315
9748.000000;0.831325
9747.000000;0.831424
9746.000000;0.831474
9745.000000;0.831452
9744.000000;0.831437
9743.000000;0.831474
9742.000000;0.831551
9741.000000;0.831626
9740.000000;0.831586
9739.000000;0.831238
9738.000000;0.830529
9737.000000;0.829735
9736.000000;0.829267
9735.000000;0.829262
9734.000000;0.829498
9733.000000;0.829719
9732.000000;0.829883
9731.000000;0.830062
9730.000000;0.830266
9729.000000;0.830442
9728.000000;0.830532
9727.000000;0.830479
9726.000000;0.830285
9725.000000;0.830106
9724.000000;0.830160
9723.000000;0.830454
9722.000000;0.830734
9721.000000;0.830770
9720.000000;0.830584
9719.000000;0.830301
9718.000000;0.829956
9717.000000;0.829574
9716.000000;0.829311
9715.000000;0.829303
9714.000000;0.829406
9713.000000;0.829308
9712.000000;0.828919
9711.000000;0.828485
9710.000000;0.828262
9709.000000;0.828230
9708.000000;0.828222
9707.000000;0.828237
9706.000000;0.828437
9705.000000;0.828840
9704.000000;0.829143
9703.000000;0.828950
9702.000000;0.828179
9701.000000;0.827214
9700.000000;0.826637
9699.000000;0.826805
9698.000000;0.827589
9697.000000;0.828461
9696.000000;0.828869
9695.000000;0.828650
9694.000000;0.828129
9693.000000;0.827746
9692.000000;0.827609
9691.000000;0.827464
9690.000000;0.827112
9689.000000;0.826693
9688.000000;0.826467
9687.000000;0.826449
9686.000000;0.826415
9685.000000;0.826218
9684.000000;0.825944
9683.000000;0.825768
9682.000000;0.825783
9681.000000;0.825960
9680.000000;0.826132
9679.000000;0.826050
9678.000000;0.825591
9677.000000;0.824959
9676.000000;0.824527
9675.000000;0.824445
9674.000000;0.824526
9673.000000;0.824560
9672.000000;0.824580
9671.000000;0.824736
9670.000000;0.825040
9669.000000;0.825372
9668.000000;0.825620
9667.000000;0.825698
9666.000000;0.825486
9665.000000;0.824932
9664.000000;0.824242
9663.000000;0.823827
9662.000000;0.824000
9661.000000;0.824701
9660.000000;0.825514
9659.000000;0.825993
9658.000000;0.826010
9657.000000;0.825811
9656.000000;0.825693
9655.000000;0.825656
9654.000000;0.825459
9653.000000;0.824993
9652.000000;0.824427
9651.000000;0.823953
9650.000000;0.823537
9649.000000;0.823084
9648.000000;0.822707
9647.000000;0.822667
9646.000000;0.823066
9645.000000;0.823704
9644.000000;0.824250
9643.000000;0.824469
9642.000000;0.824320
9641.000000;0.823955
9640.000000;0.823643
9639.000000;0.823578
9638.000000;0.823737
9637.000000;0.823952
9636.000000;0.824112
9635.000000;0.824203
9634.000000;0.824173
9633.000000;0.823910
9632.000000;0.823395
9631.000000;0.822809
9630.000000;0.822375
9629.000000;0.822149
9628.000000;0.822038
9627.000000;0.821996
9626.000000;0.822086
9625.000000;0.822299
9624.000000;0.822429
9623.000000;0.822270
9622.000000;0.821920
9621.000000;0.821774
9620.000000;0.822089
9619.000000;0.822648
9618.000000;0.822961
9617.000000;0.822781
9616.000000;0.822324
9615.000000;0.821987
9614.000000;0.821961
9613.000000;0.822159
9612.000000;0.822383
9611.000000;0.822496
9610.000000;0.822480
9609.000000;0.822414
9608.000000;0.822369
9607.000000;0.822319
9606.000000;0.822188
9605.000000;0.821988
9604.000000;0.821814
9603.000000;0.821679
9602.000000;0.821472
9601.000000;0.821140
9600.000000;0.820808
9599.000000;0.820630
9598.000000;0.820599
9597.000000;0.820595
9596.000000;0.820555
9595.000000;0.820492
9594.000000;0.820404
9593.000000;0.820283
9592.000000;0.820192
9591.000000;0.820190
9590.000000;0.820207
9589.000000;0.820118
9588.000000;0.819984
9587.000000;0.820063
9586.000000;0.820484
9585.000000;0.821013
9584.000000;0.821251
9583.000000;0.821054
9582.000000;0.820657
9581.000000;0.820381
9580.000000;0.820320
9579.000000;0.820351
9578.000000;0.820358
9577.000000;0.820358
9576.000000;0.820442
9575.000000;0.820647
9574.000000;0.820907
9573.000000;0.821056
9572.000000;0.820905
9571.000000;0.820418
9570.000000;0.819840
9569.000000;0.819549
9568.000000;0.819710
9567.000000;0.820118
9566.000000;0.820419
9565.000000;0.820412
9564.000000;0.820099
9563.000000;0.819556
9562.000000;0.818898
9561.000000;0.818285
9560.000000;0.817821
9559.000000;0.817485
9558.000000;0.817263
9557.000000;0.817264
9556.000000;0.817541
9555.000000;0.817879
9554.000000;0.817977
9553.000000;0.817834
9552.000000;0.817715
9551.000000;0.817713
9550.000000;0.817638
9549.000000;0.817428
9548.000000;0.817399
9547.000000;0.817856
9546.000000;0.818612
9545.000000;0.819127
9544.000000;0.819050
9543.000000;0.818465
9542.000000;0.817675
9541.000000;0.816934
9540.000000;0.816384
9539.000000;0.816092
9538.000000;0.816086
9537.000000;0.816377
9536.000000;0.816921
9535.000000;0.817540
9534.000000;0.817941
9533.000000;0.817906
9532.000000;0.817417
9531.000000;0.816606
9530.000000;0.815702
9529.000000;0.815069
9528.000000;0.815105
9527.000000;0.815921
9526.000000;0.817160
9525.000000;0.818260
9524.000000;0.818856
9523.000000;0.818880
9522.000000;0.818426
9521.000000;0.817669
9520.000000;0.816849
9519.000000;0.816158
9518.000000;0.815650
9517.000000;0.815323
9516.000000;0.815216
9515.000000;0.815317
9514.000000;0.815477
9513.000000;0.815528
9512.000000;0.815444
9511.000000;0.815277
9510.000000;0.815044
9509.000000;0.814822
9508.000000;0.814808
9507.000000;0.815087
9506.000000;0.815400
9505.000000;0.815378
9504.000000;0.814995
9503.000000;0.814583
9502.000000;0.814399
9501.000000;0.814375
9500.000000;0.814314
9499.000000;0.814138
9498.000000;0.813859
9497.000000;0.813491
9496.000000;0.813090
9495.000000;0.812789
9494.000000;0.812690
9493.000000;0.812773
9492.000000;0.812942
9491.000000;0.813128
9490.000000;0.813322
9489.000000;0.813555
9488.000000;0.813838
9487.000000;0.814075
9486.000000;0.814122
9485.000000;0.813991
9484.000000;0.813907
9483.000000;0.814031
9482.000000;0.814188
9481.000000;0.814042
9480.000000;0.813514
9479.000000;0.812874
9478.000000;0.812444
9477.000000;0.812367
9476.000000;0.812621
9475.000000;0.813038
9474.000000;0.813307
9473.000000;0.813174
9472.000000;0.812713
9471.000000;0.812280
9470.000000;0.812137
9469.000000;0.812255
9468.000000;0.812473
9467.000000;0.812673
9466.000000;0.812750
9465.000000;0.812617
9464.000000;0.812331
9463.000000;0.812086
9462.000000;0.811996
9461.000000;0.811983
9460.000000;0.811938
9459.000000;0.811848
9458.000000;0.811720
9457.000000;0.811513
9456.000000;0.811257
9455.000000;0.811092
9454.000000;0.811095
9453.000000;0.811161
9452.000000;0.811141
9451.000000;0.811004
9450.000000;0.810789
9449.000000;0.810497
9448.000000;0.810131
9447.000000;0.809774
9446.000000;0.809530
9445.000000;0.809440
9444.000000;0.809480
9443.000000;0.809589
9442.000000;0.809695
9441.000000;0.809810
9440.000000;0.810085
9439.000000;0.810603
9438.000000;0.811120
9437.000000;0.811193
9436.000000;0.810682
9435.000000;0.809961
9434.000000;0.809529
9433.000000;0.809528
9432.000000;0.809753
9431.000000;0.809969
9430.000000;0.810071
9429.000000;0.810023
9428.000000;0.809832
9427.000000;0.809552
9426.000000;0.809231
9425.000000;0.808882
9424.000000;0.808570
9423.000000;0.808434
9422.000000;0.808533
9421.000000;0.808762
9420.000000;0.808999
9419.000000;0.809244
9418.000000;0.809519
9417.000000;0.809749
9416.000000;0.809844
9415.000000;0.809815
9414.000000;0.809701
9413.000000;0.809479
9412.000000;0.809183
9411.000000;0.808999
9410.000000;0.809069
9409.000000;0.809263
9408.000000;0.809315
9407.000000;0.809112
9406.000000;0.808736
9405.000000;0.808300
9404.000000;0.807946
9403.000000;0.807900
9402.000000;0.808266
9401.000000;0.808750
9400.000000;0.808842
9399.000000;0.808361
9398.000000;0.807660
9397.000000;0.807210
9396.000000;0.807149
9395.000000;0.807288
9394.000000;0.807407
9393.000000;0.807440
9392.000000;0.807455
9391.000000;0.807568
9390.000000;0.807813
9389.000000;0.808020
9388.000000;0.807916
9387.000000;0.807419
9386.000000;0.806796
9385.000000;0.806431
9384.000000;0.806451
9383.000000;0.806644
9382.000000;0.806707
9381.000000;0.806490
9380.000000;0.806024
9379.000000;0.805425
9378.000000;0.804881
9377.000000;0.804646
9376.000000;0.804894
9375.000000;0.805474
9374.000000;0.805903
9373.000000;0.805781
9372.000000;0.805230
9371.000000;0.804809
9370.000000;0.804946
9369.000000;0.805536
9368.000000;0.806153
9367.000000;0.806507
9366.000000;0.806587
9365.000000;0.806493
9364.000000;0.806296
9363.000000;0.806050
9362.000000;0.805765
9361.000000;0.805390
9360.000000;0.804908
9359.000000;0.804468
9358.000000;0.804292
9357.000000;0.804440
9356.000000;0.804781
9355.000000;0.805146
9354.000000;0.805434
9353.000000;0.805568
9352.000000;0.805525
9351.000000;0.805417
9350.000000;0.805401
9349.000000;0.805442
9348.000000;0.805323
9347.000000;0.804962
9346.000000;0.804594
9345.000000;0.804509
9344.000000;0.804659
9343.000000;0.804684
9342.000000;0.804337
9341.000000;0.803804
9340.000000;0.803559
9339.000000;0.803878
9338.000000;0.804531
9337.000000;0.804946
9336.000000;0.804738
9335.000000;0.804046
9334.000000;0.803335
9333.000000;0.802921
9332.000000;0.802790
9331.000000;0.802827
9330.000000;0.803045
9329.000000;0.803465
9328.000000;0.803918
9327.000000;0.804107
9326.000000;0.803909
9325.000000;0.803506
9324.000000;0.803170
9323.000000;0.802967
9322.000000;0.802760
9321.000000;0.802472
9320.000000;0.802239
9319.000000;0.802220
9318.000000;0.802321
9317.000000;0.802271
9316.000000;0.801990
9315.000000;0.801721
9314.000000;0.801702
9313.000000;0.801870
9312.000000;0.802002
9311.000000;0.802047
9310.000000;0.802106
9309.000000;0.802180
9308.000000;0.802171
9307.000000;0.802114
9306.000000;0.802153
9305.000000;0.802253
9304.000000;0.802195
9303.000000;0.801946
9302.000000;0.801793
9301.000000;0.801948
9300.000000;0.802209
9299.000000;0.802211
9298.000000;0.801878
9297.000000;0.801434
9296.000000;0.801067
9295.000000;0.800794
9294.000000;0.800595
9293.000000;0.800479
9292.000000;0.800408
9291.000000;0.800347
9290.000000;0.800367
9289.000000;0.800560
9288.000000;0.800831
9287.000000;0.800951
9286.000000;0.800825
9285.000000;0.800586
9284.000000;0.800393
9283.000000;0.800288
9282.000000;0.800248
9281.000000;0.800245
9280.000000;0.800199
9279.000000;0.800041
9278.000000;0.799873
9277.000000;0.799902
9276.000000;0.800131
9275.000000;0.800258
9274.000000;0.800044
9273.000000;0.799658
9272.000000;0.799487
9271.000000;0.799629
9270.000000;0.799764
9269.000000;0.799559
9268.000000;0.799072
9267.000000;0.798675
9266.000000;0.798688
9265.000000;0.799131
9264.000000;0.799774
9263.000000;0.800318
9262.000000;0.800537
9261.000000;0.800377
9260.000000;0.799989
9259.000000;0.799646
9258.000000;0.799542
9257.000000;0.799625
9256.000000;0.799644
9255.000000;0.799398
9254.000000;0.798905
9253.000000;0.798342
9252.000000;0.797897
9251.000000;0.797709
9250.000000;0.797873
9249.000000;0.798350
9248.000000;0.798888
9247.000000;0.799154
9246.000000;0.799011
9245.000000;0.798607
9244.000000;0.798186
9243.000000;0.797880
9242.000000;0.797705
9241.000000;0.797634
9240.000000;0.797601
9239.000000;0.797523
9238.000000;0.797390
9237.000000;0.797318
9236.000000;0.797414
9235.000000;0.797623
9234.000000;0.797749
9233.000000;0.797641
9232.000000;0.797308
9231.000000;0.796916
9230.000000;0.796696
9229.000000;0.796789
9228.000000;0.797098
9227.000000;0.797337
9226.000000;0.797302
9225.000000;0.797059
9224.000000;0.796808
9223.000000;0.796613
9222.000000;0.796399
9221.000000;0.796154
9220.000000;0.795983
9219.000000;0.795936
9218.000000;0.795923
9217.000000;0.795847
9216.000000;0.795747
9215.000000;0.795745
9214.000000;0.795915
9213.000000;0.796235
9212.000000;0.796573
9211.000000;0.796709
9210.000000;0.796460
9209.000000;0.795886
9208.000000;0.795300
9207.000000;0.794992
9206.000000;0.794999
9205.000000;0.795181
9204.000000;0.795451
9203.000000;0.795788
9202.000000;0.796073
9201.000000;0.796086
9200.000000;0.795721
9199.000000;0.795146
9198.000000;0.794652
9197.000000;0.794394
9196.000000;0.794320
9195.000000;0.794316
9194.000000;0.794347
9193.000000;0.794433
9192.000000;0.794545
9191.000000;0.794587
9190.000000;0.794519
9189.000000;0.794439
9188.000000;0.794478
9187.000000;0.794633
9186.000000;0.794755
9185.000000;0.794722
9184.000000;0.794579
9183.000000;0.794448
9182.000000;0.794375
9181.000000;0.794324
9180.000000;0.794303
9179.000000;0.794379
9178.000000;0.794556
9177.000000;0.794732
9176.000000;0.794829
9175.000000;0.794908
9174.000000;0.795052
9173.000000;0.795159
9172.000000;0.794963
9171.000000;0.794333
9170.000000;0.793504
9169.000000;0.792898
9168.000000;0.792751
9167.000000;0.792971
9166.000000;0.793328
9165.000000;0.793678
9164.000000;0.793945
9163.000000;0.794019
9162.000000;0.793799
9161.000000;0.793320
9160.000000;0.792760
9159.000000;0.792289
9158.000000;0.791998
9157.000000;0.791924
9156.000000;0.792068
9155.000000;0.792348
9154.000000;0.792635
9153.000000;0.792863
9152.000000;0.793061
9151.000000;0.793246
9150.000000;0.793354
9149.000000;0.793324
9148.000000;0.793193
9147.000000;0.793051
9146.000000;0.792920
9145.000000;0.792747
9144.000000;0.792477
9143.000000;0.792123
9142.000000;0.791758
9141.000000;0.791483
9140.000000;0.791356
9139.000000;0.791351
9138.000000;0.791373
9137.000000;0.791330
9136.000000;0.791162
9135.000000;0.790858
9134.000000;0.790493
9133.000000;0.790251
9132.000000;0.790275
9131.000000;0.790500
9130.000000;0.790717
9129.000000;0.790837
9128.000000;0.790956
9127.000000;0.791099
9126.000000;0.791089
9125.000000;0.790792
9124.000000;0.790372
9123.000000;0.790121
9122.000000;0.790114
9121.000000;0.790215
9120.000000;0.790351
9119.000000;0.790551
9118.000000;0.790728
9117.000000;0.790679
9116.000000;0.790397
9115.000000;0.790159
9114.000000;0.790179
9113.000000;0.790338
9112.000000;0.790385
9111.000000;0.790275
9110.000000;0.790140
9109.000000;0.790027
9108.000000;0.789861
9107.000000;0.789641
9106.000000;0.789484
9105.000000;0.789444
9104.000000;0.789415
9103.000000;0.789272
9102.000000;0.789020
9101.000000;0.788767
9100.000000;0.788645
9099.000000;0.788765
9098.000000;0.789151
9097.000000;0.789639
9096.000000;0.789939
9095.000000;0.789889
9094.000000;0.789603
9093.000000;0.789306
9092.000000;0.789068
9091.000000;0.788815
9090.000000;0.788543
9089.000000;0.788389
9088.000000;0.788433
9087.000000;0.788567
9086.000000;0.788630
9085.000000;0.788614
9084.000000;0.788622
9083.000000;0.788681
9082.000000;0.788710
9081.000000;0.788666
9080.000000;0.788608
9079.000000;0.788569
9078.000000;0.788434
9077.000000;0.788043
9076.000000;0.787387
9075.000000;0.786677
9074.000000;0.786217
9073.000000;0.786216
9072.000000;0.786661
9071.000000;0.787305
9070.000000;0.787817
9069.000000;0.788013
9068.000000;0.787963
9067.000000;0.787858
9066.000000;0.787796
9065.000000;0.787724
9064.000000;0.787572
9063.000000;0.787374
9062.000000;0.787259
9061.000000;0.787316
9060.000000;0.787489
9059.000000;0.787584
9058.000000;0.787430
9057.000000;0.787043
9056.000000;0.786600
9055.000000;0.786251
9054.000000;0.786023
9053.000000;0.785908
9052.000000;0.785954
9051.000000;0.786148
9050.000000;0.786298
9049.000000;0.786172
9048.000000;0.785769
9047.000000;0.785337
9046.000000;0.785101
9045.000000;0.785057
9044.000000;0.785074
9043.000000;0.785086
9042.000000;0.785129
9041.000000;0.785240
9040.000000;0.785405
9039.000000;0.785590
9038.000000;0.785751
9037.000000;0.785832
9036.000000;0.785805
9035.000000;0.785716
9034.000000;0.785658
9033.000000;0.785686
9032.000000;0.785755
9031.000000;0.785741
9030.000000;0.785559
9029.000000;0.785268
9028.000000;0.785049
9027.000000;0.785034
9026.000000;0.785144
9025.000000;0.785155
9024.000000;0.784933
9023.000000;0.784570
9022.000000;0.784281
9021.000000;0.784186
9020.000000;0.784227
9019.000000;0.784258
9018.000000;0.784188
9017.000000;0.784058
9016.000000;0.783993
9015.000000;0.784082
9014.000000;0.784283
9013.000000;0.784457
9012.000000;0.784476
9011.000000;0.784315
9010.000000;0.784077
9009.000000;0.783954
9008.000000;0.784096
9007.000000;0.784441
9006.000000;0.784713
9005.000000;0.784656
9004.000000;0.784288
9003.000000;0.783849
9002.000000;0.783555
9001.000000;0.783467
9000.000000;0.783567
8999.000000;0.783800
8998.000000;0.783997
8997.000000;0.783939
8996.000000;0.783599
8995.000000;0.783226
8994.000000;0.783089
8993.000000;0.783182
8992.000000;0.783304
8991.000000;0.783338
8990.000000;0.783325
8989.000000;0.783282
8988.000000;0.783097
8987.000000;0.782673
8986.000000;0.782112
8985.000000;0.781681
8984.000000;0.781606
8983.000000;0.781884
8982.000000;0.782285
8981.000000;0.782548
8980.000000;0.782592
8979.000000;0.782550
8978.000000;0.782557
8977.000000;0.782582
8976.000000;0.782501
8975.000000;0.782299
8974.000000;0.782105
8973.000000;0.782015
8972.000000;0.781972
8971.000000;0.781855
8970.000000;0.781647
8969.000000;0.781460
8968.000000;0.781406
8967.000000;0.781473
8966.000000;0.781554
8965.000000;0.781581
8964.000000;0.781598
8963.000000;0.781658
8962.000000;0.781700
8961.000000;0.781603
8960.000000;0.781367
8959.000000;0.781139
8958.000000;0.781000
8957.000000;0.780842
8956.000000;0.780561
8955.000000;0.780302
8954.000000;0.780347
8953.000000;0.780750
8952.000000;0.781232
8951.000000;0.781477
8950.000000;0.781431
8949.000000;0.781259
8948.000000;0.781087
8947.000000;0.780900
8946.000000;0.780641
8945.000000;0.780319
8944.000000;0.780003
8943.000000;0.779757
8942.000000;0.779587
8941.000000;0.779439
8940.000000;0.779254
8939.000000;0.779044
8938.000000;0.778911
8937.000000;0.778958
8936.000000;0.779186
8935.000000;0.779498
8934.000000;0.779775
8933.000000;0.779936
8932.000000;0.779933
8931.000000;0.779751
8930.000000;0.779443
8929.000000;0.779144
8928.000000;0.779021
8927.000000;0.779155
8926.000000;0.779441
8925.000000;0.779636
8924.000000;0.779563
8923.000000;0.779266
8922.000000;0.778935
8921.000000;0.778686
8920.000000;0.778494
8919.000000;0.778347
8918.000000;0.778354
8917.000000;0.778602
8916.000000;0.778950
8915.000000;0.779098
8914.000000;0.778890
8913.000000;0.778470
8912.000000;0.778109
8911.000000;0.777948
8910.000000;0.777934
8909.000000;0.777941
8908.000000;0.777898
8907.000000;0.777801
8906.000000;0.777690
8905.000000;0.777622
8904.000000;0.777660
8903.000000;0.777843
8902.000000;0.778144
8901.000000;0.778451
8900.000000;0.778625
8899.000000;0.778622
8898.000000;0.778539
8897.000000;0.778471
8896.000000;0.778352
8895.000000;0.778047
8894.000000;0.777633
8893.000000;0.777429
8892.000000;0.777630
8891.000000;0.778007
8890.000000;0.778131
8889.000000;0.777885
8888.000000;0.777555
8887.000000;0.777426
8886.000000;0.777470
8885.000000;0.777521
8884.000000;0.777568
8883.000000;0.777689
8882.000000;0.777815
8881.000000;0.777759
8880.000000;0.777492
8879.000000;0.777217
8878.000000;0.777098
8877.000000;0.777057
8876.000000;0.776912
8875.000000;0.776620
8874.000000;0.776330
8873.000000;0.776195
8872.000000;0.776233
8871.000000;0.776346
8870.000000;0.776435
8869.000000;0.776476
8868.000000;0.776500
8867.000000;0.776530
8866.000000;0.776548
8865.000000;0.776528
8864.000000;0.776454
8863.000000;0.776300
8862.000000;0.776063
8861.000000;0.775840
8860.000000;0.775797
8859.000000;0.775969
8858.000000;0.776152
8857.000000;0.776088
8856.000000;0.775783
8855.000000;0.775499
8854.000000;0.775434
8853.000000;0.775519
8852.000000;0.775592
8851.000000;0.775630
8850.000000;0.775703
8849.000000;0.775792
8848.000000;0.775792
8847.000000;0.775671
8846.000000;0.775516
8845.000000;0.775409
8844.000000;0.775358
8843.000000;0.775337
8842.000000;0.775323
8841.000000;0.775272
8840.000000;0.775166
8839.000000;0.775091
8838.000000;0.775179
8837.000000;0.775397
8836.000000;0.775492
8835.000000;0.775223
8834.000000;0.774642
8833.000000;0.774067
8832.000000;0.773794
8831.000000;0.773881
8830.000000;0.774207
8829.000000;0.774631
8828.000000;0.775057
8827.000000;0.775387
8826.000000;0.775502
8825.000000;0.775332
8824.000000;0.774933
8823.000000;0.774497
8822.000000;0.774261
8821.000000;0.774340
8820.000000;0.774610
8819.000000;0.774787
8818.000000;0.774690
8817.000000;0.774412
8816.000000;0.774203
8815.000000;0.774168
8814.000000;0.774180
8813.000000;0.774080
8812.000000;0.773891
8811.000000;0.773743
8810.000000;0.773664
8809.000000;0.773548
8808.000000;0.773327
8807.000000;0.773083
8806.000000;0.772963
8805.000000;0.773050
8804.000000;0.773318
8803.000000;0.773648
8802.000000;0.773855
8801.000000;0.773790
8800.000000;0.773468
8799.000000;0.773067
8798.000000;0.772755
8797.000000;0.772566
8796.000000;0.772464
8795.000000;0.772456
8794.000000;0.772556
8793.000000;0.772698
8792.000000;0.772787
8791.000000;0.772847
8790.000000;0.773019
8789.000000;0.773346
8788.000000;0.773670
8787.000000;0.773801
8786.000000;0.773755
8785.000000;0.773708
8784.000000;0.773735
8783.000000;0.773698
8782.000000;0.773443
8781.000000;0.773030
8780.000000;0.772673
8779.000000;0.772495
8778.000000;0.772440
8777.000000;0.772433
8776.000000;0.772508
8775.000000;0.772702
8774.000000;0.772929
8773.000000;0.773040
8772.000000;0.773013
8771.000000;0.772955
8770.000000;0.772949
8769.000000;0.772941
8768.000000;0.772834
8767.000000;0.772604
8766.000000;0.772312
8765.000000;0.772055
8764.000000;0.771914
8763.000000;0.771913
8762.000000;0.771977
8761.000000;0.771991
8760.000000;0.771933
8759.000000;0.771919
8758.000000;0.772063
8757.000000;0.772315
8756.000000;0.772480
8755.000000;0.772398
8754.000000;0.772087
8753.000000;0.771729
8752.000000;0.771527
8751.000000;0.771555
8750.000000;0.771698
8749.000000;0.771769
8748.000000;0.771699
8747.000000;0.771605
8746.000000;0.771668
8745.000000;0.771923
8744.000000;0.772213
8743.000000;0.772334
8742.000000;0.772224
8741.000000;0.771989
8740.000000;0.771763
8739.000000;0.771583
8738.000000;0.771425
8737.000000;0.771343
8736.000000;0.771434
8735.000000;0.771638
8734.000000;0.771677
8733.000000;0.771333
8732.000000;0.770778
8731.000000;0.770453
8730.000000;0.770617
8729.000000;0.771109
8728.000000;0.771585
8727.000000;0.771861
8726.000000;0.771959
8725.000000;0.771940
8724.000000;0.771850
8723.000000;0.771749
8722.000000;0.771654
8721.000000;0.771479
8720.000000;0.771132
8719.000000;0.770693
8718.000000;0.770392
8717.000000;0.770381
8716.000000;0.770587
8715.000000;0.770814
8714.000000;0.770943
8713.000000;0.770992
8712.000000;0.771024
8711.000000;0.771032
8710.000000;0.770962
8709.000000;0.770824
8708.000000;0.770743
8707.000000;0.770844
8706.000000;0.771091
8705.000000;0.771308
8704.000000;0.771363
8703.000000;0.771270
8702.000000;0.771104
8701.000000;0.770917
8700.000000;0.770767
8699.000000;0.770725
8698.000000;0.770787
8697.000000;0.770838
8696.000000;0.770810
8695.000000;0.770773
8694.000000;0.770804
8693.000000;0.770831
8692.000000;0.770753
8691.000000;0.770648
8690.000000;0.770703
8689.000000;0.770946
8688.000000;0.771171
8687.000000;0.771168
8686.000000;0.770930
8685.000000;0.770604
8684.000000;0.770333
8683.000000;0.770166
8682.000000;0.770067
8681.000000;0.769973
8680.000000;0.769886
8679.000000;0.769894
8678.000000;0.770029
8677.000000;0.770156
8676.000000;0.770116
8675.000000;0.769958
8674.000000;0.769886
8673.000000;0.769979
8672.000000;0.770084
8671.000000;0.770043
8670.000000;0.769878
8669.000000;0.769705
8668.000000;0.769573
8667.000000;0.769492
8666.000000;0.769497
8665.000000;0.769583
8664.000000;0.769637
8663.000000;0.769526
8662.000000;0.769234
8661.000000;0.768871
8660.000000;0.768570
8659.000000;0.768413
8658.000000;0.768381
8657.000000;0.768350
8656.000000;0.768212
8655.000000;0.768031
8654.000000;0.767980
8653.000000;0.768080
8652.000000;0.768135
8651.000000;0.768006
8650.000000;0.767822
8649.000000;0.767796
8648.000000;0.767924
8647.000000;0.768034
8646.000000;0.768058
8645.000000;0.768092
8644.000000;0.768189
8643.000000;0.768257
8642.000000;0.768198
8641.000000;0.768005
8640.000000;0.767724
8639.000000;0.767400
8638.000000;0.767083
8637.000000;0.766809
8636.000000;0.766566
8635.000000;0.766356
8634.000000;0.766276
8633.000000;0.766405
8632.000000;0.766608
8631.000000;0.766619
8630.000000;0.766375
8629.000000;0.766125
8628.000000;0.766132
8627.000000;0.766368
8626.000000;0.766587
8625.000000;0.766620
8624.000000;0.766464
8623.000000;0.766165
8622.000000;0.765782
8621.000000;0.765451
8620.000000;0.765346
8619.000000;0.765500
8618.000000;0.765730
8617.000000;0.765800
8616.000000;0.765650
8615.000000;0.765417
8614.000000;0.765263
8613.000000;0.765216
8612.000000;0.765174
8611.000000;0.765039
8610.000000;0.764810
8609.000000;0.764558
8608.000000;0.764363
8607.000000;0.764270
8606.000000;0.764275
8605.000000;0.764303
8604.000000;0.764220
8603.000000;0.763948
8602.000000;0.763571
8601.000000;0.763254
8600.000000;0.763075
8599.000000;0.762959
8598.000000;0.762808
8597.000000;0.762607
8596.000000;0.762401
8595.000000;0.762236
8594.000000;0.762160
8593.000000;0.762236
8592.000000;0.762452
8591.000000;0.762684
8590.000000;0.762802
8589.000000;0.762790
8588.000000;0.762711
8587.000000;0.762576
8586.000000;0.762348
8585.000000;0.762046
8584.000000;0.761778
8583.000000;0.761625
8582.000000;0.761547
8581.000000;0.761445
8580.000000;0.761264
8579.000000;0.761033
8578.000000;0.760845
8577.000000;0.760805
8576.000000;0.760944
8575.000000;0.761144
8574.000000;0.761184
8573.000000;0.760916
8572.000000;0.760402
8571.000000;0.759864
8570.000000;0.759494
8569.000000;0.759342
8568.000000;0.759349
8567.000000;0.759451
8566.000000;0.759605
8565.000000;0.759748
8564.000000;0.759784
8563.000000;0.759649
8562.000000;0.759384
8561.000000;0.759110
8560.000000;0.758920
8559.000000;0.758816
8558.000000;0.758772
8557.000000;0.758792
8556.000000;0.758879
8555.000000;0.758979
8554.000000;0.759002
8553.000000;0.758905
8552.000000;0.758713
8551.000000;0.758461
8550.000000;0.758180
8549.000000;0.757936
8548.000000;0.757815
8547.000000;0.757827
8546.000000;0.757871
8545.000000;0.757840
8544.000000;0.757735
8543.000000;0.757634
8542.000000;0.757583
8541.000000;0.757546
8540.000000;0.757478
8539.000000;0.757386
8538.000000;0.757304
8537.000000;0.757238
8536.000000;0.757151
8535.000000;0.757001
8534.000000;0.756796
8533.000000;0.756596
8532.000000;0.756467
8531.000000;0.756411
8530.000000;0.756362
8529.000000;0.756259
8528.000000;0.756095
8527.000000;0.755908
8526.000000;0.755725
8525.000000;0.755560
8524.000000;0.755427
8523.000000;0.755331
8522.000000;0.755258
8521.000000;0.755196
8520.000000;0.755156
8519.000000;0.755125
8518.000000;0.755032
8517.000000;0.754837
8516.000000;0.754643
8515.000000;0.754628
8514.000000;0.754832
8513.000000;0.755085
8512.000000;0.755173
8511.000000;0.755047
8510.000000;0.754807
8509.000000;0.754561
8508.000000;0.754369
8507.000000;0.754278
8506.000000;0.754275
8505.000000;0.754229
8504.000000;0.753998
8503.000000;0.753618
8502.000000;0.753302
8501.000000;0.753183
8500.000000;0.753161
8499.000000;0.753046
8498.000000;0.752813
8497.000000;0.752598
8496.000000;0.752496
8495.000000;0.752473
8494.000000;0.752469
8493.000000;0.752504
8492.000000;0.752619
8491.000000;0.752783
8490.000000;0.752895
8489.000000;0.752856
8488.000000;0.752630
8487.000000;0.752260
8486.000000;0.751875
8485.000000;0.751628
8484.000000;0.751582
8483.000000;0.751665
8482.000000;0.751745
8481.000000;0.751751
8480.000000;0.751707
8479.000000;0.751660
8478.000000;0.751617
8477.000000;0.751523
8476.000000;0.751309
8475.000000;0.750965
8474.000000;0.750590
8473.000000;0.750329
8472.000000;0.750238
8471.000000;0.750229
8470.000000;0.750182
8469.000000;0.750089
8468.000000;0.750051
8467.000000;0.750124
8466.000000;0.750240
8465.000000;0.750277
8464.000000;0.750179
8463.000000;0.749986
8462.000000;0.749770
8461.000000;0.749600
8460.000000;0.749537
8459.000000;0.749600
8458.000000;0.749726
8457.000000;0.749798
8456.000000;0.749748
8455.000000;0.749596
8454.000000;0.749402
8453.000000;0.749186
8452.000000;0.748934
8451.000000;0.748674
8450.000000;0.748477
8449.000000;0.748394
8448.000000;0.748404
8447.000000;0.748445
8446.000000;0.748483
8445.000000;0.748512
8444.000000;0.748520
8443.000000;0.748479
8442.000000;0.748382
8441.000000;0.748247
8440.000000;0.748079
8439.000000;0.747849
8438.000000;0.747541
8437.000000;0.747222
8436.000000;0.747030
8435.000000;0.747056
8434.000000;0.747229
8433.000000;0.747340
8432.000000;0.747212
8431.000000;0.746874
8430.000000;0.746538
8429.000000;0.746391
8428.000000;0.746431
8427.000000;0.746513
8426.000000;0.746527
8425.000000;0.746487
8424.000000;0.746459
8423.000000;0.746461
8422.000000;0.746451
8421.000000;0.746382
8420.000000;0.746235
8419.000000;0.746015
8418.000000;0.745750
8417.000000;0.745486
8416.000000;0.745281
8415.000000;0.745174
8414.000000;0.745153
8413.000000;0.745146
8412.000000;0.745063
8411.000000;0.744883
8410.000000;0.744685
8409.000000;0.744577
8408.000000;0.744595
8407.000000;0.744692
8406.000000;0.744796
8405.000000;0.744835
8404.000000;0.744741
8403.000000;0.744504
8402.000000;0.744238
8401.000000;0.744130
8400.000000;0.744242
8399.000000;0.744421
8398.000000;0.744435
8397.000000;0.744192
8396.000000;0.743798
8395.000000;0.743445
8394.000000;0.743276
8393.000000;0.743321
8392.000000;0.743504
8391.000000;0.743683
8390.000000;0.743734
8389.000000;0.743621
8388.000000;0.743397
8387.000000;0.743157
8386.000000;0.742980
8385.000000;0.742896
8384.000000;0.742854
8383.000000;0.742766
8382.000000;0.742590
8381.000000;0.742358
8380.000000;0.742121
8379.000000;0.741911
8378.000000;0.741781
8377.000000;0.741805
8376.000000;0.741959
8375.000000;0.742076
8374.000000;0.741998
8373.000000;0.741777
8372.000000;0.741630
8371.000000;0.741679
8370.000000;0.741829
8369.000000;0.741920
8368.000000;0.741912
8367.000000;0.741878
8366.000000;0.741866
8365.000000;0.741837
8364.000000;0.741732
8363.000000;0.741534
8362.000000;0.741274
8361.000000;0.740995
8360.000000;0.740723
8359.000000;0.740474
8358.000000;0.740276
8357.000000;0.740174
8356.000000;0.740192
8355.000000;0.740283
8354.000000;0.740353
8353.000000;0.740326
8352.000000;0.740196
8351.000000;0.740032
8350.000000;0.739932
8349.000000;0.739944
8348.000000;0.740006
8347.000000;0.739973
8346.000000;0.739760
8345.000000;0.739435
8344.000000;0.739146
8343.000000;0.738971
8342.000000;0.738897
8341.000000;0.738888
8340.000000;0.738919
8339.000000;0.738942
8338.000000;0.738905
8337.000000;0.738828
8336.000000;0.738782
8335.000000;0.738769
8334.000000;0.738676
8333.000000;0.738410
8332.000000;0.738030
8331.000000;0.737699
8330.000000;0.737524
8329.000000;0.737483
8328.000000;0.737503
8327.000000;0.737555
8326.000000;0.737653
8325.000000;0.737798
8324.000000;0.737927
8323.000000;0.737947
8322.000000;0.737831
8321.000000;0.737671
8320.000000;0.737581
8319.000000;0.737563
8318.000000;0.737509
8317.000000;0.737335
8316.000000;0.737080
8315.000000;0.736835
8314.000000;0.736639
8313.000000;0.736467
8312.000000;0.736301
8311.000000;0.736161
8310.000000;0.736090
8309.000000;0.736100
8308.000000;0.736140
8307.000000;0.736119
8306.000000;0.735986
8305.000000;0.735791
8304.000000;0.735632
8303.000000;0.735545
8302.000000;0.735488
8301.000000;0.735425
8300.000000;0.735368
8299.000000;0.735323
8298.000000;0.735258
8297.000000;0.735137
8296.000000;0.734965
8295.000000;0.734762
8294.000000;0.734552
8293.000000;0.734392
8292.000000;0.734340
8291.000000;0.734374
8290.000000;0.734384
8289.000000;0.734289
8288.000000;0.734125
8287.000000;0.733972
8286.000000;0.733856
8285.000000;0.733768
8284.000000;0.733714
8283.000000;0.733701
8282.000000;0.733712
8281.000000;0.733731
8280.000000;0.733765
8279.000000;0.733799
8278.000000;0.733766
8277.000000;0.733626
8276.000000;0.733425
8275.000000;0.733214
8274.000000;0.732990
8273.000000;0.732778
8272.000000;0.732710
8271.000000;0.732891
8270.000000;0.733210
8269.000000;0.733394
8268.000000;0.733288
8267.000000;0.732977
8266.000000;0.732640
8265.000000;0.732360
8264.000000;0.732133
8263.000000;0.731968
8262.000000;0.731911
8261.000000;0.731981
8260.000000;0.732128
8259.000000;0.732245
8258.000000;0.732228
8257.000000;0.732060
8256.000000;0.731839
8255.000000;0.731689
8254.000000;0.731644
8253.000000;0.731646
8252.000000;0.731644
8251.000000;0.731619
8250.000000;0.731545
8249.000000;0.731391
8248.000000;0.731207
8247.000000;0.731108
8246.000000;0.731139
8245.000000;0.731193
8244.000000;0.731151
8243.000000;0.731023
8242.000000;0.730928
8241.000000;0.730930
8240.000000;0.730969
8239.000000;0.730940
8238.000000;0.730799
8237.000000;0.730582
8236.000000;0.730365
8235.000000;0.730198
8234.000000;0.730084
8233.000000;0.729988
8232.000000;0.729891
8231.000000;0.729796
8230.000000;0.729713
8229.000000;0.729638
8228.000000;0.729568
8227.000000;0.729518
8226.000000;0.729504
8225.000000;0.729524
8224.000000;0.729551
8223.000000;0.729549
8222.000000;0.729486
8221.000000;0.729370
8220.000000;0.729251
8219.000000;0.729174
8218.000000;0.729121
8217.000000;0.729045
8216.000000;0.728941
8215.000000;0.728863
8214.000000;0.728847
8213.000000;0.728857
8212.000000;0.728819
8211.000000;0.728690
8210.000000;0.728496
8209.000000;0.728313
8208.000000;0.728228
8207.000000;0.728257
8206.000000;0.728316
8205.000000;0.728298
8204.000000;0.728190
8203.000000;0.728060
8202.000000;0.727953
8201.000000;0.727839
8200.000000;0.727705
8199.000000;0.727630
8198.000000;0.727682
8197.000000;0.727794
8196.000000;0.727803
8195.000000;0.727625
8194.000000;0.727350
8193.000000;0.727142
8192.000000;0.727075
8191.000000;0.727073
8190.000000;0.726999
8189.000000;0.726804
8188.000000;0.726580
8187.000000;0.726458
8186.000000;0.726462
8185.000000;0.726505
8184.000000;0.726521
8183.000000;0.726527
8182.000000;0.726545
8181.000000;0.726527
8180.000000;0.726419
8179.000000;0.726261
8178.000000;0.726132
8177.000000;0.726049
8176.000000;0.725970
8175.000000;0.725895
8174.000000;0.725853
8173.000000;0.725809
8172.000000;0.725690
8171.000000;0.725509
8170.000000;0.725376
8169.000000;0.725332
8168.000000;0.725267
8167.000000;0.725081
8166.000000;0.724859
8165.000000;0.724781
8164.000000;0.724886
8163.000000;0.725021
8162.000000;0.725030
8161.000000;0.724907
8160.000000;0.724749
8159.000000;0.724624
8158.000000;0.724539
8157.000000;0.724499
8156.000000;0.724531
8155.000000;0.724631
8154.000000;0.724724
8153.000000;0.724692
8152.000000;0.724467
8151.000000;0.724120
8150.000000;0.723845
8149.000000;0.723796
8148.000000;0.723928
8147.000000;0.724033
8146.000000;0.723962
8145.000000;0.723778
8144.000000;0.723661
8143.000000;0.723692
8142.000000;0.723768
8141.000000;0.723721
8140.000000;0.723480
8139.000000;0.723120
8138.000000;0.722797
8137.000000;0.722633
8136.000000;0.722650
8135.000000;0.722756
8134.000000;0.722822
8133.000000;0.722782
8132.000000;0.722674
8131.000000;0.722601
8130.000000;0.722638
8129.000000;0.722765
8128.000000;0.722867
8127.000000;0.722831
8126.000000;0.722648
8125.000000;0.722410
8124.000000;0.722213
8123.000000;0.722072
8122.000000;0.721962
8121.000000;0.721890
8120.000000;0.721865
8119.000000;0.721844
8118.000000;0.721749
8117.000000;0.721575
8116.000000;0.721407
8115.000000;0.721338
8114.000000;0.721400
8113.000000;0.721570
8112.000000;0.721783
8111.000000;0.721936
8110.000000;0.721933
8109.000000;0.721772
8108.000000;0.721551
8107.000000;0.721356
8106.000000;0.721190
8105.000000;0.721024
8104.000000;0.720873
8103.000000;0.720775
8102.000000;0.720723
8101.000000;0.720684
8100.000000;0.720648
8099.000000;0.720613
8098.000000;0.720548
8097.000000;0.720425
8096.000000;0.720277
8095.000000;0.720177
8094.000000;0.720147
8093.000000;0.720133
8092.000000;0.720073
8091.000000;0.719971
8090.000000;0.719876
8089.000000;0.719837
8088.000000;0.719862
8087.000000;0.719917
8086.000000;0.719943
8085.000000;0.719898
8084.000000;0.719794
8083.000000;0.719691
8082.000000;0.719643
8081.000000;0.719661
8080.000000;0.719698
8079.000000;0.719680
8078.000000;0.719571
8077.000000;0.719401
8076.000000;0.719216
8075.000000;0.719020
8074.000000;0.718803
8073.000000;0.718624
8072.000000;0.718594
8071.000000;0.718730
8070.000000;0.718899
8069.000000;0.718955
8068.000000;0.718892
8067.000000;0.718808
8066.000000;0.718753
8065.000000;0.718706
8064.000000;0.718647
8063.000000;0.718576
8062.000000;0.718472
8061.000000;0.718320
8060.000000;0.718177
8059.000000;0.718130
8058.000000;0.718174
8057.000000;0.718195
8056.000000;0.718098
8055.000000;0.717886
8054.000000;0.717619
8053.000000;0.717363
8052.000000;0.717198
8051.000000;0.717190
8050.000000;0.717307
8049.000000;0.717409
8048.000000;0.717383
8047.000000;0.717253
8046.000000;0.717120
8045.000000;0.717041
8044.000000;0.717003
8043.000000;0.716984
8042.000000;0.716982
8041.000000;0.716988
8040.000000;0.716986
8039.000000;0.716967
8038.000000;0.716925
8037.000000;0.716861
8036.000000;0.716794
8035.000000;0.716751
8034.000000;0.716717
8033.000000;0.716641
8032.000000;0.716496
8031.000000;0.716314
8030.000000;0.716132
8029.000000;0.715957
8028.000000;0.715791
8027.000000;0.715678
8026.000000;0.715651
8025.000000;0.715685
8024.000000;0.715731
8023.000000;0.715784
8022.000000;0.715859
8021.000000;0.715920
8020.000000;0.715893
8019.000000;0.715747
8018.000000;0.715529
8017.000000;0.715319
8016.000000;0.715184
8015.000000;0.715159
8014.000000;0.715222
8013.000000;0.715279
8012.000000;0.715223
8011.000000;0.715030
8010.000000;0.714792
8009.000000;0.714624
8008.000000;0.714576
8007.000000;0.714627
8006.000000;0.714727
8005.000000;0.714817
8004.000000;0.714852
8003.000000;0.714818
8002.000000;0.714743
8001.000000;0.714644
8000.000000;0.714501
7999.000000;0.714295
7998.000000;0.714065
7997.000000;0.713905
7996.000000;0.713884
7995.000000;0.713995
7994.000000;0.714160
7993.000000;0.714295
7992.000000;0.714339
7991.000000;0.714264
7990.000000;0.714077
7989.000000;0.713828
7988.000000;0.713603
7987.000000;0.713473
7986.000000;0.713462
7985.000000;0.713539
7984.000000;0.713646
7983.000000;0.713713
7982.000000;0.713676
7981.000000;0.713515
7980.000000;0.713291
7979.000000;0.713115
7978.000000;0.713062
7977.000000;0.713117
7976.000000;0.713203
7975.000000;0.713248
7974.000000;0.713209
7973.000000;0.713081
7972.000000;0.712895
7971.000000;0.712728
7970.000000;0.712662
7969.000000;0.712722
7968.000000;0.712839
7967.000000;0.712897
7966.000000;0.712822
7965.000000;0.712629
7964.000000;0.712396
7963.000000;0.712195
7962.000000;0.712046
7961.000000;0.711937
7960.000000;0.711868
7959.000000;0.711867
7958.000000;0.711953
7957.000000;0.712095
7956.000000;0.712207
7955.000000;0.712194
7954.000000;0.712024
7953.000000;0.711756
7952.000000;0.711508
7951.000000;0.711358
7950.000000;0.711290
7949.000000;0.711225
7948.000000;0.711121
7947.000000;0.711014
7946.000000;0.710978
7945.000000;0.711046
7944.000000;0.711191
7943.000000;0.711345
7942.000000;0.711437
7941.000000;0.711426
7940.000000;0.711323
7939.000000;0.711198
7938.000000;0.711129
7937.000000;0.711140
7936.000000;0.711173
7935.000000;0.711132
7934.000000;0.710981
7933.000000;0.710773
7932.000000;0.710591
7931.000000;0.710449
7930.000000;0.710296
7929.000000;0.710111
7928.000000;0.709955
7927.000000;0.709896
7926.000000;0.709906
7925.000000;0.709898
7924.000000;0.709844
7923.000000;0.709811
7922.000000;0.709859
7921.000000;0.709950
7920.000000;0.709998
7919.000000;0.709969
7918.000000;0.709897
7917.000000;0.709826
7916.000000;0.709759
7915.000000;0.709679
7914.000000;0.709577
7913.000000;0.709455
7912.000000;0.709317
7911.000000;0.709172
7910.000000;0.709031
7909.000000;0.708911
7908.000000;0.708825
7907.000000;0.708791
7906.000000;0.708811
7905.000000;0.708872
7904.000000;0.708941
7903.000000;0.708980
7902.000000;0.708958
7901.000000;0.708874
7900.000000;0.708762
7899.000000;0.708667
7898.000000;0.708596
7897.000000;0.708509
7896.000000;0.708365
7895.000000;0.708170
7894.000000;0.707973
7893.000000;0.707837
7892.000000;0.707794
7891.000000;0.707836
7890.000000;0.707922
7889.000000;0.708011
7888.000000;0.708095
7887.000000;0.708176
7886.000000;0.708224
7885.000000;0.708173
7884.000000;0.707997
7883.000000;0.707759
7882.000000;0.707552
7881.000000;0.707401
7880.000000;0.707255
7879.000000;0.707084
7878.000000;0.706946
7877.000000;0.706927
7876.000000;0.707036
7875.000000;0.707180
7874.000000;0.707240
7873.000000;0.707182
7872.000000;0.707074
7871.000000;0.707018
7870.000000;0.707044
7869.000000;0.707082
7868.000000;0.707044
7867.000000;0.706926
7866.000000;0.706808
7865.000000;0.706760
7864.000000;0.706763
7863.000000;0.706750
7862.000000;0.706690
7861.000000;0.706616
7860.000000;0.706571
7859.000000;0.706565
7858.000000;0.706600
7857.000000;0.706677
7856.000000;0.706760
7855.000000;0.706765
7854.000000;0.706633
7853.000000;0.706411
7852.000000;0.706221
7851.000000;0.706147
7850.000000;0.706160
7849.000000;0.706176
7848.000000;0.706142
7847.000000;0.706067
7846.000000;0.705987
7845.000000;0.705921
7844.000000;0.705852
7843.000000;0.705735
7842.000000;0.705557
7841.000000;0.705379
7840.000000;0.705299
7839.000000;0.705350
7838.000000;0.705453
7837.000000;0.705489
7836.000000;0.705411
7835.000000;0.705272
7834.000000;0.705159
7833.000000;0.705116
7832.000000;0.705116
7831.000000;0.705081
7830.000000;0.704949
7829.000000;0.704736
7828.000000;0.704526
7827.000000;0.704389
7826.000000;0.704340
7825.000000;0.704370
7824.000000;0.704487
7823.000000;0.704670
7822.000000;0.704829
7821.000000;0.704850
7820.000000;0.704691
7819.000000;0.704410
7818.000000;0.704102
7817.000000;0.703860
7816.000000;0.703752
7815.000000;0.703785
7814.000000;0.703875
7813.000000;0.703906
7812.000000;0.703831
7811.000000;0.703703
7810.000000;0.703594
7809.000000;0.703536
7808.000000;0.703516
7807.000000;0.703505
7806.000000;0.703466
7805.000000;0.703379
7804.000000;0.703269
7803.000000;0.703181
7802.000000;0.703129
7801.000000;0.703096
7800.000000;0.703079
7799.000000;0.703101
7798.000000;0.703139
7797.000000;0.703128
7796.000000;0.703030
7795.000000;0.702891
7794.000000;0.702776
7793.000000;0.702693
7792.000000;0.702593
7791.000000;0.702443
7790.000000;0.702271
7789.000000;0.702140
7788.000000;0.702110
7787.000000;0.702187
7786.000000;0.702296
7785.000000;0.702336
7784.000000;0.702268
7783.000000;0.702135
7782.000000;0.701995
7781.000000;0.701866
7780.000000;0.701749
7779.000000;0.701662
7778.000000;0.701613
7777.000000;0.701568
7776.000000;0.701490
7775.000000;0.701380
7774.000000;0.701263
7773.000000;0.701155
7772.000000;0.701073
7771.000000;0.701050
7770.000000;0.701090
7769.000000;0.701145
7768.000000;0.701166
7767.000000;0.701166
7766.000000;0.701174
7765.000000;0.701155
7764.000000;0.701053
7763.000000;0.700884
7762.000000;0.700753
7761.000000;0.700723
7760.000000;0.700750
7759.000000;0.700751
7758.000000;0.700710
7757.000000;0.700668
7756.000000;0.700640
7755.000000;0.700585
7754.000000;0.700465
7753.000000;0.700296
7752.000000;0.700134
7751.000000;0.700021
7750.000000;0.699953
7749.000000;0.699891
7748.000000;0.699810
7747.000000;0.699715
7746.000000;0.699624
7745.000000;0.699538
7744.000000;0.699441
7743.000000;0.699327
7742.000000;0.699226
7741.000000;0.699179
7740.000000;0.699205
7739.000000;0.699264
7738.000000;0.699287
7737.000000;0.699237
7736.000000;0.699154
7735.000000;0.699111
7734.000000;0.699121
7733.000000;0.699123
7732.000000;0.699056
7731.000000;0.698929
7730.000000;0.698798
7729.000000;0.698693
7728.000000;0.698616
7727.000000;0.698581
7726.000000;0.698612
7725.000000;0.698688
7724.000000;0.698744
7723.000000;0.698736
7722.000000;0.698692
7721.000000;0.698648
7720.000000;0.698584
7719.000000;0.698450
7718.000000;0.698258
7717.000000;0.698092
7716.000000;0.698023
7715.000000;0.698024
7714.000000;0.698008
7713.000000;0.697948
7712.000000;0.697914
7711.000000;0.697982
7710.000000;0.698122
7709.000000;0.698205
7708.000000;0.698127
7707.000000;0.697894
7706.000000;0.697608
7705.000000;0.697369
7704.000000;0.697225
7703.000000;0.697159
7702.000000;0.697128
7701.000000;0.697102
7700.000000;0.697080
7699.000000;0.697067
7698.000000;0.697061
7697.000000;0.697063
7696.000000;0.697095
7695.000000;0.697167
7694.000000;0.697246
7693.000000;0.697285
7692.000000;0.697275
7691.000000;0.697241
7690.000000;0.697169
7689.000000;0.697014
7688.000000;0.696780
7687.000000;0.696556
7686.000000;0.696423
7685.000000;0.696364
7684.000000;0.696308
7683.000000;0.696242
7682.000000;0.696209
7681.000000;0.696223
7680.000000;0.696236
7679.000000;0.696200
7678.000000;0.696130
7677.000000;0.696064
7676.000000;0.696013
7675.000000;0.695961
7674.000000;0.695902
7673.000000;0.695853
7672.000000;0.695822
7671.000000;0.695786
7670.000000;0.695709
7669.000000;0.695586
7668.000000;0.695459
7667.000000;0.695381
7666.000000;0.695348
7665.000000;0.695301
7664.000000;0.695192
7663.000000;0.695035
7662.000000;0.694872
7661.000000;0.694737
7660.000000;0.694663
7659.000000;0.694690
7658.000000;0.694819
7657.000000;0.694961
7656.000000;0.694993
7655.000000;0.694884
7654.000000;0.694712
7653.000000;0.694565
7652.000000;0.694457
7651.000000;0.694357
7650.000000;0.694252
7649.000000;0.694162
7648.000000;0.694107
7647.000000;0.694093
7646.000000;0.694117
7645.000000;0.694159
7644.000000;0.694190
7643.000000;0.694181
7642.000000;0.694129
7641.000000;0.694065
7640.000000;0.694025
7639.000000;0.694023
7638.000000;0.694020
7637.000000;0.693958
7636.000000;0.693822
7635.000000;0.693668
7634.000000;0.693568
7633.000000;0.693530
7632.000000;0.693516
7631.000000;0.693493
7630.000000;0.693457
7629.000000;0.693406
7628.000000;0.693335
7627.000000;0.693273
7626.000000;0.693262
7625.000000;0.693291
7624.000000;0.693295
7623.000000;0.693234
7622.000000;0.693153
7621.000000;0.693122
7620.000000;0.693149
7619.000000;0.693173
7618.000000;0.693129
7617.000000;0.693001
7616.000000;0.692813
7615.000000;0.692629
7614.000000;0.692522
7613.000000;0.692524
7612.000000;0.692588
7611.000000;0.692623
7610.000000;0.692577
7609.000000;0.692481
7608.000000;0.692397
7607.000000;0.692356
7606.000000;0.692338
7605.000000;0.692304
7604.000000;0.692241
7603.000000;0.692186
7602.000000;0.692191
7601.000000;0.692256
7600.000000;0.692302
7599.000000;0.692226
7598.000000;0.692003
7597.000000;0.691729
7596.000000;0.691545
7595.000000;0.691532
7594.000000;0.691653
7593.000000;0.691784
7592.000000;0.691809
7591.000000;0.691687
7590.000000;0.691476
7589.000000;0.691284
7588.000000;0.691205
7587.000000;0.691275
7586.000000;0.691442
7585.000000;0.691593
7584.000000;0.691617
7583.000000;0.691489
7582.000000;0.691289
7581.000000;0.691134
7580.000000;0.691082
7579.000000;0.691096
7578.000000;0.691076
7577.000000;0.690947
7576.000000;0.690717
7575.000000;0.690495
7574.000000;0.690407
7573.000000;0.690487
7572.000000;0.690648
7571.000000;0.690762
7570.000000;0.690776
7569.000000;0.690727
7568.000000;0.690669
7567.000000;0.690622
7566.000000;0.690582
7565.000000;0.690550
7564.000000;0.690526
7563.000000;0.690493
7562.000000;0.690437
7561.000000;0.690351
7560.000000;0.690235
7559.000000;0.690095
7558.000000;0.689956
7557.000000;0.689873
7556.000000;0.689882
7555.000000;0.689969
7554.000000;0.690077
7553.000000;0.690152
7552.000000;0.690166
7551.000000;0.690127
7550.000000;0.690065
7549.000000;0.690022
7548.000000;0.690014
7547.000000;0.690018
7546.000000;0.690005
7545.000000;0.689983
7544.000000;0.689986
7543.000000;0.690017
7542.000000;0.690027
7541.000000;0.689962
7540.000000;0.689818
7539.000000;0.689650
7538.000000;0.689523
7537.000000;0.689458
7536.000000;0.689419
7535.000000;0.689358
7534.000000;0.689266
7533.000000;0.689182
7532.000000;0.689142
7531.000000;0.689124
7530.000000;0.689074
7529.000000;0.688984
7528.000000;0.688913
7527.000000;0.688928
7526.000000;0.689031
7525.000000;0.689163
7524.000000;0.689267
7523.000000;0.689328
7522.000000;0.689360
7521.000000;0.689371
7520.000000;0.689350
7519.000000;0.689281
7518.000000;0.689175
7517.000000;0.689068
7516.000000;0.688991
7515.000000;0.688944
7514.000000;0.688906
7513.000000;0.688864
7512.000000;0.688801
7511.000000;0.688690
7510.000000;0.688527
7509.000000;0.688378
7508.000000;0.688330
7507.000000;0.688401
7506.000000;0.688516
7505.000000;0.688595
7504.000000;0.688635
7503.000000;0.688672
7502.000000;0.688716
7501.000000;0.688751
7500.000000;0.688771
7499.000000;0.688766
7498.000000;0.688704
7497.000000;0.688577
7496.000000;0.688455
7495.000000;0.688430
7494.000000;0.688500
7493.000000;0.688558
7492.000000;0.688525
7491.000000;0.688435
7490.000000;0.688357
7489.000000;0.688339
7488.000000;0.688358
7487.000000;0.688397
7486.000000;0.688444
7485.000000;0.688461
7484.000000;0.688421
7483.000000;0.688353
7482.000000;0.688307
7481.000000;0.688280
7480.000000;0.688213
7479.000000;0.688088
7478.000000;0.687967
7477.000000;0.687932
7476.000000;0.687996
7475.000000;0.688115
7474.000000;0.688247
7473.000000;0.688376
7472.000000;0.688480
7471.000000;0.688514
7470.000000;0.688458
7469.000000;0.688348
7468.000000;0.688250
7467.000000;0.688195
7466.000000;0.688166
7465.000000;0.688130
7464.000000;0.688078
7463.000000;0.688020
7462.000000;0.687965
7461.000000;0.687910
7460.000000;0.687852
7459.000000;0.687791
7458.000000;0.687733
7457.000000;0.687688
7456.000000;0.687676
7455.000000;0.687699
7454.000000;0.687733
7453.000000;0.687737
7452.000000;0.687703
7451.000000;0.687654
7450.000000;0.687614
7449.000000;0.687587
7448.000000;0.687584
7447.000000;0.687631
7446.000000;0.687749
7445.000000;0.687913
7444.000000;0.688058
7443.000000;0.688120
7442.000000;0.688086
7441.000000;0.687987
7440.000000;0.687872
7439.000000;0.687771
7438.000000;0.687696
7437.000000;0.687663
7436.000000;0.687694
7435.000000;0.687785
7434.000000;0.687899
7433.000000;0.687996
7432.000000;0.688072
7431.000000;0.688123
7430.000000;0.688113
7429.000000;0.688000
7428.000000;0.687808
7427.000000;0.687644
7426.000000;0.687610
7425.000000;0.687715
7424.000000;0.687881
7423.000000;0.688020
7422.000000;0.688084
7421.000000;0.688072
7420.000000;0.688028
7419.000000;0.688013
7418.000000;0.688051
7417.000000;0.688100
7416.000000;0.688094
7415.000000;0.688016
7414.000000;0.687914
7413.000000;0.687842
7412.000000;0.687811
7411.000000;0.687803
7410.000000;0.687806
7409.000000;0.687826
7408.000000;0.687871
7407.000000;0.687936
7406.000000;0.688002
7405.000000;0.688036
7404.000000;0.688009
7403.000000;0.687918
7402.000000;0.687794
7401.000000;0.687678
7400.000000;0.687595
7399.000000;0.687556
7398.000000;0.687564
7397.000000;0.687608
7396.000000;0.687654
7395.000000;0.687670
7394.000000;0.687665
7393.000000;0.687683
7392.000000;0.687761
7391.000000;0.687879
7390.000000;0.687968
7389.000000;0.687967
7388.000000;0.687873
7387.000000;0.687745
7386.000000;0.687660
7385.000000;0.687646
7384.000000;0.687646
7383.000000;0.687586
7382.000000;0.687476
7381.000000;0.687411
7380.000000;0.687445
7379.000000;0.687495
7378.000000;0.687437
7377.000000;0.687284
7376.000000;0.687194
7375.000000;0.687287
7374.000000;0.687509
7373.000000;0.687721
7372.000000;0.687861
7371.000000;0.687950
7370.000000;0.687997
7369.000000;0.687993
7368.000000;0.687987
7367.000000;0.688072
7366.000000;0.688263
7365.000000;0.688448
7364.000000;0.688505
7363.000000;0.688422
7362.000000;0.688294
7361.000000;0.688222
7360.000000;0.688237
7359.000000;0.688291
7358.000000;0.688307
7357.000000;0.688260
7356.000000;0.688211
7355.000000;0.688233
7354.000000;0.688321
7353.000000;0.688389
7352.000000;0.688376
7351.000000;0.688319
7350.000000;0.688302
7349.000000;0.688365
7348.000000;0.688471
7347.000000;0.688536
7346.000000;0.688495
7345.000000;0.688353
7344.000000;0.688164
7343.000000;0.687959
7342.000000;0.687721
7341.000000;0.687482
7340.000000;0.687391
7339.000000;0.687601
7338.000000;0.688054
7337.000000;0.688497
7336.000000;0.688739
7335.000000;0.688826
7334.000000;0.688929
7333.000000;0.689135
7332.000000;0.689382
7331.000000;0.689543
7330.000000;0.689540
7329.000000;0.689401
7328.000000;0.689244
7327.000000;0.689164
7326.000000;0.689140
7325.000000;0.689086
7324.000000;0.689006
7323.000000;0.689003
7322.000000;0.689124
7321.000000;0.689292
7320.000000;0.689426
7319.000000;0.689571
7318.000000;0.689808
7317.000000;0.690118
7316.000000;0.690396
7315.000000;0.690582
7314.000000;0.690680
7313.000000;0.690704
7312.000000;0.690672
7311.000000;0.690651
7310.000000;0.690701
7309.000000;0.690808
7308.000000;0.690908
7307.000000;0.690997
7306.000000;0.691130
7305.000000;0.691332
7304.000000;0.691554
7303.000000;0.691751
7302.000000;0.691917
7301.000000;0.692043
7300.000000;0.692116
7299.000000;0.692168
7298.000000;0.692263
7297.000000;0.692400
7296.000000;0.692502
7295.000000;0.692528
7294.000000;0.692528
7293.000000;0.692566
7292.000000;0.692637
7291.000000;0.692707
7290.000000;0.692806
7289.000000;0.693002
7288.000000;0.693318
7287.000000;0.693709
7286.000000;0.694116
7285.000000;0.694499
7284.000000;0.694818
7283.000000;0.695038
7282.000000;0.695170
7281.000000;0.695278
7280.000000;0.695421
7279.000000;0.695602
7278.000000;0.695786
7277.000000;0.695957
7276.000000;0.696139
7275.000000;0.696348
7274.000000;0.696548
7273.000000;0.696688
7272.000000;0.696767
7271.000000;0.696841
7270.000000;0.696960
7269.000000;0.697128
7268.000000;0.697336
7267.000000;0.697573
7266.000000;0.697804
7265.000000;0.697958
7264.000000;0.698018
7263.000000;0.698079
7262.000000;0.698276
7261.000000;0.698643
7260.000000;0.699090
7259.000000;0.699517
7258.000000;0.699895
7257.000000;0.700214
7256.000000;0.700431
7255.000000;0.700532
7254.000000;0.700604
7253.000000;0.700786
7252.000000;0.701111
7251.000000;0.701454
7250.000000;0.701667
7249.000000;0.701730
7248.000000;0.701768
7247.000000;0.701896
7246.000000;0.702090
7245.000000;0.702238
7244.000000;0.702304
7243.000000;0.702401
7242.000000;0.702660
7241.000000;0.703064
7240.000000;0.703449
7239.000000;0.703699
7238.000000;0.703860
7237.000000;0.704053
7236.000000;0.704332
7235.000000;0.704647
7234.000000;0.704942
7233.000000;0.705227
7232.000000;0.705555
7231.000000;0.705933
7230.000000;0.706286
7229.000000;0.706535
7228.000000;0.706707
7227.000000;0.706920
7226.000000;0.707270
7225.000000;0.707754
7224.000000;0.708313
7223.000000;0.708890
7222.000000;0.709447
7221.000000;0.709947
7220.000000;0.710380
7219.000000;0.710792
7218.000000;0.711240
7217.000000;0.711717
7216.000000;0.712157
7215.000000;0.712503
7214.000000;0.712759
7213.000000;0.712978
7212.000000;0.713246
7211.000000;0.713643
7210.000000;0.714187
7209.000000;0.714789
7208.000000;0.715303
7207.000000;0.715654
7206.000000;0.715911
7205.000000;0.716228
7204.000000;0.716707
7203.000000;0.717315
7202.000000;0.717934
7201.000000;0.718452
7200.000000;0.718824
7199.000000;0.719059
7198.000000;0.719212
7197.000000;0.719390
7196.000000;0.719739
7195.000000;0.720344
7194.000000;0.721128
7193.000000;0.721872
7192.000000;0.722393
7191.000000;0.722706
7190.000000;0.722977
7189.000000;0.723330
7188.000000;0.723737
7187.000000;0.724099
7186.000000;0.724387
7185.000000;0.724666
7184.000000;0.725008
7183.000000;0.725432
7182.000000;0.725914
7181.000000;0.726416
7180.000000;0.726903
7179.000000;0.727358
7178.000000;0.727783
7177.000000;0.728183
7176.000000;0.728546
7175.000000;0.728910
7174.000000;0.729399
7173.000000;0.730130
7172.000000;0.731044
7171.000000;0.731904
7170.000000;0.732512
7169.000000;0.732885
7168.000000;0.733214
7167.000000;0.733661
7166.000000;0.734228
7165.000000;0.734782
7164.000000;0.735150
7163.000000;0.735265
7162.000000;0.735270
7161.000000;0.735469
7160.000000;0.736065
7159.000000;0.736931
7158.000000;0.737736
7157.000000;0.738334
7156.000000;0.738926
7155.000000;0.739805
7154.000000;0.740988
7153.000000;0.742163
7152.000000;0.742981
7151.000000;0.743369
7150.000000;0.743561
7149.000000;0.743865
7148.000000;0.744411
7147.000000;0.745105
7146.000000;0.745777
7145.000000;0.746342
7144.000000;0.746811
7143.000000;0.747185
7142.000000;0.747394
7141.000000;0.747387
7140.000000;0.747239
7139.000000;0.747123
7138.000000;0.747167
7137.000000;0.747350
7136.000000;0.747578
7135.000000;0.747831
7134.000000;0.748192
7133.000000;0.748697
7132.000000;0.749232
7131.000000;0.749650
7130.000000;0.749998
7129.000000;0.750513
7128.000000;0.751346
7127.000000;0.752339
7126.000000;0.753149
7125.000000;0.753557
7124.000000;0.753618
7123.000000;0.753550
7122.000000;0.753552
7121.000000;0.753697
7120.000000;0.753899
7119.000000;0.754023
7118.000000;0.754094
7117.000000;0.754300
7116.000000;0.754650
7115.000000;0.754737
7114.000000;0.754154
7113.000000;0.753151
7112.000000;0.752570
7111.000000;0.752973
7110.000000;0.753989
7109.000000;0.754689
7108.000000;0.754506
7107.000000;0.753632
7106.000000;0.752663
7105.000000;0.752060
7104.000000;0.751917
7103.000000;0.751999
7102.000000;0.751928
7101.000000;0.751456
7100.000000;0.750642
7099.000000;0.749728
7098.000000;0.748854
7097.000000;0.747995
7096.000000;0.747157
7095.000000;0.746487
7094.000000;0.746118
7093.000000;0.745967
7092.000000;0.745784
7091.000000;0.745411
7090.000000;0.744938
7089.000000;0.744546
7088.000000;0.744210
7087.000000;0.743648
7086.000000;0.742660
7085.000000;0.741417
7084.000000;0.740264
7083.000000;0.739277
7082.000000;0.738220
7081.000000;0.736954
7080.000000;0.735655
7079.000000;0.734572
7078.000000;0.733749
7077.000000;0.733076
7076.000000;0.732400
7075.000000;0.731456
7074.000000;0.729928
7073.000000;0.727807
7072.000000;0.725534
7071.000000;0.723601
7070.000000;0.722183
7069.000000;0.721257
7068.000000;0.720784
7067.000000;0.720482
7066.000000;0.719715
7065.000000;0.718048
7064.000000;0.715858
7063.000000;0.713950
7062.000000;0.712637
7061.000000;0.711567
7060.000000;0.710374
7059.000000;0.709089
7058.000000;0.707841
7057.000000;0.706528
7056.000000;0.704958
7055.000000;0.703096
7054.000000;0.701063
7053.000000;0.699063
7052.000000;0.697310
7051.000000;0.695835
7050.000000;0.694367
7049.000000;0.692606
7048.000000;0.690594
7047.000000;0.688613
7046.000000;0.686801
7045.000000;0.685126
7044.000000;0.683622
7043.000000;0.682293
7042.000000;0.680843
7041.000000;0.678910
7040.000000;0.676605
7039.000000;0.674352
7038.000000;0.672166
7037.000000;0.669592
7036.000000;0.666530
7035.000000;0.663578
7034.000000;0.661248
7033.000000;0.659222
7032.000000;0.656735
7031.000000;0.653508
7030.000000;0.650033
7029.000000;0.647092
7028.000000;0.645136
7027.000000;0.643964
7026.000000;0.642863
7025.000000;0.641246
7024.000000;0.639174
7023.000000;0.637048
7022.000000;0.634910
7021.000000;0.632500
7020.000000;0.629958
7019.000000;0.627833
7018.000000;0.626206
7017.000000;0.624383
7016.000000;0.621797
7015.000000;0.618723
7014.000000;0.615765
7013.000000;0.613106
7012.000000;0.610587
7011.000000;0.608032
7010.000000;0.605113
7009.000000;0.601489
7008.000000;0.597575
7007.000000;0.594553
7006.000000;0.592996
7005.000000;0.591958
7004.000000;0.590131
7003.000000;0.587489
7002.000000;0.584977
7001.000000;0.582971
7000.000000;0.581027
6999.000000;0.578867
6998.000000;0.576630
6997.000000;0.574178
6996.000000;0.571143
6995.000000;0.567750
6994.000000;0.564752
6993.000000;0.562414
6992.000000;0.560252
6991.000000;0.557860
6990.000000;0.555319
6989.000000;0.552693
6988.000000;0.549840
6987.000000;0.546873
6986.000000;0.544075
6985.000000;0.541207
6984.000000;0.537686
6983.000000;0.533676
6982.000000;0.530214
6981.000000;0.527893
6980.000000;0.526115
6979.000000;0.524056
6978.000000;0.521740
6977.000000;0.519614
6976.000000;0.517663
6975.000000;0.515567
6974.000000;0.513303
6973.000000;0.511034
6972.000000;0.508649
6971.000000;0.505882
6970.000000;0.502754
6969.000000;0.499559
6968.000000;0.496583
6967.000000;0.494002
6966.000000;0.491837
6965.000000;0.489841
6964.000000;0.487660
6963.000000;0.485204
6962.000000;0.482580
6961.000000;0.479714
6960.000000;0.476486
6959.000000;0.473241
6958.000000;0.470560
6957.000000;0.468426
6956.000000;0.466238
6955.000000;0.463756
6954.000000;0.461344
6953.000000;0.459105
6952.000000;0.456499
6951.000000;0.453184
6950.000000;0.449638
6949.000000;0.446548
6948.000000;0.444131
6947.000000;0.442344
6946.000000;0.441141
6945.000000;0.440110
6944.000000;0.438457
6943.000000;0.435872
6942.000000;0.432929
6941.000000;0.430194
6940.000000;0.427521
6939.000000;0.424686
6938.000000;0.422123
6937.000000;0.420403
6936.000000;0.419410
6935.000000;0.418595
6934.000000;0.417687
6933.000000;0.416632
6932.000000;0.415182
6931.000000;0.413097
6930.000000;0.410511
6929.000000;0.407688
6928.000000;0.404706
6927.000000;0.401691
6926.000000;0.398968
6925.000000;0.396629
6924.000000;0.394398
6923.000000;0.392284
6922.000000;0.390815
6921.000000;0.390149
6920.000000;0.389463
6919.000000;0.387818
6918.000000;0.385256
6917.000000;0.382518
6916.000000;0.380094
6915.000000;0.378078
6914.000000;0.376555
6913.000000;0.375454
6912.000000;0.374342
6911.000000;0.372952
6910.000000;0.371632
6909.000000;0.370673
6908.000000;0.369526
6907.000000;0.367323
6906.000000;0.364004
6905.000000;0.360389
6904.000000;0.357349
6903.000000;0.355414
6902.000000;0.354891
6901.000000;0.355614
6900.000000;0.356661
6899.000000;0.356871
6898.000000;0.355705
6897.000000;0.353373
6896.000000;0.350370
6895.000000;0.347349
6894.000000;0.345183
6893.000000;0.344444
6892.000000;0.344734
6891.000000;0.344938
6890.000000;0.344238
6889.000000;0.342655
6888.000000;0.340763
6887.000000;0.339150
6886.000000;0.338068
6885.000000;0.337352
6884.000000;0.336702
6883.000000;0.336078
6882.000000;0.335563
6881.000000;0.334857
6880.000000;0.333422
6879.000000;0.331325
6878.000000;0.329460
6877.000000;0.328588
6876.000000;0.328565
6875.000000;0.328772
6874.000000;0.328814
6873.000000;0.328489
6872.000000;0.327563
6871.000000;0.325978
6870.000000;0.323934
6869.000000;0.321514
6868.000000;0.318769
6867.000000;0.316416
6866.000000;0.315685
6865.000000;0.316882
6864.000000;0.318743
6863.000000;0.319862
6862.000000;0.320197
6861.000000;0.320494
6860.000000;0.320841
6859.000000;0.320657
6858.000000;0.319739
6857.000000;0.318432
6856.000000;0.316987
6855.000000;0.315486
6854.000000;0.314232
6853.000000;0.313506
6852.000000;0.313044
6851.000000;0.312365
6850.000000;0.311518
6849.000000;0.310952
6848.000000;0.310851
6847.000000;0.311140
6846.000000;0.311864
6845.000000;0.312902
6844.000000;0.313516
6843.000000;0.312936
6842.000000;0.311418
6841.000000;0.310104
6840.000000;0.309764
6839.000000;0.310179
6838.000000;0.310739
6837.000000;0.311095
6836.000000;0.311209
6835.000000;0.311295
6834.000000;0.311744
6833.000000;0.312731
6832.000000;0.313900
6831.000000;0.314768
6830.000000;0.315298
6829.000000;0.315701
6828.000000;0.315828
6827.000000;0.315291
6826.000000;0.314122
6825.000000;0.312821
6824.000000;0.311768
6823.000000;0.311034
6822.000000;0.310712
6821.000000;0.310977
6820.000000;0.311811
6819.000000;0.313035
6818.000000;0.314568
6817.000000;0.316294
6816.000000;0.317797
6815.000000;0.318670
6814.000000;0.319043
6813.000000;0.319393
6812.000000;0.319850
6811.000000;0.320108
6810.000000;0.320049
6809.000000;0.320012
6808.000000;0.320382
6807.000000;0.321181
6806.000000;0.322119
6805.000000;0.322784
6804.000000;0.322806
6803.000000;0.322163
6802.000000;0.321315
6801.000000;0.320803
6800.000000;0.320786
6799.000000;0.321209
6798.000000;0.322173
6797.000000;0.323722
6796.000000;0.325415
6795.000000;0.326669
6794.000000;0.327516
6793.000000;0.328551
6792.000000;0.330073
6791.000000;0.331726
6790.000000;0.333086
6789.000000;0.334134
6788.000000;0.334914
6787.000000;0.335196
6786.000000;0.334869
6785.000000;0.334380
6784.000000;0.334352
6783.000000;0.334862
6782.000000;0.335439
6781.000000;0.335782
6780.000000;0.336167
6779.000000;0.337004
6778.000000;0.338204
6777.000000;0.339212
6776.000000;0.339652
6775.000000;0.339742
6774.000000;0.339945
6773.000000;0.340380
6772.000000;0.340814
6771.000000;0.341151
6770.000000;0.341623
6769.000000;0.342411
6768.000000;0.343376
6767.000000;0.344328
6766.000000;0.345286
6765.000000;0.346265
6764.000000;0.347077
6763.000000;0.347617
6762.000000;0.348159
6761.000000;0.349029
6760.000000;0.350133
6759.000000;0.351140
6758.000000;0.352034
6757.000000;0.353080
6756.000000;0.354230
6755.000000;0.355036
6754.000000;0.355302
6753.000000;0.355486
6752.000000;0.356149
6751.000000;0.357194
6750.000000;0.357947
6749.000000;0.357991
6748.000000;0.357685
6747.000000;0.357767
6746.000000;0.358555
6745.000000;0.359662
6744.000000;0.360550
6743.000000;0.361203
6742.000000;0.362061
6741.000000;0.363321
6740.000000;0.364606
6739.000000;0.365481
6738.000000;0.366027
6737.000000;0.366661
6736.000000;0.367529
6735.000000;0.368394
6734.000000;0.369064
6733.000000;0.369604
6732.000000;0.370107
6731.000000;0.370573
6730.000000;0.371103
6729.000000;0.371952
6728.000000;0.373187
6727.000000;0.374471
6726.000000;0.375391
6725.000000;0.375906
6724.000000;0.376331
6723.000000;0.376913
6722.000000;0.377599
6721.000000;0.378206
6720.000000;0.378703
6719.000000;0.379246
6718.000000;0.379974
6717.000000;0.380831
6716.000000;0.381646
6715.000000;0.382372
6714.000000;0.383175
6713.000000;0.384213
6712.000000;0.385393
6711.000000;0.386436
6710.000000;0.387153
6709.000000;0.387602
6708.000000;0.387971
6707.000000;0.388403
6706.000000;0.388934
6705.000000;0.389497
6704.000000;0.389968
6703.000000;0.390295
6702.000000;0.390597
6701.000000;0.391087
6700.000000;0.391849
6699.000000;0.392763
6698.000000;0.393629
6697.000000;0.394355
6696.000000;0.394889
6695.000000;0.395243
6694.000000;0.395510
6693.000000;0.395862
6692.000000;0.396469
6691.000000;0.397338
6690.000000;0.398279
6689.000000;0.399034
6688.000000;0.399504
6687.000000;0.399864
6686.000000;0.400417
6685.000000;0.401297
6684.000000;0.402319
6683.000000;0.403172
6682.000000;0.403735
6681.000000;0.404161
6680.000000;0.404673
6679.000000;0.405389
6678.000000;0.406307
6677.000000;0.407359
6676.000000;0.408420
6675.000000;0.409325
6674.000000;0.409978
6673.000000;0.410425
6672.000000;0.410800
6671.000000;0.411216
6670.000000;0.411721
6669.000000;0.412305
6668.000000;0.412919
6667.000000;0.413510
6666.000000;0.414098
6665.000000;0.414779
6664.000000;0.415623
6663.000000;0.416562
6662.000000;0.417426
6661.000000;0.418079
6660.000000;0.418544
6659.000000;0.418963
6658.000000;0.419468
6657.000000;0.420057
6656.000000;0.420610
6655.000000;0.421024
6654.000000;0.421350
6653.000000;0.421764
6652.000000;0.422391
6651.000000;0.423182
6650.000000;0.423989
6649.000000;0.424725
6648.000000;0.425409
6647.000000;0.426051
6646.000000;0.426599
6645.000000;0.427011
6644.000000;0.427368
6643.000000;0.427819
6642.000000;0.428429
6641.000000;0.429117
6640.000000;0.429746
6639.000000;0.430249
6638.000000;0.430641
6637.000000;0.430985
6636.000000;0.431362
6635.000000;0.431837
6634.000000;0.432412
6633.000000;0.433018
6632.000000;0.433586
6631.000000;0.434114
6630.000000;0.434655
6629.000000;0.435261
6628.000000;0.435948
6627.000000;0.436678
6626.000000;0.437353
6625.000000;0.437868
6624.000000;0.438237
6623.000000;0.438630
6622.000000;0.439194
6621.000000;0.439861
6620.000000;0.440429
6619.000000;0.440833
6618.000000;0.441244
6617.000000;0.441836
6616.000000;0.442551
6615.000000;0.443174
6614.000000;0.443594
6613.000000;0.443907
6612.000000;0.444275
6611.000000;0.444780
6610.000000;0.445423
6609.000000;0.446184
6608.000000;0.447015
6607.000000;0.447812
6606.000000;0.448459
6605.000000;0.448924
6604.000000;0.449303
6603.000000;0.449726
6602.000000;0.450222
6601.000000;0.450702
6600.000000;0.451079
6599.000000;0.451375
6598.000000;0.451689
6597.000000;0.452067
6596.000000;0.452485
6595.000000;0.452926
6594.000000;0.453424
6593.000000;0.453987
6592.000000;0.454553
6591.000000;0.455057
6590.000000;0.455508
6589.000000;0.455942
6588.000000;0.456345
6587.000000;0.456688
6586.000000;0.457020
6585.000000;0.457445
6584.000000;0.457997
6583.000000;0.458604
6582.000000;0.459181
6581.000000;0.459719
6580.000000;0.460253
6579.000000;0.460774
6578.000000;0.461249
6577.000000;0.461694
6576.000000;0.462186
6575.000000;0.462768
6574.000000;0.463370
6573.000000;0.463861
6572.000000;0.464178
6571.000000;0.464402
6570.000000;0.464678
6569.000000;0.465090
6568.000000;0.465603
6567.000000;0.466112
6566.000000;0.466535
6565.000000;0.466859
6564.000000;0.467138
6563.000000;0.467444
6562.000000;0.467819
6561.000000;0.468274
6560.000000;0.468807
6559.000000;0.469406
6558.000000;0.470024
6557.000000;0.470582
6556.000000;0.471036
6555.000000;0.471422
6554.000000;0.471810
6553.000000;0.472236
6552.000000;0.472700
6551.000000;0.473209
6550.000000;0.473764
6549.000000;0.474306
6548.000000;0.474743
6547.000000;0.475060
6546.000000;0.475351
6545.000000;0.475715
6544.000000;0.476148
6543.000000;0.476577
6542.000000;0.476964
6541.000000;0.477338
6540.000000;0.477741
6539.000000;0.478175
6538.000000;0.478613
6537.000000;0.479018
6536.000000;0.479378
6535.000000;0.479716
6534.000000;0.480058
6533.000000;0.480386
6532.000000;0.480649
6531.000000;0.480864
6530.000000;0.481135
6529.000000;0.481552
6528.000000;0.482072
6527.000000;0.482577
6526.000000;0.483016
6525.000000;0.483441
6524.000000;0.483896
6523.000000;0.484339
6522.000000;0.484717
6521.000000;0.485067
6520.000000;0.485477
6519.000000;0.485952
6518.000000;0.486388
6517.000000;0.486685
6516.000000;0.486860
6515.000000;0.487036
6514.000000;0.487317
6513.000000;0.487710
6512.000000;0.488142
6511.000000;0.488529
6510.000000;0.488835
6509.000000;0.489095
6508.000000;0.489394
6507.000000;0.489799
6506.000000;0.490298
6505.000000;0.490814
6504.000000;0.491296
6503.000000;0.491757
6502.000000;0.492207
6501.000000;0.492584
6500.000000;0.492821
6499.000000;0.492965
6498.000000;0.493166
6497.000000;0.493517
6496.000000;0.493959
6495.000000;0.494360
6494.000000;0.494665
6493.000000;0.494925
6492.000000;0.495214
6491.000000;0.495564
6490.000000;0.495946
6489.000000;0.496301
6488.000000;0.496588
6487.000000;0.496843
6486.000000;0.497158
6485.000000;0.497570
6484.000000;0.497994
6483.000000;0.498309
6482.000000;0.498499
6481.000000;0.498663
6480.000000;0.498905
6479.000000;0.499238
6478.000000;0.499616
6477.000000;0.499998
6476.000000;0.500362
6475.000000;0.500697
6474.000000;0.501010
6473.000000;0.501331
6472.000000;0.501677
6471.000000;0.502027
6470.000000;0.502346
6469.000000;0.502632
6468.000000;0.502910
6467.000000;0.503195
6466.000000;0.503474
6465.000000;0.503732
6464.000000;0.503971
6463.000000;0.504212
6462.000000;0.504478
6461.000000;0.504794
6460.000000;0.505177
6459.000000;0.505612
6458.000000;0.506033
6457.000000;0.506357
6456.000000;0.506549
6455.000000;0.506655
6454.000000;0.506759
6453.000000;0.506909
6452.000000;0.507102
6451.000000;0.507334
6450.000000;0.507623
6449.000000;0.507977
6448.000000;0.508365
6447.000000;0.508735
6446.000000;0.509058
6445.000000;0.509329
6444.000000;0.509555
6443.000000;0.509764
6442.000000;0.510002
6441.000000;0.510285
6440.000000;0.510568
6439.000000;0.510784
6438.000000;0.510934
6437.000000;0.511096
6436.000000;0.511355
6435.000000;0.511718
6434.000000;0.512118
6433.000000;0.512469
6432.000000;0.512739
6431.000000;0.512965
6430.000000;0.513207
6429.000000;0.513486
6428.000000;0.513756
6427.000000;0.513958
6426.000000;0.514091
6425.000000;0.514211
6424.000000;0.514367
6423.000000;0.514568
6422.000000;0.514790
6421.000000;0.515003
6420.000000;0.515195
6419.000000;0.515387
6418.000000;0.515619
6417.000000;0.515910
6416.000000;0.516230
6415.000000;0.516529
6414.000000;0.516790
6413.000000;0.517022
6412.000000;0.517221
6411.000000;0.517379
6410.000000;0.517521
6409.000000;0.517705
6408.000000;0.517954
6407.000000;0.518229
6406.000000;0.518475
6405.000000;0.518680
6404.000000;0.518864
6403.000000;0.519047
6402.000000;0.519246
6401.000000;0.519476
6400.000000;0.519729
6399.000000;0.519976
6398.000000;0.520197
6397.000000;0.520405
6396.000000;0.520614
6395.000000;0.520814
6394.000000;0.520989
6393.000000;0.521151
6392.000000;0.521319
6391.000000;0.521483
6390.000000;0.521621
6389.000000;0.521740
6388.000000;0.521883
6387.000000;0.522080
6386.000000;0.522327
6385.000000;0.522606
6384.000000;0.522904
6383.000000;0.523191
6382.000000;0.523416
6381.000000;0.523545
6380.000000;0.523598
6379.000000;0.523642
6378.000000;0.523739
6377.000000;0.523898
6376.000000;0.524079
6375.000000;0.524246
6374.000000;0.524420
6373.000000;0.524649
6372.000000;0.524937
6371.000000;0.525221
6370.000000;0.525437
6369.000000;0.525584
6368.000000;0.525703
6367.000000;0.525815
6366.000000;0.525916
6365.000000;0.526014
6364.000000;0.526131
6363.000000;0.526274
6362.000000;0.526426
6361.000000;0.526574
6360.000000;0.526716
6359.000000;0.526844
6358.000000;0.526949
6357.000000;0.527052
6356.000000;0.527193
6355.000000;0.527372
6354.000000;0.527550
6353.000000;0.527708
6352.000000;0.527874
6351.000000;0.528068
6350.000000;0.528257
6349.000000;0.528406
6348.000000;0.528537
6347.000000;0.528684
6346.000000;0.528827
6345.000000;0.528907
6344.000000;0.528919
6343.000000;0.528934
6342.000000;0.529021
6341.000000;0.529177
6340.000000;0.529350
6339.000000;0.529494
6338.000000;0.529595
6337.000000;0.529663
6336.000000;0.529730
6335.000000;0.529825
6334.000000;0.529953
6333.000000;0.530083
6332.000000;0.530184
6331.000000;0.530259
6330.000000;0.530333
6329.000000;0.530421
6328.000000;0.530518
6327.000000;0.530623
6326.000000;0.530748
6325.000000;0.530895
6324.000000;0.531044
6323.000000;0.531175
6322.000000;0.531299
6321.000000;0.531442
6320.000000;0.531603
6319.000000;0.531748
6318.000000;0.531847
6317.000000;0.531916
6316.000000;0.531981
6315.000000;0.532050
6314.000000;0.532123
6313.000000;0.532232
6312.000000;0.532409
6311.000000;0.532625
6310.000000;0.532790
6309.000000;0.532851
6308.000000;0.532850
6307.000000;0.532871
6306.000000;0.532947
6305.000000;0.533051
6304.000000;0.533152
6303.000000;0.533238
6302.000000;0.533304
6301.000000;0.533354
6300.000000;0.533406
6299.000000;0.533487
6298.000000;0.533592
6297.000000;0.533687
6296.000000;0.533741
6295.000000;0.533757
6294.000000;0.533757
6293.000000;0.533773
6292.000000;0.533823
6291.000000;0.533899
6290.000000;0.533973
6289.000000;0.534041
6288.000000;0.534140
6287.000000;0.534295
6286.000000;0.534466
6285.000000;0.534584
6284.000000;0.534635
6283.000000;0.534662
6282.000000;0.534692
6281.000000;0.534700
6280.000000;0.534668
6279.000000;0.534632
6278.000000;0.534644
6277.000000;0.534721
6276.000000;0.534838
6275.000000;0.534962
6274.000000;0.535068
6273.000000;0.535133
6272.000000;0.535172
6271.000000;0.535236
6270.000000;0.535366
6269.000000;0.535549
6268.000000;0.535728
6267.000000;0.535863
6266.000000;0.535946
6265.000000;0.535989
6264.000000;0.536002
6263.000000;0.536007
6262.000000;0.536035
6261.000000;0.536095
6260.000000;0.536157
6259.000000;0.536182
6258.000000;0.536151
6257.000000;0.536089
6256.000000;0.536045
6255.000000;0.536055
6254.000000;0.536126
6253.000000;0.536243
6252.000000;0.536378
6251.000000;0.536506
6250.000000;0.536603
6249.000000;0.536652
6248.000000;0.536648
6247.000000;0.536594
6246.000000;0.536511
6245.000000;0.536441
6244.000000;0.536423
6243.000000;0.536454
6242.000000;0.536488
6241.000000;0.536496
6240.000000;0.536525
6239.000000;0.536636
6238.000000;0.536808
6237.000000;0.536945
6236.000000;0.536987
6235.000000;0.536973
6234.000000;0.536981
6233.000000;0.537030
6232.000000;0.537089
6231.000000;0.537137
6230.000000;0.537183
6229.000000;0.537244
6228.000000;0.537324
6227.000000;0.537423
6226.000000;0.537518
6225.000000;0.537554
6224.000000;0.537493
6223.000000;0.537359
6222.000000;0.537232
6221.000000;0.537185
6220.000000;0.537228
6219.000000;0.537320
6218.000000;0.537400
6217.000000;0.537423
6216.000000;0.537396
6215.000000;0.537367
6214.000000;0.537365
6213.000000;0.537376
6212.000000;0.537376
6211.000000;0.537380
6210.000000;0.537420
6209.000000;0.537493
6208.000000;0.537563
6207.000000;0.537605
6206.000000;0.537626
6205.000000;0.537640
6204.000000;0.537641
6203.000000;0.537617
6202.000000;0.537573
6201.000000;0.537520
6200.000000;0.537478
6199.000000;0.537468
6198.000000;0.537492
6197.000000;0.537527
6196.000000;0.537556
6195.000000;0.537596
6194.000000;0.537676
6193.000000;0.537783
6192.000000;0.537857
6191.000000;0.537864
6190.000000;0.537828
6189.000000;0.537793
6188.000000;0.537768
6187.000000;0.537730
6186.000000;0.537663
6185.000000;0.537577
6184.000000;0.537507
6183.000000;0.537488
6182.000000;0.537539
6181.000000;0.537639
6180.000000;0.537734
6179.000000;0.537783
6178.000000;0.537785
6177.000000;0.537763
6176.000000;0.537741
6175.000000;0.537727
6174.000000;0.537716
6173.000000;0.537700
6172.000000;0.537669
6171.000000;0.537630
6170.000000;0.537604
6169.000000;0.537593
6168.000000;0.537581
6167.000000;0.537558
6166.000000;0.537550
6165.000000;0.537585
6164.000000;0.537663
6163.000000;0.537743
6162.000000;0.537778
6161.000000;0.537753
6160.000000;0.537688
6159.000000;0.537631
6158.000000;0.537620
6157.000000;0.537658
6156.000000;0.537705
6155.000000;0.537712
6154.000000;0.537664
6153.000000;0.537590
6152.000000;0.537535
6151.000000;0.537527
6150.000000;0.537559
6149.000000;0.537597
6148.000000;0.537612
6147.000000;0.537607
6146.000000;0.537607
6145.000000;0.537635
6144.000000;0.537679
6143.000000;0.537707
6142.000000;0.537687
6141.000000;0.537620
6140.000000;0.537539
6139.000000;0.537487
6138.000000;0.537481
6137.000000;0.537502
6136.000000;0.537518
6135.000000;0.537512
6134.000000;0.537493
6133.000000;0.537473
6132.000000;0.537452
6131.000000;0.537428
6130.000000;0.537412
6129.000000;0.537410
6128.000000;0.537418
6127.000000;0.537417
6126.000000;0.537395
6125.000000;0.537358
6124.000000;0.537321
6123.000000;0.537289
6122.000000;0.537261
6121.000000;0.537254
6120.000000;0.537302
6119.000000;0.537414
6118.000000;0.537530
6117.000000;0.537559
6116.000000;0.537473
6115.000000;0.537349
6114.000000;0.537291
6113.000000;0.537317
6112.000000;0.537356
6111.000000;0.537344
6110.000000;0.537292
6109.000000;0.537245
6108.000000;0.537215
6107.000000;0.537184
6106.000000;0.537146
6105.000000;0.537129
6104.000000;0.537148
6103.000000;0.537189
6102.000000;0.537219
6101.000000;0.537215
6100.000000;0.537178
6099.000000;0.537130
6098.000000;0.537099
6097.000000;0.537108
6096.000000;0.537153
6095.000000;0.537204
6094.000000;0.537223
6093.000000;0.537199
6092.000000;0.537145
6091.000000;0.537089
6090.000000;0.537054
6089.000000;0.537052
6088.000000;0.537090
6087.000000;0.537154
6086.000000;0.537207
6085.000000;0.537212
6084.000000;0.537170
6083.000000;0.537114
6082.000000;0.537069
6081.000000;0.537030
6080.000000;0.536986
6079.000000;0.536948
6078.000000;0.536928
6077.000000;0.536920
6076.000000;0.536918
6075.000000;0.536935
6074.000000;0.536977
6073.000000;0.537006
6072.000000;0.536971
6071.000000;0.536868
6070.000000;0.536746
6069.000000;0.536655
6068.000000;0.536612
6067.000000;0.536616
6066.000000;0.536665
6065.000000;0.536737
6064.000000;0.536790
6063.000000;0.536799
6062.000000;0.536781
6061.000000;0.536759
6060.000000;0.536743
6059.000000;0.536733
6058.000000;0.536732
6057.000000;0.536736
6056.000000;0.536722
6055.000000;0.536673
6054.000000;0.536602
6053.000000;0.536542
6052.000000;0.536512
6051.000000;0.536514
6050.000000;0.536548
6049.000000;0.536603
6048.000000;0.536661
6047.000000;0.536703
6046.000000;0.536724
6045.000000;0.536727
6044.000000;0.536718
6043.000000;0.536710
6042.000000;0.536720
6041.000000;0.536743
6040.000000;0.536742
6039.000000;0.536687
6038.000000;0.536599
6037.000000;0.536531
6036.000000;0.536505
6035.000000;0.536505
6034.000000;0.536514
6033.000000;0.536536
6032.000000;0.536569
6031.000000;0.536578
6030.000000;0.536528
6029.000000;0.536431
6028.000000;0.536353
6027.000000;0.536353
6026.000000;0.536427
6025.000000;0.536512
6024.000000;0.536547
6023.000000;0.536522
6022.000000;0.536472
6021.000000;0.536432
6020.000000;0.536406
6019.000000;0.536380
6018.000000;0.536349
6017.000000;0.536324
6016.000000;0.536319
6015.000000;0.536340
6014.000000;0.536394
6013.000000;0.536475
6012.000000;0.536560
6011.000000;0.536608
6010.000000;0.536596
6009.000000;0.536549
6008.000000;0.536529
6007.000000;0.536577
6006.000000;0.536666
6005.000000;0.536721
6004.000000;0.536693
6003.000000;0.536599
6002.000000;0.536500
6001.000000;0.536438
6000.000000;0.536413
5999.000000;0.536415
5998.000000;0.536439
5997.000000;0.536473
5996.000000;0.536484
5995.000000;0.536446
5994.000000;0.536376
5993.000000;0.536314
5992.000000;0.536289
5991.000000;0.536292
5990.000000;0.536298
5989.000000;0.536284
5988.000000;0.536244
5987.000000;0.536194
5986.000000;0.536169
5985.000000;0.536195
5984.000000;0.536259
5983.000000;0.536327
5982.000000;0.536382
5981.000000;0.536437
5980.000000;0.536502
5979.000000;0.536552
5978.000000;0.536562
5977.000000;0.536544
5976.000000;0.536541
5975.000000;0.536582
5974.000000;0.536645
5973.000000;0.536689
5972.000000;0.536700
5971.000000;0.536703
5970.000000;0.536733
5969.000000;0.536796
5968.000000;0.536872
5967.000000;0.536926
5966.000000;0.536928
5965.000000;0.536874
5964.000000;0.536797
5963.000000;0.536746
5962.000000;0.536748
5961.000000;0.536781
5960.000000;0.536806
5959.000000;0.536796
5958.000000;0.536754
5957.000000;0.536692
5956.000000;0.536629
5955.000000;0.536598
5954.000000;0.536626
5953.000000;0.536706
5952.000000;0.536797
5951.000000;0.536854
5950.000000;0.536864
5949.000000;0.536845
5948.000000;0.536823
5947.000000;0.536811
5946.000000;0.536810
5945.000000;0.536806
5944.000000;0.536794
5943.000000;0.536788
5942.000000;0.536816
5941.000000;0.536884
5940.000000;0.536966
5939.000000;0.537022
5938.000000;0.537039
5937.000000;0.537033
5936.000000;0.537027
5935.000000;0.537034
5934.000000;0.537052
5933.000000;0.537076
5932.000000;0.537099
5931.000000;0.537117
5930.000000;0.537133
5929.000000;0.537157
5928.000000;0.537197
5927.000000;0.537243
5926.000000;0.537273
5925.000000;0.537268
5924.000000;0.537238
5923.000000;0.537209
5922.000000;0.537198
5921.000000;0.537199
5920.000000;0.537198
5919.000000;0.537187
5918.000000;0.537167
5917.000000;0.537139
5916.000000;0.537103
5915.000000;0.537071
5914.000000;0.537056
5913.000000;0.537066
5912.000000;0.537094
5911.000000;0.537129
5910.000000;0.537159
5909.000000;0.537169
5908.000000;0.537159
5907.000000;0.537147
5906.000000;0.537153
5905.000000;0.537181
5904.000000;0.537221
5903.000000;0.537264
5902.000000;0.537301
5901.000000;0.537311
5900.000000;0.537279
5899.000000;0.537215
5898.000000;0.537154
5897.000000;0.537124
5896.000000;0.537132
5895.000000;0.537170
5894.000000;0.537221
5893.000000;0.537253
5892.000000;0.537235
5891.000000;0.537168
5890.000000;0.537087
5889.000000;0.537033
5888.000000;0.537018
5887.000000;0.537036
5886.000000;0.537070
5885.000000;0.537095
5884.000000;0.537088
5883.000000;0.537053
5882.000000;0.537019
5881.000000;0.537009
5880.000000;0.537022
5879.000000;0.537042
5878.000000;0.537058
5877.000000;0.537068
5876.000000;0.537071
5875.000000;0.537074
5874.000000;0.537088
5873.000000;0.537121
5872.000000;0.537157
5871.000000;0.537173
5870.000000;0.537155
5869.000000;0.537100
5868.000000;0.537019
5867.000000;0.536945
5866.000000;0.536920
5865.000000;0.536963
5864.000000;0.537045
5863.000000;0.537111
5862.000000;0.537127
5861.000000;0.537109
5860.000000;0.537095
5859.000000;0.537111
5858.000000;0.537147
5857.000000;0.537168
5856.000000;0.537149
5855.000000;0.537101
5854.000000;0.537059
5853.000000;0.537052
5852.000000;0.537080
5851.000000;0.537124
5850.000000;0.537167
5849.000000;0.537200
5848.000000;0.537227
5847.000000;0.537261
5846.000000;0.537301
5845.000000;0.537318
5844.000000;0.537285
5843.000000;0.537217
5842.000000;0.537164
5841.000000;0.537157
5840.000000;0.537182
5839.000000;0.537210
5838.000000;0.537233
5837.000000;0.537263
5836.000000;0.537293
5835.000000;0.537307
5834.000000;0.537299
5833.000000;0.537286
5832.000000;0.537288
5831.000000;0.537311
5830.000000;0.537348
5829.000000;0.537387
5828.000000;0.537423
5827.000000;0.537470
5826.000000;0.537539
5825.000000;0.537609
5824.000000;0.537639
5823.000000;0.537615
5822.000000;0.537576
5821.000000;0.537569
5820.000000;0.537600
5819.000000;0.537640
5818.000000;0.537668
5817.000000;0.537688
5816.000000;0.537705
5815.000000;0.537715
5814.000000;0.537713
5813.000000;0.537703
5812.000000;0.537688
5811.000000;0.537669
5810.000000;0.537662
5809.000000;0.537684
5808.000000;0.537729
5807.000000;0.537771
5806.000000;0.537788
5805.000000;0.537774
5804.000000;0.537738
5803.000000;0.537690
5802.000000;0.537643
5801.000000;0.537615
5800.000000;0.537615
5799.000000;0.537643
5798.000000;0.537693
5797.000000;0.537763
5796.000000;0.537840
5795.000000;0.537911
5794.000000;0.537964
5793.000000;0.537986
5792.000000;0.537973
5791.000000;0.537943
5790.000000;0.537938
5789.000000;0.537987
5788.000000;0.538072
5787.000000;0.538145
5786.000000;0.538187
5785.000000;0.538213
5784.000000;0.538243
5783.000000;0.538272
5782.000000;0.538277
5781.000000;0.538245
5780.000000;0.538185
5779.000000;0.538122
5778.000000;0.538077
5777.000000;0.538049
5776.000000;0.538014
5775.000000;0.537947
5774.000000;0.537857
5773.000000;0.537777
5772.000000;0.537724
5771.000000;0.537691
5770.000000;0.537671
5769.000000;0.537669
5768.000000;0.537687
5767.000000;0.537714
5766.000000;0.537741
5765.000000;0.537767
5764.000000;0.537786
5763.000000;0.537784
5762.000000;0.537763
5761.000000;0.537749
5760.000000;0.537769
5759.000000;0.537811
5758.000000;0.537825
5757.000000;0.537776
5756.000000;0.537673
5755.000000;0.537563
5754.000000;0.537492
5753.000000;0.537476
5752.000000;0.537495
5751.000000;0.537510
5750.000000;0.537499
5749.000000;0.537465
5748.000000;0.537423
5747.000000;0.537379
5746.000000;0.537329
5745.000000;0.537282
5744.000000;0.537258
5743.000000;0.537271
5742.000000;0.537309
5741.000000;0.537340
5740.000000;0.537337
5739.000000;0.537303
5738.000000;0.537256
5737.000000;0.537216
5736.000000;0.537189
5735.000000;0.537170
5734.000000;0.537156
5733.000000;0.537141
5732.000000;0.537121
5731.000000;0.537093
5730.000000;0.537058
5729.000000;0.537018
5728.000000;0.536979
5727.000000;0.536949
5726.000000;0.536931
5725.000000;0.536911
5724.000000;0.536864
5723.000000;0.536793
5722.000000;0.536729
5721.000000;0.536701
5720.000000;0.536697
5719.000000;0.536671
5718.000000;0.536597
5717.000000;0.536501
5716.000000;0.536436
5715.000000;0.536433
5714.000000;0.536474
5713.000000;0.536515
5712.000000;0.536514
5711.000000;0.536463
5710.000000;0.536381
5709.000000;0.536304
5708.000000;0.536248
5707.000000;0.536209
5706.000000;0.536170
5705.000000;0.536118
5704.000000;0.536064
5703.000000;0.536035
5702.000000;0.536052
5701.000000;0.536106
5700.000000;0.536161
5699.000000;0.536185
5698.000000;0.536185
5697.000000;0.536187
5696.000000;0.536195
5695.000000;0.536177
5694.000000;0.536111
5693.000000;0.536012
5692.000000;0.535934
5691.000000;0.535898
5690.000000;0.535876
5689.000000;0.535837
5688.000000;0.535780
5687.000000;0.535730
5686.000000;0.535702
5685.000000;0.535685
5684.000000;0.535664
5683.000000;0.535643
5682.000000;0.535634
5681.000000;0.535642
5680.000000;0.535661
5679.000000;0.535689
5678.000000;0.535731
5677.000000;0.535779
5676.000000;0.535818
5675.000000;0.535834
5674.000000;0.535823
5673.000000;0.535788
5672.000000;0.535739
5671.000000;0.535700
5670.000000;0.535694
5669.000000;0.535730
5668.000000;0.535799
5667.000000;0.535889
5666.000000;0.535987
5665.000000;0.536059
5664.000000;0.536060
5663.000000;0.535980
5662.000000;0.535872
5661.000000;0.535815
5660.000000;0.535845
5659.000000;0.535934
5658.000000;0.536024
5657.000000;0.536073
5656.000000;0.536075
5655.000000;0.536046
5654.000000;0.536011
5653.000000;0.535970
5652.000000;0.535912
5651.000000;0.535840
5650.000000;0.535793
5649.000000;0.535810
5648.000000;0.535885
5647.000000;0.535979
5646.000000;0.536063
5645.000000;0.536139
5644.000000;0.536215
5643.000000;0.536285
5642.000000;0.536354
5641.000000;0.536438
5640.000000;0.536549
5639.000000;0.536666
5638.000000;0.536758
5637.000000;0.536816
5636.000000;0.536857
5635.000000;0.536898
5634.000000;0.536939
5633.000000;0.536978
5632.000000;0.537018
5631.000000;0.537074
5630.000000;0.537157
5629.000000;0.537266
5628.000000;0.537384
5627.000000;0.537493
5626.000000;0.537582
5625.000000;0.537652
5624.000000;0.537710
5623.000000;0.537767
5622.000000;0.537833
5621.000000;0.537920
5620.000000;0.538030
5619.000000;0.538162
5618.000000;0.538317
5617.000000;0.538484
5616.000000;0.538636
5615.000000;0.538743
5614.000000;0.538794
5613.000000;0.538805
5612.000000;0.538791
5611.000000;0.538771
5610.000000;0.538788
5609.000000;0.538902
5608.000000;0.539133
5607.000000;0.539418
5606.000000;0.539657
5605.000000;0.539797
5604.000000;0.539870
5603.000000;0.539936
5602.000000;0.540012
5601.000000;0.540079
5600.000000;0.540126
5599.000000;0.540177
5598.000000;0.540272
5597.000000;0.540427
5596.000000;0.540629
5595.000000;0.540843
5594.000000;0.541032
5593.000000;0.541184
5592.000000;0.541324
5591.000000;0.541497
5590.000000;0.541713
5589.000000;0.541922
5588.000000;0.542059
5587.000000;0.542106
5586.000000;0.542123
5585.000000;0.542192
5584.000000;0.542344
5583.000000;0.542539
5582.000000;0.542708
5581.000000;0.542811
5580.000000;0.542856
5579.000000;0.542882
5578.000000;0.542929
5577.000000;0.543028
5576.000000;0.543185
5575.000000;0.543376
5574.000000;0.543542
5573.000000;0.543631
5572.000000;0.543647
5571.000000;0.543648
5570.000000;0.543690
5569.000000;0.543785
5568.000000;0.543917
5567.000000;0.544078
5566.000000;0.544271
5565.000000;0.544478
5564.000000;0.544664
5563.000000;0.544806
5562.000000;0.544910
5561.000000;0.544986
5560.000000;0.545036
5559.000000;0.545074
5558.000000;0.545133
5557.000000;0.545239
5556.000000;0.545378
5555.000000;0.545503
5554.000000;0.545577
5553.000000;0.545599
5552.000000;0.545597
5551.000000;0.545610
5550.000000;0.545664
5549.000000;0.545749
5548.000000;0.545838
5547.000000;0.545922
5546.000000;0.546021
5545.000000;0.546153
5544.000000;0.546302
5543.000000;0.546435
5542.000000;0.546546
5541.000000;0.546650
5540.000000;0.546749
5539.000000;0.546822
5538.000000;0.546863
5537.000000;0.546902
5536.000000;0.546971
5535.000000;0.547058
5534.000000;0.547123
5533.000000;0.547154
5532.000000;0.547191
5531.000000;0.547285
5530.000000;0.547443
5529.000000;0.547633
5528.000000;0.547820
5527.000000;0.547988
5526.000000;0.548126
5525.000000;0.548204
5524.000000;0.548203
5523.000000;0.548148
5522.000000;0.548096
5521.000000;0.548089
5520.000000;0.548127
5519.000000;0.548193
5518.000000;0.548276
5517.000000;0.548370
5516.000000;0.548463
5515.000000;0.548548
5514.000000;0.548633
5513.000000;0.548720
5512.000000;0.548791
5511.000000;0.548826
5510.000000;0.548838
5509.000000;0.548863
5508.000000;0.548934
5507.000000;0.549045
5506.000000;0.549169
5505.000000;0.549274
5504.000000;0.549349
5503.000000;0.549400
5502.000000;0.549445
5501.000000;0.549499
5500.000000;0.549577
5499.000000;0.549689
5498.000000;0.549829
5497.000000;0.549953
5496.000000;0.550000
5495.000000;0.549955
5494.000000;0.549871
5493.000000;0.549817
5492.000000;0.549803
5491.000000;0.549788
5490.000000;0.549744
5489.000000;0.549697
5488.000000;0.549705
5487.000000;0.549807
5486.000000;0.550013
5485.000000;0.550295
5484.000000;0.550603
5483.000000;0.550895
5482.000000;0.551162
5481.000000;0.551411
5480.000000;0.551621
5479.000000;0.551726
5478.000000;0.551676
5477.000000;0.551497
5476.000000;0.551283
5475.000000;0.551128
5474.000000;0.551060
5473.000000;0.551048
5472.000000;0.551067
5471.000000;0.551140
5470.000000;0.551305
5469.000000;0.551559
5468.000000;0.551843
5467.000000;0.552086
5466.000000;0.552245
5465.000000;0.552309
5464.000000;0.552293
5463.000000;0.552240
5462.000000;0.552218
5461.000000;0.552276
5460.000000;0.552425
5459.000000;0.552642
5458.000000;0.552884
5457.000000;0.553094
5456.000000;0.553245
5455.000000;0.553369
5454.000000;0.553521
5453.000000;0.553684
5452.000000;0.553788
5451.000000;0.553830
5450.000000;0.553890
5449.000000;0.553994
5448.000000;0.554037
5447.000000;0.553919
5446.000000;0.553699
5445.000000;0.553536
5444.000000;0.553509
5443.000000;0.553570
5442.000000;0.553658
5441.000000;0.553786
5440.000000;0.554016
5439.000000;0.554359
5438.000000;0.554718
5437.000000;0.554961
5436.000000;0.555046
5435.000000;0.555081
5434.000000;0.555214
5433.000000;0.555428
5432.000000;0.555543
5431.000000;0.555451
5430.000000;0.555259
5429.000000;0.555194
5428.000000;0.555403
5427.000000;0.555843
5426.000000;0.556346
5425.000000;0.556777
5424.000000;0.557122
5423.000000;0.557460
5422.000000;0.557863
5421.000000;0.558318
5420.000000;0.558760
5419.000000;0.559134
5418.000000;0.559398
5417.000000;0.559505
5416.000000;0.559441
5415.000000;0.559265
5414.000000;0.559075
5413.000000;0.558925
5412.000000;0.558808
5411.000000;0.558748
5410.000000;0.558841
5409.000000;0.559156
5408.000000;0.559660
5407.000000;0.560272
5406.000000;0.560946
5405.000000;0.561657
5404.000000;0.562365
5403.000000;0.563028
5402.000000;0.563624
5401.000000;0.564114
5400.000000;0.564446
5399.000000;0.564643
5398.000000;0.564813
5397.000000;0.565038
5396.000000;0.565270
5395.000000;0.565414
5394.000000;0.565477
5393.000000;0.565592
5392.000000;0.565891
5391.000000;0.566394
5390.000000;0.567036
5389.000000;0.567725
5388.000000;0.568370
5387.000000;0.568916
5386.000000;0.569388
5385.000000;0.569859
5384.000000;0.570357
5383.000000;0.570853
5382.000000;0.571346
5381.000000;0.571864
5380.000000;0.572397
5379.000000;0.572894
5378.000000;0.573331
5377.000000;0.573761
5376.000000;0.574258
5375.000000;0.574838
5374.000000;0.575479
5373.000000;0.576192
5372.000000;0.577008
5371.000000;0.577924
5370.000000;0.578890
5369.000000;0.579863
5368.000000;0.580841
5367.000000;0.581821
5366.000000;0.582760
5365.000000;0.583601
5364.000000;0.584337
5363.000000;0.585023
5362.000000;0.585735
5361.000000;0.586515
5360.000000;0.587382
5359.000000;0.588357
5358.000000;0.589445
5357.000000;0.590562
5356.000000;0.591566
5355.000000;0.592392
5354.000000;0.593138
5353.000000;0.593967
5352.000000;0.594912
5351.000000;0.595871
5350.000000;0.596811
5349.000000;0.597816
5348.000000;0.598926
5347.000000;0.600018
5346.000000;0.600978
5345.000000;0.601904
5344.000000;0.603052
5343.000000;0.604484
5342.000000;0.605930
5341.000000;0.607085
5340.000000;0.607931
5339.000000;0.608763
5338.000000;0.609954
5337.000000;0.611642
5336.000000;0.613585
5335.000000;0.615372
5334.000000;0.616784
5333.000000;0.617965
5332.000000;0.619228
5331.000000;0.620680
5330.000000;0.622072
5329.000000;0.623069
5328.000000;0.623632
5327.000000;0.624048
5326.000000;0.624547
5325.000000;0.625038
5324.000000;0.625341
5323.000000;0.625490
5322.000000;0.625597
5321.000000;0.625490
5320.000000;0.624738
5319.000000;0.623078
5318.000000;0.620608
5317.000000;0.617474
5316.000000;0.613629
5315.000000;0.609032
5314.000000;0.603828
5313.000000;0.598174
5312.000000;0.592008
5311.000000;0.584956
5310.000000;0.576252
5309.000000;0.564940
5308.000000;0.550757
5307.000000;0.534807
5306.000000;0.518509
5305.000000;0.501830
5304.000000;0.483527
5303.000000;0.463193
5302.000000;0.442235
5301.000000;0.423068
5300.000000;0.408355
5299.000000;0.400705
5298.000000;0.402197
5297.000000;0.413555
5296.000000;0.432899
5295.000000;0.457659
5294.000000;0.489205
5293.000000;0.529946
5292.000000;0.575444
5291.000000;0.616864
5290.000000;0.650945
5289.000000;0.679742
5288.000000;0.703663
5287.000000;0.723204
5286.000000;0.743105
5285.000000;0.766741
5284.000000;0.790377
5283.000000;0.809822
5282.000000;0.828087
5281.000000;0.848742
5280.000000;0.867372
5279.000000;0.878574
5278.000000;0.885997
5277.000000;0.895956
5276.000000;0.906557
5275.000000;0.911893
5274.000000;0.912632
5273.000000;0.913739
5272.000000;0.916163
5271.000000;0.919307
5270.000000;0.926728
5269.000000;0.940898
5268.000000;0.956009
5267.000000;0.964162
5266.000000;0.966264
5265.000000;0.968333
5264.000000;0.970663
5263.000000;0.969090
5262.000000;0.963343
5261.000000;0.956522
5260.000000;0.949501
5259.000000;0.942905
5258.000000;0.940640
5257.000000;0.944224
5256.000000;0.948236
5255.000000;0.947920
5254.000000;0.946464
5253.000000;0.948884
5252.000000;0.953856
5251.000000;0.957381
5250.000000;0.960118
5249.000000;0.964153
5248.000000;0.966964
5247.000000;0.965747
5246.000000;0.963105
5245.000000;0.962157
5244.000000;0.960696
5243.000000;0.956116
5242.000000;0.952111
5241.000000;0.953756
5240.000000;0.959457
5239.000000;0.963825
5238.000000;0.965384
5237.000000;0.965322
5236.000000;0.962001
5235.000000;0.954253
5234.000000;0.947167
5233.000000;0.947127
5232.000000;0.953365
5231.000000;0.959437
5230.000000;0.961449
5229.000000;0.960942
5228.000000;0.960764
5227.000000;0.962401
5226.000000;0.966020
5225.000000;0.969113
5224.000000;0.967293
5223.000000;0.960439
5222.000000;0.954992
5221.000000;0.956482
5220.000000;0.962901
5219.000000;0.967760
5218.000000;0.967115
5217.000000;0.961134
5216.000000;0.952174
5215.000000;0.945062
5214.000000;0.945442
5213.000000;0.953933
5212.000000;0.964532
5211.000000;0.971692
5210.000000;0.975787
5209.000000;0.978177
5208.000000;0.976971
5207.000000;0.972341
5206.000000;0.969184
5205.000000;0.969821
5204.000000;0.969491
5203.000000;0.963781
5202.000000;0.956097
5201.000000;0.952304
5200.000000;0.953176
5199.000000;0.956451
5198.000000;0.961628
5197.000000;0.968244
5196.000000;0.973208
5195.000000;0.974528
5194.000000;0.974087
5193.000000;0.972749
5192.000000;0.967778
5191.000000;0.959672
5190.000000;0.955410
5189.000000;0.959567
5188.000000;0.966755
5187.000000;0.968081
5186.000000;0.963228
5185.000000;0.959535
5184.000000;0.961525
5183.000000;0.967912
5182.000000;0.975472
5181.000000;0.980259
5180.000000;0.978053
5179.000000;0.969338
5178.000000;0.960879
5177.000000;0.957962
5176.000000;0.958522
5175.000000;0.957995
5174.000000;0.956356
5173.000000;0.955784
5172.000000;0.955269
5171.000000;0.953633
5170.000000;0.954524
5169.000000;0.961916
5168.000000;0.972665
5167.000000;0.978949
5166.000000;0.977738
5165.000000;0.972590
5164.000000;0.966586
5163.000000;0.960067
5162.000000;0.954507
5161.000000;0.952557
5160.000000;0.954512
5159.000000;0.958167
5158.000000;0.961686
5157.000000;0.964030
5156.000000;0.963338
5155.000000;0.959092
5154.000000;0.954951
5153.000000;0.955457
5152.000000;0.961335
5151.000000;0.969894
5150.000000;0.977824
5149.000000;0.981709
5148.000000;0.978736
5147.000000;0.970541
5146.000000;0.963631
5145.000000;0.962383
5144.000000;0.964222
5143.000000;0.964255
5142.000000;0.962405
5141.000000;0.962370
5140.000000;0.965157
5139.000000;0.968077
5138.000000;0.968887
5137.000000;0.967462
5136.000000;0.964567
5135.000000;0.961501
5134.000000;0.959536
5133.000000;0.958170
5132.000000;0.956029
5131.000000;0.954556
5130.000000;0.957380
5129.000000;0.964081
5128.000000;0.968494
5127.000000;0.966705
5126.000000;0.962725
5125.000000;0.961975
5124.000000;0.963742
5123.000000;0.963744
5122.000000;0.960476
5121.000000;0.955073
5120.000000;0.948094
5119.000000;0.940858
5118.000000;0.937126
5117.000000;0.939156
5116.000000;0.943969
5115.000000;0.947154
5114.000000;0.949133
5113.000000;0.953737
5112.000000;0.962060
5111.000000;0.971508
5110.000000;0.979547
5109.000000;0.984900
5108.000000;0.986051
5107.000000;0.982467
5106.000000;0.976880
5105.000000;0.973015
5104.000000;0.971794
5103.000000;0.971742
5102.000000;0.971497
5101.000000;0.969922
5100.000000;0.965765
5099.000000;0.959923
5098.000000;0.955838
5097.000000;0.954962
5096.000000;0.954053
5095.000000;0.949575
5094.000000;0.942992
5093.000000;0.938652
5092.000000;0.938469
5091.000000;0.941598
5090.000000;0.947079
5089.000000;0.953627
5088.000000;0.958366
5087.000000;0.959258
5086.000000;0.957699
5085.000000;0.956180
5084.000000;0.955248
5083.000000;0.954959
5082.000000;0.956873
5081.000000;0.961485
5080.000000;0.965731
5079.000000;0.966719
5078.000000;0.966193
5077.000000;0.967171
5076.000000;0.968060
5075.000000;0.964871
5074.000000;0.958143
5073.000000;0.952587
5072.000000;0.950269
5071.000000;0.948519
5070.000000;0.944757
5069.000000;0.939927
5068.000000;0.936362
5067.000000;0.935336
5066.000000;0.937584
5065.000000;0.943469
5064.000000;0.951277
5063.000000;0.956897
5062.000000;0.956750
5061.000000;0.951115
5060.000000;0.944028
5059.000000;0.939717
5058.000000;0.939125
5057.000000;0.939549
5056.000000;0.938076
5055.000000;0.935295
5054.000000;0.933658
5053.000000;0.932675
5052.000000;0.928941
5051.000000;0.921530
5050.000000;0.914697
5049.000000;0.913723
5048.000000;0.919459
5047.000000;0.927915
5046.000000;0.934210
5045.000000;0.936154
5044.000000;0.934930
5043.000000;0.933457
5042.000000;0.933407
5041.000000;0.933393
5040.000000;0.931273
5039.000000;0.927742
5038.000000;0.924955
5037.000000;0.922011
5036.000000;0.915626
5035.000000;0.906086
5034.000000;0.898411
5033.000000;0.895946
5032.000000;0.896192
5031.000000;0.894692
5030.000000;0.890790
5029.000000;0.887293
5028.000000;0.886284
5027.000000;0.887633
5026.000000;0.890064
5025.000000;0.891594
5024.000000;0.890550
5023.000000;0.888041
5022.000000;0.887718
5021.000000;0.891412
5020.000000;0.896540
5019.000000;0.899186
5018.000000;0.898123
5017.000000;0.894705
5016.000000;0.890838
5015.000000;0.888057
5014.000000;0.886641
5013.000000;0.884567
5012.000000;0.878850
5011.000000;0.868996
5010.000000;0.857744
5009.000000;0.847930
5008.000000;0.840841
5007.000000;0.837179
5006.000000;0.836025
5005.000000;0.833145
5004.000000;0.824441
5003.000000;0.811760
5002.000000;0.801546
5001.000000;0.797271
5000.000000;0.796715
4999.000000;0.797044
4998.000000;0.798405
4997.000000;0.800229
4996.000000;0.798326
4995.000000;0.789868
4994.000000;0.778264
4993.000000;0.769055
4992.000000;0.763481
4991.000000;0.759126
4990.000000;0.754782
4989.000000;0.751459
4988.000000;0.749572
4987.000000;0.748130
4986.000000;0.746235
4985.000000;0.743136
4984.000000;0.737465
4983.000000;0.728617
4982.000000;0.718232
4981.000000;0.708527
4980.000000;0.700116
4979.000000;0.692997
4978.000000;0.688164
4977.000000;0.686152
4976.000000;0.685046
4975.000000;0.682153
4974.000000;0.677295
4973.000000;0.672608
4972.000000;0.669433
4971.000000;0.666995
4970.000000;0.663602
4969.000000;0.657857
4968.000000;0.649109
4967.000000;0.638027
4966.000000;0.626608
4965.000000;0.616789
4964.000000;0.609315
4963.000000;0.604135
4962.000000;0.600829
4961.000000;0.598062
4960.000000;0.593904
4959.000000;0.587656
4958.000000;0.580369
4957.000000;0.572883
4956.000000;0.564800
4955.000000;0.556070
4954.000000;0.547784
4953.000000;0.540328
4952.000000;0.532463
4951.000000;0.523457
4950.000000;0.514804
4949.000000;0.508492
4948.000000;0.504472
4947.000000;0.501090
4946.000000;0.497267
4945.000000;0.492848
4944.000000;0.487559
4943.000000;0.481122
4942.000000;0.474059
4941.000000;0.467181
4940.000000;0.460495
4939.000000;0.453380
4938.000000;0.445461
4937.000000;0.436802
4936.000000;0.427835
4935.000000;0.419322
4934.000000;0.411514
4933.000000;0.403147
4932.000000;0.392588
4931.000000;0.380572
4930.000000;0.370395
4929.000000;0.364458
4928.000000;0.361677
4927.000000;0.358887
4926.000000;0.353796
4925.000000;0.345937
4924.000000;0.336169
4923.000000;0.326461
4922.000000;0.319054
4921.000000;0.314320
4920.000000;0.309982
4919.000000;0.303415
4918.000000;0.294260
4917.000000;0.284182
4916.000000;0.274865
4915.000000;0.267006
4914.000000;0.260352
4913.000000;0.253755
4912.000000;0.245874
4911.000000;0.236680
4910.000000;0.227669
4909.000000;0.219924
4908.000000;0.212731
4907.000000;0.204943
4906.000000;0.196878
4905.000000;0.189691
4904.000000;0.183558
4903.000000;0.177589
4902.000000;0.171055
4901.000000;0.163741
4900.000000;0.155431
4899.000000;0.146114
4898.000000;0.136679
4897.000000;0.128527
4896.000000;0.122235
4895.000000;0.117019
4894.000000;0.111536
4893.000000;0.104955
4892.000000;0.097441
4891.000000;0.090028
4890.000000;0.083908
4889.000000;0.079554
4888.000000;0.076491
4887.000000;0.073852
4886.000000;0.070926
4885.000000;0.067227
4884.000000;0.062545
4883.000000;0.057206
4882.000000;0.051955
4881.000000;0.047303
4880.000000;0.043147
4879.000000;0.039100
4878.000000;0.035016
4877.000000;0.031041
4876.000000;0.027335
4875.000000;0.023939
4874.000000;0.020938
4873.000000;0.018587
4872.000000;0.017073
4871.000000;0.016186
4870.000000;0.015487
4869.000000;0.014935
4868.000000;0.015035
4867.000000;0.016020
4866.000000;0.017191
4865.000000;0.017500
4864.000000;0.016648
4863.000000;0.015236
4862.000000;0.013955
4861.000000;0.013141
4860.000000;0.013144
4859.000000;0.014327
4858.000000;0.016408
4857.000000;0.018438
4856.000000;0.019898
4855.000000;0.021459
4854.000000;0.024086
4853.000000;0.027621
4852.000000;0.030943
4851.000000;0.033521
4850.000000;0.036099
4849.000000;0.039502
4848.000000;0.043299
4847.000000;0.046250
4846.000000;0.047872
4845.000000;0.048887
4844.000000;0.050143
4843.000000;0.051781
4842.000000;0.053739
4841.000000;0.056451
4840.000000;0.060465
4839.000000;0.065575
4838.000000;0.070769
4837.000000;0.075022
4836.000000;0.077978
4835.000000;0.080093
4834.000000;0.082369
4833.000000;0.085658
4832.000000;0.089822
4831.000000;0.093721
4830.000000;0.096437
4829.000000;0.098315
4828.000000;0.100433
4827.000000;0.103290
4826.000000;0.106504
4825.000000;0.109668
4824.000000;0.112804
4823.000000;0.115921
4822.000000;0.118813
4821.000000;0.121607
4820.000000;0.125002
4819.000000;0.129467
4818.000000;0.134426
4817.000000;0.138690
4816.000000;0.141611
4815.000000;0.143586
4814.000000;0.145492
4813.000000;0.147897
4812.000000;0.150820
4811.000000;0.154003
4810.000000;0.157203
4809.000000;0.160298
4808.000000;0.163296
4807.000000;0.166362
4806.000000;0.169728
4805.000000;0.173453
4804.000000;0.177268
4803.000000;0.180775
4802.000000;0.183796
4801.000000;0.186405
4800.000000;0.188691
4799.000000;0.190731
4798.000000;0.192792
4797.000000;0.195226
4796.000000;0.198012
4795.000000;0.200695
4794.000000;0.203014
4793.000000;0.205317
4792.000000;0.208077
4791.000000;0.211183
4790.000000;0.214091
4789.000000;0.216549
4788.000000;0.218814
4787.000000;0.221170
4786.000000;0.223582
4785.000000;0.225922
4784.000000;0.228290
4783.000000;0.230930
4782.000000;0.233920
4781.000000;0.237010
4780.000000;0.239761
4779.000000;0.241892
4778.000000;0.243584
4777.000000;0.245380
4776.000000;0.247649
4775.000000;0.250225
4774.000000;0.252680
4773.000000;0.254884
4772.000000;0.257094
4771.000000;0.259515
4770.000000;0.261943
4769.000000;0.263942
4768.000000;0.265291
4767.000000;0.266231
4766.000000;0.267282
4765.000000;0.268837
4764.000000;0.270890
4763.000000;0.273169
4762.000000;0.275470
4761.000000;0.277756
4760.000000;0.280004
4759.000000;0.282153
4758.000000;0.284214
4757.000000;0.286227
4756.000000;0.288077
4755.000000;0.289596
4754.000000;0.290946
4753.000000;0.292614
4752.000000;0.294837
4751.000000;0.297256
4750.000000;0.299348
4749.000000;0.301010
4748.000000;0.302496
4747.000000;0.303986
4746.000000;0.305501
4745.000000;0.307069
4744.000000;0.308675
4743.000000;0.310158
4742.000000;0.311481
4741.000000;0.312958
4740.000000;0.314890
4739.000000;0.317056
4738.000000;0.318953
4737.000000;0.320493
4736.000000;0.322083
4735.000000;0.323971
4734.000000;0.325914
4733.000000;0.327591
4732.000000;0.328987
4731.000000;0.330218
4730.000000;0.331312
4729.000000;0.332348
4728.000000;0.333566
4727.000000;0.335075
4726.000000;0.336649
4725.000000;0.338005
4724.000000;0.339133
4723.000000;0.340184
4722.000000;0.341176
4721.000000;0.342053
4720.000000;0.342903
4719.000000;0.343909
4718.000000;0.345100
4717.000000;0.346356
4716.000000;0.347638
4715.000000;0.349074
4714.000000;0.350787
4713.000000;0.352707
4712.000000;0.354565
4711.000000;0.356033
4710.000000;0.356946
4709.000000;0.357459
4708.000000;0.357957
4707.000000;0.358742
4706.000000;0.359824
4705.000000;0.361035
4704.000000;0.362258
4703.000000;0.363467
4702.000000;0.364651
4701.000000;0.365807
4700.000000;0.366981
4699.000000;0.368180
4698.000000;0.369304
4697.000000;0.370248
4696.000000;0.371050
4695.000000;0.371842
4694.000000;0.372695
4693.000000;0.373607
4692.000000;0.374632
4691.000000;0.375871
4690.000000;0.377285
4689.000000;0.378643
4688.000000;0.379728
4687.000000;0.380552
4686.000000;0.381300
4685.000000;0.382082
4684.000000;0.382819
4683.000000;0.383376
4682.000000;0.383770
4681.000000;0.384193
4680.000000;0.384838
4679.000000;0.385734
4678.000000;0.386762
4677.000000;0.387801
4676.000000;0.388823
4675.000000;0.389857
4674.000000;0.390911
4673.000000;0.391950
4672.000000;0.392937
4671.000000;0.393858
4670.000000;0.394708
4669.000000;0.395483
4668.000000;0.396181
4667.000000;0.396809
4666.000000;0.397407
4665.000000;0.398033
4664.000000;0.398727
4663.000000;0.399490
4662.000000;0.400302
4661.000000;0.401138
4660.000000;0.401959
4659.000000;0.402699
4658.000000;0.403315
4657.000000;0.403836
4656.000000;0.404337
4655.000000;0.404885
4654.000000;0.405518
4653.000000;0.406237
4652.000000;0.406995
4651.000000;0.407719
4650.000000;0.408396
4649.000000;0.409098
4648.000000;0.409861
4647.000000;0.410579
4646.000000;0.411108
4645.000000;0.411468
4644.000000;0.411829
4643.000000;0.412290
4642.000000;0.412785
4641.000000;0.413259
4640.000000;0.413803
4639.000000;0.414536
4638.000000;0.415402
4637.000000;0.416228
4636.000000;0.416922
4635.000000;0.417542
4634.000000;0.418159
4633.000000;0.418761
4632.000000;0.419322
4631.000000;0.419870
4630.000000;0.420443
4629.000000;0.421015
4628.000000;0.421517
4627.000000;0.421913
4626.000000;0.422212
4625.000000;0.422446
4624.000000;0.422674
4623.000000;0.423016
4622.000000;0.423608
4621.000000;0.424464
4620.000000;0.425406
4619.000000;0.426177
4618.000000;0.426653
4617.000000;0.426913
4616.000000;0.427111
4615.000000;0.427331
4614.000000;0.427603
4613.000000;0.427989
4612.000000;0.428547
4611.000000;0.429228
4610.000000;0.429870
4609.000000;0.430319
4608.000000;0.430527
4607.000000;0.430539
4606.000000;0.430456
4605.000000;0.430450
4604.000000;0.430722
4603.000000;0.431355
4602.000000;0.432215
4601.000000;0.433039
4600.000000;0.433658
4599.000000;0.434127
4598.000000;0.434624
4597.000000;0.435241
4596.000000;0.435873
4595.000000;0.436326
4594.000000;0.436548
4593.000000;0.436700
4592.000000;0.436964
4591.000000;0.437322
4590.000000;0.437605
4589.000000;0.437740
4588.000000;0.437860
4587.000000;0.438100
4586.000000;0.438406
4585.000000;0.438633
4584.000000;0.438781
4583.000000;0.439005
4582.000000;0.439399
4581.000000;0.439868
4580.000000;0.440243
4579.000000;0.440449
4578.000000;0.440519
4577.000000;0.440521
4576.000000;0.440524
4575.000000;0.440605
4574.000000;0.440814
4573.000000;0.441117
4572.000000;0.441424
4571.000000;0.441684
4570.000000;0.441919
4569.000000;0.442164
4568.000000;0.442416
4567.000000;0.442651
4566.000000;0.442865
4565.000000;0.443071
4564.000000;0.443269
4563.000000;0.443463
4562.000000;0.443706
4561.000000;0.444069
4560.000000;0.444551
4559.000000;0.445030
4558.000000;0.445338
4557.000000;0.445397
4556.000000;0.445280
4555.000000;0.445156
4554.000000;0.445168
4553.000000;0.445359
4552.000000;0.445667
4551.000000;0.445988
4550.000000;0.446232
4549.000000;0.446359
4548.000000;0.446379
4547.000000;0.446350
4546.000000;0.446354
4545.000000;0.446443
4544.000000;0.446608
4543.000000;0.446818
4542.000000;0.447077
4541.000000;0.447400
4540.000000;0.447720
4539.000000;0.447895
4538.000000;0.447849
4537.000000;0.447693
4536.000000;0.447634
4535.000000;0.447781
4534.000000;0.448070
4533.000000;0.448367
4532.000000;0.448605
4531.000000;0.448804
4530.000000;0.449003
4529.000000;0.449182
4528.000000;0.449262
4527.000000;0.449167
4526.000000;0.448919
4525.000000;0.448643
4524.000000;0.448461
4523.000000;0.448391
4522.000000;0.448375
4521.000000;0.448389
4520.000000;0.448476
4519.000000;0.448669
4518.000000;0.448944
4517.000000;0.449237
4516.000000;0.449482
4515.000000;0.449606
4514.000000;0.449546
4513.000000;0.449324
4512.000000;0.449094
4511.000000;0.449073
4510.000000;0.449372
4509.000000;0.449877
4508.000000;0.450300
4507.000000;0.450398
4506.000000;0.450196
4505.000000;0.449970
4504.000000;0.449978
4503.000000;0.450220
4502.000000;0.450472
4501.000000;0.450516
4500.000000;0.450300
4499.000000;0.449931
4498.000000;0.449632
4497.000000;0.449682
4496.000000;0.450233
4495.000000;0.451079
4494.000000;0.451723
4493.000000;0.451781
4492.000000;0.451331
4491.000000;0.450808
4490.000000;0.450581
4489.000000;0.450685
4488.000000;0.450912
4487.000000;0.451043
4486.000000;0.450991
4485.000000;0.450826
4484.000000;0.450727
4483.000000;0.450849
4482.000000;0.451165
4481.000000;0.451466
4480.000000;0.451552
4479.000000;0.451429
4478.000000;0.451286
4477.000000;0.451272
4476.000000;0.451355
4475.000000;0.451405
4474.000000;0.451386
4473.000000;0.451400
4472.000000;0.451546
4471.000000;0.451777
4470.000000;0.451931
4469.000000;0.451892
4468.000000;0.451702
4467.000000;0.451528
4466.000000;0.451507
4465.000000;0.451614
4464.000000;0.451666
4463.000000;0.451465
4462.000000;0.450999
4461.000000;0.450496
4460.000000;0.450238
4459.000000;0.450323
4458.000000;0.450623
4457.000000;0.450928
4456.000000;0.451080
4455.000000;0.450983
4454.000000;0.450608
4453.000000;0.450093
4452.000000;0.449748
4451.000000;0.449830
4450.000000;0.450274
4449.000000;0.450707
4448.000000;0.450806
4447.000000;0.450596
4446.000000;0.450382
4445.000000;0.450411
4444.000000;0.450677
4443.000000;0.451022
4442.000000;0.451293
4441.000000;0.451358
4440.000000;0.451072
4439.000000;0.450413
4438.000000;0.449651
4437.000000;0.449250
4436.000000;0.449494
4435.000000;0.450244
4434.000000;0.451102
4433.000000;0.451717
4432.000000;0.451938
4431.000000;0.451786
4430.000000;0.451421
4429.000000;0.451066
4428.000000;0.450807
4427.000000;0.450514
4426.000000;0.450066
4425.000000;0.449618
4424.000000;0.449452
4423.000000;0.449590
4422.000000;0.449728
4421.000000;0.449626
4420.000000;0.449376
4419.000000;0.449202
4418.000000;0.449151
4417.000000;0.449114
4416.000000;0.449017
4415.000000;0.448839
4414.000000;0.448536
4413.000000;0.448098
4412.000000;0.447666
4411.000000;0.447417
4410.000000;0.447352
4409.000000;0.447308
4408.000000;0.447156
4407.000000;0.446892
4406.000000;0.446552
4405.000000;0.446211
4404.000000;0.446053
4403.000000;0.446259
4402.000000;0.446728
4401.000000;0.446999
4400.000000;0.446594
4399.000000;0.445422
4398.000000;0.443867
4397.000000;0.442495
4396.000000;0.441673
4395.000000;0.441355
4394.000000;0.441179
4393.000000;0.440837
4392.000000;0.440396
4391.000000;0.440174
4390.000000;0.440248
4389.000000;0.440203
4388.000000;0.439511
4387.000000;0.438129
4386.000000;0.436579
4385.000000;0.435437
4384.000000;0.434881
4383.000000;0.434745
4382.000000;0.434799
4381.000000;0.434817
4380.000000;0.434504
4379.000000;0.433619
4378.000000;0.432250
4377.000000;0.430789
4376.000000;0.429528
4375.000000;0.428400
4374.000000;0.427217
4373.000000;0.426056
4372.000000;0.425181
4371.000000;0.424628
4370.000000;0.424080
4369.000000;0.423236
4368.000000;0.422149
4367.000000;0.421098
4366.000000;0.420236
4365.000000;0.419470
4364.000000;0.418614
4363.000000;0.417548
4362.000000;0.416278
4361.000000;0.414907
4360.000000;0.413555
4359.000000;0.412260
4358.000000;0.411005
4357.000000;0.409815
4356.000000;0.408737
4355.000000;0.407692
4354.000000;0.406508
4353.000000;0.405174
4352.000000;0.403927
4351.000000;0.402947
4350.000000;0.402124
4349.000000;0.401283
4348.000000;0.400485
4347.000000;0.399850
4346.000000;0.399183
4345.000000;0.398103
4344.000000;0.396568
4343.000000;0.394991
4342.000000;0.393717
4341.000000;0.392632
4340.000000;0.391416
4339.000000;0.389998
4338.000000;0.388561
4337.000000;0.387243
4336.000000;0.386012
4335.000000;0.384757
4334.000000;0.383325
4333.000000;0.381537
4332.000000;0.379354
4331.000000;0.377032
4330.000000;0.374974
4329.000000;0.373367
4328.000000;0.372059
4327.000000;0.370851
4326.000000;0.369817
4325.000000;0.369224
4324.000000;0.369095
4323.000000;0.368961
4322.000000;0.368203
4321.000000;0.366696
4320.000000;0.364962
4319.000000;0.363538
4318.000000;0.362328
4317.000000;0.360835
4316.000000;0.358946
4315.000000;0.357161
4314.000000;0.355966
4313.000000;0.355251
4312.000000;0.354532
4311.000000;0.353530
4310.000000;0.352232
4309.000000;0.350541
4308.000000;0.348303
4307.000000;0.345809
4306.000000;0.343932
4305.000000;0.343495
4304.000000;0.344464
4303.000000;0.345818
4302.000000;0.346232
4301.000000;0.344977
4300.000000;0.342398
4299.000000;0.339674
4298.000000;0.337999
4297.000000;0.337774
4296.000000;0.338393
4295.000000;0.338886
4294.000000;0.338928
4293.000000;0.339170
4292.000000;0.340375
4291.000000;0.342192
4290.000000;0.343118
4289.000000;0.342016
4288.000000;0.339536
4287.000000;0.337650
4286.000000;0.337728
4285.000000;0.339381
4284.000000;0.341308
4283.000000;0.342833
4282.000000;0.344268
4281.000000;0.346111
4280.000000;0.348457
4279.000000;0.351138
4278.000000;0.353894
4277.000000;0.356288
4276.000000;0.357981
4275.000000;0.359326
4274.000000;0.361323
4273.000000;0.364772
4272.000000;0.369744
4271.000000;0.375843
4270.000000;0.382394
4269.000000;0.388361
4268.000000;0.392977
4267.000000;0.396900
4266.000000;0.401944
4265.000000;0.408920
4264.000000;0.416418
4263.000000;0.422624
4262.000000;0.427705
4261.000000;0.433254
4260.000000;0.439816
4259.000000;0.446460
4258.000000;0.452741
4257.000000;0.459671
4256.000000;0.468312
4255.000000;0.478295
4254.000000;0.488258
4253.000000;0.497184
4252.000000;0.504591
4251.000000;0.510245
4250.000000;0.514876
4249.000000;0.520583
4248.000000;0.529468
4247.000000;0.541513
4246.000000;0.554204
4245.000000;0.564707
4244.000000;0.572398
4243.000000;0.579051
4242.000000;0.586678
4241.000000;0.595532
4240.000000;0.604381
4239.000000;0.612515
4238.000000;0.620962
4237.000000;0.631467
4236.000000;0.644591
4235.000000;0.659088
4234.000000;0.672916
4233.000000;0.684432
4232.000000;0.692898
4231.000000;0.698827
4230.000000;0.704316
4229.000000;0.712236
4228.000000;0.723989
4227.000000;0.738005
4226.000000;0.751099
4225.000000;0.761660
4224.000000;0.771064
4223.000000;0.781653
4222.000000;0.793721
4221.000000;0.804969
4220.000000;0.813215
4219.000000;0.819531
4218.000000;0.827925
4217.000000;0.841459
4216.000000;0.858986
4215.000000;0.875778
4214.000000;0.887460
4213.000000;0.893537
4212.000000;0.896844
4211.000000;0.900208
4210.000000;0.904802
4209.000000;0.911571
4208.000000;0.922555
4207.000000;0.939005
4206.000000;0.958474
4205.000000;0.975467
4204.000000;0.986576
4203.000000;0.994187
4202.000000;1.003168
4201.000000;1.015498
4200.000000;1.029991
4199.000000;1.045160
4198.000000;1.059692
4197.000000;1.071153
4196.000000;1.077610
4195.000000;1.080652
4194.000000;1.083922
4193.000000;1.088995
4192.000000;1.094873
4191.000000;1.100685
4190.000000;1.106416
4189.000000;1.111284
4188.000000;1.114842
4187.000000;1.120079
4186.000000;1.131953
4185.000000;1.151799
4184.000000;1.175214
4183.000000;1.196192
4182.000000;1.211541
4181.000000;1.220534
4180.000000;1.224161
4179.000000;1.226862
4178.000000;1.233929
4177.000000;1.244710
4176.000000;1.252690
4175.000000;1.254691
4174.000000;1.256057
4173.000000;1.264429
4172.000000;1.281890
4171.000000;1.304942
4170.000000;1.328768
4169.000000;1.347845
4168.000000;1.355600
4167.000000;1.350485
4166.000000;1.341326
4165.000000;1.340958
4164.000000;1.355742
4163.000000;1.382670
4162.000000;1.412848
4161.000000;1.435626
4160.000000;1.443811
4159.000000;1.440301
4158.000000;1.436686
4157.000000;1.440196
4156.000000;1.443842
4155.000000;1.435171
4154.000000;1.415925
4153.000000;1.402478
4152.000000;1.407533
4151.000000;1.432579
4150.000000;1.474143
4149.000000;1.526207
4148.000000;1.575637
4147.000000;1.605201
4146.000000;1.606917
4145.000000;1.591135
4144.000000;1.576444
4143.000000;1.572855
4142.000000;1.580043
4141.000000;1.594001
4140.000000;1.609142
4139.000000;1.620469
4138.000000;1.625311
4137.000000;1.621201
4136.000000;1.607808
4135.000000;1.587863
4134.000000;1.567871
4133.000000;1.560060
4132.000000;1.579687
4131.000000;1.636557
4130.000000;1.721858
4129.000000;1.798603
4128.000000;1.825073
4127.000000;1.807938
4126.000000;1.786538
4125.000000;1.778607
4124.000000;1.776370
4123.000000;1.769602
4122.000000;1.759405
4121.000000;1.751469
4120.000000;1.746473
4119.000000;1.744427
4118.000000;1.750583
4117.000000;1.769353
4116.000000;1.794214
4115.000000;1.808697
4114.000000;1.807257
4113.000000;1.802234
4112.000000;1.804890
4111.000000;1.817247
4110.000000;1.828063
4109.000000;1.821869
4108.000000;1.805701
4107.000000;1.807656
4106.000000;1.847750
4105.000000;1.917469
4104.000000;1.973199
4103.000000;1.969420
4102.000000;1.921689
4101.000000;1.885045
4100.000000;1.898482
4099.000000;1.974792
4098.000000;2.080471
4097.000000;2.104402
4096.000000;2.023890
4095.000000;1.933901
4094.000000;1.890343
4093.000000;1.905739
4092.000000;1.963853
4091.000000;2.028074
4090.000000;2.063490
4089.000000;2.071366
4088.000000;2.069672
4087.000000;2.062486
4086.000000;2.040968
4085.000000;1.992184
4084.000000;1.926351
4083.000000;1.879864
4082.000000;1.880625
4081.000000;1.924862
4080.000000;1.970534
4079.000000;1.971510
4078.000000;1.932219
4077.000000;1.886471
4076.000000;1.858402
4075.000000;1.859632
4074.000000;1.896358
4073.000000;1.963547
4072.000000;2.026287
4071.000000;2.040345
4070.000000;2.025328
4069.000000;2.027156
4068.000000;2.045854
4067.000000;2.045304
4066.000000;2.014192
4065.000000;1.977771
4064.000000;1.961167
4063.000000;1.977638
4062.000000;2.018975
4061.000000;2.058142
4060.000000;2.076128
4059.000000;2.093774
4058.000000;2.143624
4057.000000;2.215874
4056.000000;2.261161
4055.000000;2.236706
4054.000000;2.184720
4053.000000;2.164790
4052.000000;2.163313
4051.000000;2.163369
4050.000000;2.196950
4049.000000;2.311262
4048.000000;2.430061
4047.000000;2.338070
4046.000000;2.206248
4045.000000;2.156500
4044.000000;2.147290
4043.000000;2.131294
4042.000000;2.097003
4041.000000;2.077110
4040.000000;2.096547
4039.000000;2.155200
4038.000000;2.236367
4037.000000;2.286472
4036.000000;2.273930
4035.000000;2.279514
4034.000000;2.342150
4033.000000;2.379928
4032.000000;2.323556
4031.000000;2.243858
4030.000000;2.191562
4029.000000;2.172019
4028.000000;2.163416
4027.000000;2.145907
4026.000000;2.138270
4025.000000;2.176674
4024.000000;2.251164
4023.000000;2.259530
4022.000000;2.188269
4021.000000;2.124376
4020.000000;2.088307
4019.000000;2.087351
4018.000000;2.122579
4017.000000;2.165956
4016.000000;2.178665
4015.000000;2.151892
4014.000000;2.114104
4013.000000;2.110315
4012.000000;2.166322
4011.000000;2.279468
4010.000000;2.399713
4009.000000;2.422470
4008.000000;2.359060
4007.000000;2.292250
4006.000000;2.263593
4005.000000;2.266691
4004.000000;2.263430
4003.000000;2.245275
4002.000000;2.250346
4001.000000;2.328299
4000.000000;2.498753
3999.000000;2.722303
3998.000000;2.744278
3997.000000;2.621342
3996.000000;2.702808
3995.000000;2.726221
3994.000000;2.507878
3993.000000;2.452858
3992.000000;2.612856
3991.000000;2.839895
3990.000000;2.786431
3989.000000;2.650565
3988.000000;2.557858
3987.000000;2.476288
3986.000000;2.398019
3985.000000;2.324336
3984.000000;2.274180
3983.000000;2.255685
3982.000000;2.270204
3981.000000;2.309345
3980.000000;2.350217
3979.000000;2.371899
3978.000000;2.381099
3977.000000;2.417195
3976.000000;2.518635
3975.000000;2.665231
3974.000000;2.660927
3973.000000;2.449508
3972.000000;2.242946
3971.000000;2.115645
3970.000000;2.073485
3969.000000;2.100304
3968.000000;2.174364
3967.000000;2.266729
3966.000000;2.334233
3965.000000;2.353777
3964.000000;2.349829
3963.000000;2.353109
3962.000000;2.379293
3961.000000;2.430563
3960.000000;2.471175
3959.000000;2.466392
3958.000000;2.428856
3957.000000;2.369642
3956.000000;2.304542
3955.000000;2.273690
3954.000000;2.313175
3953.000000;2.445016
3952.000000;2.607331
3951.000000;2.560272
3950.000000;2.388060
3949.000000;2.276474
3948.000000;2.243428
3947.000000;2.249852
3946.000000;2.275575
3945.000000;2.366415
3944.000000;2.546439
3943.000000;2.710030
3942.000000;2.681824
3941.000000;2.591319
3940.000000;2.628405
3939.000000;2.779525
3938.000000;2.794626
3937.000000;2.755643
3936.000000;2.696316
3935.000000;2.541439
3934.000000;2.459461
3933.000000;2.464051
3932.000000;2.448284
3931.000000;2.386879
3930.000000;2.358891
3929.000000;2.369422
3928.000000;2.346826
3927.000000;2.287633
3926.000000;2.268358
3925.000000;2.325080
3924.000000;2.432350
3923.000000;2.550366
3922.000000;2.662969
3921.000000;2.793609
3920.000000;2.741983
3919.000000;2.419358
3918.000000;2.203304
3917.000000;2.127202
3916.000000;2.159010
3915.000000;2.277990
3914.000000;2.484566
3913.000000;2.890188
3912.000000;2.910160
3911.000000;2.695050
3910.000000;2.968080
3909.000000;3.172015
3908.000000;2.784890
3907.000000;2.713346
3906.000000;2.793472
3905.000000;2.814557
3904.000000;2.790557
3903.000000;2.704206
3902.000000;2.474261
3901.000000;2.337081
3900.000000;2.307497
3899.000000;2.484382
3898.000000;2.878026
3897.000000;2.575129
3896.000000;2.478689
3895.000000;2.618982
3894.000000;2.678239
3893.000000;2.599082
3892.000000;2.556934
3891.000000;2.538851
3890.000000;2.513495
3889.000000;2.554307
3888.000000;2.597931
3887.000000;2.492986
3886.000000;2.283642
3885.000000;2.106171
3884.000000;2.072306
3883.000000;2.209520
3882.000000;2.541514
3881.000000;3.220435
3880.000000;2.852425
3879.000000;2.532709
3878.000000;2.392191
3877.000000;2.308810
3876.000000;2.328880
3875.000000;2.463459
3874.000000;2.473071
3873.000000;2.229719
3872.000000;2.137631
3871.000000;2.184393
3870.000000;2.323562
3869.000000;2.632693
3868.000000;2.786134
3867.000000;2.604970
3866.000000;2.543008
3865.000000;2.473766
3864.000000;2.440733
3863.000000;2.636433
3862.000000;2.988273
3861.000000;2.761893
3860.000000;2.814598
3859.000000;2.945552
3858.000000;2.489622
3857.000000;2.257885
3856.000000;2.203796
3855.000000;2.221842
3854.000000;2.265832
3853.000000;2.300280
3852.000000;2.278329
3851.000000;2.312486
3850.000000;2.492066
3849.000000;2.574629
3848.000000;2.528630
3847.000000;2.554973
3846.000000;2.638563
3845.000000;2.693187
3844.000000;2.710890
3843.000000;2.719404
3842.000000;2.689697
3841.000000;2.654720
3840.000000;2.636188
3839.000000;2.769193
3838.000000;2.962669
3837.000000;2.565371
3836.000000;2.317421
3835.000000;2.271013
3834.000000;2.286855
3833.000000;2.301781
3832.000000;2.300129
3831.000000;2.275877
3830.000000;2.271800
3829.000000;2.343554
3828.000000;2.566680
3827.000000;2.987195
3826.000000;2.808108
3825.000000;2.844293
3824.000000;3.012361
3823.000000;2.636964
3822.000000;2.516861
3821.000000;2.480299
3820.000000;2.397267
3819.000000;2.331310
3818.000000;2.362574
3817.000000;2.455877
3816.000000;2.424685
3815.000000;2.271380
3814.000000;2.239659
3813.000000;2.370084
3812.000000;2.438850
3811.000000;2.407425
3810.000000;2.440221
3809.000000;2.511802
3808.000000;2.506399
3807.000000;2.514411
3806.000000;2.714194
3805.000000;2.877595
3804.000000;2.753053
3803.000000;2.560449
3802.000000;2.430298
3801.000000;2.590970
3800.000000;2.547351
3799.000000;2.251400
3798.000000;2.156892
3797.000000;2.146666
3796.000000;2.209209
3795.000000;2.420056
3794.000000;2.898159
3793.000000;2.948357
3792.000000;2.530591
3791.000000;2.389570
3790.000000;2.357476
3789.000000;2.348489
3788.000000;2.319186
3787.000000;2.306358
3786.000000;2.380167
3785.000000;2.564509
3784.000000;2.821744
3783.000000;2.895924
3782.000000;2.759568
3781.000000;2.675924
3780.000000;2.827587
3779.000000;2.942305
3778.000000;2.545108
3777.000000;2.383943
3776.000000;2.420575
3775.000000;2.636639
3774.000000;3.258456
3773.000000;3.494800
3772.000000;3.223979
3771.000000;2.796133
3770.000000;2.602696
3769.000000;2.673179
3768.000000;2.792732
3767.000000;2.862668
3766.000000;2.720082
3765.000000;2.603451
3764.000000;2.637172
3763.000000;2.958052
3762.000000;3.546310
3761.000000;2.879393
3760.000000;2.647183
3759.000000;2.616781
3758.000000;2.951672
3757.000000;3.314541
3756.000000;2.774355
3755.000000;2.772698
3754.000000;2.784348
3753.000000;2.441705
3752.000000;2.162972
3751.000000;2.048681
3750.000000;2.134674
3749.000000;2.442598
3748.000000;2.451064
3747.000000;2.245279
3746.000000;2.208246
3745.000000;2.272579
3744.000000;2.362282
3743.000000;2.521102
3742.000000;2.536933
3741.000000;2.309891
3740.000000;2.237947
3739.000000;2.317844
3738.000000;2.523400
3737.000000;2.570912
3736.000000;2.633005
3735.000000;2.572875
3734.000000;2.281756
3733.000000;2.193652
3732.000000;2.362317
3731.000000;2.645940
3730.000000;2.419628
3729.000000;2.303507
3728.000000;2.454125
3727.000000;2.649305
3726.000000;2.789644
3725.000000;3.221738
3724.000000;3.148069
3723.000000;2.718374
3722.000000;2.573272
3721.000000;2.440537
3720.000000;2.326598
3719.000000;2.273443
3718.000000;2.288330
3717.000000;2.420268
3716.000000;2.730936
3715.000000;2.665908
3714.000000;2.429429
3713.000000;2.380828
3712.000000;2.410787
3711.000000;2.457352
3710.000000;2.420365
3709.000000;2.305329
3708.000000;2.255505
3707.000000;2.329554
3706.000000;2.510272
3705.000000;2.634122
3704.000000;2.557841
3703.000000;2.487746
3702.000000;2.478399
3701.000000;2.626777
3700.000000;2.909986
3699.000000;2.673715
3698.000000;2.475416
3697.000000;2.488534
3696.000000;2.669934
3695.000000;2.952485
3694.000000;2.776467
3693.000000;2.599212
3692.000000;2.562742
3691.000000;2.608190
3690.000000;2.754885
3689.000000;2.839322
3688.000000;2.702342
3687.000000;2.466689
3686.000000;2.345586
3685.000000;2.383618
3684.000000;2.540649
3683.000000;2.651327
3682.000000;2.607728
3681.000000;2.606246
3680.000000;2.578223
3679.000000;2.490996
3678.000000;2.495576
3677.000000;2.668926
3676.000000;3.064647
3675.000000;3.027003
3674.000000;2.722919
3673.000000;2.570330
3672.000000;2.419188
3671.000000;2.296765
3670.000000;2.218037
3669.000000;2.269712
3668.000000;2.462984
3667.000000;2.430424
3666.000000;2.270946
3665.000000;2.209515
3664.000000;2.279393
3663.000000;2.649939
3662.000000;2.921003
3661.000000;2.497724
3660.000000;2.322721
3659.000000;2.279269
3658.000000;2.373795
3657.000000;2.572837
3656.000000;2.557552
3655.000000;2.475995
3654.000000;2.463078
3653.000000;2.447463
3652.000000;2.418893
3651.000000;2.406548
3650.000000;2.649257
3649.000000;2.638635
3648.000000;2.264133
3647.000000;2.229968
3646.000000;2.392870
3645.000000;2.400059
3644.000000;2.270609
3643.000000;2.241605
3642.000000;2.295042
3641.000000;2.393027
3640.000000;2.460913
3639.000000;2.486567
3638.000000;2.597720
3637.000000;2.747740
3636.000000;2.668338
3635.000000;2.485051
3634.000000;2.424297
3633.000000;2.517079
3632.000000;2.811423
3631.000000;3.341403
3630.000000;3.731927
3629.000000;3.112351
3628.000000;2.755302
3627.000000;2.603106
3626.000000;2.571726
3625.000000;2.577424
3624.000000;2.526069
3623.000000;2.471166
3622.000000;2.478472
3621.000000;2.891524
3620.000000;3.111065
3619.000000;2.473835
3618.000000;2.359482
3617.000000;2.437059
3616.000000;2.789306
3615.000000;3.164814
3614.000000;2.617371
3613.000000;2.361569
3612.000000;2.274304
3611.000000;2.269035
3610.000000;2.252457
3609.000000;2.200689
3608.000000;2.174073
3607.000000;2.201609
3606.000000;2.242556
3605.000000;2.237777
3604.000000;2.218369
3603.000000;2.267860
3602.000000;2.459135
3601.000000;2.923589
3600.000000;3.130758
3599.000000;2.668075
3598.000000;2.480719
3597.000000;2.430422
3596.000000;2.447283
3595.000000;2.519437
3594.000000;2.617925
3593.000000;2.579039
3592.000000;2.492162
3591.000000;2.618400
3590.000000;3.133891
3589.000000;3.022941
3588.000000;2.853822
3587.000000;3.059759
3586.000000;2.830740
3585.000000;2.807030
3584.000000;2.969628
3583.000000;2.674993
3582.000000;2.449305
3581.000000;2.361225
3580.000000;2.472017
3579.000000;2.897289
3578.000000;2.728197
3577.000000;2.479608
3576.000000;2.467544
3575.000000;2.516401
3574.000000;2.588189
3573.000000;2.696697
3572.000000;2.955951
3571.000000;3.013578
3570.000000;2.973640
3569.000000;3.292216
3568.000000;2.927568
3567.000000;2.604868
3566.000000;2.710076
3565.000000;3.116570
3564.000000;2.854839
3563.000000;2.675917
3562.000000;2.761549
3561.000000;2.830600
3560.000000;2.983650
3559.000000;3.045297
3558.000000;2.966414
3557.000000;3.202071
3556.000000;3.407131
3555.000000;3.384916
3554.000000;3.695830
3553.000000;2.914262
3552.000000;2.585407
3551.000000;2.466300
3550.000000;2.452089
3549.000000;2.543548
3548.000000;2.682792
3547.000000;2.732704
3546.000000;2.581404
3545.000000;2.412415
3544.000000;2.362189
3543.000000;2.453962
3542.000000;2.592972
3541.000000;2.703835
3540.000000;2.797139
3539.000000;2.696504
3538.000000;2.590776
3537.000000;2.653656
3536.000000;2.781929
3535.000000;2.675382
3534.000000;2.535815
3533.000000;2.539556
3532.000000;2.601766
3531.000000;2.623399
3530.000000;2.623542
3529.000000;2.626748
3528.000000;2.602569
3527.000000;2.631003
3526.000000;2.660433
3525.000000;2.575618
3524.000000;2.539799
3523.000000;2.497434
3522.000000;2.413471
3521.000000;2.423399
3520.000000;2.528764
3519.000000;2.600687
3518.000000;2.589420
3517.000000;2.611707
3516.000000;2.705559
3515.000000;3.005991
3514.000000;3.225777
3513.000000;2.773410
3512.000000;2.519998
3511.000000;2.399177
3510.000000;2.357802
3509.000000;2.357406
3508.000000;2.375212
3507.000000;2.449723
3506.000000;2.765176
3505.000000;3.080222
3504.000000;2.691476
3503.000000;2.610954
3502.000000;2.720093
3501.000000;2.820135
3500.000000;2.865420
3499.000000;2.841375
3498.000000;2.978733
3497.000000;3.255707
3496.000000;3.458285
3495.000000;3.514065
3494.000000;2.959749
3493.000000;2.873025
3492.000000;2.950586
3491.000000;2.713342
3490.000000;2.434897
3489.000000;2.316477
3488.000000;2.335193
3487.000000;2.461563
3486.000000;2.580886
3485.000000;2.741687
3484.000000;3.128577
3483.000000;2.681055
3482.000000;2.346501
3481.000000;2.326390
3480.000000;2.497316
3479.000000;2.594364
3478.000000;2.454834
3477.000000;2.549599
3476.000000;3.247968
3475.000000;2.594521
3474.000000;2.316388
3473.000000;2.316037
3472.000000;2.426226
3471.000000;2.741286
3470.000000;3.126717
3469.000000;2.709470
3468.000000;2.441507
3467.000000;2.299048
3466.000000;2.257147
3465.000000;2.332885
3464.000000;2.520183
3463.000000;2.851986
3462.000000;2.961558
3461.000000;2.643536
3460.000000;2.471787
3459.000000;2.453737
3458.000000;2.555640
3457.000000;2.561314
3456.000000;2.449062
3455.000000;2.401141
3454.000000;2.425306
3453.000000;2.418053
3452.000000;2.322045
3451.000000;2.285349
3450.000000;2.389930
3449.000000;2.752442
3448.000000;2.965427
3447.000000;2.548294
3446.000000;2.382044
3445.000000;2.344234
3444.000000;2.336866
3443.000000;2.346658
3442.000000;2.418122
3441.000000;2.565157
3440.000000;2.728975
3439.000000;2.727923
3438.000000;2.521319
3437.000000;2.418170
3436.000000;2.483646
3435.000000;2.682950
3434.000000;2.838287
3433.000000;2.913162
3432.000000;2.910010
3431.000000;2.644485
3430.000000;2.455778
3429.000000;2.446620
3428.000000;2.577808
3427.000000;2.670346
3426.000000;2.704198
3425.000000;2.912916
3424.000000;3.153632
3423.000000;2.911734
3422.000000;2.627208
3421.000000;2.450454
3420.000000;2.385684
3419.000000;2.418249
3418.000000;2.471130
3417.000000;2.452478
3416.000000;2.394573
3415.000000;2.388858
3414.000000;2.455963
3413.000000;2.758965
3412.000000;3.484008
3411.000000;2.741651
3410.000000;2.640171
3409.000000;2.645212
3408.000000;2.581321
3407.000000;2.673839
3406.000000;3.043451
3405.000000;2.667011
3404.000000;2.341841
3403.000000;2.269836
3402.000000;2.277290
3401.000000;2.321010
3400.000000;2.371296
3399.000000;2.439380
3398.000000;2.486442
3397.000000;2.413789
3396.000000;2.270990
3395.000000;2.183409
3394.000000;2.196490
3393.000000;2.290761
3392.000000;2.426835
3391.000000;2.553992
3390.000000;2.483260
3389.000000;2.385670
3388.000000;2.429324
3387.000000;2.645821
3386.000000;2.879892
3385.000000;2.714728
3384.000000;2.582365
3383.000000;2.530251
3382.000000;2.557518
3381.000000;2.632961
3380.000000;2.838905
3379.000000;3.259046
3378.000000;2.900463
3377.000000;2.654511
3376.000000;2.765066
3375.000000;2.869340
3374.000000;2.531957
3373.000000;2.317466
3372.000000;2.287585
3371.000000;2.393635
3370.000000;2.711836
3369.000000;3.012563
3368.000000;2.825098
3367.000000;2.995396
3366.000000;2.863768
3365.000000;2.536701
3364.000000;2.443262
3363.000000;2.446194
3362.000000;2.405735
3361.000000;2.341200
3360.000000;2.345536
3359.000000;2.407854
3358.000000;2.454809
3357.000000;2.452707
3356.000000;2.423257
3355.000000;2.396161
3354.000000;2.369033
3353.000000;2.328783
3352.000000;2.309029
3351.000000;2.354979
3350.000000;2.467855
3349.000000;2.542447
3348.000000;2.494692
3347.000000;2.458665
3346.000000;2.522035
3345.000000;2.642229
3344.000000;2.634280
3343.000000;2.499527
3342.000000;2.435964
3341.000000;2.539801
3340.000000;2.794500
3339.000000;2.645310
3338.000000;2.540570
3337.000000;2.630358
3336.000000;2.840325
3335.000000;3.083721
3334.000000;3.101931
3333.000000;2.795974
3332.000000;2.567832
3331.000000;2.509009
3330.000000;2.585177
3329.000000;2.704207
3328.000000;2.766289
3327.000000;2.785979
3326.000000;2.882161
3325.000000;3.167448
3324.000000;3.163188
3323.000000;2.953373
3322.000000;2.816144
3321.000000;2.675363
3320.000000;2.630636
3319.000000;2.656469
3318.000000;2.729819
3317.000000;2.586734
3316.000000;2.329331
3315.000000;2.188477
3314.000000;2.152881
3313.000000;2.172045
3312.000000;2.198145
3311.000000;2.219211
3310.000000;2.262323
3309.000000;2.365759
3308.000000;2.568631
3307.000000;2.917512
3306.000000;3.225558
3305.000000;3.232267
3304.000000;3.290755
3303.000000;2.992156
3302.000000;2.716510
3301.000000;2.595667
3300.000000;2.617887
3299.000000;2.619580
3298.000000;2.551053
3297.000000;2.540153
3296.000000;2.477565
3295.000000;2.395718
3294.000000;2.419893
3293.000000;2.497053
3292.000000;2.426626
3291.000000;2.333339
3290.000000;2.384887
3289.000000;2.583679
3288.000000;3.322061
3287.000000;3.036236
3286.000000;2.682309
3285.000000;2.582583
3284.000000;2.532688
3283.000000;2.537938
3282.000000;2.593875
3281.000000;2.664631
3280.000000;2.758798
3279.000000;3.090221
3278.000000;3.280288
3277.000000;2.717341
3276.000000;2.641525
3275.000000;2.712835
3274.000000;3.012064
3273.000000;3.066202
3272.000000;2.785402
3271.000000;2.784264
3270.000000;2.799354
3269.000000;3.041237
3268.000000;2.902043
3267.000000;2.464613
3266.000000;2.320802
3265.000000;2.353856
3264.000000;2.638238
3263.000000;2.633917
3262.000000;2.383992
3261.000000;2.303160
3260.000000;2.306871
3259.000000;2.352848
3258.000000;2.407708
3257.000000;2.444234
3256.000000;2.473610
3255.000000;2.553351
3254.000000;2.731761
3253.000000;2.976325
3252.000000;3.017260
3251.000000;2.757726
3250.000000;2.521182
3249.000000;2.423708
3248.000000;2.457405
3247.000000;2.795404
3246.000000;2.879609
3245.000000;2.347239
3244.000000;2.196031
3243.000000;2.158933
3242.000000;2.216758
3241.000000;2.314584
3240.000000;2.446879
3239.000000;2.611817
3238.000000;2.812261
3237.000000;2.844837
3236.000000;2.716364
3235.000000;2.601475
3234.000000;2.503467
3233.000000;2.505746
3232.000000;2.725752
3231.000000;3.123568
3230.000000;2.615259
3229.000000;2.444300
3228.000000;2.451035
3227.000000;2.657110
3226.000000;2.971308
3225.000000;2.461320
3224.000000;2.273382
3223.000000;2.250566
3222.000000;2.442698
3221.000000;2.936405
3220.000000;2.674601
3219.000000;2.407713
3218.000000;2.584992
3217.000000;2.939448
3216.000000;2.473751
3215.000000;2.278338
3214.000000;2.278130
3213.000000;2.319862
3212.000000;2.358363
3211.000000;2.385932
3210.000000;2.442107
3209.000000;2.600609
3208.000000;3.251105
3207.000000;2.598180
3206.000000;2.313584
3205.000000;2.255591
3204.000000;2.304231
3203.000000;2.454017
3202.000000;2.625116
3201.000000;2.662064
3200.000000;2.616138
3199.000000;2.515903
3198.000000;2.448769
3197.000000;2.532720
3196.000000;2.788268
3195.000000;2.786747
3194.000000;2.608729
3193.000000;2.511254
3192.000000;2.383712
3191.000000;2.276137
3190.000000;2.240644
3189.000000;2.290937
3188.000000;2.365658
3187.000000;2.391022
3186.000000;2.415307
3185.000000;2.471217
3184.000000;2.524026
3183.000000;2.556826
3182.000000;2.562905
3181.000000;2.532416
3180.000000;2.532781
3179.000000;2.641288
3178.000000;2.694055
3177.000000;2.579539
3176.000000;2.559541
3175.000000;2.681103
3174.000000;2.804148
3173.000000;2.657246
3172.000000;2.513844
3171.000000;2.446394
3170.000000;2.448013
3169.000000;2.492857
3168.000000;2.478904
3167.000000;2.360894
3166.000000;2.262364
3165.000000;2.249524
3164.000000;2.329270
3163.000000;2.451372
3162.000000;2.512301
3161.000000;2.445971
3160.000000;2.301303
3159.000000;2.159957
3158.000000;2.076079
3157.000000;2.086679
3156.000000;2.208049
3155.000000;2.428155
3154.000000;2.645298
3153.000000;2.676769
3152.000000;2.604352
3151.000000;2.585208
3150.000000;2.651228
3149.000000;2.796325
3148.000000;2.950676
3147.000000;2.641425
3146.000000;2.422521
3145.000000;2.338783
3144.000000;2.347251
3143.000000;2.428255
3142.000000;2.545482
3141.000000;2.644537
3140.000000;2.779410
3139.000000;2.840363
3138.000000;3.154761
3137.000000;3.052730
3136.000000;2.540108
3135.000000;2.453312
3134.000000;2.453327
3133.000000;2.465729
3132.000000;2.434178
3131.000000;2.398914
3130.000000;2.384067
3129.000000;2.401660
3128.000000;2.443172
3127.000000;2.505584
3126.000000;2.562914
3125.000000;2.641116
3124.000000;2.730968
3123.000000;3.619545
3122.000000;2.587892
3121.000000;2.279180
3120.000000;2.189399
3119.000000;2.220410
3118.000000;2.339389
3117.000000;2.518839
3116.000000;2.626354
3115.000000;2.621594
3114.000000;2.606198
3113.000000;2.465184
3112.000000;2.289827
3111.000000;2.178514
3110.000000;2.163421
3109.000000;2.282830
3108.000000;2.593177
3107.000000;2.669052
3106.000000;2.546763
3105.000000;2.615628
3104.000000;2.641134
3103.000000;2.649608
3102.000000;2.725257
3101.000000;2.876668
3100.000000;2.826356
3099.000000;2.756227
3098.000000;2.984958
3097.000000;3.035830
3096.000000;2.723526
3095.000000;2.706444
3094.000000;2.738608
3093.000000;2.610009
3092.000000;2.600473
3091.000000;2.708107
3090.000000;2.801675
3089.000000;2.828768
3088.000000;2.805402
3087.000000;2.721405
3086.000000;2.603095
3085.000000;2.495820
3084.000000;2.415884
3083.000000;2.361813
3082.000000;2.323261
3081.000000;2.327503
3080.000000;2.439310
3079.000000;2.763268
3078.000000;2.981830
3077.000000;3.162251
3076.000000;2.838384
3075.000000;2.568230
3074.000000;2.626563
3073.000000;2.674160
3072.000000;2.493987
3071.000000;2.406191
3070.000000;2.392377
3069.000000;2.349931
3068.000000;2.379056
3067.000000;2.613285
3066.000000;3.532299
3065.000000;2.772453
3064.000000;2.577402
3063.000000;2.493434
3062.000000;2.568035
3061.000000;2.851344
3060.000000;2.861129
3059.000000;2.664825
3058.000000;2.578110
3057.000000;2.557122
3056.000000;2.739526
3055.000000;3.193496
3054.000000;3.074753
3053.000000;2.929910
3052.000000;3.402621
3051.000000;3.103231
3050.000000;2.794095
3049.000000;2.793017
3048.000000;2.737732
3047.000000;2.608842
3046.000000;2.561574
3045.000000;2.675280
3044.000000;3.196411
3043.000000;3.195519
3042.000000;2.859186
3041.000000;2.695563
3040.000000;2.553081
3039.000000;2.479628
3038.000000;2.501314
3037.000000;2.691169
3036.000000;3.144810
3035.000000;2.891172
3034.000000;2.664379
3033.000000;2.672233
3032.000000;2.794382
3031.000000;2.901540
3030.000000;2.768331
3029.000000;2.622834
3028.000000;2.736512
3027.000000;2.763446
3026.000000;2.548024
3025.000000;2.496299
3024.000000;2.490551
3023.000000;2.486217
3022.000000;2.583171
3021.000000;2.994445
3020.000000;3.235143
3019.000000;2.805826
3018.000000;2.620099
3017.000000;2.551322
3016.000000;2.585349
3015.000000;2.722090
3014.000000;2.811002
3013.000000;2.729100
3012.000000;2.822806
3011.000000;3.106020
3010.000000;2.732527
3009.000000;2.600042
3008.000000;2.654070
3007.000000;2.784214
3006.000000;2.910157
3005.000000;2.874946
3004.000000;2.620607
3003.000000;2.467690
3002.000000;2.469133
3001.000000;2.545718
3000.000000;2.547813
2999.000000;2.494443
2998.000000;2.489103
2997.000000;2.549731
2996.000000;2.696300
2995.000000;2.839459
2994.000000;2.754864
2993.000000;2.614140
2992.000000;2.504485
2991.000000;2.431562
2990.000000;2.478651
2989.000000;2.794035
2988.000000;2.877436
2987.000000;2.718020
2986.000000;3.035631
2985.000000;3.110061
2984.000000;2.902167
2983.000000;3.013264
2982.000000;2.689459
2981.000000;2.545637
2980.000000;2.590476
2979.000000;2.701826
2978.000000;2.773609
2977.000000;2.855576
2976.000000;2.899313
2975.000000;2.868166
2974.000000;2.888634
2973.000000;2.883380
2972.000000;2.817008
2971.000000;2.666279
2970.000000;2.513214
2969.000000;2.481355
2968.000000;2.576737
2967.000000;2.726937
2966.000000;2.777327
2965.000000;2.716604
2964.000000;2.620275
2963.000000;2.507069
2962.000000;2.432464
2961.000000;2.414287
2960.000000;2.476002
2959.000000;2.645741
2958.000000;2.733422
2957.000000;2.646252
2956.000000;2.851116
2955.000000;2.992145
2954.000000;2.519668
2953.000000;2.451828
2952.000000;2.575331
2951.000000;2.692322
2950.000000;2.647182
2949.000000;2.675411
2948.000000;2.801567
2947.000000;2.746764
2946.000000;2.627955
2945.000000;2.611802
2944.000000;2.792756
2943.000000;3.332461
2942.000000;3.127436
2941.000000;2.875796
2940.000000;2.686546
2939.000000;2.581659
2938.000000;2.731580
2937.000000;3.413747
2936.000000;3.237862
2935.000000;2.990779
2934.000000;2.920258
2933.000000;2.811051
2932.000000;2.766035
2931.000000;2.721509
2930.000000;2.619196
2929.000000;2.513913
2928.000000;2.456801
2927.000000;2.447139
2926.000000;2.495557
2925.000000;2.622247
2924.000000;2.743473
2923.000000;2.720712
2922.000000;2.631358
2921.000000;2.559060
2920.000000;2.568842
2919.000000;2.678633
2918.000000;3.005149
2917.000000;3.219239
2916.000000;2.834772
2915.000000;2.696862
2914.000000;2.754940
2913.000000;2.919159
2912.000000;2.660105
2911.000000;2.445448
2910.000000;2.437216
2909.000000;2.661253
2908.000000;3.541237
2907.000000;2.910926
2906.000000;2.679138
2905.000000;2.738136
2904.000000;2.821125
2903.000000;2.534663
2902.000000;2.314899
2901.000000;2.296032
2900.000000;2.432187
2899.000000;2.838916
2898.000000;3.482180
2897.000000;2.847115
2896.000000;2.687661
2895.000000;2.644198
2894.000000;2.539925
2893.000000;2.512159
2892.000000;2.618855
2891.000000;2.893801
2890.000000;2.791633
2889.000000;2.481327
2888.000000;2.370600
2887.000000;2.318674
2886.000000;2.266993
2885.000000;2.273533
2884.000000;2.374538
2883.000000;2.535149
2882.000000;2.644732
2881.000000;2.783199
2880.000000;3.171356
2879.000000;3.314664
2878.000000;2.822322
2877.000000;2.575135
2876.000000;2.565283
2875.000000;2.691267
2874.000000;2.796908
2873.000000;3.154489
2872.000000;3.124428
2871.000000;2.792093
2870.000000;2.844313
2869.000000;2.557639
2868.000000;2.252100
2867.000000;2.112283
2866.000000;2.102081
2865.000000;2.227477
2864.000000;2.511884
2863.000000;3.117915
2862.000000;3.132515
2861.000000;2.820323
2860.000000;2.821391
2859.000000;2.804693
2858.000000;2.723745
2857.000000;2.672044
2856.000000;2.687813
2855.000000;2.805950
2854.000000;2.962661
2853.000000;3.048218
2852.000000;3.104987
2851.000000;2.879132
2850.000000;2.685875
2849.000000;2.601368
2848.000000;2.605185
2847.000000;2.755438
2846.000000;2.884490
2845.000000;3.130291
2844.000000;3.196647
2843.000000;2.624488
2842.000000;2.442001
2841.000000;2.460111
2840.000000;2.580939
2839.000000;2.601302
2838.000000;2.534459
2837.000000;2.518935
2836.000000;2.519711
2835.000000;2.531044
2834.000000;2.508376
2833.000000;2.529490
2832.000000;2.669404
2831.000000;2.841781
2830.000000;2.917083
2829.000000;2.880112
2828.000000;2.956476
2827.000000;3.332880
2826.000000;3.455495
2825.000000;3.585044
2824.000000;3.139036
2823.000000;2.678077
2822.000000;2.497804
2821.000000;2.440191
2820.000000;2.435057
2819.000000;2.413228
2818.000000;2.354827
2817.000000;2.335218
2816.000000;2.413151
2815.000000;2.638796
2814.000000;2.973784
2813.000000;2.910378
2812.000000;2.763810
2811.000000;2.795855
2810.000000;2.987489
2809.000000;3.156364
2808.000000;2.852294
2807.000000;2.658568
2806.000000;2.638117
2805.000000;2.645367
2804.000000;2.595794
2803.000000;2.501242
2802.000000;2.455851
2801.000000;2.520211
2800.000000;2.777271
2799.000000;3.240386
2798.000000;3.164735
2797.000000;2.939694
2796.000000;2.744348
2795.000000;2.603738
2794.000000;2.552151
2793.000000;2.518076
2792.000000;2.620108
2791.000000;2.999839
2790.000000;2.700262
2789.000000;2.375132
2788.000000;2.323328
2787.000000;2.350787
2786.000000;2.399776
2785.000000;2.434579
2784.000000;2.433642
2783.000000;2.476333
2782.000000;2.762183
2781.000000;3.236771
2780.000000;2.872527
2779.000000;2.784598
2778.000000;2.810575
2777.000000;2.944246
2776.000000;3.182511
2775.000000;2.614922
2774.000000;2.347358
2773.000000;2.280635
2772.000000;2.320556
2771.000000;2.475038
2770.000000;2.655579
2769.000000;2.636663
2768.000000;2.486185
2767.000000;2.403114
2766.000000;2.418402
2765.000000;2.543259
2764.000000;2.784656
2763.000000;3.207071
2762.000000;3.553003
2761.000000;3.097389
2760.000000;2.838201
2759.000000;2.772651
2758.000000;2.689756
2757.000000;2.625741
2756.000000;2.588720
2755.000000;2.616818
2754.000000;2.857432
2753.000000;2.692614
2752.000000;2.400851
2751.000000;2.320935
2750.000000;2.339781
2749.000000;2.407350
2748.000000;2.445673
2747.000000;2.401962
2746.000000;2.341214
2745.000000;2.346726
2744.000000;2.490966
2743.000000;2.772615
2742.000000;2.817088
2741.000000;2.630368
2740.000000;2.505197
2739.000000;2.467607
2738.000000;2.559344
2737.000000;2.874113
2736.000000;2.982004
2735.000000;2.681225
2734.000000;2.549319
2733.000000;2.428793
2732.000000;2.316357
2731.000000;2.281042
2730.000000;2.329113
2729.000000;2.410866
2728.000000;2.420187
2727.000000;2.536952
2726.000000;2.820790
2725.000000;2.525335
2724.000000;2.304015
2723.000000;2.303107
2722.000000;2.380069
2721.000000;2.447277
2720.000000;2.529487
2719.000000;2.765442
2718.000000;2.803801
2717.000000;2.657854
2716.000000;2.636999
2715.000000;2.661145
2714.000000;2.736081
2713.000000;2.916483
2712.000000;2.952107
2711.000000;2.672840
2710.000000;2.516934
2709.000000;2.453558
2708.000000;2.385253
2707.000000;2.333159
2706.000000;2.346680
2705.000000;2.429821
2704.000000;2.516182
2703.000000;2.532554
2702.000000;2.533944
2701.000000;2.597695
2700.000000;2.599064
2699.000000;2.496272
2698.000000;2.435058
2697.000000;2.417925
2696.000000;2.443461
2695.000000;2.519521
2694.000000;2.823215
2693.000000;3.249309
2692.000000;2.785102
2691.000000;2.593965
2690.000000;2.449709
2689.000000;2.353610
2688.000000;2.392149
2687.000000;2.558841
2686.000000;3.023151
2685.000000;2.978112
2684.000000;2.547412
2683.000000;2.452230
2682.000000;2.528995
2681.000000;2.881598
2680.000000;3.140244
2679.000000;2.921493
2678.000000;2.951519
2677.000000;3.176617
2676.000000;3.364742
2675.000000;3.000920
2674.000000;3.168969
2673.000000;2.829349
2672.000000;2.380187
2671.000000;2.239268
2670.000000;2.250355
2669.000000;2.404348
2668.000000;2.788412
2667.000000;3.052489
2666.000000;2.659318
2665.000000;2.484006
2664.000000;2.468222
2663.000000;2.630622
2662.000000;2.839406
2661.000000;2.702045
2660.000000;2.731555
2659.000000;2.920894
2658.000000;2.821719
2657.000000;2.672265
2656.000000;2.668917
2655.000000;2.776157
2654.000000;2.758022
2653.000000;2.515339
2652.000000;2.368351
2651.000000;2.362339
2650.000000;2.420357
2649.000000;2.484200
2648.000000;2.532525
2647.000000;2.785159
2646.000000;2.913670
2645.000000;2.469403
2644.000000;2.305448
2643.000000;2.346595
2642.000000;2.503928
2641.000000;2.845018
2640.000000;3.087358
2639.000000;2.997681
2638.000000;3.041762
2637.000000;2.712963
2636.000000;2.444382
2635.000000;2.339093
2634.000000;2.319364
2633.000000;2.381467
2632.000000;2.485778
2631.000000;2.541848
2630.000000;2.532510
2629.000000;2.642337
2628.000000;2.901321
2627.000000;2.937627
2626.000000;2.907449
2625.000000;2.773248
2624.000000;2.575194
2623.000000;2.525533
2622.000000;2.571237
2621.000000;2.687779
2620.000000;2.924438
2619.000000;3.089095
2618.000000;2.943102
2617.000000;2.841202
2616.000000;2.946546
2615.000000;3.230455
2614.000000;3.064218
2613.000000;2.691475
2612.000000;2.671961
2611.000000;2.962533
2610.000000;2.757070
2609.000000;2.528130
2608.000000;2.511612
2607.000000;2.556788
2606.000000;2.566472
2605.000000;2.542023
2604.000000;2.518597
2603.000000;2.842785
2602.000000;3.284668
2601.000000;2.510918
2600.000000;2.276537
2599.000000;2.173544
2598.000000;2.153873
2597.000000;2.238451
2596.000000;2.390174
2595.000000;2.490402
2594.000000;2.437746
2593.000000;2.401032
2592.000000;2.357937
2591.000000;2.335172
2590.000000;2.399844
2589.000000;2.644366
2588.000000;3.233418
2587.000000;3.228033
2586.000000;2.724474
2585.000000;2.460912
2584.000000;2.383127
2583.000000;2.471684
2582.000000;2.682387
2581.000000;2.891353
2580.000000;2.919039
2579.000000;2.834472
2578.000000;2.746384
2577.000000;2.691730
2576.000000;2.650987
2575.000000;2.621687
2574.000000;2.697216
2573.000000;3.151094
2572.000000;3.024340
2571.000000;2.579722
2570.000000;2.473012
2569.000000;2.426286
2568.000000;2.389374
2567.000000;2.396462
2566.000000;2.475810
2565.000000;2.728146
2564.000000;3.283598
2563.000000;3.075464
2562.000000;3.031232
2561.000000;3.028119
2560.000000;2.636261
2559.000000;2.496913
2558.000000;2.564129
2557.000000;2.865709
2556.000000;2.926636
2555.000000;2.614314
2554.000000;2.478737
2553.000000;2.421071
2552.000000;2.428156
2551.000000;2.448714
2550.000000;2.416021
2549.000000;2.381050
2548.000000;2.439726
2547.000000;2.760979
2546.000000;2.747668
2545.000000;2.424358
2544.000000;2.380204
2543.000000;2.401004
2542.000000;2.459746
2541.000000;2.593187
2540.000000;2.650198
2539.000000;2.819483
2538.000000;3.164285
2537.000000;3.045299
2536.000000;3.044472
2535.000000;2.716501
2534.000000;2.413358
2533.000000;2.291291
2532.000000;2.258469
2531.000000;2.320687
2530.000000;2.502062
2529.000000;2.931203
2528.000000;2.963038
2527.000000;3.023178
2526.000000;3.331895
2525.000000;2.653004
2524.000000;2.500962
2523.000000;2.543201
2522.000000;2.644315
2521.000000;2.712041
2520.000000;2.614269
2519.000000;2.497684
2518.000000;2.448472
2517.000000;2.504930
2516.000000;2.558499
2515.000000;2.502486
2514.000000;2.437836
2513.000000;2.435806
2512.000000;2.480170
2511.000000;2.520876
2510.000000;2.552770
2509.000000;2.743756
2508.000000;2.842950
2507.000000;2.557986
2506.000000;2.459041
2505.000000;2.541270
2504.000000;2.554230
2503.000000;2.414407
2502.000000;2.340670
2501.000000;2.406242
2500.000000;2.537539
2499.000000;2.728982
2498.000000;3.128037
2497.000000;2.847940
2496.000000;2.543719
2495.000000;2.484268
2494.000000;2.443658
2493.000000;2.378749
2492.000000;2.297284
2491.000000;2.267868
2490.000000;2.320373
2489.000000;2.484305
2488.000000;3.118751
2487.000000;2.931543
2486.000000;2.437896
2485.000000;2.321071
2484.000000;2.323752
2483.000000;2.443318
2482.000000;2.483214
2481.000000;2.453191
2480.000000;2.571288
2479.000000;2.785167
2478.000000;2.661454
2477.000000;2.508534
2476.000000;2.529014
2475.000000;2.652410
2474.000000;2.763018
2473.000000;2.783887
2472.000000;2.842646
2471.000000;2.756397
2470.000000;2.572310
2469.000000;2.520901
2468.000000;2.587149
2467.000000;2.854014
2466.000000;3.004531
2465.000000;2.632463
2464.000000;2.514207
2463.000000;2.561056
2462.000000;2.573017
2461.000000;2.538239
2460.000000;2.615470
2459.000000;2.779678
2458.000000;2.629675
2457.000000;2.396286
2456.000000;2.325161
2455.000000;2.390367
2454.000000;2.513781
2453.000000;2.544897
2452.000000;2.457099
2451.000000;2.394092
2450.000000;2.430038
2449.000000;2.414924
2448.000000;2.256195
2447.000000;2.169770
2446.000000;2.200528
2445.000000;2.313180
2444.000000;2.439946
2443.000000;2.699016
2442.000000;3.016443
2441.000000;2.639841
2440.000000;2.438224
2439.000000;2.326397
2438.000000;2.293013
2437.000000;2.361698
2436.000000;2.484659
2435.000000;2.600676
2434.000000;2.743498
2433.000000;3.124227
2432.000000;3.789266
2431.000000;4.009317
2430.000000;3.414303
2429.000000;3.037832
2428.000000;2.841032
2427.000000;2.774469
2426.000000;2.783747
2425.000000;2.662499
2424.000000;2.592819
2423.000000;2.735026
2422.000000;2.766265
2421.000000;2.551207
2420.000000;2.475062
2419.000000;2.512455
2418.000000;2.683235
2417.000000;3.042483
2416.000000;2.952942
2415.000000;2.795586
2414.000000;2.936369
2413.000000;2.925551
2412.000000;2.692698
2411.000000;2.632244
2410.000000;2.645018
2409.000000;2.630705
2408.000000;2.610966
2407.000000;2.660697
2406.000000;2.834948
2405.000000;2.709011
2404.000000;2.414824
2403.000000;2.272875
2402.000000;2.258998
2401.000000;2.368681
2400.000000;2.563454
2399.000000;2.664843
2398.000000;2.612034
2397.000000;2.564363
2396.000000;2.530122
2395.000000;2.388296
2394.000000;2.296841
2393.000000;2.366879
2392.000000;2.744282
2391.000000;3.199902
2390.000000;2.678766
2389.000000;2.715929
2388.000000;2.825853
2387.000000;2.699098
2386.000000;2.584733
2385.000000;2.551525
2384.000000;2.565262
2383.000000;2.579900
2382.000000;2.620555
2381.000000;2.686381
2380.000000;2.738298
2379.000000;2.733963
2378.000000;2.693033
2377.000000;2.626482
2376.000000;2.574975
2375.000000;2.557336
2374.000000;2.574194
2373.000000;2.611635
2372.000000;2.740226
2371.000000;3.207869
2370.000000;2.785965
2369.000000;2.512187
2368.000000;2.495123
2367.000000;2.603741
2366.000000;2.764852
2365.000000;2.902987
2364.000000;3.053755
2363.000000;2.999453
2362.000000;2.697170
2361.000000;2.471028
2360.000000;2.400915
2359.000000;2.490887
2358.000000;2.810826
2357.000000;3.077418
2356.000000;2.785961
2355.000000;2.636779
2354.000000;2.562877
2353.000000;2.714484
2352.000000;2.764290
2351.000000;2.483652
2350.000000;2.386306
2349.000000;2.387473
2348.000000;2.442038
2347.000000;2.550118
2346.000000;2.582780
2345.000000;2.598638
2344.000000;2.803806
2343.000000;3.549151
2342.000000;2.738053
2341.000000;2.408953
2340.000000;2.276672
2339.000000;2.246987
2338.000000;2.318739
2337.000000;2.480230
2336.000000;2.744065
2335.000000;3.002907
2334.000000;2.911553
2333.000000;2.707801
2332.000000;2.632308
2331.000000;3.053478
2330.000000;3.161977
2329.000000;2.528651
2328.000000;2.412763
2327.000000;2.345829
2326.000000;2.301696
2325.000000;2.268995
2324.000000;2.288759
2323.000000;2.414568
2322.000000;2.860013
2321.000000;2.979823
2320.000000;2.653535
2319.000000;2.565347
2318.000000;2.545450
2317.000000;2.603173
2316.000000;2.721520
2315.000000;2.862379
2314.000000;3.062527
2313.000000;2.832931
2312.000000;2.580611
2311.000000;2.488795
2310.000000;2.445363
2309.000000;2.374803
2308.000000;2.302066
2307.000000;2.276791
2306.000000;2.325162
2305.000000;2.447997
2304.000000;2.573789
2303.000000;2.645006
2302.000000;2.741953
2301.000000;2.648415
2300.000000;2.425092
2299.000000;2.273883
2298.000000;2.199829
2297.000000;2.228451
2296.000000;2.404608
2295.000000;2.931332
2294.000000;2.770012
2293.000000;2.578222
2292.000000;2.604976
2291.000000;2.402496
2290.000000;2.232643
2289.000000;2.192116
2288.000000;2.276370
2287.000000;2.476360
2286.000000;2.536372
2285.000000;2.387077
2284.000000;2.337503
2283.000000;2.386327
2282.000000;2.490526
2281.000000;2.638622
2280.000000;2.838800
2279.000000;2.999502
2278.000000;2.930171
2277.000000;2.720021
2276.000000;2.505670
2275.000000;2.361840
2274.000000;2.334677
2273.000000;2.420710
2272.000000;2.577809
2271.000000;2.731861
2270.000000;2.886734
2269.000000;3.109851
2268.000000;2.982000
2267.000000;2.754216
2266.000000;2.600002
2265.000000;2.492386
2264.000000;2.464014
2263.000000;2.488384
2262.000000;2.553228
2261.000000;2.741543
2260.000000;2.743624
2259.000000;2.477231
2258.000000;2.358997
2257.000000;2.314283
2256.000000;2.298663
2255.000000;2.307530
2254.000000;2.369185
2253.000000;2.566558
2252.000000;2.822370
2251.000000;3.144080
2250.000000;3.317691
2249.000000;2.772728
2248.000000;2.744186
2247.000000;3.135747
2246.000000;2.875293
2245.000000;2.469352
2244.000000;2.351235
2243.000000;2.303481
2242.000000;2.312907
2241.000000;2.373378
2240.000000;2.500812
2239.000000;2.764677
2238.000000;2.828799
2237.000000;2.603749
2236.000000;2.543441
2235.000000;2.584555
2234.000000;2.596986
2233.000000;2.544310
2232.000000;2.489481
2231.000000;2.508146
2230.000000;2.671610
2229.000000;2.962792
2228.000000;2.836380
2227.000000;2.686099
2226.000000;2.679289
2225.000000;2.768934
2224.000000;3.190689
2223.000000;3.040587
2222.000000;2.565617
2221.000000;2.503534
2220.000000;2.592255
2219.000000;2.842983
2218.000000;3.109643
2217.000000;3.346591
2216.000000;3.499653
2215.000000;3.240934
2214.000000;3.046859
2213.000000;2.968166
2212.000000;2.994463
2211.000000;2.883956
2210.000000;2.700382
2209.000000;2.603027
2208.000000;2.495361
2207.000000;2.419647
2206.000000;2.468559
2205.000000;2.660757
2204.000000;2.773204
2203.000000;2.569832
2202.000000;2.417456
2201.000000;2.355469
2200.000000;2.372866
2199.000000;2.454203
2198.000000;2.597294
2197.000000;3.013678
2196.000000;3.424478
2195.000000;2.873165
2194.000000;2.833156
2193.000000;3.004364
2192.000000;3.289147
2191.000000;3.114802
2190.000000;3.021358
2189.000000;2.872631
2188.000000;2.671376
2187.000000;2.497583
2186.000000;2.342210
2185.000000;2.246398
2184.000000;2.238791
2183.000000;2.326518
2182.000000;2.489789
2181.000000;2.550393
2180.000000;2.430903
2179.000000;2.388771
2178.000000;2.547982
2177.000000;3.038538
2176.000000;2.616148
2175.000000;2.463111
2174.000000;2.486242
2173.000000;2.612477
2172.000000;2.762511
2171.000000;2.779450
2170.000000;2.660042
2169.000000;2.591968
2168.000000;2.609661
2167.000000;2.851674
2166.000000;2.781000
2165.000000;2.489958
2164.000000;2.427919
2163.000000;2.457786
2162.000000;2.539706
2161.000000;2.637069
2160.000000;2.759669
2159.000000;2.884389
2158.000000;2.957934
2157.000000;3.028069
2156.000000;2.832274
2155.000000;2.574491
2154.000000;2.492228
2153.000000;2.629019
2152.000000;2.849841
2151.000000;2.648958
2150.000000;2.671477
2149.000000;2.935509
2148.000000;2.914296
2147.000000;2.654819
2146.000000;2.724677
2145.000000;2.962995
2144.000000;2.690100
2143.000000;2.554191
2142.000000;2.636189
2141.000000;2.843221
2140.000000;3.273297
2139.000000;2.934996
2138.000000;2.530783
2137.000000;2.388606
2136.000000;2.340465
2135.000000;2.368756
2134.000000;2.440159
2133.000000;2.561468
2132.000000;2.942837
2131.000000;3.448803
2130.000000;3.342609
2129.000000;3.140305
2128.000000;2.993545
2127.000000;3.246271
2126.000000;2.863097
2125.000000;2.638280
2124.000000;2.601312
2123.000000;2.784866
2122.000000;3.145225
2121.000000;2.760066
2120.000000;2.670882
2119.000000;2.660275
2118.000000;2.637298
2117.000000;2.658978
2116.000000;2.865882
2115.000000;2.672631
2114.000000;2.355340
2113.000000;2.297586
2112.000000;2.387401
2111.000000;2.646956
2110.000000;2.872156
2109.000000;2.862975
2108.000000;2.998427
2107.000000;3.601580
2106.000000;3.711685
2105.000000;3.359934
2104.000000;3.179347
2103.000000;2.868884
2102.000000;2.694249
2101.000000;2.697004
2100.000000;2.851341
2099.000000;2.945050
2098.000000;2.804171
2097.000000;2.794295
2096.000000;2.980574
2095.000000;2.937830
2094.000000;2.853832
2093.000000;2.947022
2092.000000;2.832088
2091.000000;2.555460
2090.000000;2.394650
2089.000000;2.387624
2088.000000;2.506400
2087.000000;2.703744
2086.000000;2.986553
2085.000000;3.038187
2084.000000;2.819769
2083.000000;2.661408
2082.000000;2.533235
2081.000000;2.458576
2080.000000;2.377300
2079.000000;2.269443
2078.000000;2.200927
2077.000000;2.216191
2076.000000;2.342296
2075.000000;2.690019
2074.000000;3.045318
2073.000000;2.704609
2072.000000;2.715260
2071.000000;2.901933
2070.000000;2.886965
2069.000000;2.608660
2068.000000;2.429236
2067.000000;2.393881
2066.000000;2.497958
2065.000000;2.738794
2064.000000;2.969610
2063.000000;2.942091
2062.000000;3.055019
2061.000000;3.245269
2060.000000;3.008561
2059.000000;2.941942
2058.000000;3.027847
2057.000000;3.386423
2056.000000;3.342157
2055.000000;2.891604
2054.000000;2.633961
2053.000000;2.477618
2052.000000;2.395175
2051.000000;2.325073
2050.000000;2.256944
2049.000000;2.237451
2048.000000;2.319884
2047.000000;2.542473
2046.000000;2.821256
2045.000000;2.713772
2044.000000;2.746917
2043.000000;2.949791
2042.000000;2.797342
2041.000000;2.830493
2040.000000;3.221773
2039.000000;2.808325
2038.000000;2.536837
2037.000000;2.491947
2036.000000;2.577830
2035.000000;2.706067
2034.000000;2.738683
2033.000000;2.818217
2032.000000;2.940833
2031.000000;2.573206
2030.000000;2.308309
2029.000000;2.220309
2028.000000;2.222189
2027.000000;2.279172
2026.000000;2.334141
2025.000000;2.361535
2024.000000;2.402740
2023.000000;2.502669
2022.000000;2.672965
2021.000000;2.861123
2020.000000;2.702601
2019.000000;2.509129
2018.000000;2.487259
2017.000000;2.686052
2016.000000;3.210965
2015.000000;2.818199
2014.000000;2.564273
2013.000000;2.418356
2012.000000;2.370462
2011.000000;2.438423
2010.000000;2.599102
2009.000000;2.717314
2008.000000;2.614247
2007.000000;2.415270
2006.000000;2.290952
2005.000000;2.244174
2004.000000;2.242793
2003.000000;2.288209
2002.000000;2.415838
2001.000000;2.751381
2000.000000;3.088989
1999.000000;2.989549
1998.000000;3.381454
1997.000000;2.836559
1996.000000;2.506224
1995.000000;2.412842
1994.000000;2.401054
1993.000000;2.380009
1992.000000;2.303600
1991.000000;2.215557
1990.000000;2.163338
1989.000000;2.167189
1988.000000;2.221340
1987.000000;2.302992
1986.000000;2.368414
1985.000000;2.429120
1984.000000;2.516112
1983.000000;2.515022
1982.000000;2.483606
1981.000000;2.743188
1980.000000;2.979036
1979.000000;2.590239
1978.000000;2.516630
1977.000000;2.607948
1976.000000;3.141737
1975.000000;2.784935
1974.000000;2.446153
1973.000000;2.486629
1972.000000;2.818461
1971.000000;3.215432
1970.000000;2.800908
1969.000000;2.574122
1968.000000;2.414606
1967.000000;2.297924
1966.000000;2.251133
1965.000000;2.306821
1964.000000;2.526987
1963.000000;2.791677
1962.000000;2.558951
1961.000000;2.421564
1960.000000;2.403565
1959.000000;2.448079
1958.000000;2.473838
1957.000000;2.446038
1956.000000;2.428202
1955.000000;2.463980
1954.000000;2.548463
1953.000000;2.677042
1952.000000;2.832138
1951.000000;2.894666
1950.000000;3.065053
1949.000000;3.240693
1948.000000;2.962899
1947.000000;2.763149
1946.000000;2.689255
1945.000000;2.709296
1944.000000;2.697046
1943.000000;2.531110
1942.000000;2.334651
1941.000000;2.232923
1940.000000;2.259498
1939.000000;2.380870
1938.000000;2.480399
1937.000000;2.548304
1936.000000;2.676171
1935.000000;2.860258
1934.000000;3.224605
1933.000000;3.004853
1932.000000;2.643232
1931.000000;2.606898
1930.000000;2.750903
1929.000000;3.268963
1928.000000;3.523836
1927.000000;2.835679
1926.000000;2.668938
1925.000000;2.808308
1924.000000;3.025839
1923.000000;2.658959
1922.000000;2.723924
1921.000000;2.985289
1920.000000;2.521382
1919.000000;2.311481
1918.000000;2.263244
1917.000000;2.286160
1916.000000;2.436732
1915.000000;2.854256
1914.000000;2.845450
1913.000000;2.643004
1912.000000;2.536042
1911.000000;2.377015
1910.000000;2.294254
1909.000000;2.376687
1908.000000;2.601294
1907.000000;2.467072
1906.000000;2.310862
1905.000000;2.331188
1904.000000;2.479462
1903.000000;2.820402
1902.000000;2.985902
1901.000000;2.606896
1900.000000;2.450876
1899.000000;2.484175
1898.000000;2.622181
1897.000000;2.531925
1896.000000;2.412155
1895.000000;2.461757
1894.000000;2.539717
1893.000000;2.525760
1892.000000;2.694518
1891.000000;3.027878
1890.000000;2.625997
1889.000000;2.445967
1888.000000;2.445158
1887.000000;2.463962
1886.000000;2.492981
1885.000000;2.512085
1884.000000;2.479678
1883.000000;2.409556
1882.000000;2.379768
1881.000000;2.447150
1880.000000;2.658654
1879.000000;2.834343
1878.000000;2.799477
1877.000000;2.957814
1876.000000;3.046762
1875.000000;2.808366
1874.000000;2.591806
1873.000000;2.498817
1872.000000;2.595442
1871.000000;2.684033
1870.000000;2.475705
1869.000000;2.300348
1868.000000;2.301053
1867.000000;2.464698
1866.000000;2.535904
1865.000000;2.490238
1864.000000;2.496854
1863.000000;2.541063
1862.000000;2.760825
1861.000000;2.861541
1860.000000;2.565128
1859.000000;2.412831
1858.000000;2.381653
1857.000000;2.442366
1856.000000;2.635154
1855.000000;2.672524
1854.000000;2.482937
1853.000000;2.440033
1852.000000;2.536662
1851.000000;2.724514
1850.000000;2.874531
1849.000000;2.864136
1848.000000;2.777190
1847.000000;2.832895
1846.000000;2.866858
1845.000000;2.648029
1844.000000;2.599359
1843.000000;2.654923
1842.000000;2.491723
1841.000000;2.334345
1840.000000;2.308043
1839.000000;2.405216
1838.000000;2.807525
1837.000000;2.856773
1836.000000;2.511893
1835.000000;2.482988
1834.000000;2.652688
1833.000000;2.953820
1832.000000;3.172510
1831.000000;3.149761
1830.000000;2.945906
1829.000000;2.770765
1828.000000;2.790142
1827.000000;2.893766
1826.000000;2.854120
1825.000000;3.123385
1824.000000;3.376544
1823.000000;2.840574
1822.000000;2.727591
1821.000000;2.691082
1820.000000;2.735180
1819.000000;2.776112
1818.000000;2.590991
1817.000000;2.418469
1816.000000;2.372342
1815.000000;2.428445
1814.000000;2.506266
1813.000000;2.478911
1812.000000;2.380043
1811.000000;2.323276
1810.000000;2.314036
1809.000000;2.307669
1808.000000;2.347112
1807.000000;2.489031
1806.000000;2.585081
1805.000000;2.619690
1804.000000;2.825833
1803.000000;3.165787
1802.000000;3.439778
1801.000000;3.190298
1800.000000;2.832165
1799.000000;2.961652
1798.000000;3.286680
1797.000000;2.880827
1796.000000;2.720976
1795.000000;2.650272
1794.000000;2.788612
1793.000000;2.839675
1792.000000;2.562524
1791.000000;2.537731
1790.000000;2.531880
1789.000000;2.369939
1788.000000;2.260776
1787.000000;2.253268
1786.000000;2.316994
1785.000000;2.355292
1784.000000;2.356270
1783.000000;2.422744
1782.000000;2.732030
1781.000000;3.052581
1780.000000;2.562017
1779.000000;2.373540
1778.000000;2.426472
1777.000000;2.609578
1776.000000;2.778570
1775.000000;2.876660
1774.000000;2.694939
1773.000000;2.448858
1772.000000;2.347518
1771.000000;2.282873
1770.000000;2.218575
1769.000000;2.198586
1768.000000;2.296266
1767.000000;2.437556
1766.000000;2.357268
1765.000000;2.264907
1764.000000;2.257128
1763.000000;2.287719
1762.000000;2.341919
1761.000000;2.451955
1760.000000;2.878381
1759.000000;3.226814
1758.000000;3.084887
1757.000000;3.215415
1756.000000;2.719507
1755.000000;2.547616
1754.000000;2.580933
1753.000000;2.634782
1752.000000;2.656870
1751.000000;2.658411
1750.000000;2.691708
1749.000000;2.944363
1748.000000;3.032207
1747.000000;2.566493
1746.000000;2.475662
1745.000000;2.475120
1744.000000;2.372263
1743.000000;2.430192
1742.000000;2.682319
1741.000000;2.545650
1740.000000;2.382039
1739.000000;2.456521
1738.000000;2.706391
1737.000000;3.221646
1736.000000;2.837761
1735.000000;2.483097
1734.000000;2.453294
1733.000000;2.778122
1732.000000;2.867144
1731.000000;2.399837
1730.000000;2.171308
1729.000000;2.074382
1728.000000;2.128003
1727.000000;2.401493
1726.000000;2.614894
1725.000000;2.423153
1724.000000;2.374269
1723.000000;2.499025
1722.000000;2.507219
1721.000000;2.329516
1720.000000;2.240650
1719.000000;2.276441
1718.000000;2.406154
1717.000000;2.518833
1716.000000;2.520933
1715.000000;2.541401
1714.000000;2.642580
1713.000000;2.732638
1712.000000;2.683856
1711.000000;2.571028
1710.000000;2.563682
1709.000000;2.983442
1708.000000;3.205367
1707.000000;2.725977
1706.000000;2.698212
1705.000000;2.619444
1704.000000;2.543308
1703.000000;2.544108
1702.000000;2.754448
1701.000000;2.792971
1700.000000;2.579869
1699.000000;2.424577
1698.000000;2.514231
1697.000000;3.385128
1696.000000;2.452534
1695.000000;2.210015
1694.000000;2.295304
1693.000000;2.497073
1692.000000;2.769595
1691.000000;2.488544
1690.000000;2.357444
1689.000000;2.479459
1688.000000;2.374737
1687.000000;2.100926
1686.000000;2.045381
1685.000000;2.184094
1684.000000;2.455298
1683.000000;2.713735
1682.000000;3.062079
1681.000000;2.983968
1680.000000;2.434132
1679.000000;2.241373
1678.000000;2.244254
1677.000000;2.527347
1676.000000;2.840426
1675.000000;2.435828
1674.000000;2.275362
1673.000000;2.272385
1672.000000;2.276396
1671.000000;2.189505
1670.000000;2.035667
1669.000000;1.934868
1668.000000;1.938854
1667.000000;2.044001
1666.000000;2.174433
1665.000000;2.259070
1664.000000;2.299014
1663.000000;2.315217
1662.000000;2.361292
1661.000000;2.483685
1660.000000;2.932421
1659.000000;3.319459
1658.000000;2.783590
1657.000000;2.800351
1656.000000;2.966912
1655.000000;3.112985
1654.000000;2.948445
1653.000000;2.708265
1652.000000;2.590917
1651.000000;2.619919
1650.000000;2.827092
1649.000000;2.704509
1648.000000;2.308893
1647.000000;2.174269
1646.000000;2.281935
1645.000000;2.405408
1644.000000;2.518234
1643.000000;2.772712
1642.000000;3.228089
1641.000000;3.213972
1640.000000;2.604287
1639.000000;2.286003
1638.000000;2.156885
1637.000000;2.210950
1636.000000;2.398250
1635.000000;2.784777
1634.000000;3.268995
1633.000000;2.707485
1632.000000;2.507010
1631.000000;2.484163
1630.000000;2.584717
1629.000000;2.561614
1628.000000;2.377692
1627.000000;2.407802
1626.000000;2.545864
1625.000000;2.340044
1624.000000;2.132967
1623.000000;2.072809
1622.000000;2.075603
1621.000000;2.127545
1620.000000;2.161657
1619.000000;2.171389
1618.000000;2.222124
1617.000000;2.455705
1616.000000;2.857938
1615.000000;2.567901
1614.000000;2.386326
1613.000000;2.357455
1612.000000;2.413366
1611.000000;2.613190
1610.000000;2.866748
1609.000000;2.902072
1608.000000;2.705448
1607.000000;2.546395
1606.000000;2.479287
1605.000000;2.501273
1604.000000;2.523849
1603.000000;2.494707
1602.000000;2.498451
1601.000000;2.572100
1600.000000;2.595815
1599.000000;2.582646
1598.000000;2.609063
1597.000000;2.631451
1596.000000;2.660258
1595.000000;2.583498
1594.000000;2.453214
1593.000000;2.445263
1592.000000;2.588821
1591.000000;2.784527
1590.000000;2.758216
1589.000000;2.570234
1588.000000;2.417085
1587.000000;2.373937
1586.000000;2.468365
1585.000000;2.710230
1584.000000;3.035617
1583.000000;3.154184
1582.000000;3.014516
1581.000000;2.746152
1580.000000;2.524140
1579.000000;2.419306
1578.000000;2.417589
1577.000000;2.514187
1576.000000;2.674655
1575.000000;2.809221
1574.000000;3.017322
1573.000000;3.079819
1572.000000;2.620022
1571.000000;2.335410
1570.000000;2.237074
1569.000000;2.237458
1568.000000;2.265037
1567.000000;2.282129
1566.000000;2.301905
1565.000000;2.349953
1564.000000;2.445269
1563.000000;2.483283
1562.000000;2.391847
1561.000000;2.313481
1560.000000;2.313059
1559.000000;2.340791
1558.000000;2.368701
1557.000000;2.506325
1556.000000;2.639531
1555.000000;2.698251
1554.000000;2.655722
1553.000000;2.472773
1552.000000;2.398296
1551.000000;2.402581
1550.000000;2.438826
1549.000000;2.513008
1548.000000;2.881366
1547.000000;3.203015
1546.000000;2.986196
1545.000000;3.233356
1544.000000;2.711739
1543.000000;2.460021
1542.000000;2.523793
1541.000000;2.535514
1540.000000;2.474046
1539.000000;2.478222
1538.000000;2.486148
1537.000000;2.487625
1536.000000;2.488146
1535.000000;2.545745
1534.000000;2.472543
1533.000000;2.291947
1532.000000;2.295073
1531.000000;2.570682
1530.000000;3.136461
1529.000000;2.803254
1528.000000;2.431853
1527.000000;2.275052
1526.000000;2.376794
1525.000000;2.738203
1524.000000;2.382607
1523.000000;2.054787
1522.000000;1.964335
1521.000000;2.000492
1520.000000;2.205795
1519.000000;2.581750
1518.000000;2.447641
1517.000000;2.182194
1516.000000;2.161569
1515.000000;2.170431
1514.000000;2.093847
1513.000000;2.060753
1512.000000;2.102441
1511.000000;2.195147
1510.000000;2.365130
1509.000000;2.632140
1508.000000;2.606098
1507.000000;2.620972
1506.000000;2.608556
1505.000000;2.394112
1504.000000;2.353341
1503.000000;2.336294
1502.000000;2.293309
1501.000000;2.333816
1500.000000;2.454820
1499.000000;2.534817
1498.000000;2.516806
1497.000000;2.467655
1496.000000;2.419820
1495.000000;2.437146
1494.000000;2.596325
1493.000000;2.845544
1492.000000;2.726985
1491.000000;2.573768
1490.000000;2.699047
1489.000000;2.881065
1488.000000;2.538202
1487.000000;2.297516
1486.000000;2.213211
1485.000000;2.172059
1484.000000;2.169235
1483.000000;2.221151
1482.000000;2.324770
1481.000000;2.390964
1480.000000;2.324656
1479.000000;2.209181
1478.000000;2.131206
1477.000000;2.098257
1476.000000;2.087960
1475.000000;2.096916
1474.000000;2.122638
1473.000000;2.167605
1472.000000;2.225493
1471.000000;2.306970
1470.000000;2.364849
1469.000000;2.415132
1468.000000;2.468687
1467.000000;2.526830
1466.000000;3.087140
1465.000000;2.884786
1464.000000;2.375867
1463.000000;2.356525
1462.000000;2.487552
1461.000000;2.466497
1460.000000;2.419909
1459.000000;2.667063
1458.000000;2.502719
1457.000000;2.223853
1456.000000;2.198716
1455.000000;2.312295
1454.000000;2.501592
1453.000000;2.669409
1452.000000;2.790210
1451.000000;2.851150
1450.000000;2.902782
1449.000000;2.960601
1448.000000;2.951144
1447.000000;3.084378
1446.000000;3.442510
1445.000000;2.918126
1444.000000;2.560705
1443.000000;2.416190
1442.000000;2.367776
1441.000000;2.414485
1440.000000;2.551142
1439.000000;2.813139
1438.000000;3.195405
1437.000000;2.908812
1436.000000;2.614262
1435.000000;2.514622
1434.000000;2.491370
1433.000000;2.468877
1432.000000;2.465660
1431.000000;2.495082
1430.000000;2.619799
1429.000000;3.103656
1428.000000;2.895121
1427.000000;2.603017
1426.000000;2.644122
1425.000000;2.764723
1424.000000;2.705396
1423.000000;2.918096
1422.000000;3.255294
1421.000000;2.597504
1420.000000;2.391032
1419.000000;2.286709
1418.000000;2.236907
1417.000000;2.339038
1416.000000;2.613899
1415.000000;2.600232
1414.000000;2.470912
1413.000000;2.599235
1412.000000;2.722153
1411.000000;2.714357
1410.000000;2.646456
1409.000000;2.594380
1408.000000;2.623901
1407.000000;2.789624
1406.000000;3.361972
1405.000000;3.176031
1404.000000;2.824840
1403.000000;2.914980
1402.000000;2.876627
1401.000000;2.492457
1400.000000;2.264754
1399.000000;2.148670
1398.000000;2.118204
1397.000000;2.179448
1396.000000;2.421410
1395.000000;2.948382
1394.000000;2.733777
1393.000000;2.576203
1392.000000;2.721509
1391.000000;2.951610
1390.000000;2.857551
1389.000000;2.587389
1388.000000;2.434812
1387.000000;2.371690
1386.000000;2.335815
1385.000000;2.327776
1384.000000;2.430279
1383.000000;2.777095
1382.000000;3.249807
1381.000000;3.235135
1380.000000;3.757574
1379.000000;3.242136
1378.000000;2.765875
1377.000000;2.674439
1376.000000;2.719336
1375.000000;2.588834
1374.000000;2.468443
1373.000000;2.542748
1372.000000;2.717167
1371.000000;2.807647
1370.000000;2.793087
1369.000000;2.646837
1368.000000;2.487346
1367.000000;2.411087
1366.000000;2.433475
1365.000000;2.535896
1364.000000;2.657352
1363.000000;2.648012
1362.000000;2.519541
1361.000000;2.486707
1360.000000;2.613366
1359.000000;2.890212
1358.000000;2.872283
1357.000000;2.621479
1356.000000;2.422772
1355.000000;2.302952
1354.000000;2.283368
1353.000000;2.461853
1352.000000;3.209099
1351.000000;3.212964
1350.000000;3.359204
1349.000000;3.293088
1348.000000;2.922604
1347.000000;2.566441
1346.000000;2.307277
1345.000000;2.231077
1344.000000;2.287986
1343.000000;2.532804
1342.000000;2.935204
1341.000000;2.883233
1340.000000;2.785548
1339.000000;2.870640
1338.000000;3.145087
1337.000000;2.655082
1336.000000;2.408094
1335.000000;2.367832
1334.000000;2.368708
1333.000000;2.356602
1332.000000;2.328039
1331.000000;2.333839
1330.000000;2.438943
1329.000000;2.613394
1328.000000;2.492706
1327.000000;2.330699
1326.000000;2.297039
1325.000000;2.333372
1324.000000;2.435212
1323.000000;2.618799
1322.000000;2.913809
1321.000000;2.939586
1320.000000;2.857526
1319.000000;2.960574
1318.000000;2.805876
1317.000000;2.648521
1316.000000;2.687190
1315.000000;3.041924
1314.000000;3.341999
1313.000000;2.759213
1312.000000;2.593219
1311.000000;2.501032
1310.000000;2.413911
1309.000000;2.334457
1308.000000;2.299911
1307.000000;2.330600
1306.000000;2.420128
1305.000000;2.531497
1304.000000;2.566321
1303.000000;2.558260
1302.000000;2.654639
1301.000000;3.048489
1300.000000;2.990571
1299.000000;2.659270
1298.000000;2.504570
1297.000000;2.359951
1296.000000;2.255946
1295.000000;2.234201
1294.000000;2.295056
1293.000000;2.391980
1292.000000;2.505931
1291.000000;2.696686
1290.000000;2.975548
1289.000000;3.139045
1288.000000;2.919985
1287.000000;2.739071
1286.000000;2.727635
1285.000000;2.714579
1284.000000;2.592003
1283.000000;2.490403
1282.000000;2.398092
1281.000000;2.329241
1280.000000;2.319075
1279.000000;2.362261
1278.000000;2.454908
1277.000000;2.534881
1276.000000;2.841332
1275.000000;2.956346
1274.000000;2.440984
1273.000000;2.268366
1272.000000;2.307037
1271.000000;2.493422
1270.000000;2.701124
1269.000000;2.707259
1268.000000;2.608144
1267.000000;2.556474
1266.000000;2.539372
1265.000000;2.482971
1264.000000;2.446713
1263.000000;2.546541
1262.000000;2.735548
1261.000000;2.625990
1260.000000;2.589666
1259.000000;2.701597
1258.000000;2.634943
1257.000000;2.509138
1256.000000;2.572591
1255.000000;2.809294
1254.000000;2.623857
1253.000000;2.312641
1252.000000;2.165154
1251.000000;2.090749
1250.000000;2.077991
1249.000000;2.127308
1248.000000;2.253586
1247.000000;2.458174
1246.000000;2.535716
1245.000000;2.470014
1244.000000;2.495447
1243.000000;2.656987
1242.000000;2.800107
1241.000000;2.727804
1240.000000;2.651916
1239.000000;2.445484
1238.000000;2.247793
1237.000000;2.178551
1236.000000;2.222332
1235.000000;2.347710
1234.000000;2.568764
1233.000000;2.941537
1232.000000;2.765788
1231.000000;2.444546
1230.000000;2.312391
1229.000000;2.290604
1228.000000;2.402842
1227.000000;2.705708
1226.000000;2.678829
1225.000000;2.419719
1224.000000;2.388932
1223.000000;2.485054
1222.000000;2.672370
1221.000000;2.825781
1220.000000;2.939510
1219.000000;2.974407
1218.000000;3.052020
1217.000000;3.244596
1216.000000;3.030707
1215.000000;2.986667
1214.000000;3.412663
1213.000000;2.912605
1212.000000;2.605248
1211.000000;2.466475
1210.000000;2.422789
1209.000000;2.531197
1208.000000;2.833231
1207.000000;2.713599
1206.000000;2.509796
1205.000000;2.480988
1204.000000;2.541875
1203.000000;2.684093
1202.000000;2.951231
1201.000000;3.237504
1200.000000;3.049229
