Criado como novo conjunto de dados;"2706_e01_daniel.spp","87306.4 Secs"
cm-1;Abs
10000.000000;0.769792
9999.000000;0.768873
9998.000000;0.768068
9997.000000;0.767892
9996.000000;0.768293
9995.000000;0.768768
9994.000000;0.769038
9993.000000;0.769047
9992.000000;0.768761
9991.000000;0.768182
9990.000000;0.767539
9989.000000;0.767061
9988.000000;0.766696
9987.000000;0.766276
9986.000000;0.765900
9985.000000;0.765884
9984.000000;0.766372
9983.000000;0.767185
9982.000000;0.768017
9981.000000;0.768615
9980.000000;0.768803
9979.000000;0.768547
9978.000000;0.768004
9977.000000;0.767418
9976.000000;0.766943
9975.000000;0.766591
9974.000000;0.766276
9973.000000;0.765858
9972.000000;0.765263
9971.000000;0.764646
9970.000000;0.764347
9969.000000;0.764559
9968.000000;0.765070
9967.000000;0.765430
9966.000000;0.765352
9965.000000;0.764925
9964.000000;0.764498
9963.000000;0.764394
9962.000000;0.764667
9961.000000;0.765067
9960.000000;0.765299
9959.000000;0.765303
9958.000000;0.765214
9957.000000;0.765098
9956.000000;0.764910
9955.000000;0.764724
9954.000000;0.764762
9953.000000;0.765070
9952.000000;0.765340
9951.000000;0.765229
9950.000000;0.764775
9949.000000;0.764320
9948.000000;0.764088
9947.000000;0.763994
9946.000000;0.763902
9945.000000;0.763850
9944.000000;0.763920
9943.000000;0.763966
9942.000000;0.763692
9941.000000;0.763065
9940.000000;0.762495
9939.000000;0.762419
9938.000000;0.762750
9937.000000;0.762970
9936.000000;0.762804
9935.000000;0.762522
9934.000000;0.762463
9933.000000;0.762543
9932.000000;0.762491
9931.000000;0.762347
9930.000000;0.762397
9929.000000;0.762709
9928.000000;0.763054
9927.000000;0.763257
9926.000000;0.763329
9925.000000;0.763252
9924.000000;0.762914
9923.000000;0.762294
9922.000000;0.761533
9921.000000;0.760785
9920.000000;0.760176
9919.000000;0.759875
9918.000000;0.759942
9917.000000;0.760120
9916.000000;0.760035
9915.000000;0.759670
9914.000000;0.759393
9913.000000;0.759474
9912.000000;0.759798
9911.000000;0.760091
9910.000000;0.760191
9909.000000;0.760046
9908.000000;0.759682
9907.000000;0.759322
9906.000000;0.759284
9905.000000;0.759650
9904.000000;0.760139
9903.000000;0.760411
9902.000000;0.760328
9901.000000;0.759892
9900.000000;0.759181
9899.000000;0.758451
9898.000000;0.758049
9897.000000;0.758036
9896.000000;0.758069
9895.000000;0.757808
9894.000000;0.757309
9893.000000;0.756893
9892.000000;0.756757
9891.000000;0.756868
9890.000000;0.757128
9889.000000;0.757458
9888.000000;0.757779
9887.000000;0.758055
9886.000000;0.758311
9885.000000;0.758522
9884.000000;0.758552
9883.000000;0.758294
9882.000000;0.757815
9881.000000;0.757274
9880.000000;0.756743
9879.000000;0.756217
9878.000000;0.755748
9877.000000;0.755462
9876.000000;0.755452
9875.000000;0.755687
9874.000000;0.756031
9873.000000;0.756323
9872.000000;0.756469
9871.000000;0.756477
9870.000000;0.756414
9869.000000;0.756325
9868.000000;0.756219
9867.000000;0.756078
9866.000000;0.755870
9865.000000;0.755595
9864.000000;0.755359
9863.000000;0.755342
9862.000000;0.755593
9861.000000;0.755915
9860.000000;0.756060
9859.000000;0.755971
9858.000000;0.755761
9857.000000;0.755524
9856.000000;0.755331
9855.000000;0.755325
9854.000000;0.755576
9853.000000;0.755816
9852.000000;0.755567
9851.000000;0.754665
9850.000000;0.753538
9849.000000;0.752807
9848.000000;0.752681
9847.000000;0.752854
9846.000000;0.752934
9845.000000;0.752842
9844.000000;0.752785
9843.000000;0.752928
9842.000000;0.753201
9841.000000;0.753424
9840.000000;0.753530
9839.000000;0.753567
9838.000000;0.753541
9837.000000;0.753390
9836.000000;0.753171
9835.000000;0.753109
9834.000000;0.753331
9833.000000;0.753635
9832.000000;0.753654
9831.000000;0.753236
9830.000000;0.752596
9829.000000;0.752087
9828.000000;0.751869
9827.000000;0.751783
9826.000000;0.751514
9825.000000;0.750936
9824.000000;0.750310
9823.000000;0.750041
9822.000000;0.750238
9821.000000;0.750658
9820.000000;0.751072
9819.000000;0.751505
9818.000000;0.752014
9817.000000;0.752460
9816.000000;0.752640
9815.000000;0.752517
9814.000000;0.752160
9813.000000;0.751622
9812.000000;0.751055
9811.000000;0.750749
9810.000000;0.750839
9809.000000;0.751074
9808.000000;0.751118
9807.000000;0.750954
9806.000000;0.750778
9805.000000;0.750625
9804.000000;0.750385
9803.000000;0.750127
9802.000000;0.750076
9801.000000;0.750250
9800.000000;0.750399
9799.000000;0.750353
9798.000000;0.750209
9797.000000;0.750099
9796.000000;0.749975
9795.000000;0.749707
9794.000000;0.749254
9793.000000;0.748688
9792.000000;0.748149
9791.000000;0.747816
9790.000000;0.747797
9789.000000;0.748016
9788.000000;0.748277
9787.000000;0.748454
9786.000000;0.748550
9785.000000;0.748604
9784.000000;0.748626
9783.000000;0.748594
9782.000000;0.748454
9781.000000;0.748200
9780.000000;0.747986
9779.000000;0.748018
9778.000000;0.748233
9777.000000;0.748271
9776.000000;0.747939
9775.000000;0.747540
9774.000000;0.747475
9773.000000;0.747681
9772.000000;0.747733
9771.000000;0.747455
9770.000000;0.747126
9769.000000;0.747071
9768.000000;0.747304
9767.000000;0.747609
9766.000000;0.747769
9765.000000;0.747655
9764.000000;0.747270
9763.000000;0.746775
9762.000000;0.746363
9761.000000;0.746115
9760.000000;0.746067
9759.000000;0.746272
9758.000000;0.746623
9757.000000;0.746737
9756.000000;0.746319
9755.000000;0.745611
9754.000000;0.745202
9753.000000;0.745355
9752.000000;0.745752
9751.000000;0.745912
9750.000000;0.745650
9749.000000;0.745108
9748.000000;0.744562
9747.000000;0.744274
9746.000000;0.744333
9745.000000;0.744544
9744.000000;0.744620
9743.000000;0.744527
9742.000000;0.744500
9741.000000;0.744714
9740.000000;0.745085
9739.000000;0.745420
9738.000000;0.745575
9737.000000;0.745494
9736.000000;0.745275
9735.000000;0.745192
9734.000000;0.745434
9733.000000;0.745814
9732.000000;0.745952
9731.000000;0.745773
9730.000000;0.745575
9729.000000;0.745553
9728.000000;0.745516
9727.000000;0.745240
9726.000000;0.744847
9725.000000;0.744657
9724.000000;0.744774
9723.000000;0.744982
9722.000000;0.744974
9721.000000;0.744591
9720.000000;0.743932
9719.000000;0.743310
9718.000000;0.743009
9717.000000;0.743005
9716.000000;0.742981
9715.000000;0.742666
9714.000000;0.742106
9713.000000;0.741568
9712.000000;0.741293
9711.000000;0.741379
9710.000000;0.741767
9709.000000;0.742274
9708.000000;0.742677
9707.000000;0.742838
9706.000000;0.742684
9705.000000;0.742135
9704.000000;0.741183
9703.000000;0.740095
9702.000000;0.739370
9701.000000;0.739391
9700.000000;0.740139
9699.000000;0.741237
9698.000000;0.742215
9697.000000;0.742729
9696.000000;0.742690
9695.000000;0.742286
9694.000000;0.741867
9693.000000;0.741715
9692.000000;0.741898
9691.000000;0.742289
9690.000000;0.742697
9689.000000;0.742956
9688.000000;0.742934
9687.000000;0.742525
9686.000000;0.741706
9685.000000;0.740675
9684.000000;0.739832
9683.000000;0.739481
9682.000000;0.739536
9681.000000;0.739657
9680.000000;0.739691
9679.000000;0.739799
9678.000000;0.740095
9677.000000;0.740397
9676.000000;0.740484
9675.000000;0.740408
9674.000000;0.740355
9673.000000;0.740345
9672.000000;0.740245
9671.000000;0.739964
9670.000000;0.739478
9669.000000;0.738819
9668.000000;0.738218
9667.000000;0.738071
9666.000000;0.738516
9665.000000;0.739151
9664.000000;0.739422
9663.000000;0.739185
9662.000000;0.738699
9661.000000;0.738227
9660.000000;0.737936
9659.000000;0.738031
9658.000000;0.738564
9657.000000;0.739167
9656.000000;0.739330
9655.000000;0.739012
9654.000000;0.738675
9653.000000;0.738691
9652.000000;0.739016
9651.000000;0.739418
9650.000000;0.739702
9649.000000;0.739650
9648.000000;0.739121
9647.000000;0.738327
9646.000000;0.737744
9645.000000;0.737611
9644.000000;0.737744
9643.000000;0.737891
9642.000000;0.737995
9641.000000;0.738024
9640.000000;0.737843
9639.000000;0.737441
9638.000000;0.737034
9637.000000;0.736780
9636.000000;0.736565
9635.000000;0.736266
9634.000000;0.736031
9633.000000;0.736095
9632.000000;0.736432
9631.000000;0.736779
9630.000000;0.736918
9629.000000;0.736828
9628.000000;0.736623
9627.000000;0.736452
9626.000000;0.736391
9625.000000;0.736384
9624.000000;0.736323
9623.000000;0.736193
9622.000000;0.736044
9621.000000;0.735847
9620.000000;0.735550
9619.000000;0.735263
9618.000000;0.735173
9617.000000;0.735211
9616.000000;0.735057
9615.000000;0.734574
9614.000000;0.734061
9613.000000;0.733932
9612.000000;0.734259
9611.000000;0.734730
9610.000000;0.734932
9609.000000;0.734643
9608.000000;0.734002
9607.000000;0.733485
9606.000000;0.733522
9605.000000;0.734027
9604.000000;0.734466
9603.000000;0.734459
9602.000000;0.734151
9601.000000;0.733870
9600.000000;0.733662
9599.000000;0.733351
9598.000000;0.732912
9597.000000;0.732536
9596.000000;0.732396
9595.000000;0.732507
9594.000000;0.732804
9593.000000;0.733180
9592.000000;0.733483
9591.000000;0.733592
9590.000000;0.733508
9589.000000;0.733307
9588.000000;0.733041
9587.000000;0.732764
9586.000000;0.732559
9585.000000;0.732465
9584.000000;0.732422
9583.000000;0.732359
9582.000000;0.732304
9581.000000;0.732344
9580.000000;0.732511
9579.000000;0.732755
9578.000000;0.732951
9577.000000;0.732917
9576.000000;0.732561
9575.000000;0.732064
9574.000000;0.731793
9573.000000;0.731912
9572.000000;0.732192
9571.000000;0.732318
9570.000000;0.732265
9569.000000;0.732238
9568.000000;0.732334
9567.000000;0.732451
9566.000000;0.732500
9565.000000;0.732492
9564.000000;0.732413
9563.000000;0.732164
9562.000000;0.731707
9561.000000;0.731149
9560.000000;0.730643
9559.000000;0.730255
9558.000000;0.729995
9557.000000;0.729899
9556.000000;0.729996
9555.000000;0.730226
9554.000000;0.730432
9553.000000;0.730482
9552.000000;0.730374
9551.000000;0.730222
9550.000000;0.730152
9549.000000;0.730225
9548.000000;0.730423
9547.000000;0.730658
9546.000000;0.730773
9545.000000;0.730640
9544.000000;0.730318
9543.000000;0.730088
9542.000000;0.730202
9541.000000;0.730609
9540.000000;0.730991
9539.000000;0.731096
9538.000000;0.730945
9537.000000;0.730708
9536.000000;0.730493
9535.000000;0.730310
9534.000000;0.730158
9533.000000;0.730026
9532.000000;0.729842
9531.000000;0.729521
9530.000000;0.729092
9529.000000;0.728725
9528.000000;0.728615
9527.000000;0.728830
9526.000000;0.729280
9525.000000;0.729793
9524.000000;0.730200
9523.000000;0.730337
9522.000000;0.730050
9521.000000;0.729297
9520.000000;0.728279
9519.000000;0.727380
9518.000000;0.726877
9517.000000;0.726740
9516.000000;0.726767
9515.000000;0.726860
9514.000000;0.727081
9513.000000;0.727418
9512.000000;0.727650
9511.000000;0.727533
9510.000000;0.727088
9509.000000;0.726637
9508.000000;0.726515
9507.000000;0.726773
9506.000000;0.727136
9505.000000;0.727248
9504.000000;0.726962
9503.000000;0.726410
9502.000000;0.725852
9501.000000;0.725489
9500.000000;0.725379
9499.000000;0.725449
9498.000000;0.725553
9497.000000;0.725595
9496.000000;0.725600
9495.000000;0.725625
9494.000000;0.725615
9493.000000;0.725462
9492.000000;0.725230
9491.000000;0.725176
9490.000000;0.725456
9489.000000;0.725894
9488.000000;0.726152
9487.000000;0.726056
9486.000000;0.725654
9485.000000;0.725059
9484.000000;0.724388
9483.000000;0.723817
9482.000000;0.723525
9481.000000;0.723542
9480.000000;0.723722
9479.000000;0.723893
9478.000000;0.723985
9477.000000;0.724028
9476.000000;0.724112
9475.000000;0.724329
9474.000000;0.724655
9473.000000;0.724907
9472.000000;0.724875
9471.000000;0.724510
9470.000000;0.723932
9469.000000;0.723306
9468.000000;0.722788
9467.000000;0.722527
9466.000000;0.722583
9465.000000;0.722834
9464.000000;0.723054
9463.000000;0.723113
9462.000000;0.723066
9461.000000;0.723035
9460.000000;0.723089
9459.000000;0.723226
9458.000000;0.723420
9457.000000;0.723626
9456.000000;0.723775
9455.000000;0.723767
9454.000000;0.723511
9453.000000;0.723016
9452.000000;0.722460
9451.000000;0.722094
9450.000000;0.722015
9449.000000;0.722092
9448.000000;0.722163
9447.000000;0.722226
9446.000000;0.722374
9445.000000;0.722642
9444.000000;0.722975
9443.000000;0.723286
9442.000000;0.723442
9441.000000;0.723277
9440.000000;0.722782
9439.000000;0.722202
9438.000000;0.721826
9437.000000;0.721692
9436.000000;0.721623
9435.000000;0.721517
9434.000000;0.721479
9433.000000;0.721648
9432.000000;0.721997
9431.000000;0.722324
9430.000000;0.722410
9429.000000;0.722178
9428.000000;0.721779
9427.000000;0.721460
9426.000000;0.721292
9425.000000;0.721094
9424.000000;0.720705
9423.000000;0.720258
9422.000000;0.720023
9421.000000;0.720023
9420.000000;0.720006
9419.000000;0.719801
9418.000000;0.719563
9417.000000;0.719581
9416.000000;0.719931
9415.000000;0.720377
9414.000000;0.720581
9413.000000;0.720401
9412.000000;0.720007
9411.000000;0.719692
9410.000000;0.719551
9409.000000;0.719412
9408.000000;0.719121
9407.000000;0.718796
9406.000000;0.718666
9405.000000;0.718749
9404.000000;0.718866
9403.000000;0.718927
9402.000000;0.719030
9401.000000;0.719215
9400.000000;0.719333
9399.000000;0.719226
9398.000000;0.718939
9397.000000;0.718655
9396.000000;0.718499
9395.000000;0.718470
9394.000000;0.718481
9393.000000;0.718399
9392.000000;0.718101
9391.000000;0.717603
9390.000000;0.717133
9389.000000;0.716983
9388.000000;0.717260
9387.000000;0.717773
9386.000000;0.718194
9385.000000;0.718328
9384.000000;0.718215
9383.000000;0.717960
9382.000000;0.717561
9381.000000;0.717013
9380.000000;0.716519
9379.000000;0.716402
9378.000000;0.716719
9377.000000;0.717141
9376.000000;0.717300
9375.000000;0.717154
9374.000000;0.716891
9373.000000;0.716622
9372.000000;0.716351
9371.000000;0.716143
9370.000000;0.716096
9369.000000;0.716175
9368.000000;0.716261
9367.000000;0.716363
9366.000000;0.716604
9365.000000;0.716972
9364.000000;0.717248
9363.000000;0.717234
9362.000000;0.716948
9361.000000;0.716536
9360.000000;0.716135
9359.000000;0.715831
9358.000000;0.715650
9357.000000;0.715539
9356.000000;0.715430
9355.000000;0.715322
9354.000000;0.715207
9353.000000;0.714971
9352.000000;0.714532
9351.000000;0.714085
9350.000000;0.714005
9349.000000;0.714401
9348.000000;0.714911
9347.000000;0.715067
9346.000000;0.714776
9345.000000;0.714341
9344.000000;0.714077
9343.000000;0.714027
9342.000000;0.714043
9341.000000;0.714016
9340.000000;0.713984
9339.000000;0.714038
9338.000000;0.714167
9337.000000;0.714237
9336.000000;0.714165
9335.000000;0.714048
9334.000000;0.714047
9333.000000;0.714162
9332.000000;0.714243
9331.000000;0.714215
9330.000000;0.714153
9329.000000;0.714096
9328.000000;0.713937
9327.000000;0.713591
9326.000000;0.713180
9325.000000;0.712926
9324.000000;0.712897
9323.000000;0.712974
9322.000000;0.713059
9321.000000;0.713180
9320.000000;0.713361
9319.000000;0.713480
9318.000000;0.713340
9317.000000;0.712897
9316.000000;0.712353
9315.000000;0.711988
9314.000000;0.711907
9313.000000;0.711981
9312.000000;0.712006
9311.000000;0.711910
9310.000000;0.711776
9309.000000;0.711717
9308.000000;0.711780
9307.000000;0.711949
9306.000000;0.712192
9305.000000;0.712457
9304.000000;0.712655
9303.000000;0.712691
9302.000000;0.712558
9301.000000;0.712384
9300.000000;0.712344
9299.000000;0.712464
9298.000000;0.712539
9297.000000;0.712318
9296.000000;0.711790
9295.000000;0.711231
9294.000000;0.710951
9293.000000;0.711018
9292.000000;0.711248
9291.000000;0.711397
9290.000000;0.711346
9289.000000;0.711133
9288.000000;0.710872
9287.000000;0.710618
9286.000000;0.710337
9285.000000;0.710014
9284.000000;0.709764
9283.000000;0.709739
9282.000000;0.709933
9281.000000;0.710170
9280.000000;0.710318
9279.000000;0.710406
9278.000000;0.710497
9277.000000;0.710573
9276.000000;0.710600
9275.000000;0.710609
9274.000000;0.710602
9273.000000;0.710460
9272.000000;0.710086
9271.000000;0.709595
9270.000000;0.709249
9269.000000;0.709201
9268.000000;0.709380
9267.000000;0.709594
9266.000000;0.709679
9265.000000;0.709597
9264.000000;0.709447
9263.000000;0.709370
9262.000000;0.709367
9261.000000;0.709257
9260.000000;0.708913
9259.000000;0.708491
9258.000000;0.708313
9257.000000;0.708514
9256.000000;0.708900
9255.000000;0.709177
9254.000000;0.709224
9253.000000;0.709110
9252.000000;0.708939
9251.000000;0.708740
9250.000000;0.708479
9249.000000;0.708135
9248.000000;0.707738
9247.000000;0.707368
9246.000000;0.707111
9245.000000;0.707009
9244.000000;0.707046
9243.000000;0.707154
9242.000000;0.707249
9241.000000;0.707302
9240.000000;0.707337
9239.000000;0.707352
9238.000000;0.707258
9237.000000;0.706991
9236.000000;0.706667
9235.000000;0.706523
9234.000000;0.706677
9233.000000;0.707018
9232.000000;0.707353
9231.000000;0.707557
9230.000000;0.707579
9229.000000;0.707422
9228.000000;0.707174
9227.000000;0.706961
9226.000000;0.706791
9225.000000;0.706542
9224.000000;0.706168
9223.000000;0.705803
9222.000000;0.705586
9221.000000;0.705481
9220.000000;0.705404
9219.000000;0.705406
9218.000000;0.705575
9217.000000;0.705814
9216.000000;0.705901
9215.000000;0.705788
9214.000000;0.705675
9213.000000;0.705757
9212.000000;0.705978
9211.000000;0.706097
9210.000000;0.705928
9209.000000;0.705483
9208.000000;0.704918
9207.000000;0.704405
9206.000000;0.704034
9205.000000;0.703831
9204.000000;0.703789
9203.000000;0.703862
9202.000000;0.703956
9201.000000;0.704017
9200.000000;0.704118
9199.000000;0.704348
9198.000000;0.704632
9197.000000;0.704760
9196.000000;0.704664
9195.000000;0.704521
9194.000000;0.704500
9193.000000;0.704533
9192.000000;0.704430
9191.000000;0.704141
9190.000000;0.703791
9189.000000;0.703533
9188.000000;0.703451
9187.000000;0.703554
9186.000000;0.703749
9185.000000;0.703878
9184.000000;0.703841
9183.000000;0.703661
9182.000000;0.703383
9181.000000;0.703024
9180.000000;0.702682
9179.000000;0.702575
9178.000000;0.702833
9177.000000;0.703318
9176.000000;0.703737
9175.000000;0.703894
9174.000000;0.703736
9173.000000;0.703324
9172.000000;0.702865
9171.000000;0.702668
9170.000000;0.702840
9169.000000;0.703086
9168.000000;0.703006
9167.000000;0.702587
9166.000000;0.702221
9165.000000;0.702214
9164.000000;0.702450
9163.000000;0.702575
9162.000000;0.702373
9161.000000;0.701926
9160.000000;0.701516
9159.000000;0.701402
9158.000000;0.701602
9157.000000;0.701855
9156.000000;0.701865
9155.000000;0.701602
9154.000000;0.701282
9153.000000;0.701083
9152.000000;0.700987
9151.000000;0.700926
9150.000000;0.700922
9149.000000;0.701028
9148.000000;0.701206
9147.000000;0.701327
9146.000000;0.701268
9145.000000;0.700997
9144.000000;0.700603
9143.000000;0.700259
9142.000000;0.700082
9141.000000;0.700028
9140.000000;0.699960
9139.000000;0.699813
9138.000000;0.699646
9137.000000;0.699563
9136.000000;0.699630
9135.000000;0.699853
9134.000000;0.700155
9133.000000;0.700379
9132.000000;0.700392
9131.000000;0.700215
9130.000000;0.699984
9129.000000;0.699784
9128.000000;0.699595
9127.000000;0.699371
9126.000000;0.699124
9125.000000;0.698896
9124.000000;0.698718
9123.000000;0.698625
9122.000000;0.698655
9121.000000;0.698819
9120.000000;0.699071
9119.000000;0.699330
9118.000000;0.699509
9117.000000;0.699551
9116.000000;0.699470
9115.000000;0.699347
9114.000000;0.699266
9113.000000;0.699262
9112.000000;0.699305
9111.000000;0.699323
9110.000000;0.699236
9109.000000;0.699046
9108.000000;0.698875
9107.000000;0.698852
9106.000000;0.698936
9105.000000;0.698942
9104.000000;0.698739
9103.000000;0.698362
9102.000000;0.697889
9101.000000;0.697360
9100.000000;0.696866
9099.000000;0.696569
9098.000000;0.696517
9097.000000;0.696554
9096.000000;0.696545
9095.000000;0.696576
9094.000000;0.696787
9093.000000;0.697087
9092.000000;0.697225
9091.000000;0.697130
9090.000000;0.696982
9089.000000;0.696948
9088.000000;0.696986
9087.000000;0.696965
9086.000000;0.696838
9085.000000;0.696674
9084.000000;0.696584
9083.000000;0.696660
9082.000000;0.696867
9081.000000;0.697005
9080.000000;0.696852
9079.000000;0.696393
9078.000000;0.695856
9077.000000;0.695501
9076.000000;0.695438
9075.000000;0.695603
9074.000000;0.695839
9073.000000;0.695988
9072.000000;0.695999
9071.000000;0.695949
9070.000000;0.695916
9069.000000;0.695837
9068.000000;0.695585
9067.000000;0.695195
9066.000000;0.694895
9065.000000;0.694896
9064.000000;0.695175
9063.000000;0.695495
9062.000000;0.695569
9061.000000;0.695250
9060.000000;0.694647
9059.000000;0.694072
9058.000000;0.693804
9057.000000;0.693866
9056.000000;0.694055
9055.000000;0.694164
9054.000000;0.694135
9053.000000;0.693995
9052.000000;0.693773
9051.000000;0.693505
9050.000000;0.693275
9049.000000;0.693191
9048.000000;0.693304
9047.000000;0.693543
9046.000000;0.693736
9045.000000;0.693726
9044.000000;0.693527
9043.000000;0.693339
9042.000000;0.693361
9041.000000;0.693589
9040.000000;0.693835
9039.000000;0.693916
9038.000000;0.693786
9037.000000;0.693518
9036.000000;0.693225
9035.000000;0.692999
9034.000000;0.692855
9033.000000;0.692738
9032.000000;0.692575
9031.000000;0.692342
9030.000000;0.692063
9029.000000;0.691809
9028.000000;0.691707
9027.000000;0.691860
9026.000000;0.692190
9025.000000;0.692435
9024.000000;0.692416
9023.000000;0.692240
9022.000000;0.692155
9021.000000;0.692219
9020.000000;0.692257
9019.000000;0.692111
9018.000000;0.691817
9017.000000;0.691502
9016.000000;0.691255
9015.000000;0.691121
9014.000000;0.691151
9013.000000;0.691339
9012.000000;0.691582
9011.000000;0.691742
9010.000000;0.691741
9009.000000;0.691585
9008.000000;0.691362
9007.000000;0.691235
9006.000000;0.691361
9005.000000;0.691731
9004.000000;0.692104
9003.000000;0.692185
9002.000000;0.691907
9001.000000;0.691501
9000.000000;0.691258
8999.000000;0.691243
8998.000000;0.691262
8997.000000;0.691120
8996.000000;0.690862
8995.000000;0.690700
8994.000000;0.690733
8993.000000;0.690830
8992.000000;0.690802
8991.000000;0.690613
8990.000000;0.690375
8989.000000;0.690188
8988.000000;0.690060
8987.000000;0.689959
8986.000000;0.689881
8985.000000;0.689855
8984.000000;0.689926
8983.000000;0.690124
8982.000000;0.690423
8981.000000;0.690737
8980.000000;0.690961
8979.000000;0.691017
8978.000000;0.690872
8977.000000;0.690542
8976.000000;0.690097
8975.000000;0.689609
8974.000000;0.689106
8973.000000;0.688594
8972.000000;0.688154
8971.000000;0.687930
8970.000000;0.687982
8969.000000;0.688186
8968.000000;0.688336
8967.000000;0.688328
8966.000000;0.688231
8965.000000;0.688196
8964.000000;0.688307
8963.000000;0.688501
8962.000000;0.688638
8961.000000;0.688660
8960.000000;0.688669
8959.000000;0.688767
8958.000000;0.688861
8957.000000;0.688745
8956.000000;0.688384
8955.000000;0.688011
8954.000000;0.687875
8953.000000;0.687994
8952.000000;0.688208
8951.000000;0.688370
8950.000000;0.688404
8949.000000;0.688273
8948.000000;0.688009
8947.000000;0.687723
8946.000000;0.687500
8945.000000;0.687309
8944.000000;0.687090
8943.000000;0.686893
8942.000000;0.686841
8941.000000;0.686969
8940.000000;0.687169
8939.000000;0.687300
8938.000000;0.687307
8937.000000;0.687230
8936.000000;0.687143
8935.000000;0.687069
8934.000000;0.686961
8933.000000;0.686797
8932.000000;0.686664
8931.000000;0.686691
8930.000000;0.686859
8929.000000;0.687004
8928.000000;0.687004
8927.000000;0.686887
8926.000000;0.686706
8925.000000;0.686450
8924.000000;0.686157
8923.000000;0.685985
8922.000000;0.686047
8921.000000;0.686244
8920.000000;0.686382
8919.000000;0.686392
8918.000000;0.686332
8917.000000;0.686239
8916.000000;0.686098
8915.000000;0.685938
8914.000000;0.685810
8913.000000;0.685684
8912.000000;0.685476
8911.000000;0.685174
8910.000000;0.684858
8909.000000;0.684609
8908.000000;0.684476
8907.000000;0.684506
8906.000000;0.684706
8905.000000;0.684967
8904.000000;0.685133
8903.000000;0.685146
8902.000000;0.685060
8901.000000;0.684933
8900.000000;0.684779
8899.000000;0.684641
8898.000000;0.684577
8897.000000;0.684554
8896.000000;0.684425
8895.000000;0.684096
8894.000000;0.683669
8893.000000;0.683376
8892.000000;0.683361
8891.000000;0.683556
8890.000000;0.683774
8889.000000;0.683894
8888.000000;0.683954
8887.000000;0.684056
8886.000000;0.684207
8885.000000;0.684315
8884.000000;0.684308
8883.000000;0.684213
8882.000000;0.684082
8881.000000;0.683921
8880.000000;0.683719
8879.000000;0.683495
8878.000000;0.683284
8877.000000;0.683099
8876.000000;0.682948
8875.000000;0.682844
8874.000000;0.682787
8873.000000;0.682757
8872.000000;0.682727
8871.000000;0.682651
8870.000000;0.682459
8869.000000;0.682163
8868.000000;0.681955
8867.000000;0.682075
8866.000000;0.682525
8865.000000;0.683024
8864.000000;0.683302
8863.000000;0.683332
8862.000000;0.683226
8861.000000;0.683029
8860.000000;0.682750
8859.000000;0.682491
8858.000000;0.682391
8857.000000;0.682463
8856.000000;0.682585
8855.000000;0.682629
8854.000000;0.682549
8853.000000;0.682367
8852.000000;0.682158
8851.000000;0.682032
8850.000000;0.682051
8849.000000;0.682163
8848.000000;0.682244
8847.000000;0.682178
8846.000000;0.681904
8845.000000;0.681484
8844.000000;0.681140
8843.000000;0.681098
8842.000000;0.681299
8841.000000;0.681400
8840.000000;0.681167
8839.000000;0.680766
8838.000000;0.680546
8837.000000;0.680612
8836.000000;0.680800
8835.000000;0.680967
8834.000000;0.681128
8833.000000;0.681280
8832.000000;0.681313
8831.000000;0.681175
8830.000000;0.680992
8829.000000;0.680921
8828.000000;0.680951
8827.000000;0.680913
8826.000000;0.680696
8825.000000;0.680389
8824.000000;0.680215
8823.000000;0.680308
8822.000000;0.680579
8821.000000;0.680810
8820.000000;0.680875
8819.000000;0.680818
8818.000000;0.680712
8817.000000;0.680549
8816.000000;0.680316
8815.000000;0.680092
8814.000000;0.679973
8813.000000;0.679966
8812.000000;0.680015
8811.000000;0.680086
8810.000000;0.680155
8809.000000;0.680159
8808.000000;0.680040
8807.000000;0.679829
8806.000000;0.679612
8805.000000;0.679450
8804.000000;0.679360
8803.000000;0.679332
8802.000000;0.679301
8801.000000;0.679187
8800.000000;0.679005
8799.000000;0.678882
8798.000000;0.678883
8797.000000;0.678909
8796.000000;0.678839
8795.000000;0.678716
8794.000000;0.678689
8793.000000;0.678800
8792.000000;0.678950
8791.000000;0.679045
8790.000000;0.679058
8789.000000;0.678987
8788.000000;0.678836
8787.000000;0.678654
8786.000000;0.678529
8785.000000;0.678533
8784.000000;0.678688
8783.000000;0.678935
8782.000000;0.679116
8781.000000;0.679062
8780.000000;0.678771
8779.000000;0.678443
8778.000000;0.678288
8777.000000;0.678343
8776.000000;0.678518
8775.000000;0.678715
8774.000000;0.678824
8773.000000;0.678731
8772.000000;0.678448
8771.000000;0.678168
8770.000000;0.678052
8769.000000;0.678041
8768.000000;0.677987
8767.000000;0.677886
8766.000000;0.677840
8765.000000;0.677859
8764.000000;0.677865
8763.000000;0.677847
8762.000000;0.677843
8761.000000;0.677802
8760.000000;0.677636
8759.000000;0.677400
8758.000000;0.677253
8757.000000;0.677224
8756.000000;0.677193
8755.000000;0.677126
8754.000000;0.677155
8753.000000;0.677373
8752.000000;0.677678
8751.000000;0.677875
8750.000000;0.677858
8749.000000;0.677642
8748.000000;0.677340
8747.000000;0.677143
8746.000000;0.677216
8745.000000;0.677530
8744.000000;0.677864
8743.000000;0.678016
8742.000000;0.677955
8741.000000;0.677763
8740.000000;0.677532
8739.000000;0.677349
8738.000000;0.677282
8737.000000;0.677305
8736.000000;0.677313
8735.000000;0.677250
8734.000000;0.677177
8733.000000;0.677163
8732.000000;0.677188
8731.000000;0.677198
8730.000000;0.677199
8729.000000;0.677232
8728.000000;0.677308
8727.000000;0.677404
8726.000000;0.677500
8725.000000;0.677549
8724.000000;0.677474
8723.000000;0.677238
8722.000000;0.676929
8721.000000;0.676716
8720.000000;0.676697
8719.000000;0.676798
8718.000000;0.676832
8717.000000;0.676683
8716.000000;0.676438
8715.000000;0.676322
8714.000000;0.676468
8713.000000;0.676755
8712.000000;0.676903
8711.000000;0.676728
8710.000000;0.676320
8709.000000;0.675971
8708.000000;0.675939
8707.000000;0.676240
8706.000000;0.676639
8705.000000;0.676860
8704.000000;0.676802
8703.000000;0.676539
8702.000000;0.676176
8701.000000;0.675793
8700.000000;0.675519
8699.000000;0.675513
8698.000000;0.675775
8697.000000;0.676064
8696.000000;0.676123
8695.000000;0.675943
8694.000000;0.675732
8693.000000;0.675654
8692.000000;0.675694
8691.000000;0.675744
8690.000000;0.675731
8689.000000;0.675654
8688.000000;0.675568
8687.000000;0.675547
8686.000000;0.675623
8685.000000;0.675755
8684.000000;0.675883
8683.000000;0.675963
8682.000000;0.675945
8681.000000;0.675784
8680.000000;0.675525
8679.000000;0.675321
8678.000000;0.675270
8677.000000;0.675295
8676.000000;0.675251
8675.000000;0.675107
8674.000000;0.674961
8673.000000;0.674894
8672.000000;0.674899
8671.000000;0.674900
8670.000000;0.674793
8669.000000;0.674516
8668.000000;0.674163
8667.000000;0.673954
8666.000000;0.673997
8665.000000;0.674125
8664.000000;0.674087
8663.000000;0.673865
8662.000000;0.673681
8661.000000;0.673712
8660.000000;0.673921
8659.000000;0.674158
8658.000000;0.674295
8657.000000;0.674240
8656.000000;0.673952
8655.000000;0.673501
8654.000000;0.673055
8653.000000;0.672756
8652.000000;0.672646
8651.000000;0.672673
8650.000000;0.672732
8649.000000;0.672708
8648.000000;0.672564
8647.000000;0.672399
8646.000000;0.672337
8645.000000;0.672366
8644.000000;0.672355
8643.000000;0.672228
8642.000000;0.672042
8641.000000;0.671908
8640.000000;0.671895
8639.000000;0.672003
8638.000000;0.672151
8637.000000;0.672192
8636.000000;0.672035
8635.000000;0.671753
8634.000000;0.671494
8633.000000;0.671296
8632.000000;0.671070
8631.000000;0.670777
8630.000000;0.670524
8629.000000;0.670452
8628.000000;0.670590
8627.000000;0.670835
8626.000000;0.671014
8625.000000;0.670968
8624.000000;0.670682
8623.000000;0.670329
8622.000000;0.670125
8621.000000;0.670116
8620.000000;0.670169
8619.000000;0.670170
8618.000000;0.670136
8617.000000;0.670112
8616.000000;0.670045
8615.000000;0.669831
8614.000000;0.669454
8613.000000;0.669034
8612.000000;0.668740
8611.000000;0.668671
8610.000000;0.668780
8609.000000;0.668901
8608.000000;0.668893
8607.000000;0.668746
8606.000000;0.668536
8605.000000;0.668302
8604.000000;0.668056
8603.000000;0.667860
8602.000000;0.667804
8601.000000;0.667860
8600.000000;0.667870
8599.000000;0.667709
8598.000000;0.667419
8597.000000;0.667121
8596.000000;0.666885
8595.000000;0.666718
8594.000000;0.666628
8593.000000;0.666644
8592.000000;0.666747
8591.000000;0.666837
8590.000000;0.666779
8589.000000;0.666512
8588.000000;0.666128
8587.000000;0.665818
8586.000000;0.665686
8585.000000;0.665643
8584.000000;0.665534
8583.000000;0.665359
8582.000000;0.665275
8581.000000;0.665382
8580.000000;0.665575
8579.000000;0.665664
8578.000000;0.665560
8577.000000;0.665317
8576.000000;0.665048
8575.000000;0.664849
8574.000000;0.664766
8573.000000;0.664778
8572.000000;0.664793
8571.000000;0.664711
8570.000000;0.664507
8569.000000;0.664254
8568.000000;0.664070
8567.000000;0.664024
8566.000000;0.664063
8565.000000;0.664044
8564.000000;0.663874
8563.000000;0.663631
8562.000000;0.663500
8561.000000;0.663572
8560.000000;0.663724
8559.000000;0.663744
8558.000000;0.663540
8557.000000;0.663225
8556.000000;0.662986
8555.000000;0.662905
8554.000000;0.662906
8553.000000;0.662857
8552.000000;0.662691
8551.000000;0.662446
8550.000000;0.662205
8549.000000;0.662039
8548.000000;0.661962
8547.000000;0.661917
8546.000000;0.661798
8545.000000;0.661546
8544.000000;0.661230
8543.000000;0.660994
8542.000000;0.660907
8541.000000;0.660906
8540.000000;0.660876
8539.000000;0.660751
8538.000000;0.660545
8537.000000;0.660342
8536.000000;0.660261
8535.000000;0.660347
8534.000000;0.660480
8533.000000;0.660465
8532.000000;0.660262
8531.000000;0.660036
8530.000000;0.659925
8529.000000;0.659869
8528.000000;0.659751
8527.000000;0.659604
8526.000000;0.659544
8525.000000;0.659544
8524.000000;0.659441
8523.000000;0.659158
8522.000000;0.658816
8521.000000;0.658590
8520.000000;0.658553
8519.000000;0.658682
8518.000000;0.658901
8517.000000;0.659085
8516.000000;0.659105
8515.000000;0.658927
8514.000000;0.658645
8513.000000;0.658376
8512.000000;0.658163
8511.000000;0.658007
8510.000000;0.657913
8509.000000;0.657871
8508.000000;0.657838
8507.000000;0.657762
8506.000000;0.657624
8505.000000;0.657422
8504.000000;0.657160
8503.000000;0.656862
8502.000000;0.656573
8501.000000;0.656330
8500.000000;0.656153
8499.000000;0.656055
8498.000000;0.656040
8497.000000;0.656090
8496.000000;0.656159
8495.000000;0.656193
8494.000000;0.656151
8493.000000;0.656022
8492.000000;0.655850
8491.000000;0.655715
8490.000000;0.655647
8489.000000;0.655580
8488.000000;0.655435
8487.000000;0.655243
8486.000000;0.655137
8485.000000;0.655207
8484.000000;0.655408
8483.000000;0.655604
8482.000000;0.655679
8481.000000;0.655585
8480.000000;0.655342
8479.000000;0.655016
8478.000000;0.654684
8477.000000;0.654409
8476.000000;0.654230
8475.000000;0.654149
8474.000000;0.654113
8473.000000;0.654027
8472.000000;0.653852
8471.000000;0.653668
8470.000000;0.653592
8469.000000;0.653646
8468.000000;0.653730
8467.000000;0.653731
8466.000000;0.653605
8465.000000;0.653373
8464.000000;0.653097
8463.000000;0.652875
8462.000000;0.652792
8461.000000;0.652834
8460.000000;0.652888
8459.000000;0.652852
8458.000000;0.652717
8457.000000;0.652541
8456.000000;0.652365
8455.000000;0.652194
8454.000000;0.652029
8453.000000;0.651866
8452.000000;0.651684
8451.000000;0.651475
8450.000000;0.651285
8449.000000;0.651186
8448.000000;0.651176
8447.000000;0.651166
8446.000000;0.651075
8445.000000;0.650947
8444.000000;0.650915
8443.000000;0.651035
8442.000000;0.651201
8441.000000;0.651234
8440.000000;0.651050
8439.000000;0.650710
8438.000000;0.650364
8437.000000;0.650144
8436.000000;0.650106
8435.000000;0.650198
8434.000000;0.650289
8433.000000;0.650286
8432.000000;0.650219
8431.000000;0.650178
8430.000000;0.650174
8429.000000;0.650117
8428.000000;0.649953
8427.000000;0.649746
8426.000000;0.649610
8425.000000;0.649595
8424.000000;0.649677
8423.000000;0.649790
8422.000000;0.649849
8421.000000;0.649759
8420.000000;0.649484
8419.000000;0.649084
8418.000000;0.648658
8417.000000;0.648277
8416.000000;0.647980
8415.000000;0.647800
8414.000000;0.647746
8413.000000;0.647758
8412.000000;0.647747
8411.000000;0.647661
8410.000000;0.647512
8409.000000;0.647347
8408.000000;0.647228
8407.000000;0.647198
8406.000000;0.647230
8405.000000;0.647218
8404.000000;0.647083
8403.000000;0.646868
8402.000000;0.646700
8401.000000;0.646671
8400.000000;0.646758
8399.000000;0.646861
8398.000000;0.646861
8397.000000;0.646698
8396.000000;0.646418
8395.000000;0.646170
8394.000000;0.646091
8393.000000;0.646190
8392.000000;0.646354
8391.000000;0.646446
8390.000000;0.646388
8389.000000;0.646184
8388.000000;0.645906
8387.000000;0.645658
8386.000000;0.645502
8385.000000;0.645418
8384.000000;0.645342
8383.000000;0.645255
8382.000000;0.645194
8381.000000;0.645169
8380.000000;0.645125
8379.000000;0.645013
8378.000000;0.644861
8377.000000;0.644757
8376.000000;0.644746
8375.000000;0.644788
8374.000000;0.644820
8373.000000;0.644830
8372.000000;0.644829
8371.000000;0.644781
8370.000000;0.644609
8369.000000;0.644307
8368.000000;0.643985
8367.000000;0.643766
8366.000000;0.643668
8365.000000;0.643637
8364.000000;0.643652
8363.000000;0.643726
8362.000000;0.643794
8361.000000;0.643718
8360.000000;0.643442
8359.000000;0.643072
8358.000000;0.642757
8357.000000;0.642534
8356.000000;0.642349
8355.000000;0.642198
8354.000000;0.642145
8353.000000;0.642214
8352.000000;0.642328
8351.000000;0.642369
8350.000000;0.642273
8349.000000;0.642047
8348.000000;0.641749
8347.000000;0.641470
8346.000000;0.641318
8345.000000;0.641354
8344.000000;0.641536
8343.000000;0.641738
8342.000000;0.641822
8341.000000;0.641719
8340.000000;0.641450
8339.000000;0.641109
8338.000000;0.640833
8337.000000;0.640751
8336.000000;0.640874
8335.000000;0.641040
8334.000000;0.641018
8333.000000;0.640736
8332.000000;0.640367
8331.000000;0.640150
8330.000000;0.640151
8329.000000;0.640242
8328.000000;0.640276
8327.000000;0.640210
8326.000000;0.640072
8325.000000;0.639900
8324.000000;0.639735
8323.000000;0.639613
8322.000000;0.639546
8321.000000;0.639511
8320.000000;0.639489
8319.000000;0.639473
8318.000000;0.639453
8317.000000;0.639412
8316.000000;0.639370
8315.000000;0.639347
8314.000000;0.639313
8313.000000;0.639190
8312.000000;0.638949
8311.000000;0.638648
8310.000000;0.638383
8309.000000;0.638227
8308.000000;0.638214
8307.000000;0.638321
8306.000000;0.638456
8305.000000;0.638518
8304.000000;0.638475
8303.000000;0.638362
8302.000000;0.638209
8301.000000;0.638009
8300.000000;0.637786
8299.000000;0.637603
8298.000000;0.637497
8297.000000;0.637433
8296.000000;0.637353
8295.000000;0.637238
8294.000000;0.637116
8293.000000;0.637030
8292.000000;0.637005
8291.000000;0.637020
8290.000000;0.637013
8289.000000;0.636951
8288.000000;0.636876
8287.000000;0.636842
8286.000000;0.636821
8285.000000;0.636738
8284.000000;0.636581
8283.000000;0.636410
8282.000000;0.636273
8281.000000;0.636177
8280.000000;0.636139
8279.000000;0.636167
8278.000000;0.636183
8277.000000;0.636063
8276.000000;0.635779
8275.000000;0.635449
8274.000000;0.635212
8273.000000;0.635117
8272.000000;0.635142
8271.000000;0.635236
8270.000000;0.635309
8269.000000;0.635280
8268.000000;0.635165
8267.000000;0.635072
8266.000000;0.635062
8265.000000;0.635082
8264.000000;0.635073
8263.000000;0.635043
8262.000000;0.635003
8261.000000;0.634902
8260.000000;0.634703
8259.000000;0.634473
8258.000000;0.634322
8257.000000;0.634281
8256.000000;0.634304
8255.000000;0.634319
8254.000000;0.634265
8253.000000;0.634116
8252.000000;0.633924
8251.000000;0.633784
8250.000000;0.633730
8249.000000;0.633705
8248.000000;0.633667
8247.000000;0.633638
8246.000000;0.633602
8245.000000;0.633448
8244.000000;0.633108
8243.000000;0.632698
8242.000000;0.632416
8241.000000;0.632334
8240.000000;0.632379
8239.000000;0.632476
8238.000000;0.632617
8237.000000;0.632780
8236.000000;0.632868
8235.000000;0.632794
8234.000000;0.632579
8233.000000;0.632338
8232.000000;0.632186
8231.000000;0.632133
8230.000000;0.632090
8229.000000;0.631976
8228.000000;0.631816
8227.000000;0.631693
8226.000000;0.631625
8225.000000;0.631543
8224.000000;0.631408
8223.000000;0.631283
8222.000000;0.631231
8221.000000;0.631229
8220.000000;0.631214
8219.000000;0.631164
8218.000000;0.631083
8217.000000;0.630942
8216.000000;0.630712
8215.000000;0.630435
8214.000000;0.630198
8213.000000;0.630050
8212.000000;0.629972
8211.000000;0.629908
8210.000000;0.629817
8209.000000;0.629704
8208.000000;0.629623
8207.000000;0.629615
8206.000000;0.629625
8205.000000;0.629552
8204.000000;0.629399
8203.000000;0.629320
8202.000000;0.629445
8201.000000;0.629723
8200.000000;0.629977
8199.000000;0.630088
8198.000000;0.630052
8197.000000;0.629898
8196.000000;0.629660
8195.000000;0.629421
8194.000000;0.629293
8193.000000;0.629323
8192.000000;0.629441
8191.000000;0.629515
8190.000000;0.629462
8189.000000;0.629298
8188.000000;0.629115
8187.000000;0.628989
8186.000000;0.628912
8185.000000;0.628819
8184.000000;0.628672
8183.000000;0.628497
8182.000000;0.628329
8181.000000;0.628182
8180.000000;0.628073
8179.000000;0.628028
8178.000000;0.628042
8177.000000;0.628060
8176.000000;0.628025
8175.000000;0.627920
8174.000000;0.627765
8173.000000;0.627594
8172.000000;0.627455
8171.000000;0.627369
8170.000000;0.627288
8169.000000;0.627146
8168.000000;0.626966
8167.000000;0.626859
8166.000000;0.626874
8165.000000;0.626929
8164.000000;0.626922
8163.000000;0.626856
8162.000000;0.626810
8161.000000;0.626828
8160.000000;0.626886
8159.000000;0.626931
8158.000000;0.626899
8157.000000;0.626746
8156.000000;0.626509
8155.000000;0.626289
8154.000000;0.626147
8153.000000;0.626044
8152.000000;0.625923
8151.000000;0.625801
8150.000000;0.625741
8149.000000;0.625777
8148.000000;0.625896
8147.000000;0.626057
8146.000000;0.626176
8145.000000;0.626169
8144.000000;0.626029
8143.000000;0.625845
8142.000000;0.625694
8141.000000;0.625560
8140.000000;0.625396
8139.000000;0.625198
8138.000000;0.624974
8137.000000;0.624718
8136.000000;0.624476
8135.000000;0.624366
8134.000000;0.624443
8133.000000;0.624592
8132.000000;0.624643
8131.000000;0.624559
8130.000000;0.624437
8129.000000;0.624340
8128.000000;0.624249
8127.000000;0.624145
8126.000000;0.624052
8125.000000;0.623973
8124.000000;0.623863
8123.000000;0.623695
8122.000000;0.623507
8121.000000;0.623363
8120.000000;0.623285
8119.000000;0.623250
8118.000000;0.623208
8117.000000;0.623117
8116.000000;0.622979
8115.000000;0.622854
8114.000000;0.622811
8113.000000;0.622854
8112.000000;0.622911
8111.000000;0.622900
8110.000000;0.622800
8109.000000;0.622674
8108.000000;0.622611
8107.000000;0.622644
8106.000000;0.622712
8105.000000;0.622730
8104.000000;0.622688
8103.000000;0.622653
8102.000000;0.622657
8101.000000;0.622663
8100.000000;0.622625
8099.000000;0.622537
8098.000000;0.622394
8097.000000;0.622179
8096.000000;0.621916
8095.000000;0.621691
8094.000000;0.621556
8093.000000;0.621483
8092.000000;0.621424
8091.000000;0.621382
8090.000000;0.621374
8089.000000;0.621362
8088.000000;0.621304
8087.000000;0.621217
8086.000000;0.621149
8085.000000;0.621101
8084.000000;0.621030
8083.000000;0.620914
8082.000000;0.620775
8081.000000;0.620641
8080.000000;0.620531
8079.000000;0.620452
8078.000000;0.620393
8077.000000;0.620335
8076.000000;0.620287
8075.000000;0.620279
8074.000000;0.620304
8073.000000;0.620322
8072.000000;0.620326
8071.000000;0.620355
8070.000000;0.620406
8069.000000;0.620385
8068.000000;0.620198
8067.000000;0.619863
8066.000000;0.619497
8065.000000;0.619229
8064.000000;0.619138
8063.000000;0.619235
8062.000000;0.619441
8061.000000;0.619626
8060.000000;0.619695
8059.000000;0.619633
8058.000000;0.619465
8057.000000;0.619230
8056.000000;0.619006
8055.000000;0.618881
8054.000000;0.618857
8053.000000;0.618841
8052.000000;0.618770
8051.000000;0.618682
8050.000000;0.618625
8049.000000;0.618573
8048.000000;0.618486
8047.000000;0.618403
8046.000000;0.618391
8045.000000;0.618441
8044.000000;0.618490
8043.000000;0.618493
8042.000000;0.618433
8041.000000;0.618307
8040.000000;0.618149
8039.000000;0.618034
8038.000000;0.618003
8037.000000;0.618001
8036.000000;0.617957
8035.000000;0.617869
8034.000000;0.617779
8033.000000;0.617710
8032.000000;0.617694
8031.000000;0.617765
8030.000000;0.617874
8029.000000;0.617873
8028.000000;0.617674
8027.000000;0.617392
8026.000000;0.617218
8025.000000;0.617206
8024.000000;0.617261
8023.000000;0.617301
8022.000000;0.617312
8021.000000;0.617278
8020.000000;0.617162
8019.000000;0.616967
8018.000000;0.616745
8017.000000;0.616537
8016.000000;0.616363
8015.000000;0.616272
8014.000000;0.616290
8013.000000;0.616348
8012.000000;0.616338
8011.000000;0.616245
8010.000000;0.616156
8009.000000;0.616124
8008.000000;0.616112
8007.000000;0.616088
8006.000000;0.616096
8005.000000;0.616189
8004.000000;0.616326
8003.000000;0.616390
8002.000000;0.616292
8001.000000;0.616045
8000.000000;0.615762
7999.000000;0.615576
7998.000000;0.615522
7997.000000;0.615521
7996.000000;0.615479
7995.000000;0.615395
7994.000000;0.615343
7993.000000;0.615367
7992.000000;0.615431
7991.000000;0.615449
7990.000000;0.615346
7989.000000;0.615115
7988.000000;0.614849
7987.000000;0.614690
7986.000000;0.614695
7985.000000;0.614799
7984.000000;0.614916
7983.000000;0.615020
7982.000000;0.615095
7981.000000;0.615068
7980.000000;0.614895
7979.000000;0.614659
7978.000000;0.614500
7977.000000;0.614451
7976.000000;0.614439
7975.000000;0.614412
7974.000000;0.614387
7973.000000;0.614360
7972.000000;0.614288
7971.000000;0.614162
7970.000000;0.614020
7969.000000;0.613885
7968.000000;0.613756
7967.000000;0.613664
7966.000000;0.613659
7965.000000;0.613713
7964.000000;0.613720
7963.000000;0.613624
7962.000000;0.613488
7961.000000;0.613394
7960.000000;0.613343
7959.000000;0.613281
7958.000000;0.613182
7957.000000;0.613059
7956.000000;0.612936
7955.000000;0.612846
7954.000000;0.612828
7953.000000;0.612889
7952.000000;0.612976
7951.000000;0.613017
7950.000000;0.612968
7949.000000;0.612836
7948.000000;0.612664
7947.000000;0.612514
7946.000000;0.612420
7945.000000;0.612368
7944.000000;0.612334
7943.000000;0.612335
7942.000000;0.612392
7941.000000;0.612456
7940.000000;0.612418
7939.000000;0.612227
7938.000000;0.611954
7937.000000;0.611725
7936.000000;0.611610
7935.000000;0.611588
7934.000000;0.611596
7933.000000;0.611582
7932.000000;0.611535
7931.000000;0.611468
7930.000000;0.611386
7929.000000;0.611279
7928.000000;0.611154
7927.000000;0.611057
7926.000000;0.611030
7925.000000;0.611064
7924.000000;0.611123
7923.000000;0.611188
7922.000000;0.611249
7921.000000;0.611266
7920.000000;0.611195
7919.000000;0.611043
7918.000000;0.610867
7917.000000;0.610708
7916.000000;0.610569
7915.000000;0.610455
7914.000000;0.610388
7913.000000;0.610373
7912.000000;0.610372
7911.000000;0.610349
7910.000000;0.610301
7909.000000;0.610254
7908.000000;0.610227
7907.000000;0.610215
7906.000000;0.610190
7905.000000;0.610124
7904.000000;0.610021
7903.000000;0.609906
7902.000000;0.609787
7901.000000;0.609651
7900.000000;0.609520
7899.000000;0.609465
7898.000000;0.609526
7897.000000;0.609633
7896.000000;0.609671
7895.000000;0.609608
7894.000000;0.609497
7893.000000;0.609378
7892.000000;0.609223
7891.000000;0.609015
7890.000000;0.608797
7889.000000;0.608640
7888.000000;0.608570
7887.000000;0.608579
7886.000000;0.608637
7885.000000;0.608689
7884.000000;0.608676
7883.000000;0.608587
7882.000000;0.608476
7881.000000;0.608396
7880.000000;0.608343
7879.000000;0.608287
7878.000000;0.608228
7877.000000;0.608187
7876.000000;0.608160
7875.000000;0.608118
7874.000000;0.608053
7873.000000;0.607984
7872.000000;0.607927
7871.000000;0.607873
7870.000000;0.607822
7869.000000;0.607791
7868.000000;0.607790
7867.000000;0.607786
7866.000000;0.607734
7865.000000;0.607638
7864.000000;0.607555
7863.000000;0.607536
7862.000000;0.607567
7861.000000;0.607575
7860.000000;0.607494
7859.000000;0.607308
7858.000000;0.607070
7857.000000;0.606882
7856.000000;0.606828
7855.000000;0.606899
7854.000000;0.606985
7853.000000;0.606980
7852.000000;0.606884
7851.000000;0.606775
7850.000000;0.606697
7849.000000;0.606622
7848.000000;0.606521
7847.000000;0.606417
7846.000000;0.606349
7845.000000;0.606328
7844.000000;0.606353
7843.000000;0.606422
7842.000000;0.606493
7841.000000;0.606485
7840.000000;0.606369
7839.000000;0.606216
7838.000000;0.606126
7837.000000;0.606108
7836.000000;0.606082
7835.000000;0.605986
7834.000000;0.605831
7833.000000;0.605678
7832.000000;0.605564
7831.000000;0.605482
7830.000000;0.605406
7829.000000;0.605321
7828.000000;0.605242
7827.000000;0.605186
7826.000000;0.605143
7825.000000;0.605094
7824.000000;0.605055
7823.000000;0.605064
7822.000000;0.605113
7821.000000;0.605140
7820.000000;0.605098
7819.000000;0.605002
7818.000000;0.604891
7817.000000;0.604789
7816.000000;0.604716
7815.000000;0.604701
7814.000000;0.604730
7813.000000;0.604734
7812.000000;0.604660
7811.000000;0.604540
7810.000000;0.604447
7809.000000;0.604398
7808.000000;0.604350
7807.000000;0.604275
7806.000000;0.604195
7805.000000;0.604133
7804.000000;0.604086
7803.000000;0.604030
7802.000000;0.603943
7801.000000;0.603825
7800.000000;0.603709
7799.000000;0.603648
7798.000000;0.603663
7797.000000;0.603716
7796.000000;0.603741
7795.000000;0.603704
7794.000000;0.603617
7793.000000;0.603522
7792.000000;0.603463
7791.000000;0.603454
7790.000000;0.603463
7789.000000;0.603450
7788.000000;0.603420
7787.000000;0.603410
7786.000000;0.603412
7785.000000;0.603375
7784.000000;0.603278
7783.000000;0.603167
7782.000000;0.603072
7781.000000;0.602966
7780.000000;0.602833
7779.000000;0.602723
7778.000000;0.602684
7777.000000;0.602679
7776.000000;0.602629
7775.000000;0.602525
7774.000000;0.602427
7773.000000;0.602382
7772.000000;0.602386
7771.000000;0.602415
7770.000000;0.602447
7769.000000;0.602456
7768.000000;0.602430
7767.000000;0.602385
7766.000000;0.602317
7765.000000;0.602187
7764.000000;0.601976
7763.000000;0.601742
7762.000000;0.601562
7761.000000;0.601445
7760.000000;0.601346
7759.000000;0.601255
7758.000000;0.601204
7757.000000;0.601198
7756.000000;0.601199
7755.000000;0.601176
7754.000000;0.601123
7753.000000;0.601042
7752.000000;0.600951
7751.000000;0.600894
7750.000000;0.600893
7749.000000;0.600887
7748.000000;0.600799
7747.000000;0.600647
7746.000000;0.600544
7745.000000;0.600546
7744.000000;0.600575
7743.000000;0.600524
7742.000000;0.600386
7741.000000;0.600260
7740.000000;0.600234
7739.000000;0.600297
7738.000000;0.600360
7737.000000;0.600335
7736.000000;0.600221
7735.000000;0.600094
7734.000000;0.600001
7733.000000;0.599907
7732.000000;0.599753
7731.000000;0.599573
7730.000000;0.599463
7729.000000;0.599463
7728.000000;0.599513
7727.000000;0.599540
7726.000000;0.599535
7725.000000;0.599509
7724.000000;0.599452
7723.000000;0.599360
7722.000000;0.599275
7721.000000;0.599238
7720.000000;0.599227
7719.000000;0.599183
7718.000000;0.599091
7717.000000;0.598989
7716.000000;0.598907
7715.000000;0.598841
7714.000000;0.598782
7713.000000;0.598746
7712.000000;0.598748
7711.000000;0.598761
7710.000000;0.598732
7709.000000;0.598638
7708.000000;0.598509
7707.000000;0.598402
7706.000000;0.598353
7705.000000;0.598357
7704.000000;0.598369
7703.000000;0.598335
7702.000000;0.598227
7701.000000;0.598076
7700.000000;0.597954
7699.000000;0.597907
7698.000000;0.597916
7697.000000;0.597923
7696.000000;0.597898
7695.000000;0.597849
7694.000000;0.597790
7693.000000;0.597724
7692.000000;0.597664
7691.000000;0.597635
7690.000000;0.597627
7689.000000;0.597590
7688.000000;0.597496
7687.000000;0.597373
7686.000000;0.597264
7685.000000;0.597171
7684.000000;0.597077
7683.000000;0.597001
7682.000000;0.596978
7681.000000;0.596995
7680.000000;0.596992
7679.000000;0.596932
7678.000000;0.596841
7677.000000;0.596777
7676.000000;0.596761
7675.000000;0.596755
7674.000000;0.596702
7673.000000;0.596576
7672.000000;0.596408
7671.000000;0.596253
7670.000000;0.596141
7669.000000;0.596062
7668.000000;0.596006
7667.000000;0.595987
7666.000000;0.596013
7665.000000;0.596055
7664.000000;0.596054
7663.000000;0.595970
7662.000000;0.595806
7661.000000;0.595603
7660.000000;0.595432
7659.000000;0.595363
7658.000000;0.595418
7657.000000;0.595551
7656.000000;0.595674
7655.000000;0.595720
7654.000000;0.595665
7653.000000;0.595512
7652.000000;0.595288
7651.000000;0.595051
7650.000000;0.594876
7649.000000;0.594808
7648.000000;0.594830
7647.000000;0.594868
7646.000000;0.594864
7645.000000;0.594822
7644.000000;0.594795
7643.000000;0.594802
7642.000000;0.594799
7641.000000;0.594743
7640.000000;0.594661
7639.000000;0.594607
7638.000000;0.594574
7637.000000;0.594500
7636.000000;0.594347
7635.000000;0.594156
7634.000000;0.593991
7633.000000;0.593892
7632.000000;0.593863
7631.000000;0.593875
7630.000000;0.593860
7629.000000;0.593774
7628.000000;0.593671
7627.000000;0.593650
7626.000000;0.593728
7625.000000;0.593810
7624.000000;0.593817
7623.000000;0.593784
7622.000000;0.593769
7621.000000;0.593755
7620.000000;0.593691
7619.000000;0.593591
7618.000000;0.593507
7617.000000;0.593442
7616.000000;0.593366
7615.000000;0.593288
7614.000000;0.593249
7613.000000;0.593237
7612.000000;0.593185
7611.000000;0.593060
7610.000000;0.592903
7609.000000;0.592774
7608.000000;0.592700
7607.000000;0.592672
7606.000000;0.592673
7605.000000;0.592680
7604.000000;0.592691
7603.000000;0.592726
7602.000000;0.592786
7601.000000;0.592821
7600.000000;0.592773
7599.000000;0.592654
7598.000000;0.592541
7597.000000;0.592485
7596.000000;0.592472
7595.000000;0.592463
7594.000000;0.592425
7593.000000;0.592333
7592.000000;0.592188
7591.000000;0.592029
7590.000000;0.591900
7589.000000;0.591804
7588.000000;0.591719
7587.000000;0.591672
7586.000000;0.591722
7585.000000;0.591867
7584.000000;0.592007
7583.000000;0.592036
7582.000000;0.591954
7581.000000;0.591840
7580.000000;0.591755
7579.000000;0.591697
7578.000000;0.591640
7577.000000;0.591577
7576.000000;0.591527
7575.000000;0.591513
7574.000000;0.591552
7573.000000;0.591630
7572.000000;0.591708
7571.000000;0.591737
7570.000000;0.591691
7569.000000;0.591590
7568.000000;0.591488
7567.000000;0.591433
7566.000000;0.591431
7565.000000;0.591440
7564.000000;0.591423
7563.000000;0.591385
7562.000000;0.591354
7561.000000;0.591329
7560.000000;0.591287
7559.000000;0.591225
7558.000000;0.591179
7557.000000;0.591177
7556.000000;0.591192
7555.000000;0.591175
7554.000000;0.591107
7553.000000;0.591013
7552.000000;0.590917
7551.000000;0.590819
7550.000000;0.590714
7549.000000;0.590617
7548.000000;0.590544
7547.000000;0.590497
7546.000000;0.590474
7545.000000;0.590483
7544.000000;0.590531
7543.000000;0.590585
7542.000000;0.590596
7541.000000;0.590548
7540.000000;0.590475
7539.000000;0.590407
7538.000000;0.590333
7537.000000;0.590238
7536.000000;0.590145
7535.000000;0.590097
7534.000000;0.590109
7533.000000;0.590168
7532.000000;0.590252
7531.000000;0.590324
7530.000000;0.590328
7529.000000;0.590245
7528.000000;0.590142
7527.000000;0.590102
7526.000000;0.590128
7525.000000;0.590147
7524.000000;0.590116
7523.000000;0.590060
7522.000000;0.590006
7521.000000;0.589942
7520.000000;0.589869
7519.000000;0.589824
7518.000000;0.589828
7517.000000;0.589836
7516.000000;0.589806
7515.000000;0.589767
7514.000000;0.589777
7513.000000;0.589834
7512.000000;0.589873
7511.000000;0.589834
7510.000000;0.589722
7509.000000;0.589602
7508.000000;0.589542
7507.000000;0.589556
7506.000000;0.589594
7505.000000;0.589590
7504.000000;0.589542
7503.000000;0.589515
7502.000000;0.589557
7501.000000;0.589638
7500.000000;0.589692
7499.000000;0.589681
7498.000000;0.589615
7497.000000;0.589529
7496.000000;0.589464
7495.000000;0.589439
7494.000000;0.589435
7493.000000;0.589413
7492.000000;0.589359
7491.000000;0.589292
7490.000000;0.589223
7489.000000;0.589142
7488.000000;0.589052
7487.000000;0.588987
7486.000000;0.588963
7485.000000;0.588967
7484.000000;0.588999
7483.000000;0.589086
7482.000000;0.589213
7481.000000;0.589290
7480.000000;0.589232
7479.000000;0.589060
7478.000000;0.588880
7477.000000;0.588779
7476.000000;0.588778
7475.000000;0.588850
7474.000000;0.588948
7473.000000;0.589026
7472.000000;0.589065
7471.000000;0.589082
7470.000000;0.589096
7469.000000;0.589101
7468.000000;0.589082
7467.000000;0.589045
7466.000000;0.589005
7465.000000;0.588979
7464.000000;0.588981
7463.000000;0.589021
7462.000000;0.589077
7461.000000;0.589108
7460.000000;0.589103
7459.000000;0.589086
7458.000000;0.589068
7457.000000;0.589040
7456.000000;0.589024
7455.000000;0.589069
7454.000000;0.589163
7453.000000;0.589218
7452.000000;0.589175
7451.000000;0.589082
7450.000000;0.589014
7449.000000;0.588978
7448.000000;0.588955
7447.000000;0.588982
7446.000000;0.589102
7445.000000;0.589254
7444.000000;0.589312
7443.000000;0.589243
7442.000000;0.589148
7441.000000;0.589133
7440.000000;0.589197
7439.000000;0.589284
7438.000000;0.589362
7437.000000;0.589435
7436.000000;0.589500
7435.000000;0.589539
7434.000000;0.589538
7433.000000;0.589496
7432.000000;0.589419
7431.000000;0.589322
7430.000000;0.589222
7429.000000;0.589135
7428.000000;0.589084
7427.000000;0.589099
7426.000000;0.589184
7425.000000;0.589288
7424.000000;0.589340
7423.000000;0.589314
7422.000000;0.589256
7421.000000;0.589236
7420.000000;0.589292
7419.000000;0.589401
7418.000000;0.589485
7417.000000;0.589468
7416.000000;0.589344
7415.000000;0.589192
7414.000000;0.589107
7413.000000;0.589125
7412.000000;0.589221
7411.000000;0.589342
7410.000000;0.589434
7409.000000;0.589447
7408.000000;0.589373
7407.000000;0.589258
7406.000000;0.589163
7405.000000;0.589120
7404.000000;0.589141
7403.000000;0.589234
7402.000000;0.589367
7401.000000;0.589470
7400.000000;0.589504
7399.000000;0.589520
7398.000000;0.589604
7397.000000;0.589758
7396.000000;0.589896
7395.000000;0.589952
7394.000000;0.589945
7393.000000;0.589935
7392.000000;0.589948
7391.000000;0.589978
7390.000000;0.590006
7389.000000;0.590017
7388.000000;0.590003
7387.000000;0.589993
7386.000000;0.590048
7385.000000;0.590198
7384.000000;0.590395
7383.000000;0.590551
7382.000000;0.590620
7381.000000;0.590634
7380.000000;0.590631
7379.000000;0.590590
7378.000000;0.590465
7377.000000;0.590268
7376.000000;0.590100
7375.000000;0.590058
7374.000000;0.590141
7373.000000;0.590269
7372.000000;0.590378
7371.000000;0.590458
7370.000000;0.590506
7369.000000;0.590507
7368.000000;0.590480
7367.000000;0.590484
7366.000000;0.590564
7365.000000;0.590688
7364.000000;0.590760
7363.000000;0.590719
7362.000000;0.590612
7361.000000;0.590567
7360.000000;0.590676
7359.000000;0.590882
7358.000000;0.591020
7357.000000;0.590987
7356.000000;0.590866
7355.000000;0.590850
7354.000000;0.591034
7353.000000;0.591316
7352.000000;0.591518
7351.000000;0.591558
7350.000000;0.591491
7349.000000;0.591425
7348.000000;0.591420
7347.000000;0.591453
7346.000000;0.591472
7345.000000;0.591473
7344.000000;0.591508
7343.000000;0.591608
7342.000000;0.591717
7341.000000;0.591759
7340.000000;0.591743
7339.000000;0.591757
7338.000000;0.591840
7337.000000;0.591934
7336.000000;0.591966
7335.000000;0.591942
7334.000000;0.591941
7333.000000;0.592025
7332.000000;0.592173
7331.000000;0.592285
7330.000000;0.592274
7329.000000;0.592168
7328.000000;0.592120
7327.000000;0.592247
7326.000000;0.592490
7325.000000;0.592678
7324.000000;0.592742
7323.000000;0.592773
7322.000000;0.592865
7321.000000;0.592996
7320.000000;0.593089
7319.000000;0.593139
7318.000000;0.593219
7317.000000;0.593387
7316.000000;0.593611
7315.000000;0.593784
7314.000000;0.593813
7313.000000;0.593728
7312.000000;0.593688
7311.000000;0.593836
7310.000000;0.594118
7309.000000;0.594334
7308.000000;0.594384
7307.000000;0.594385
7306.000000;0.594508
7305.000000;0.594766
7304.000000;0.595038
7303.000000;0.595222
7302.000000;0.595298
7301.000000;0.595294
7300.000000;0.595283
7299.000000;0.595366
7298.000000;0.595574
7297.000000;0.595804
7296.000000;0.595932
7295.000000;0.595972
7294.000000;0.596055
7293.000000;0.596251
7292.000000;0.596486
7291.000000;0.596647
7290.000000;0.596704
7289.000000;0.596721
7288.000000;0.596796
7287.000000;0.596991
7286.000000;0.597290
7285.000000;0.597606
7284.000000;0.597867
7283.000000;0.598073
7282.000000;0.598258
7281.000000;0.598433
7280.000000;0.598575
7279.000000;0.598676
7278.000000;0.598745
7277.000000;0.598787
7276.000000;0.598824
7275.000000;0.598916
7274.000000;0.599126
7273.000000;0.599446
7272.000000;0.599810
7271.000000;0.600145
7270.000000;0.600398
7269.000000;0.600549
7268.000000;0.600636
7267.000000;0.600753
7266.000000;0.600962
7265.000000;0.601217
7264.000000;0.601445
7263.000000;0.601651
7262.000000;0.601905
7261.000000;0.602221
7260.000000;0.602540
7259.000000;0.602831
7258.000000;0.603130
7257.000000;0.603455
7256.000000;0.603753
7255.000000;0.603955
7254.000000;0.604058
7253.000000;0.604131
7252.000000;0.604258
7251.000000;0.604484
7250.000000;0.604802
7249.000000;0.605178
7248.000000;0.605600
7247.000000;0.606061
7246.000000;0.606504
7245.000000;0.606827
7244.000000;0.607002
7243.000000;0.607170
7242.000000;0.607516
7241.000000;0.608048
7240.000000;0.608592
7239.000000;0.609015
7238.000000;0.609365
7237.000000;0.609737
7236.000000;0.610106
7235.000000;0.610343
7234.000000;0.610395
7233.000000;0.610389
7232.000000;0.610553
7231.000000;0.611019
7230.000000;0.611701
7229.000000;0.612385
7228.000000;0.612920
7227.000000;0.613330
7226.000000;0.613737
7225.000000;0.614212
7224.000000;0.614711
7223.000000;0.615153
7222.000000;0.615510
7221.000000;0.615809
7220.000000;0.616078
7219.000000;0.616329
7218.000000;0.616568
7217.000000;0.616824
7216.000000;0.617151
7215.000000;0.617592
7214.000000;0.618136
7213.000000;0.618691
7212.000000;0.619161
7211.000000;0.619539
7210.000000;0.619911
7209.000000;0.620353
7208.000000;0.620843
7207.000000;0.621303
7206.000000;0.621695
7205.000000;0.622068
7204.000000;0.622516
7203.000000;0.623090
7202.000000;0.623737
7201.000000;0.624334
7200.000000;0.624802
7199.000000;0.625180
7198.000000;0.625578
7197.000000;0.626060
7196.000000;0.626580
7195.000000;0.627055
7194.000000;0.627470
7193.000000;0.627897
7192.000000;0.628424
7191.000000;0.629059
7190.000000;0.629709
7189.000000;0.630259
7188.000000;0.630684
7187.000000;0.631073
7186.000000;0.631530
7185.000000;0.632055
7184.000000;0.632551
7183.000000;0.632956
7182.000000;0.633345
7181.000000;0.633884
7180.000000;0.634663
7179.000000;0.635565
7178.000000;0.636345
7177.000000;0.636842
7176.000000;0.637133
7175.000000;0.637449
7174.000000;0.637956
7173.000000;0.638622
7172.000000;0.639315
7171.000000;0.639957
7170.000000;0.640563
7169.000000;0.641209
7168.000000;0.641980
7167.000000;0.642881
7166.000000;0.643767
7165.000000;0.644435
7164.000000;0.644871
7163.000000;0.645309
7162.000000;0.645991
7161.000000;0.646900
7160.000000;0.647818
7159.000000;0.648582
7158.000000;0.649182
7157.000000;0.649653
7156.000000;0.650037
7155.000000;0.650447
7154.000000;0.651024
7153.000000;0.651772
7152.000000;0.652532
7151.000000;0.653154
7150.000000;0.653643
7149.000000;0.654106
7148.000000;0.654626
7147.000000;0.655227
7146.000000;0.655910
7145.000000;0.656659
7144.000000;0.657441
7143.000000;0.658203
7142.000000;0.658887
7141.000000;0.659446
7140.000000;0.659888
7139.000000;0.660281
7138.000000;0.660685
7137.000000;0.661100
7136.000000;0.661519
7135.000000;0.661963
7134.000000;0.662434
7133.000000;0.662882
7132.000000;0.663280
7131.000000;0.663694
7130.000000;0.664187
7129.000000;0.664730
7128.000000;0.665259
7127.000000;0.665785
7126.000000;0.666337
7125.000000;0.666832
7124.000000;0.667142
7123.000000;0.667272
7122.000000;0.667362
7121.000000;0.667507
7120.000000;0.667693
7119.000000;0.667921
7118.000000;0.668250
7117.000000;0.668639
7116.000000;0.668860
7115.000000;0.668715
7114.000000;0.668306
7113.000000;0.667968
7112.000000;0.667971
7111.000000;0.668330
7110.000000;0.668856
7109.000000;0.669283
7108.000000;0.669351
7107.000000;0.668914
7106.000000;0.668096
7105.000000;0.667296
7104.000000;0.666940
7103.000000;0.667154
7102.000000;0.667713
7101.000000;0.668240
7100.000000;0.668412
7099.000000;0.668064
7098.000000;0.667280
7097.000000;0.666384
7096.000000;0.665711
7095.000000;0.665306
7094.000000;0.664948
7093.000000;0.664504
7092.000000;0.664059
7091.000000;0.663625
7090.000000;0.662939
7089.000000;0.661757
7088.000000;0.660226
7087.000000;0.658793
7086.000000;0.657852
7085.000000;0.657616
7084.000000;0.658107
7083.000000;0.658966
7082.000000;0.659382
7081.000000;0.658643
7080.000000;0.656835
7079.000000;0.654766
7078.000000;0.653155
7077.000000;0.652112
7076.000000;0.651370
7075.000000;0.650669
7074.000000;0.649823
7073.000000;0.648695
7072.000000;0.647294
7071.000000;0.645795
7070.000000;0.644346
7069.000000;0.642947
7068.000000;0.641553
7067.000000;0.640163
7066.000000;0.638780
7065.000000;0.637427
7064.000000;0.636155
7063.000000;0.634889
7062.000000;0.633399
7061.000000;0.631670
7060.000000;0.630178
7059.000000;0.629414
7058.000000;0.629150
7057.000000;0.628502
7056.000000;0.626798
7055.000000;0.624102
7054.000000;0.620891
7053.000000;0.617642
7052.000000;0.614786
7051.000000;0.612660
7050.000000;0.611223
7049.000000;0.610059
7048.000000;0.608801
7047.000000;0.607408
7046.000000;0.605955
7045.000000;0.604411
7044.000000;0.602676
7043.000000;0.600622
7042.000000;0.598084
7041.000000;0.595152
7040.000000;0.592426
7039.000000;0.590531
7038.000000;0.589282
7037.000000;0.587759
7036.000000;0.585380
7035.000000;0.582534
7034.000000;0.579962
7033.000000;0.577961
7032.000000;0.576396
7031.000000;0.575043
7030.000000;0.573581
7029.000000;0.571611
7028.000000;0.569055
7027.000000;0.566305
7026.000000;0.563722
7025.000000;0.561250
7024.000000;0.558693
7023.000000;0.556072
7022.000000;0.553489
7021.000000;0.550972
7020.000000;0.548667
7019.000000;0.546777
7018.000000;0.545089
7017.000000;0.542970
7016.000000;0.540158
7015.000000;0.537145
7014.000000;0.534475
7013.000000;0.532118
7012.000000;0.529867
7011.000000;0.527847
7010.000000;0.526068
7009.000000;0.523928
7008.000000;0.520830
7007.000000;0.517102
7006.000000;0.513699
7005.000000;0.511104
7004.000000;0.508970
7003.000000;0.506688
7002.000000;0.503914
7001.000000;0.500680
7000.000000;0.497416
6999.000000;0.494785
6998.000000;0.493090
6997.000000;0.491882
6996.000000;0.490418
6995.000000;0.488344
6994.000000;0.485635
6993.000000;0.482289
6992.000000;0.478538
6991.000000;0.475039
6990.000000;0.472352
6989.000000;0.470407
6988.000000;0.468860
6987.000000;0.467566
6986.000000;0.466175
6985.000000;0.463774
6984.000000;0.459770
6983.000000;0.454926
6982.000000;0.450678
6981.000000;0.447566
6980.000000;0.445032
6979.000000;0.442617
6978.000000;0.440477
6977.000000;0.438654
6976.000000;0.436745
6975.000000;0.434587
6974.000000;0.432517
6973.000000;0.430641
6972.000000;0.428403
6971.000000;0.425257
6970.000000;0.421357
6969.000000;0.417267
6968.000000;0.413390
6967.000000;0.409924
6966.000000;0.407020
6965.000000;0.404743
6964.000000;0.403071
6963.000000;0.401969
6962.000000;0.401194
6961.000000;0.400082
6960.000000;0.398007
6959.000000;0.395087
6958.000000;0.392018
6957.000000;0.389194
6956.000000;0.386460
6955.000000;0.383718
6954.000000;0.381165
6953.000000;0.378769
6952.000000;0.376088
6951.000000;0.372921
6950.000000;0.369733
6949.000000;0.367136
6948.000000;0.365206
6947.000000;0.363508
6946.000000;0.361565
6945.000000;0.359173
6944.000000;0.356514
6943.000000;0.354051
6942.000000;0.352055
6941.000000;0.350233
6940.000000;0.348052
6939.000000;0.345400
6938.000000;0.342594
6937.000000;0.339872
6936.000000;0.337289
6935.000000;0.334981
6934.000000;0.333000
6933.000000;0.330981
6932.000000;0.328552
6931.000000;0.326080
6930.000000;0.324375
6929.000000;0.323491
6928.000000;0.322403
6927.000000;0.320103
6926.000000;0.316559
6925.000000;0.312490
6924.000000;0.308739
6923.000000;0.306030
6922.000000;0.304770
6921.000000;0.304638
6920.000000;0.304669
6919.000000;0.304025
6918.000000;0.302528
6917.000000;0.300517
6916.000000;0.298574
6915.000000;0.297287
6914.000000;0.296738
6913.000000;0.296101
6912.000000;0.294272
6911.000000;0.291071
6910.000000;0.287419
6909.000000;0.284267
6908.000000;0.281837
6907.000000;0.279946
6906.000000;0.278468
6905.000000;0.277235
6904.000000;0.276031
6903.000000;0.274955
6902.000000;0.274389
6901.000000;0.274360
6900.000000;0.274303
6899.000000;0.273578
6898.000000;0.271816
6897.000000;0.268797
6896.000000;0.264648
6895.000000;0.260381
6894.000000;0.257573
6893.000000;0.256992
6892.000000;0.257840
6891.000000;0.258616
6890.000000;0.258404
6889.000000;0.257211
6888.000000;0.255585
6887.000000;0.254264
6886.000000;0.253792
6885.000000;0.254019
6884.000000;0.254116
6883.000000;0.253259
6882.000000;0.251161
6881.000000;0.248038
6880.000000;0.244543
6879.000000;0.241765
6878.000000;0.240692
6877.000000;0.241349
6876.000000;0.242750
6875.000000;0.243861
6874.000000;0.244307
6873.000000;0.244155
6872.000000;0.243548
6871.000000;0.242704
6870.000000;0.241772
6869.000000;0.240521
6868.000000;0.238620
6867.000000;0.236360
6866.000000;0.234577
6865.000000;0.233656
6864.000000;0.233164
6863.000000;0.232714
6862.000000;0.232583
6861.000000;0.233113
6860.000000;0.233940
6859.000000;0.234180
6858.000000;0.233142
6857.000000;0.230798
6856.000000;0.227938
6855.000000;0.225869
6854.000000;0.225449
6853.000000;0.226182
6852.000000;0.226653
6851.000000;0.226019
6850.000000;0.224675
6849.000000;0.223487
6848.000000;0.223015
6847.000000;0.223560
6846.000000;0.225137
6845.000000;0.226971
6844.000000;0.227711
6843.000000;0.226763
6842.000000;0.225034
6841.000000;0.223933
6840.000000;0.223961
6839.000000;0.224560
6838.000000;0.224923
6837.000000;0.224541
6836.000000;0.223382
6835.000000;0.222010
6834.000000;0.221253
6833.000000;0.221428
6832.000000;0.222106
6831.000000;0.222781
6830.000000;0.223365
6829.000000;0.223843
6828.000000;0.224009
6827.000000;0.223888
6826.000000;0.223880
6825.000000;0.224018
6824.000000;0.223609
6823.000000;0.222150
6822.000000;0.220265
6821.000000;0.219193
6820.000000;0.219594
6819.000000;0.221239
6818.000000;0.223524
6817.000000;0.225823
6816.000000;0.227588
6815.000000;0.228643
6814.000000;0.229299
6813.000000;0.229868
6812.000000;0.230197
6811.000000;0.230015
6810.000000;0.229548
6809.000000;0.229398
6808.000000;0.229861
6807.000000;0.230622
6806.000000;0.231093
6805.000000;0.230869
6804.000000;0.230051
6803.000000;0.229262
6802.000000;0.229138
6801.000000;0.229639
6800.000000;0.230154
6799.000000;0.230455
6798.000000;0.231106
6797.000000;0.232558
6796.000000;0.234263
6795.000000;0.235261
6794.000000;0.235432
6793.000000;0.235564
6792.000000;0.236305
6791.000000;0.237579
6790.000000;0.239018
6789.000000;0.240412
6788.000000;0.241526
6787.000000;0.241962
6786.000000;0.241572
6785.000000;0.240795
6784.000000;0.240318
6783.000000;0.240462
6782.000000;0.241024
6781.000000;0.241625
6780.000000;0.242058
6779.000000;0.242327
6778.000000;0.242545
6777.000000;0.242874
6776.000000;0.243487
6775.000000;0.244425
6774.000000;0.245458
6773.000000;0.246181
6772.000000;0.246384
6771.000000;0.246288
6770.000000;0.246321
6769.000000;0.246708
6768.000000;0.247400
6767.000000;0.248331
6766.000000;0.249499
6765.000000;0.250763
6764.000000;0.251828
6763.000000;0.252585
6762.000000;0.253299
6761.000000;0.254303
6760.000000;0.255594
6759.000000;0.256884
6758.000000;0.257908
6757.000000;0.258557
6756.000000;0.258817
6755.000000;0.258793
6754.000000;0.258798
6753.000000;0.259221
6752.000000;0.260197
6751.000000;0.261444
6750.000000;0.262477
6749.000000;0.263015
6748.000000;0.263193
6747.000000;0.263429
6746.000000;0.264022
6745.000000;0.264898
6744.000000;0.265749
6743.000000;0.266407
6742.000000;0.266999
6741.000000;0.267704
6740.000000;0.268475
6739.000000;0.269090
6738.000000;0.269465
6737.000000;0.269821
6736.000000;0.270479
6735.000000;0.271490
6734.000000;0.272517
6733.000000;0.273139
6732.000000;0.273293
6731.000000;0.273352
6730.000000;0.273757
6729.000000;0.274631
6728.000000;0.275763
6727.000000;0.276879
6726.000000;0.277833
6725.000000;0.278626
6724.000000;0.279353
6723.000000;0.280099
6722.000000;0.280824
6721.000000;0.281394
6720.000000;0.281784
6719.000000;0.282160
6718.000000;0.282689
6717.000000;0.283353
6716.000000;0.284048
6715.000000;0.284790
6714.000000;0.285656
6713.000000;0.286590
6712.000000;0.287410
6711.000000;0.287992
6710.000000;0.288337
6709.000000;0.288521
6708.000000;0.288720
6707.000000;0.289201
6706.000000;0.290116
6705.000000;0.291255
6704.000000;0.292254
6703.000000;0.292953
6702.000000;0.293487
6701.000000;0.294043
6700.000000;0.294619
6699.000000;0.295132
6698.000000;0.295561
6697.000000;0.295948
6696.000000;0.296340
6695.000000;0.296802
6694.000000;0.297383
6693.000000;0.298067
6692.000000;0.298805
6691.000000;0.299603
6690.000000;0.300478
6689.000000;0.301341
6688.000000;0.302069
6687.000000;0.302691
6686.000000;0.303351
6685.000000;0.304061
6684.000000;0.304655
6683.000000;0.305035
6682.000000;0.305346
6681.000000;0.305827
6680.000000;0.306580
6679.000000;0.307545
6678.000000;0.308590
6677.000000;0.309558
6676.000000;0.310319
6675.000000;0.310883
6674.000000;0.311396
6673.000000;0.311969
6672.000000;0.312546
6671.000000;0.313012
6670.000000;0.313371
6669.000000;0.313739
6668.000000;0.314213
6667.000000;0.314814
6666.000000;0.315520
6665.000000;0.316271
6664.000000;0.316963
6663.000000;0.317504
6662.000000;0.317907
6661.000000;0.318297
6660.000000;0.318808
6659.000000;0.319463
6658.000000;0.320148
6657.000000;0.320710
6656.000000;0.321098
6655.000000;0.321423
6654.000000;0.321878
6653.000000;0.322576
6652.000000;0.323461
6651.000000;0.324343
6650.000000;0.325038
6649.000000;0.325522
6648.000000;0.325958
6647.000000;0.326536
6646.000000;0.327241
6645.000000;0.327863
6644.000000;0.328265
6643.000000;0.328594
6642.000000;0.329113
6641.000000;0.329871
6640.000000;0.330649
6639.000000;0.331231
6638.000000;0.331631
6637.000000;0.332010
6636.000000;0.332458
6635.000000;0.332936
6634.000000;0.333393
6633.000000;0.333838
6632.000000;0.334297
6631.000000;0.334752
6630.000000;0.335163
6629.000000;0.335554
6628.000000;0.336020
6627.000000;0.336631
6626.000000;0.337341
6625.000000;0.338034
6624.000000;0.338651
6623.000000;0.339216
6622.000000;0.339760
6621.000000;0.340282
6620.000000;0.340812
6619.000000;0.341413
6618.000000;0.342073
6617.000000;0.342665
6616.000000;0.343089
6615.000000;0.343413
6614.000000;0.343785
6613.000000;0.344251
6612.000000;0.344738
6611.000000;0.345191
6610.000000;0.345645
6609.000000;0.346158
6608.000000;0.346731
6607.000000;0.347309
6606.000000;0.347828
6605.000000;0.348255
6604.000000;0.348631
6603.000000;0.349056
6602.000000;0.349608
6601.000000;0.350273
6600.000000;0.350968
6599.000000;0.351615
6598.000000;0.352179
6597.000000;0.352655
6596.000000;0.353071
6595.000000;0.353473
6594.000000;0.353886
6593.000000;0.354299
6592.000000;0.354709
6591.000000;0.355138
6590.000000;0.355571
6589.000000;0.355952
6588.000000;0.356261
6587.000000;0.356568
6586.000000;0.356943
6585.000000;0.357368
6584.000000;0.357791
6583.000000;0.358224
6582.000000;0.358720
6581.000000;0.359305
6580.000000;0.359967
6579.000000;0.360687
6578.000000;0.361404
6577.000000;0.361998
6576.000000;0.362402
6575.000000;0.362703
6574.000000;0.363057
6573.000000;0.363507
6572.000000;0.363959
6571.000000;0.364318
6570.000000;0.364595
6569.000000;0.364874
6568.000000;0.365252
6567.000000;0.365779
6566.000000;0.366402
6565.000000;0.366964
6564.000000;0.367350
6563.000000;0.367618
6562.000000;0.367932
6561.000000;0.368374
6560.000000;0.368886
6559.000000;0.369380
6558.000000;0.369831
6557.000000;0.370250
6556.000000;0.370651
6555.000000;0.371067
6554.000000;0.371537
6553.000000;0.372054
6552.000000;0.372574
6551.000000;0.373085
6550.000000;0.373614
6549.000000;0.374166
6548.000000;0.374704
6547.000000;0.375195
6546.000000;0.375632
6545.000000;0.376004
6544.000000;0.376301
6543.000000;0.376563
6542.000000;0.376862
6541.000000;0.377227
6540.000000;0.377628
6539.000000;0.378042
6538.000000;0.378481
6537.000000;0.378943
6536.000000;0.379389
6535.000000;0.379788
6534.000000;0.380150
6533.000000;0.380484
6532.000000;0.380781
6531.000000;0.381047
6530.000000;0.381325
6529.000000;0.381659
6528.000000;0.382059
6527.000000;0.382511
6526.000000;0.383001
6525.000000;0.383493
6524.000000;0.383941
6523.000000;0.384312
6522.000000;0.384607
6521.000000;0.384858
6520.000000;0.385126
6519.000000;0.385479
6518.000000;0.385931
6517.000000;0.386402
6516.000000;0.386788
6515.000000;0.387087
6514.000000;0.387399
6513.000000;0.387797
6512.000000;0.388234
6511.000000;0.388602
6510.000000;0.388872
6509.000000;0.389125
6508.000000;0.389467
6507.000000;0.389912
6506.000000;0.390382
6505.000000;0.390804
6504.000000;0.391207
6503.000000;0.391664
6502.000000;0.392166
6501.000000;0.392591
6500.000000;0.392859
6499.000000;0.393047
6498.000000;0.393298
6497.000000;0.393646
6496.000000;0.394009
6495.000000;0.394327
6494.000000;0.394635
6493.000000;0.394990
6492.000000;0.395400
6491.000000;0.395841
6490.000000;0.396274
6489.000000;0.396650
6488.000000;0.396952
6487.000000;0.397244
6486.000000;0.397609
6485.000000;0.398041
6484.000000;0.398434
6483.000000;0.398717
6482.000000;0.398926
6481.000000;0.399125
6480.000000;0.399327
6479.000000;0.399527
6478.000000;0.399761
6477.000000;0.400071
6476.000000;0.400438
6475.000000;0.400811
6474.000000;0.401170
6473.000000;0.401542
6472.000000;0.401952
6471.000000;0.402408
6470.000000;0.402885
6469.000000;0.403328
6468.000000;0.403675
6467.000000;0.403917
6466.000000;0.404108
6465.000000;0.404308
6464.000000;0.404526
6463.000000;0.404763
6462.000000;0.405047
6461.000000;0.405411
6460.000000;0.405835
6459.000000;0.406252
6458.000000;0.406616
6457.000000;0.406924
6456.000000;0.407185
6455.000000;0.407400
6454.000000;0.407580
6453.000000;0.407752
6452.000000;0.407947
6451.000000;0.408186
6450.000000;0.408471
6449.000000;0.408780
6448.000000;0.409080
6447.000000;0.409360
6446.000000;0.409642
6445.000000;0.409953
6444.000000;0.410281
6443.000000;0.410587
6442.000000;0.410855
6441.000000;0.411104
6440.000000;0.411361
6439.000000;0.411623
6438.000000;0.411870
6437.000000;0.412094
6436.000000;0.412308
6435.000000;0.412526
6434.000000;0.412742
6433.000000;0.412942
6432.000000;0.413134
6431.000000;0.413360
6430.000000;0.413657
6429.000000;0.414012
6428.000000;0.414364
6427.000000;0.414658
6426.000000;0.414880
6425.000000;0.415049
6424.000000;0.415191
6423.000000;0.415327
6422.000000;0.415483
6421.000000;0.415682
6420.000000;0.415928
6419.000000;0.416196
6418.000000;0.416447
6417.000000;0.416661
6416.000000;0.416840
6415.000000;0.417017
6414.000000;0.417239
6413.000000;0.417534
6412.000000;0.417878
6411.000000;0.418200
6410.000000;0.418439
6409.000000;0.418613
6408.000000;0.418809
6407.000000;0.419085
6406.000000;0.419394
6405.000000;0.419634
6404.000000;0.419770
6403.000000;0.419875
6402.000000;0.420051
6401.000000;0.420326
6400.000000;0.420638
6399.000000;0.420918
6398.000000;0.421139
6397.000000;0.421330
6396.000000;0.421541
6395.000000;0.421788
6394.000000;0.422029
6393.000000;0.422192
6392.000000;0.422254
6391.000000;0.422280
6390.000000;0.422369
6389.000000;0.422558
6388.000000;0.422815
6387.000000;0.423092
6386.000000;0.423367
6385.000000;0.423629
6384.000000;0.423868
6383.000000;0.424087
6382.000000;0.424296
6381.000000;0.424499
6380.000000;0.424691
6379.000000;0.424884
6378.000000;0.425101
6377.000000;0.425337
6376.000000;0.425547
6375.000000;0.425690
6374.000000;0.425778
6373.000000;0.425861
6372.000000;0.425981
6371.000000;0.426147
6370.000000;0.426352
6369.000000;0.426602
6368.000000;0.426894
6367.000000;0.427186
6366.000000;0.427410
6365.000000;0.427525
6364.000000;0.427559
6363.000000;0.427584
6362.000000;0.427646
6361.000000;0.427734
6360.000000;0.427815
6359.000000;0.427894
6358.000000;0.428004
6357.000000;0.428160
6356.000000;0.428343
6355.000000;0.428522
6354.000000;0.428702
6353.000000;0.428909
6352.000000;0.429154
6351.000000;0.429398
6350.000000;0.429578
6349.000000;0.429660
6348.000000;0.429681
6347.000000;0.429723
6346.000000;0.429838
6345.000000;0.430000
6344.000000;0.430146
6343.000000;0.430246
6342.000000;0.430327
6341.000000;0.430425
6340.000000;0.430557
6339.000000;0.430721
6338.000000;0.430911
6337.000000;0.431109
6336.000000;0.431280
6335.000000;0.431397
6334.000000;0.431464
6333.000000;0.431517
6332.000000;0.431587
6331.000000;0.431684
6330.000000;0.431801
6329.000000;0.431923
6328.000000;0.432046
6327.000000;0.432174
6326.000000;0.432316
6325.000000;0.432475
6324.000000;0.432641
6323.000000;0.432797
6322.000000;0.432939
6321.000000;0.433066
6320.000000;0.433167
6319.000000;0.433230
6318.000000;0.433271
6317.000000;0.433336
6316.000000;0.433459
6315.000000;0.433617
6314.000000;0.433751
6313.000000;0.433832
6312.000000;0.433876
6311.000000;0.433917
6310.000000;0.433970
6309.000000;0.434030
6308.000000;0.434097
6307.000000;0.434184
6306.000000;0.434300
6305.000000;0.434450
6304.000000;0.434623
6303.000000;0.434798
6302.000000;0.434955
6301.000000;0.435089
6300.000000;0.435209
6299.000000;0.435303
6298.000000;0.435340
6297.000000;0.435318
6296.000000;0.435284
6295.000000;0.435299
6294.000000;0.435382
6293.000000;0.435507
6292.000000;0.435632
6291.000000;0.435719
6290.000000;0.435764
6289.000000;0.435811
6288.000000;0.435928
6287.000000;0.436121
6286.000000;0.436319
6285.000000;0.436454
6284.000000;0.436534
6283.000000;0.436606
6282.000000;0.436661
6281.000000;0.436666
6280.000000;0.436649
6279.000000;0.436682
6278.000000;0.436787
6277.000000;0.436902
6276.000000;0.436986
6275.000000;0.437058
6274.000000;0.437136
6273.000000;0.437184
6272.000000;0.437180
6271.000000;0.437176
6270.000000;0.437233
6269.000000;0.437339
6268.000000;0.437431
6267.000000;0.437488
6266.000000;0.437542
6265.000000;0.437612
6264.000000;0.437681
6263.000000;0.437746
6262.000000;0.437835
6261.000000;0.437952
6260.000000;0.438056
6259.000000;0.438097
6258.000000;0.438075
6257.000000;0.438037
6256.000000;0.438039
6255.000000;0.438095
6254.000000;0.438182
6253.000000;0.438264
6252.000000;0.438320
6251.000000;0.438356
6250.000000;0.438381
6249.000000;0.438405
6248.000000;0.438430
6247.000000;0.438462
6246.000000;0.438503
6245.000000;0.438549
6244.000000;0.438593
6243.000000;0.438624
6242.000000;0.438635
6241.000000;0.438644
6240.000000;0.438694
6239.000000;0.438801
6238.000000;0.438926
6237.000000;0.439010
6236.000000;0.439051
6235.000000;0.439092
6234.000000;0.439152
6233.000000;0.439200
6232.000000;0.439208
6231.000000;0.439194
6230.000000;0.439179
6229.000000;0.439159
6228.000000;0.439131
6227.000000;0.439134
6226.000000;0.439205
6225.000000;0.439320
6224.000000;0.439410
6223.000000;0.439426
6222.000000;0.439384
6221.000000;0.439338
6220.000000;0.439335
6219.000000;0.439385
6218.000000;0.439453
6217.000000;0.439499
6216.000000;0.439520
6215.000000;0.439550
6214.000000;0.439606
6213.000000;0.439662
6212.000000;0.439691
6211.000000;0.439694
6210.000000;0.439684
6209.000000;0.439671
6208.000000;0.439684
6207.000000;0.439756
6206.000000;0.439873
6205.000000;0.439964
6204.000000;0.439972
6203.000000;0.439923
6202.000000;0.439880
6201.000000;0.439866
6200.000000;0.439860
6199.000000;0.439863
6198.000000;0.439897
6197.000000;0.439958
6196.000000;0.440009
6195.000000;0.440026
6194.000000;0.440019
6193.000000;0.440002
6192.000000;0.439971
6191.000000;0.439925
6190.000000;0.439883
6189.000000;0.439855
6188.000000;0.439841
6187.000000;0.439840
6186.000000;0.439861
6185.000000;0.439906
6184.000000;0.439962
6183.000000;0.440012
6182.000000;0.440047
6181.000000;0.440067
6180.000000;0.440082
6179.000000;0.440094
6178.000000;0.440088
6177.000000;0.440034
6176.000000;0.439933
6175.000000;0.439827
6174.000000;0.439765
6173.000000;0.439758
6172.000000;0.439791
6171.000000;0.439849
6170.000000;0.439911
6169.000000;0.439943
6168.000000;0.439927
6167.000000;0.439898
6166.000000;0.439902
6165.000000;0.439944
6164.000000;0.439983
6163.000000;0.439987
6162.000000;0.439953
6161.000000;0.439893
6160.000000;0.439825
6159.000000;0.439794
6158.000000;0.439843
6157.000000;0.439957
6156.000000;0.440065
6155.000000;0.440115
6154.000000;0.440118
6153.000000;0.440114
6152.000000;0.440118
6151.000000;0.440117
6150.000000;0.440111
6149.000000;0.440117
6148.000000;0.440144
6147.000000;0.440179
6146.000000;0.440197
6145.000000;0.440185
6144.000000;0.440154
6143.000000;0.440133
6142.000000;0.440134
6141.000000;0.440145
6140.000000;0.440148
6139.000000;0.440149
6138.000000;0.440162
6137.000000;0.440175
6136.000000;0.440149
6135.000000;0.440069
6134.000000;0.439971
6133.000000;0.439917
6132.000000;0.439933
6131.000000;0.440003
6130.000000;0.440088
6129.000000;0.440158
6128.000000;0.440203
6127.000000;0.440218
6126.000000;0.440197
6125.000000;0.440147
6124.000000;0.440100
6123.000000;0.440088
6122.000000;0.440109
6121.000000;0.440128
6120.000000;0.440123
6119.000000;0.440113
6118.000000;0.440118
6117.000000;0.440120
6116.000000;0.440090
6115.000000;0.440040
6114.000000;0.440011
6113.000000;0.440016
6112.000000;0.440020
6111.000000;0.439999
6110.000000;0.439981
6109.000000;0.440006
6108.000000;0.440071
6107.000000;0.440128
6106.000000;0.440144
6105.000000;0.440134
6104.000000;0.440133
6103.000000;0.440151
6102.000000;0.440160
6101.000000;0.440131
6100.000000;0.440070
6099.000000;0.440015
6098.000000;0.439992
6097.000000;0.439997
6096.000000;0.440011
6095.000000;0.440027
6094.000000;0.440050
6093.000000;0.440083
6092.000000;0.440123
6091.000000;0.440162
6090.000000;0.440193
6089.000000;0.440218
6088.000000;0.440257
6087.000000;0.440326
6086.000000;0.440413
6085.000000;0.440464
6084.000000;0.440430
6083.000000;0.440319
6082.000000;0.440187
6081.000000;0.440087
6080.000000;0.440036
6079.000000;0.440030
6078.000000;0.440052
6077.000000;0.440080
6076.000000;0.440084
6075.000000;0.440051
6074.000000;0.440006
6073.000000;0.440001
6072.000000;0.440069
6071.000000;0.440185
6070.000000;0.440274
6069.000000;0.440276
6068.000000;0.440199
6067.000000;0.440105
6066.000000;0.440051
6065.000000;0.440038
6064.000000;0.440040
6063.000000;0.440036
6062.000000;0.440030
6061.000000;0.440036
6060.000000;0.440075
6059.000000;0.440151
6058.000000;0.440238
6057.000000;0.440290
6056.000000;0.440280
6055.000000;0.440224
6054.000000;0.440148
6053.000000;0.440067
6052.000000;0.439994
6051.000000;0.439967
6050.000000;0.440012
6049.000000;0.440114
6048.000000;0.440221
6047.000000;0.440301
6046.000000;0.440357
6045.000000;0.440399
6044.000000;0.440434
6043.000000;0.440474
6042.000000;0.440525
6041.000000;0.440572
6040.000000;0.440586
6039.000000;0.440560
6038.000000;0.440519
6037.000000;0.440488
6036.000000;0.440464
6035.000000;0.440439
6034.000000;0.440419
6033.000000;0.440421
6032.000000;0.440442
6031.000000;0.440456
6030.000000;0.440432
6029.000000;0.440367
6028.000000;0.440292
6027.000000;0.440254
6026.000000;0.440269
6025.000000;0.440318
6024.000000;0.440367
6023.000000;0.440398
6022.000000;0.440408
6021.000000;0.440399
6020.000000;0.440377
6019.000000;0.440367
6018.000000;0.440393
6017.000000;0.440452
6016.000000;0.440526
6015.000000;0.440598
6014.000000;0.440659
6013.000000;0.440699
6012.000000;0.440708
6011.000000;0.440687
6010.000000;0.440648
6009.000000;0.440614
6008.000000;0.440603
6007.000000;0.440627
6006.000000;0.440676
6005.000000;0.440709
6004.000000;0.440692
6003.000000;0.440633
6002.000000;0.440578
6001.000000;0.440563
6000.000000;0.440593
5999.000000;0.440653
5998.000000;0.440723
5997.000000;0.440783
5996.000000;0.440813
5995.000000;0.440807
5994.000000;0.440774
5993.000000;0.440730
5992.000000;0.440690
5991.000000;0.440671
5990.000000;0.440679
5989.000000;0.440699
5988.000000;0.440707
5987.000000;0.440688
5986.000000;0.440646
5985.000000;0.440591
5984.000000;0.440543
5983.000000;0.440528
5982.000000;0.440560
5981.000000;0.440629
5980.000000;0.440703
5979.000000;0.440761
5978.000000;0.440800
5977.000000;0.440827
5976.000000;0.440847
5975.000000;0.440866
5974.000000;0.440899
5973.000000;0.440950
5972.000000;0.441011
5971.000000;0.441066
5970.000000;0.441097
5969.000000;0.441096
5968.000000;0.441071
5967.000000;0.441045
5966.000000;0.441040
5965.000000;0.441053
5964.000000;0.441076
5963.000000;0.441110
5962.000000;0.441168
5961.000000;0.441240
5960.000000;0.441299
5959.000000;0.441332
5958.000000;0.441354
5957.000000;0.441376
5956.000000;0.441373
5955.000000;0.441322
5954.000000;0.441243
5953.000000;0.441195
5952.000000;0.441209
5951.000000;0.441261
5950.000000;0.441299
5949.000000;0.441306
5948.000000;0.441307
5947.000000;0.441329
5946.000000;0.441371
5945.000000;0.441431
5944.000000;0.441520
5943.000000;0.441650
5942.000000;0.441797
5941.000000;0.441917
5940.000000;0.441983
5939.000000;0.442012
5938.000000;0.442032
5937.000000;0.442057
5936.000000;0.442078
5935.000000;0.442077
5934.000000;0.442036
5933.000000;0.441961
5932.000000;0.441892
5931.000000;0.441878
5930.000000;0.441934
5929.000000;0.442029
5928.000000;0.442122
5927.000000;0.442202
5926.000000;0.442274
5925.000000;0.442331
5924.000000;0.442362
5923.000000;0.442374
5922.000000;0.442381
5921.000000;0.442391
5920.000000;0.442404
5919.000000;0.442422
5918.000000;0.442445
5917.000000;0.442461
5916.000000;0.442450
5915.000000;0.442412
5914.000000;0.442362
5913.000000;0.442314
5912.000000;0.442274
5911.000000;0.442239
5910.000000;0.442199
5909.000000;0.442139
5908.000000;0.442073
5907.000000;0.442041
5906.000000;0.442080
5905.000000;0.442179
5904.000000;0.442299
5903.000000;0.442407
5902.000000;0.442491
5901.000000;0.442543
5900.000000;0.442547
5899.000000;0.442502
5898.000000;0.442429
5897.000000;0.442358
5896.000000;0.442322
5895.000000;0.442335
5894.000000;0.442374
5893.000000;0.442394
5892.000000;0.442379
5891.000000;0.442361
5890.000000;0.442373
5889.000000;0.442405
5888.000000;0.442423
5887.000000;0.442422
5886.000000;0.442424
5885.000000;0.442426
5884.000000;0.442400
5883.000000;0.442344
5882.000000;0.442295
5881.000000;0.442282
5880.000000;0.442303
5879.000000;0.442336
5878.000000;0.442376
5877.000000;0.442429
5876.000000;0.442503
5875.000000;0.442599
5874.000000;0.442712
5873.000000;0.442822
5872.000000;0.442905
5871.000000;0.442955
5870.000000;0.442971
5869.000000;0.442943
5868.000000;0.442862
5867.000000;0.442759
5866.000000;0.442697
5865.000000;0.442714
5864.000000;0.442787
5863.000000;0.442867
5862.000000;0.442932
5861.000000;0.442996
5860.000000;0.443072
5859.000000;0.443159
5858.000000;0.443247
5857.000000;0.443319
5856.000000;0.443355
5855.000000;0.443339
5854.000000;0.443283
5853.000000;0.443217
5852.000000;0.443183
5851.000000;0.443200
5850.000000;0.443258
5849.000000;0.443317
5848.000000;0.443349
5847.000000;0.443372
5846.000000;0.443421
5845.000000;0.443506
5844.000000;0.443596
5843.000000;0.443660
5842.000000;0.443696
5841.000000;0.443707
5840.000000;0.443683
5839.000000;0.443626
5838.000000;0.443568
5837.000000;0.443546
5836.000000;0.443565
5835.000000;0.443608
5834.000000;0.443662
5833.000000;0.443726
5832.000000;0.443800
5831.000000;0.443866
5830.000000;0.443910
5829.000000;0.443923
5828.000000;0.443907
5827.000000;0.443876
5826.000000;0.443860
5825.000000;0.443881
5824.000000;0.443925
5823.000000;0.443957
5822.000000;0.443959
5821.000000;0.443954
5820.000000;0.443971
5819.000000;0.444009
5818.000000;0.444045
5817.000000;0.444062
5816.000000;0.444070
5815.000000;0.444087
5814.000000;0.444124
5813.000000;0.444185
5812.000000;0.444278
5811.000000;0.444391
5810.000000;0.444487
5809.000000;0.444525
5808.000000;0.444494
5807.000000;0.444428
5806.000000;0.444368
5805.000000;0.444344
5804.000000;0.444367
5803.000000;0.444418
5802.000000;0.444459
5801.000000;0.444457
5800.000000;0.444430
5799.000000;0.444436
5798.000000;0.444506
5797.000000;0.444608
5796.000000;0.444684
5795.000000;0.444708
5794.000000;0.444704
5793.000000;0.444702
5792.000000;0.444717
5791.000000;0.444755
5790.000000;0.444811
5789.000000;0.444872
5788.000000;0.444926
5787.000000;0.444975
5786.000000;0.445020
5785.000000;0.445046
5784.000000;0.445035
5783.000000;0.444995
5782.000000;0.444957
5781.000000;0.444943
5780.000000;0.444956
5779.000000;0.444983
5778.000000;0.445005
5777.000000;0.444992
5776.000000;0.444926
5775.000000;0.444836
5774.000000;0.444780
5773.000000;0.444790
5772.000000;0.444836
5771.000000;0.444868
5770.000000;0.444875
5769.000000;0.444880
5768.000000;0.444906
5767.000000;0.444951
5766.000000;0.445007
5765.000000;0.445069
5764.000000;0.445123
5763.000000;0.445152
5762.000000;0.445155
5761.000000;0.445157
5760.000000;0.445182
5759.000000;0.445217
5758.000000;0.445215
5757.000000;0.445141
5756.000000;0.445024
5755.000000;0.444941
5754.000000;0.444948
5753.000000;0.445032
5752.000000;0.445130
5751.000000;0.445189
5750.000000;0.445203
5749.000000;0.445198
5748.000000;0.445191
5747.000000;0.445175
5746.000000;0.445137
5745.000000;0.445077
5744.000000;0.445018
5743.000000;0.444982
5742.000000;0.444963
5741.000000;0.444932
5740.000000;0.444872
5739.000000;0.444796
5738.000000;0.444741
5737.000000;0.444727
5736.000000;0.444747
5735.000000;0.444773
5734.000000;0.444785
5733.000000;0.444774
5732.000000;0.444759
5731.000000;0.444762
5730.000000;0.444790
5729.000000;0.444826
5728.000000;0.444852
5727.000000;0.444864
5726.000000;0.444874
5725.000000;0.444883
5724.000000;0.444882
5723.000000;0.444870
5722.000000;0.444859
5721.000000;0.444860
5720.000000;0.444861
5719.000000;0.444844
5718.000000;0.444794
5717.000000;0.444726
5716.000000;0.444666
5715.000000;0.444627
5714.000000;0.444588
5713.000000;0.444522
5712.000000;0.444434
5711.000000;0.444353
5710.000000;0.444299
5709.000000;0.444264
5708.000000;0.444235
5707.000000;0.444224
5706.000000;0.444235
5705.000000;0.444253
5704.000000;0.444267
5703.000000;0.444297
5702.000000;0.444358
5701.000000;0.444415
5700.000000;0.444422
5699.000000;0.444384
5698.000000;0.444358
5697.000000;0.444389
5696.000000;0.444452
5695.000000;0.444491
5694.000000;0.444481
5693.000000;0.444444
5692.000000;0.444415
5691.000000;0.444413
5690.000000;0.444441
5689.000000;0.444488
5688.000000;0.444542
5687.000000;0.444591
5686.000000;0.444618
5685.000000;0.444605
5684.000000;0.444562
5683.000000;0.444535
5682.000000;0.444563
5681.000000;0.444627
5680.000000;0.444663
5679.000000;0.444638
5678.000000;0.444581
5677.000000;0.444534
5676.000000;0.444501
5675.000000;0.444463
5674.000000;0.444422
5673.000000;0.444409
5672.000000;0.444440
5671.000000;0.444486
5670.000000;0.444507
5669.000000;0.444496
5668.000000;0.444504
5667.000000;0.444581
5666.000000;0.444722
5665.000000;0.444852
5664.000000;0.444904
5663.000000;0.444885
5662.000000;0.444876
5661.000000;0.444936
5660.000000;0.445054
5659.000000;0.445163
5658.000000;0.445215
5657.000000;0.445213
5656.000000;0.445198
5655.000000;0.445206
5654.000000;0.445246
5653.000000;0.445293
5652.000000;0.445324
5651.000000;0.445338
5650.000000;0.445352
5649.000000;0.445382
5648.000000;0.445432
5647.000000;0.445499
5646.000000;0.445578
5645.000000;0.445657
5644.000000;0.445722
5643.000000;0.445779
5642.000000;0.445855
5641.000000;0.445980
5640.000000;0.446154
5639.000000;0.446346
5638.000000;0.446516
5637.000000;0.446637
5636.000000;0.446704
5635.000000;0.446729
5634.000000;0.446728
5633.000000;0.446721
5632.000000;0.446738
5631.000000;0.446805
5630.000000;0.446925
5629.000000;0.447064
5628.000000;0.447183
5627.000000;0.447272
5626.000000;0.447355
5625.000000;0.447463
5624.000000;0.447615
5623.000000;0.447811
5622.000000;0.448032
5621.000000;0.448249
5620.000000;0.448435
5619.000000;0.448585
5618.000000;0.448713
5617.000000;0.448835
5616.000000;0.448964
5615.000000;0.449095
5614.000000;0.449197
5613.000000;0.449228
5612.000000;0.449194
5611.000000;0.449163
5610.000000;0.449208
5609.000000;0.449337
5608.000000;0.449503
5607.000000;0.449663
5606.000000;0.449816
5605.000000;0.449970
5604.000000;0.450130
5603.000000;0.450311
5602.000000;0.450529
5601.000000;0.450764
5600.000000;0.450955
5599.000000;0.451068
5598.000000;0.451131
5597.000000;0.451201
5596.000000;0.451303
5595.000000;0.451430
5594.000000;0.451577
5593.000000;0.451743
5592.000000;0.451912
5591.000000;0.452070
5590.000000;0.452229
5589.000000;0.452412
5588.000000;0.452613
5587.000000;0.452797
5586.000000;0.452943
5585.000000;0.453069
5584.000000;0.453196
5583.000000;0.453320
5582.000000;0.453432
5581.000000;0.453548
5580.000000;0.453694
5579.000000;0.453864
5578.000000;0.454023
5577.000000;0.454153
5576.000000;0.454284
5575.000000;0.454458
5574.000000;0.454676
5573.000000;0.454887
5572.000000;0.455040
5571.000000;0.455138
5570.000000;0.455227
5569.000000;0.455347
5568.000000;0.455498
5567.000000;0.455651
5566.000000;0.455788
5565.000000;0.455920
5564.000000;0.456064
5563.000000;0.456216
5562.000000;0.456349
5561.000000;0.456448
5560.000000;0.456537
5559.000000;0.456659
5558.000000;0.456833
5557.000000;0.457042
5556.000000;0.457250
5555.000000;0.457427
5554.000000;0.457555
5553.000000;0.457621
5552.000000;0.457632
5551.000000;0.457619
5550.000000;0.457623
5549.000000;0.457677
5548.000000;0.457794
5547.000000;0.457975
5546.000000;0.458206
5545.000000;0.458457
5544.000000;0.458690
5543.000000;0.458873
5542.000000;0.458999
5541.000000;0.459077
5540.000000;0.459114
5539.000000;0.459125
5538.000000;0.459141
5537.000000;0.459196
5536.000000;0.459308
5535.000000;0.459448
5534.000000;0.459573
5533.000000;0.459670
5532.000000;0.459765
5531.000000;0.459883
5530.000000;0.460012
5529.000000;0.460121
5528.000000;0.460214
5527.000000;0.460325
5526.000000;0.460470
5525.000000;0.460620
5524.000000;0.460740
5523.000000;0.460832
5522.000000;0.460923
5521.000000;0.461021
5520.000000;0.461107
5519.000000;0.461179
5518.000000;0.461261
5517.000000;0.461374
5516.000000;0.461512
5515.000000;0.461650
5514.000000;0.461779
5513.000000;0.461906
5512.000000;0.462045
5511.000000;0.462191
5510.000000;0.462328
5509.000000;0.462435
5508.000000;0.462499
5507.000000;0.462524
5506.000000;0.462525
5505.000000;0.462525
5504.000000;0.462532
5503.000000;0.462543
5502.000000;0.462567
5501.000000;0.462637
5500.000000;0.462785
5499.000000;0.462999
5498.000000;0.463220
5497.000000;0.463395
5496.000000;0.463521
5495.000000;0.463639
5494.000000;0.463780
5493.000000;0.463938
5492.000000;0.464085
5491.000000;0.464202
5490.000000;0.464284
5489.000000;0.464335
5488.000000;0.464356
5487.000000;0.464347
5486.000000;0.464322
5485.000000;0.464325
5484.000000;0.464410
5483.000000;0.464581
5482.000000;0.464781
5481.000000;0.464961
5480.000000;0.465132
5479.000000;0.465344
5478.000000;0.465612
5477.000000;0.465895
5476.000000;0.466133
5475.000000;0.466281
5474.000000;0.466310
5473.000000;0.466243
5472.000000;0.466163
5471.000000;0.466157
5470.000000;0.466238
5469.000000;0.466354
5468.000000;0.466453
5467.000000;0.466527
5466.000000;0.466587
5465.000000;0.466649
5464.000000;0.466740
5463.000000;0.466886
5462.000000;0.467085
5461.000000;0.467301
5460.000000;0.467487
5459.000000;0.467615
5458.000000;0.467678
5457.000000;0.467700
5456.000000;0.467737
5455.000000;0.467858
5454.000000;0.468064
5453.000000;0.468275
5452.000000;0.468430
5451.000000;0.468572
5450.000000;0.468785
5449.000000;0.469061
5448.000000;0.469283
5447.000000;0.469397
5446.000000;0.469488
5445.000000;0.469665
5444.000000;0.469912
5443.000000;0.470123
5442.000000;0.470239
5441.000000;0.470308
5440.000000;0.470412
5439.000000;0.470585
5438.000000;0.470794
5437.000000;0.470982
5436.000000;0.471110
5435.000000;0.471215
5434.000000;0.471387
5433.000000;0.471651
5432.000000;0.471933
5431.000000;0.472141
5430.000000;0.472269
5429.000000;0.472391
5428.000000;0.472570
5427.000000;0.472791
5426.000000;0.472997
5425.000000;0.473177
5424.000000;0.473382
5423.000000;0.473667
5422.000000;0.474002
5421.000000;0.474283
5420.000000;0.474460
5419.000000;0.474600
5418.000000;0.474791
5417.000000;0.475017
5416.000000;0.475192
5415.000000;0.475315
5414.000000;0.475499
5413.000000;0.475820
5412.000000;0.476217
5411.000000;0.476597
5410.000000;0.476969
5409.000000;0.477399
5408.000000;0.477886
5407.000000;0.478344
5406.000000;0.478706
5405.000000;0.478975
5404.000000;0.479207
5403.000000;0.479483
5402.000000;0.479852
5401.000000;0.480274
5400.000000;0.480651
5399.000000;0.480940
5398.000000;0.481199
5397.000000;0.481510
5396.000000;0.481887
5395.000000;0.482302
5394.000000;0.482755
5393.000000;0.483258
5392.000000;0.483794
5391.000000;0.484331
5390.000000;0.484881
5389.000000;0.485485
5388.000000;0.486148
5387.000000;0.486825
5386.000000;0.487472
5385.000000;0.488053
5384.000000;0.488539
5383.000000;0.488962
5382.000000;0.489432
5381.000000;0.490036
5380.000000;0.490736
5379.000000;0.491425
5378.000000;0.492073
5377.000000;0.492751
5376.000000;0.493511
5375.000000;0.494295
5374.000000;0.495015
5373.000000;0.495671
5372.000000;0.496348
5371.000000;0.497125
5370.000000;0.498007
5369.000000;0.498951
5368.000000;0.499911
5367.000000;0.500876
5366.000000;0.501859
5365.000000;0.502867
5364.000000;0.503888
5363.000000;0.504925
5362.000000;0.505980
5361.000000;0.507013
5360.000000;0.507977
5359.000000;0.508908
5358.000000;0.509920
5357.000000;0.511067
5356.000000;0.512276
5355.000000;0.513474
5354.000000;0.514721
5353.000000;0.516105
5352.000000;0.517542
5351.000000;0.518873
5350.000000;0.520136
5349.000000;0.521542
5348.000000;0.523156
5347.000000;0.524764
5346.000000;0.526134
5345.000000;0.527334
5344.000000;0.528678
5343.000000;0.530349
5342.000000;0.532170
5341.000000;0.533817
5340.000000;0.535154
5339.000000;0.536385
5338.000000;0.537906
5337.000000;0.539905
5336.000000;0.542120
5335.000000;0.544110
5334.000000;0.545708
5333.000000;0.547085
5332.000000;0.548424
5331.000000;0.549661
5330.000000;0.550607
5329.000000;0.551227
5328.000000;0.551743
5327.000000;0.552465
5326.000000;0.553531
5325.000000;0.554772
5324.000000;0.555824
5323.000000;0.556374
5322.000000;0.556340
5321.000000;0.555849
5320.000000;0.555051
5319.000000;0.553982
5318.000000;0.552592
5317.000000;0.550869
5316.000000;0.548873
5315.000000;0.546611
5314.000000;0.543925
5313.000000;0.540626
5312.000000;0.536616
5311.000000;0.531616
5310.000000;0.524768
5309.000000;0.515031
5308.000000;0.502374
5307.000000;0.488162
5306.000000;0.473546
5305.000000;0.457941
5304.000000;0.440211
5303.000000;0.420997
5302.000000;0.402669
5301.000000;0.387509
5300.000000;0.377387
5299.000000;0.374588
5298.000000;0.381749
5297.000000;0.400037
5296.000000;0.426536
5295.000000;0.456242
5294.000000;0.488560
5293.000000;0.526474
5292.000000;0.569240
5291.000000;0.613207
5290.000000;0.657933
5289.000000;0.703336
5288.000000;0.744164
5287.000000;0.775961
5286.000000;0.802924
5285.000000;0.830774
5284.000000;0.856626
5283.000000;0.874811
5282.000000;0.887449
5281.000000;0.899333
5280.000000;0.908517
5279.000000;0.911729
5278.000000;0.912758
5277.000000;0.916500
5276.000000;0.921236
5275.000000;0.924697
5274.000000;0.932205
5273.000000;0.950621
5272.000000;0.977975
5271.000000;1.005350
5270.000000;1.026256
5269.000000;1.037907
5268.000000;1.037802
5267.000000;1.027854
5266.000000;1.017181
5265.000000;1.012964
5264.000000;1.013143
5263.000000;1.013691
5262.000000;1.017057
5261.000000;1.026407
5260.000000;1.036988
5259.000000;1.040650
5258.000000;1.036734
5257.000000;1.031283
5256.000000;1.028063
5255.000000;1.027138
5254.000000;1.027262
5253.000000;1.024864
5252.000000;1.017923
5251.000000;1.011933
5250.000000;1.015653
5249.000000;1.030162
5248.000000;1.045253
5247.000000;1.050364
5246.000000;1.045346
5245.000000;1.034603
5244.000000;1.019130
5243.000000;1.001416
5242.000000;0.988870
5241.000000;0.985823
5240.000000;0.989355
5239.000000;0.995925
5238.000000;1.005196
5237.000000;1.013896
5236.000000;1.014301
5235.000000;1.006106
5234.000000;1.000260
5233.000000;1.004558
5232.000000;1.013850
5231.000000;1.018310
5230.000000;1.016356
5229.000000;1.013614
5228.000000;1.013041
5227.000000;1.013359
5226.000000;1.013771
5225.000000;1.013501
5224.000000;1.010236
5223.000000;1.004718
5222.000000;1.002879
5221.000000;1.008668
5220.000000;1.018320
5219.000000;1.025285
5218.000000;1.027905
5217.000000;1.028471
5216.000000;1.028469
5215.000000;1.028850
5214.000000;1.030704
5213.000000;1.031867
5212.000000;1.027931
5211.000000;1.020019
5210.000000;1.015527
5209.000000;1.018578
5208.000000;1.025087
5207.000000;1.029754
5206.000000;1.032690
5205.000000;1.034986
5204.000000;1.034067
5203.000000;1.028385
5202.000000;1.020988
5201.000000;1.014386
5200.000000;1.007702
5199.000000;1.001724
5198.000000;1.000458
5197.000000;1.004819
5196.000000;1.010497
5195.000000;1.014681
5194.000000;1.020835
5193.000000;1.031419
5192.000000;1.039095
5191.000000;1.034308
5190.000000;1.019812
5189.000000;1.008065
5188.000000;1.007062
5187.000000;1.014608
5186.000000;1.022559
5185.000000;1.023512
5184.000000;1.016264
5183.000000;1.006052
5182.000000;0.998557
5181.000000;0.994050
5180.000000;0.988933
5179.000000;0.982780
5178.000000;0.978383
5177.000000;0.974596
5176.000000;0.967185
5175.000000;0.958090
5174.000000;0.955664
5173.000000;0.964565
5172.000000;0.980385
5171.000000;0.995957
5170.000000;1.008632
5169.000000;1.017056
5168.000000;1.017586
5167.000000;1.010375
5166.000000;1.002849
5165.000000;1.000497
5164.000000;0.999846
5163.000000;0.995747
5162.000000;0.990461
5161.000000;0.989479
5160.000000;0.992792
5159.000000;0.995584
5158.000000;0.995156
5157.000000;0.993123
5156.000000;0.992688
5155.000000;0.996880
5154.000000;1.006071
5153.000000;1.014765
5152.000000;1.015482
5151.000000;1.008549
5150.000000;1.002858
5149.000000;1.004513
5148.000000;1.009503
5147.000000;1.009471
5146.000000;1.001504
5145.000000;0.989552
5144.000000;0.979823
5143.000000;0.977834
5142.000000;0.985432
5141.000000;0.997290
5140.000000;1.004002
5139.000000;1.002710
5138.000000;1.000146
5137.000000;1.002292
5136.000000;1.007270
5135.000000;1.010084
5134.000000;1.009229
5133.000000;1.005288
5132.000000;0.997535
5131.000000;0.987289
5130.000000;0.980409
5129.000000;0.981343
5128.000000;0.988092
5127.000000;0.996097
5126.000000;1.003778
5125.000000;1.011557
5124.000000;1.018549
5123.000000;1.023383
5122.000000;1.026412
5121.000000;1.027814
5120.000000;1.025633
5119.000000;1.019540
5118.000000;1.013552
5117.000000;1.011376
5116.000000;1.011970
5115.000000;1.012504
5114.000000;1.012719
5113.000000;1.013159
5112.000000;1.013214
5111.000000;1.013078
5110.000000;1.013618
5109.000000;1.013953
5108.000000;1.012840
5107.000000;1.012133
5106.000000;1.015210
5105.000000;1.021667
5104.000000;1.026441
5103.000000;1.025993
5102.000000;1.022242
5101.000000;1.018056
5100.000000;1.013302
5099.000000;1.007952
5098.000000;1.004746
5097.000000;1.005870
5096.000000;1.010227
5095.000000;1.015669
5094.000000;1.020674
5093.000000;1.022482
5092.000000;1.017869
5091.000000;1.008102
5090.000000;0.998792
5089.000000;0.993318
5088.000000;0.990776
5087.000000;0.990842
5086.000000;0.995356
5085.000000;1.003677
5084.000000;1.011528
5083.000000;1.016919
5082.000000;1.022527
5081.000000;1.028885
5080.000000;1.030515
5079.000000;1.023944
5078.000000;1.014034
5077.000000;1.007412
5076.000000;1.005486
5075.000000;1.005517
5074.000000;1.003538
5073.000000;0.995136
5072.000000;0.978358
5071.000000;0.958366
5070.000000;0.944836
5069.000000;0.942697
5068.000000;0.947585
5067.000000;0.951586
5066.000000;0.952160
5065.000000;0.953226
5064.000000;0.958825
5063.000000;0.968489
5062.000000;0.978184
5061.000000;0.983549
5060.000000;0.983324
5059.000000;0.980907
5058.000000;0.979893
5057.000000;0.978600
5056.000000;0.972301
5055.000000;0.960491
5054.000000;0.948759
5053.000000;0.943178
5052.000000;0.945748
5051.000000;0.955374
5050.000000;0.969042
5049.000000;0.980927
5048.000000;0.985830
5047.000000;0.984945
5046.000000;0.983535
5045.000000;0.983130
5044.000000;0.979995
5043.000000;0.971619
5042.000000;0.960433
5041.000000;0.949656
5040.000000;0.940139
5039.000000;0.932703
5038.000000;0.928651
5037.000000;0.926688
5036.000000;0.923722
5035.000000;0.919446
5034.000000;0.917161
5033.000000;0.919119
5032.000000;0.923580
5031.000000;0.927782
5030.000000;0.930489
5029.000000;0.929643
5028.000000;0.922019
5027.000000;0.908420
5026.000000;0.894885
5025.000000;0.886279
5024.000000;0.881920
5023.000000;0.878725
5022.000000;0.875795
5021.000000;0.873771
5020.000000;0.871924
5019.000000;0.868499
5018.000000;0.862693
5017.000000;0.854786
5016.000000;0.845981
5015.000000;0.838859
5014.000000;0.835495
5013.000000;0.834686
5012.000000;0.833457
5011.000000;0.831529
5010.000000;0.831504
5009.000000;0.833792
5008.000000;0.835195
5007.000000;0.834358
5006.000000;0.834099
5005.000000;0.836152
5004.000000;0.837947
5003.000000;0.836829
5002.000000;0.834007
5001.000000;0.831337
5000.000000;0.827115
4999.000000;0.819133
4998.000000;0.809250
4997.000000;0.800127
4996.000000;0.791036
4995.000000;0.780405
4994.000000;0.769317
4993.000000;0.760118
4992.000000;0.753277
4991.000000;0.747734
4990.000000;0.743272
4989.000000;0.740377
4988.000000;0.738421
4987.000000;0.735648
4986.000000;0.730724
4985.000000;0.723726
4984.000000;0.716378
4983.000000;0.711336
4982.000000;0.709265
4981.000000;0.706253
4980.000000;0.697254
4979.000000;0.683127
4978.000000;0.670443
4977.000000;0.663461
4976.000000;0.659879
4975.000000;0.655389
4974.000000;0.649390
4973.000000;0.643657
4972.000000;0.637954
4971.000000;0.630379
4970.000000;0.620702
4969.000000;0.610612
4968.000000;0.601458
4967.000000;0.593681
4966.000000;0.587231
4965.000000;0.580877
4964.000000;0.572771
4963.000000;0.563345
4962.000000;0.555838
4961.000000;0.552539
4960.000000;0.551905
4959.000000;0.550755
4958.000000;0.547925
4957.000000;0.543690
4956.000000;0.537041
4955.000000;0.526448
4954.000000;0.512627
4953.000000;0.498341
4952.000000;0.485950
4951.000000;0.476271
4950.000000;0.469117
4949.000000;0.463921
4948.000000;0.460215
4947.000000;0.458168
4946.000000;0.457814
4945.000000;0.457136
4944.000000;0.452289
4943.000000;0.441146
4942.000000;0.425760
4941.000000;0.410175
4940.000000;0.396783
4939.000000;0.385556
4938.000000;0.375259
4937.000000;0.364412
4936.000000;0.352593
4935.000000;0.341860
4934.000000;0.335538
4933.000000;0.334500
4932.000000;0.335310
4931.000000;0.333240
4930.000000;0.327076
4929.000000;0.319408
4928.000000;0.312574
4927.000000;0.306403
4926.000000;0.299277
4925.000000;0.289830
4924.000000;0.278275
4923.000000;0.267074
4922.000000;0.259446
4921.000000;0.256026
4920.000000;0.253639
4919.000000;0.248558
4918.000000;0.240422
4917.000000;0.231651
4916.000000;0.223726
4915.000000;0.215831
4914.000000;0.206785
4913.000000;0.196611
4912.000000;0.186037
4911.000000;0.175765
4910.000000;0.166556
4909.000000;0.158967
4908.000000;0.152633
4907.000000;0.146591
4906.000000;0.140352
4905.000000;0.133772
4904.000000;0.126145
4903.000000;0.116538
4902.000000;0.105016
4901.000000;0.092613
4900.000000;0.080148
4899.000000;0.068152
4898.000000;0.057949
4897.000000;0.051335
4896.000000;0.048386
4895.000000;0.046499
4894.000000;0.042636
4893.000000;0.036171
4892.000000;0.028836
4891.000000;0.022403
4890.000000;0.017352
4889.000000;0.013407
4888.000000;0.010206
4887.000000;0.007173
4886.000000;0.003495
4885.000000;-0.001354
4884.000000;-0.007294
4883.000000;-0.013899
4882.000000;-0.020587
4881.000000;-0.026555
4880.000000;-0.031169
4879.000000;-0.034696
4878.000000;-0.038166
4877.000000;-0.042212
4876.000000;-0.046608
4875.000000;-0.051162
4874.000000;-0.056147
4873.000000;-0.061185
4872.000000;-0.064607
4871.000000;-0.064912
4870.000000;-0.062467
4869.000000;-0.059047
4868.000000;-0.056142
4867.000000;-0.054347
4866.000000;-0.053826
4865.000000;-0.054428
4864.000000;-0.055617
4863.000000;-0.057003
4862.000000;-0.058720
4861.000000;-0.060667
4860.000000;-0.061832
4859.000000;-0.061339
4858.000000;-0.059764
4857.000000;-0.058333
4856.000000;-0.056993
4855.000000;-0.054390
4854.000000;-0.049935
4853.000000;-0.044912
4852.000000;-0.041059
4851.000000;-0.038721
4850.000000;-0.036841
4849.000000;-0.034366
4848.000000;-0.031214
4847.000000;-0.028004
4846.000000;-0.025228
4845.000000;-0.022841
4844.000000;-0.020548
4843.000000;-0.018192
4842.000000;-0.015647
4841.000000;-0.012657
4840.000000;-0.009276
4839.000000;-0.006283
4838.000000;-0.004460
4837.000000;-0.003398
4836.000000;-0.001689
4835.000000;0.001525
4834.000000;0.005764
4833.000000;0.010076
4832.000000;0.014045
4831.000000;0.017589
4830.000000;0.020488
4829.000000;0.022745
4828.000000;0.024994
4827.000000;0.027935
4826.000000;0.031627
4825.000000;0.035749
4824.000000;0.040121
4823.000000;0.044542
4822.000000;0.048576
4821.000000;0.052073
4820.000000;0.055520
4819.000000;0.059314
4818.000000;0.063018
4817.000000;0.065935
4816.000000;0.068109
4815.000000;0.070117
4814.000000;0.072176
4813.000000;0.074189
4812.000000;0.076530
4811.000000;0.079938
4810.000000;0.084435
4809.000000;0.089082
4808.000000;0.093057
4807.000000;0.096499
4806.000000;0.099923
4805.000000;0.103270
4804.000000;0.105978
4803.000000;0.107801
4802.000000;0.109166
4801.000000;0.110755
4800.000000;0.112962
4799.000000;0.115777
4798.000000;0.118950
4797.000000;0.122165
4796.000000;0.125120
4795.000000;0.127628
4794.000000;0.129798
4793.000000;0.132007
4792.000000;0.134530
4791.000000;0.137182
4790.000000;0.139493
4789.000000;0.141270
4788.000000;0.142809
4787.000000;0.144530
4786.000000;0.146621
4785.000000;0.149119
4784.000000;0.152059
4783.000000;0.155329
4782.000000;0.158562
4781.000000;0.161400
4780.000000;0.163767
4779.000000;0.165775
4778.000000;0.167543
4777.000000;0.169267
4776.000000;0.171233
4775.000000;0.173507
4774.000000;0.175788
4773.000000;0.177837
4772.000000;0.179903
4771.000000;0.182394
4770.000000;0.185213
4769.000000;0.187787
4768.000000;0.189768
4767.000000;0.191370
4766.000000;0.192959
4765.000000;0.194607
4764.000000;0.196234
4763.000000;0.197926
4762.000000;0.199891
4761.000000;0.202203
4760.000000;0.204753
4759.000000;0.207355
4758.000000;0.209806
4757.000000;0.211898
4756.000000;0.213568
4755.000000;0.215058
4754.000000;0.216821
4753.000000;0.219179
4752.000000;0.222031
4751.000000;0.224889
4750.000000;0.227234
4749.000000;0.228886
4748.000000;0.230088
4747.000000;0.231272
4746.000000;0.232693
4745.000000;0.234256
4744.000000;0.235653
4743.000000;0.236719
4742.000000;0.237658
4741.000000;0.238853
4740.000000;0.240437
4739.000000;0.242160
4738.000000;0.243795
4737.000000;0.245499
4736.000000;0.247561
4735.000000;0.249883
4734.000000;0.251996
4733.000000;0.253608
4732.000000;0.254855
4731.000000;0.255977
4730.000000;0.257014
4729.000000;0.257954
4728.000000;0.258917
4727.000000;0.260003
4726.000000;0.261144
4725.000000;0.262284
4724.000000;0.263500
4723.000000;0.264795
4722.000000;0.265969
4721.000000;0.266936
4720.000000;0.267965
4719.000000;0.269371
4718.000000;0.271099
4717.000000;0.272849
4716.000000;0.274484
4715.000000;0.276046
4714.000000;0.277484
4713.000000;0.278700
4712.000000;0.279800
4711.000000;0.280981
4710.000000;0.282168
4709.000000;0.283071
4708.000000;0.283649
4707.000000;0.284250
4706.000000;0.285175
4705.000000;0.286327
4704.000000;0.287404
4703.000000;0.288281
4702.000000;0.289102
4701.000000;0.290107
4700.000000;0.291404
4699.000000;0.292812
4698.000000;0.293969
4697.000000;0.294751
4696.000000;0.295531
4695.000000;0.296808
4694.000000;0.298598
4693.000000;0.300433
4692.000000;0.301963
4691.000000;0.303284
4690.000000;0.304530
4689.000000;0.305507
4688.000000;0.305994
4687.000000;0.306212
4686.000000;0.306699
4685.000000;0.307730
4684.000000;0.309072
4683.000000;0.310283
4682.000000;0.311090
4681.000000;0.311510
4680.000000;0.311787
4679.000000;0.312242
4678.000000;0.313065
4677.000000;0.314168
4676.000000;0.315289
4675.000000;0.316282
4674.000000;0.317256
4673.000000;0.318403
4672.000000;0.319709
4671.000000;0.320912
4670.000000;0.321790
4669.000000;0.322441
4668.000000;0.323184
4667.000000;0.324163
4666.000000;0.325156
4665.000000;0.325865
4664.000000;0.326290
4663.000000;0.326675
4662.000000;0.327152
4661.000000;0.327635
4660.000000;0.328057
4659.000000;0.328528
4658.000000;0.329182
4657.000000;0.330005
4656.000000;0.330897
4655.000000;0.331800
4654.000000;0.332693
4653.000000;0.333577
4652.000000;0.334506
4651.000000;0.335537
4650.000000;0.336568
4649.000000;0.337351
4648.000000;0.337751
4647.000000;0.337906
4646.000000;0.338035
4645.000000;0.338207
4644.000000;0.338377
4643.000000;0.338574
4642.000000;0.338906
4641.000000;0.339454
4640.000000;0.340259
4639.000000;0.341361
4638.000000;0.342700
4637.000000;0.344012
4636.000000;0.344983
4635.000000;0.345558
4634.000000;0.345992
4633.000000;0.346585
4632.000000;0.347408
4631.000000;0.348289
4630.000000;0.348988
4629.000000;0.349376
4628.000000;0.349520
4627.000000;0.349639
4626.000000;0.349937
4625.000000;0.350467
4624.000000;0.351196
4623.000000;0.352136
4622.000000;0.353292
4621.000000;0.354491
4620.000000;0.355401
4619.000000;0.355826
4618.000000;0.355895
4617.000000;0.355866
4616.000000;0.355829
4615.000000;0.355702
4614.000000;0.355469
4613.000000;0.355285
4612.000000;0.355314
4611.000000;0.355595
4610.000000;0.356106
4609.000000;0.356837
4608.000000;0.357727
4607.000000;0.358617
4606.000000;0.359379
4605.000000;0.360051
4604.000000;0.360731
4603.000000;0.361370
4602.000000;0.361812
4601.000000;0.362012
4600.000000;0.362108
4599.000000;0.362268
4598.000000;0.362572
4597.000000;0.363031
4596.000000;0.363613
4595.000000;0.364207
4594.000000;0.364699
4593.000000;0.365120
4592.000000;0.365598
4591.000000;0.366110
4590.000000;0.366432
4589.000000;0.366450
4588.000000;0.366360
4587.000000;0.366433
4586.000000;0.366667
4585.000000;0.366824
4584.000000;0.366783
4583.000000;0.366709
4582.000000;0.366872
4581.000000;0.367399
4580.000000;0.368167
4579.000000;0.368867
4578.000000;0.369231
4577.000000;0.369294
4576.000000;0.369386
4575.000000;0.369761
4574.000000;0.370302
4573.000000;0.370706
4572.000000;0.370873
4571.000000;0.370965
4570.000000;0.371132
4569.000000;0.371376
4568.000000;0.371671
4567.000000;0.372041
4566.000000;0.372474
4565.000000;0.372896
4564.000000;0.373257
4563.000000;0.373566
4562.000000;0.373832
4561.000000;0.374083
4560.000000;0.374394
4559.000000;0.374763
4558.000000;0.375017
4557.000000;0.374994
4556.000000;0.374816
4555.000000;0.374787
4554.000000;0.375023
4553.000000;0.375358
4552.000000;0.375636
4551.000000;0.375891
4550.000000;0.376171
4549.000000;0.376393
4548.000000;0.376478
4547.000000;0.376476
4546.000000;0.376459
4545.000000;0.376421
4544.000000;0.376371
4543.000000;0.376412
4542.000000;0.376624
4541.000000;0.376971
4540.000000;0.377359
4539.000000;0.377706
4538.000000;0.377929
4537.000000;0.378004
4536.000000;0.378066
4535.000000;0.378269
4534.000000;0.378524
4533.000000;0.378579
4532.000000;0.378418
4531.000000;0.378360
4530.000000;0.378626
4529.000000;0.379024
4528.000000;0.379260
4527.000000;0.379345
4526.000000;0.379465
4525.000000;0.379601
4524.000000;0.379551
4523.000000;0.379283
4522.000000;0.379023
4521.000000;0.378998
4520.000000;0.379207
4519.000000;0.379471
4518.000000;0.379576
4517.000000;0.379479
4516.000000;0.379431
4515.000000;0.379797
4514.000000;0.380579
4513.000000;0.381269
4512.000000;0.381393
4511.000000;0.381117
4510.000000;0.381047
4509.000000;0.381473
4508.000000;0.382063
4507.000000;0.382334
4506.000000;0.382163
4505.000000;0.381736
4504.000000;0.381251
4503.000000;0.380821
4502.000000;0.380518
4501.000000;0.380340
4500.000000;0.380186
4499.000000;0.380015
4498.000000;0.379988
4497.000000;0.380352
4496.000000;0.381133
4495.000000;0.382007
4494.000000;0.382521
4493.000000;0.382472
4492.000000;0.382099
4491.000000;0.381836
4490.000000;0.381863
4489.000000;0.381950
4488.000000;0.381818
4487.000000;0.381535
4486.000000;0.381439
4485.000000;0.381727
4484.000000;0.382300
4483.000000;0.382984
4482.000000;0.383696
4481.000000;0.384333
4480.000000;0.384673
4479.000000;0.384541
4478.000000;0.384012
4477.000000;0.383327
4476.000000;0.382646
4475.000000;0.381966
4474.000000;0.381276
4473.000000;0.380719
4472.000000;0.380562
4471.000000;0.380959
4470.000000;0.381719
4469.000000;0.382365
4468.000000;0.382526
4467.000000;0.382297
4466.000000;0.382124
4465.000000;0.382311
4464.000000;0.382727
4463.000000;0.383026
4462.000000;0.383035
4461.000000;0.382868
4460.000000;0.382740
4459.000000;0.382802
4458.000000;0.383102
4457.000000;0.383578
4456.000000;0.384057
4455.000000;0.384346
4454.000000;0.384362
4453.000000;0.384171
4452.000000;0.383877
4451.000000;0.383542
4450.000000;0.383200
4449.000000;0.382886
4448.000000;0.382610
4447.000000;0.382344
4446.000000;0.382081
4445.000000;0.381904
4444.000000;0.381930
4443.000000;0.382214
4442.000000;0.382702
4441.000000;0.383273
4440.000000;0.383800
4439.000000;0.384177
4438.000000;0.384355
4437.000000;0.384377
4436.000000;0.384366
4435.000000;0.384424
4434.000000;0.384520
4433.000000;0.384479
4432.000000;0.384099
4431.000000;0.383369
4430.000000;0.382571
4429.000000;0.382096
4428.000000;0.382024
4427.000000;0.381976
4426.000000;0.381539
4425.000000;0.380848
4424.000000;0.380504
4423.000000;0.380840
4422.000000;0.381476
4421.000000;0.381784
4420.000000;0.381609
4419.000000;0.381305
4418.000000;0.381178
4417.000000;0.381206
4416.000000;0.381274
4415.000000;0.381362
4414.000000;0.381411
4413.000000;0.381261
4412.000000;0.380864
4411.000000;0.380371
4410.000000;0.379942
4409.000000;0.379620
4408.000000;0.379473
4407.000000;0.379617
4406.000000;0.379946
4405.000000;0.380071
4404.000000;0.379757
4403.000000;0.379290
4402.000000;0.379124
4401.000000;0.379253
4400.000000;0.379139
4399.000000;0.378315
4398.000000;0.376901
4397.000000;0.375497
4396.000000;0.374641
4395.000000;0.374358
4394.000000;0.374173
4393.000000;0.373595
4392.000000;0.372648
4391.000000;0.371832
4390.000000;0.371466
4389.000000;0.371230
4388.000000;0.370526
4387.000000;0.369238
4386.000000;0.367892
4385.000000;0.367081
4384.000000;0.366944
4383.000000;0.367226
4382.000000;0.367643
4381.000000;0.368026
4380.000000;0.368219
4379.000000;0.368022
4378.000000;0.367278
4377.000000;0.365963
4376.000000;0.364173
4375.000000;0.362051
4374.000000;0.359775
4373.000000;0.357610
4372.000000;0.355862
4371.000000;0.354667
4370.000000;0.353844
4369.000000;0.353064
4368.000000;0.352238
4367.000000;0.351649
4366.000000;0.351683
4365.000000;0.352434
4364.000000;0.353566
4363.000000;0.354449
4362.000000;0.354433
4361.000000;0.353228
4360.000000;0.351179
4359.000000;0.349056
4358.000000;0.347437
4357.000000;0.346270
4356.000000;0.345103
4355.000000;0.343648
4354.000000;0.342040
4353.000000;0.340550
4352.000000;0.339138
4351.000000;0.337413
4350.000000;0.335097
4349.000000;0.332537
4348.000000;0.330546
4347.000000;0.329541
4346.000000;0.328967
4345.000000;0.327893
4344.000000;0.326185
4343.000000;0.324679
4342.000000;0.324112
4341.000000;0.324241
4340.000000;0.324220
4339.000000;0.323533
4338.000000;0.322258
4337.000000;0.320692
4336.000000;0.319096
4335.000000;0.317641
4334.000000;0.316231
4333.000000;0.314425
4332.000000;0.311890
4331.000000;0.308951
4330.000000;0.306409
4329.000000;0.304807
4328.000000;0.304127
4327.000000;0.304165
4326.000000;0.304862
4325.000000;0.306140
4324.000000;0.307622
4323.000000;0.308741
4322.000000;0.309019
4321.000000;0.308160
4320.000000;0.306074
4319.000000;0.302986
4318.000000;0.299516
4317.000000;0.296451
4316.000000;0.294282
4315.000000;0.292922
4314.000000;0.291887
4313.000000;0.290793
4312.000000;0.289700
4311.000000;0.288903
4310.000000;0.288546
4309.000000;0.288643
4308.000000;0.289333
4307.000000;0.290770
4306.000000;0.292660
4305.000000;0.294168
4304.000000;0.294451
4303.000000;0.293187
4302.000000;0.290517
4301.000000;0.286802
4300.000000;0.282698
4299.000000;0.279187
4298.000000;0.277018
4297.000000;0.275984
4296.000000;0.274940
4295.000000;0.272857
4294.000000;0.270084
4293.000000;0.268447
4292.000000;0.269696
4291.000000;0.273554
4290.000000;0.277581
4289.000000;0.279424
4288.000000;0.279024
4287.000000;0.278116
4286.000000;0.277838
4285.000000;0.277717
4284.000000;0.277173
4283.000000;0.276906
4282.000000;0.278140
4281.000000;0.281211
4280.000000;0.285437
4279.000000;0.289841
4278.000000;0.293434
4277.000000;0.295451
4276.000000;0.296216
4275.000000;0.297303
4274.000000;0.299907
4273.000000;0.303559
4272.000000;0.307653
4271.000000;0.313373
4270.000000;0.322128
4269.000000;0.332328
4268.000000;0.339765
4267.000000;0.342252
4266.000000;0.342372
4265.000000;0.344175
4264.000000;0.348757
4263.000000;0.354373
4262.000000;0.359467
4261.000000;0.364057
4260.000000;0.368727
4259.000000;0.373975
4258.000000;0.380549
4257.000000;0.389222
4256.000000;0.400282
4255.000000;0.413825
4254.000000;0.430231
4253.000000;0.449320
4252.000000;0.468659
4251.000000;0.483917
4250.000000;0.492157
4249.000000;0.494317
4248.000000;0.493990
4247.000000;0.494466
4246.000000;0.497244
4245.000000;0.502090
4244.000000;0.507486
4243.000000;0.511738
4242.000000;0.514878
4241.000000;0.519538
4240.000000;0.528911
4239.000000;0.543669
4238.000000;0.561352
4237.000000;0.578862
4236.000000;0.595101
4235.000000;0.610133
4234.000000;0.623003
4233.000000;0.632297
4232.000000;0.638551
4231.000000;0.644812
4230.000000;0.653990
4229.000000;0.666462
4228.000000;0.680545
4227.000000;0.694651
4226.000000;0.708912
4225.000000;0.724452
4224.000000;0.741424
4223.000000;0.758193
4222.000000;0.772207
4221.000000;0.780216
4220.000000;0.779781
4219.000000;0.773069
4218.000000;0.766147
4217.000000;0.763830
4216.000000;0.766238
4215.000000;0.770357
4214.000000;0.774819
4213.000000;0.783474
4212.000000;0.803085
4211.000000;0.835618
4210.000000;0.872641
4209.000000;0.899879
4208.000000;0.911779
4207.000000;0.917217
4206.000000;0.927680
4205.000000;0.945006
4204.000000;0.960987
4203.000000;0.969184
4202.000000;0.973501
4201.000000;0.981013
4200.000000;0.992574
4199.000000;1.004580
4198.000000;1.015684
4197.000000;1.028246
4196.000000;1.045461
4195.000000;1.069512
4194.000000;1.099269
4193.000000;1.125884
4192.000000;1.134358
4191.000000;1.118376
4190.000000;1.089610
4189.000000;1.064343
4188.000000;1.048853
4187.000000;1.040140
4186.000000;1.034637
4185.000000;1.034273
4184.000000;1.044841
4183.000000;1.069091
4182.000000;1.103323
4181.000000;1.140373
4180.000000;1.175502
4179.000000;1.209182
4178.000000;1.243592
4177.000000;1.277318
4176.000000;1.300929
4175.000000;1.299824
4174.000000;1.271122
4173.000000;1.233055
4172.000000;1.207169
4171.000000;1.199594
4170.000000;1.199608
4169.000000;1.194056
4168.000000;1.184603
4167.000000;1.182064
4166.000000;1.191028
4165.000000;1.206729
4164.000000;1.221669
4163.000000;1.232894
4162.000000;1.242772
4161.000000;1.253462
4160.000000;1.262626
4159.000000;1.266564
4158.000000;1.265683
4157.000000;1.266499
4156.000000;1.277959
4155.000000;1.302556
4154.000000;1.333817
4153.000000;1.366757
4152.000000;1.408155
4151.000000;1.466066
4150.000000;1.532036
4149.000000;1.578661
4148.000000;1.573709
4147.000000;1.517272
4146.000000;1.448747
4145.000000;1.400605
4144.000000;1.377269
4143.000000;1.366524
4142.000000;1.357028
4141.000000;1.349073
4140.000000;1.349969
4139.000000;1.362714
4138.000000;1.384448
4137.000000;1.412425
4136.000000;1.445702
4135.000000;1.481921
4134.000000;1.518132
4133.000000;1.554177
4132.000000;1.588469
4131.000000;1.611851
4130.000000;1.615408
4129.000000;1.603975
4128.000000;1.587153
4127.000000;1.563399
4126.000000;1.532043
4125.000000;1.508381
4124.000000;1.509241
4123.000000;1.531026
4122.000000;1.549218
4121.000000;1.549904
4120.000000;1.542767
4119.000000;1.540514
4118.000000;1.554230
4117.000000;1.595433
4116.000000;1.667361
4115.000000;1.747266
4114.000000;1.790742
4113.000000;1.801937
4112.000000;1.833985
4111.000000;1.907150
4110.000000;2.006580
4109.000000;2.121239
4108.000000;2.266143
4107.000000;2.478941
4106.000000;2.657276
4105.000000;2.623375
4104.000000;2.529129
4103.000000;2.536432
4102.000000;3.054968
4101.000000;2.974916
4100.000000;2.592152
4099.000000;2.462668
4098.000000;2.267584
4097.000000;2.203357
4096.000000;2.339649
4095.000000;3.109514
4094.000000;2.694966
4093.000000;2.539918
4092.000000;2.395585
4091.000000;2.265289
4090.000000;2.276899
4089.000000;2.357312
4088.000000;2.329447
4087.000000;2.172799
4086.000000;2.065904
4085.000000;2.041818
4084.000000;2.038044
4083.000000;2.016905
4082.000000;1.999941
4081.000000;1.972905
4080.000000;1.903038
4079.000000;1.797551
4078.000000;1.713949
4077.000000;1.685986
4076.000000;1.694823
4075.000000;1.700217
4074.000000;1.688043
4073.000000;1.686850
4072.000000;1.722447
4071.000000;1.835029
4070.000000;2.051687
4069.000000;2.702685
4068.000000;2.663189
4067.000000;2.199272
4066.000000;1.906528
4065.000000;1.692099
4064.000000;1.562030
4063.000000;1.492044
4062.000000;1.462302
4061.000000;1.457557
4060.000000;1.468848
4059.000000;1.493288
4058.000000;1.531230
4057.000000;1.579662
4056.000000;1.631036
4055.000000;1.689756
4054.000000;1.786699
4053.000000;1.961490
4052.000000;2.228490
4051.000000;2.519620
4050.000000;2.666418
4049.000000;2.653098
4048.000000;2.589937
4047.000000;2.541203
4046.000000;2.406406
4045.000000;2.244355
4044.000000;2.173968
4043.000000;2.192591
4042.000000;2.211956
4041.000000;2.140114
4040.000000;2.032971
4039.000000;1.953865
4038.000000;1.921693
4037.000000;1.928778
4036.000000;1.953465
4035.000000;1.972846
4034.000000;1.970431
4033.000000;1.949798
4032.000000;1.942081
4031.000000;1.963176
4030.000000;1.975616
4029.000000;1.911724
4028.000000;1.794985
4027.000000;1.698728
4026.000000;1.657660
4025.000000;1.682462
4024.000000;1.764688
4023.000000;1.870077
4022.000000;1.948008
4021.000000;1.981507
4020.000000;1.997619
4019.000000;2.019519
4018.000000;2.056182
4017.000000;2.105965
4016.000000;2.141590
4015.000000;2.107951
4014.000000;1.985064
4013.000000;1.835334
4012.000000;1.733650
4011.000000;1.700635
4010.000000;1.704855
4009.000000;1.689283
4008.000000;1.638329
4007.000000;1.586512
4006.000000;1.560498
4005.000000;1.566897
4004.000000;1.600849
4003.000000;1.640016
4002.000000;1.652084
4001.000000;1.650736
4000.000000;1.695912
3999.000000;1.834931
3998.000000;2.136312
3997.000000;2.478605
3996.000000;2.778344
3995.000000;2.905061
3994.000000;2.293321
3993.000000;2.029392
3992.000000;1.925674
3991.000000;1.941223
3990.000000;2.033747
3989.000000;1.947841
3988.000000;1.759242
3987.000000;1.682540
3986.000000;1.746134
3985.000000;1.927389
3984.000000;2.098323
3983.000000;2.117724
3982.000000;2.088556
3981.000000;2.037511
3980.000000;1.945004
3979.000000;1.882322
3978.000000;1.853137
3977.000000;1.859834
3976.000000;1.938492
3975.000000;2.119233
3974.000000;2.218323
3973.000000;2.074017
3972.000000;2.003121
3971.000000;2.017603
3970.000000;2.032668
3969.000000;2.022673
3968.000000;2.063847
3967.000000;2.144539
3966.000000;2.148533
3965.000000;2.046699
3964.000000;1.929537
3963.000000;1.838292
3962.000000;1.760637
3961.000000;1.674276
3960.000000;1.588346
3959.000000;1.532578
3958.000000;1.522779
3957.000000;1.544018
3956.000000;1.565426
3955.000000;1.576449
3954.000000;1.595628
3953.000000;1.654214
3952.000000;1.777226
3951.000000;1.927206
3950.000000;1.935378
3949.000000;1.832114
3948.000000;1.733646
3947.000000;1.647645
3946.000000;1.582839
3945.000000;1.542804
3944.000000;1.524339
3943.000000;1.522532
3942.000000;1.532722
3941.000000;1.548990
3940.000000;1.568382
3939.000000;1.599359
3938.000000;1.646058
3937.000000;1.688388
3936.000000;1.709692
3935.000000;1.718632
3934.000000;1.726454
3933.000000;1.724609
3932.000000;1.713329
3931.000000;1.730786
3930.000000;1.818839
3929.000000;1.966268
3928.000000;2.099382
3927.000000;2.282724
3926.000000;2.910811
3925.000000;2.536371
3924.000000;2.408918
3923.000000;2.274701
3922.000000;2.018002
3921.000000;1.884535
3920.000000;1.843848
3919.000000;1.845676
3918.000000;1.845596
3917.000000;1.858076
3916.000000;1.907756
3915.000000;1.956747
3914.000000;1.988195
3913.000000;2.090296
3912.000000;2.331499
3911.000000;2.823375
3910.000000;3.103128
3909.000000;2.558496
3908.000000;2.308281
3907.000000;2.224707
3906.000000;2.188706
3905.000000;2.181966
3904.000000;2.226472
3903.000000;2.284330
3902.000000;2.336715
3901.000000;2.459624
3900.000000;2.538096
3899.000000;2.239420
3898.000000;2.089441
3897.000000;2.083905
3896.000000;2.161314
3895.000000;2.139874
3894.000000;2.039571
3893.000000;1.966122
3892.000000;1.918088
3891.000000;1.907227
3890.000000;1.915884
3889.000000;1.893520
3888.000000;1.825785
3887.000000;1.770397
3886.000000;1.806627
3885.000000;1.937965
3884.000000;2.065808
3883.000000;2.080660
3882.000000;2.011820
3881.000000;1.973962
3880.000000;2.021323
3879.000000;2.111877
3878.000000;2.132229
3877.000000;2.041594
3876.000000;1.919814
3875.000000;1.860675
3874.000000;1.888377
3873.000000;1.927758
3872.000000;1.903130
3871.000000;1.851917
3870.000000;1.851588
3869.000000;1.898616
3868.000000;1.934999
3867.000000;1.957460
3866.000000;2.043693
3865.000000;2.315460
3864.000000;2.686577
3863.000000;2.750373
3862.000000;2.524252
3861.000000;2.188656
3860.000000;2.047863
3859.000000;2.054915
3858.000000;2.161778
3857.000000;2.234140
3856.000000;2.211091
3855.000000;2.220854
3854.000000;2.349127
3853.000000;2.508361
3852.000000;2.441616
3851.000000;2.295744
3850.000000;2.236345
3849.000000;2.274614
3848.000000;2.313459
3847.000000;2.262321
3846.000000;2.168885
3845.000000;2.088393
3844.000000;2.044117
3843.000000;2.036834
3842.000000;2.037463
3841.000000;1.993468
3840.000000;1.905694
3839.000000;1.851176
3838.000000;1.877458
3837.000000;1.959959
3836.000000;2.060967
3835.000000;2.173274
3834.000000;2.237225
3833.000000;2.248906
3832.000000;2.322012
3831.000000;2.796827
3830.000000;2.697644
3829.000000;2.211422
3828.000000;1.993878
3827.000000;1.867110
3826.000000;1.849759
3825.000000;1.898660
3824.000000;1.923831
3823.000000;1.885563
3822.000000;1.870951
3821.000000;1.959381
3820.000000;2.099395
3819.000000;2.186800
3818.000000;2.219231
3817.000000;2.299022
3816.000000;2.359317
3815.000000;2.307074
3814.000000;2.247705
3813.000000;2.208280
3812.000000;2.219706
3811.000000;2.263210
3810.000000;2.284275
3809.000000;2.254749
3808.000000;2.197641
3807.000000;2.183696
3806.000000;2.166775
3805.000000;2.074797
3804.000000;1.942378
3803.000000;1.825465
3802.000000;1.809031
3801.000000;1.925308
3800.000000;2.129505
3799.000000;2.402657
3798.000000;2.526208
3797.000000;2.409928
3796.000000;2.432417
3795.000000;2.338420
3794.000000;2.089517
3793.000000;1.907877
3792.000000;1.794016
3791.000000;1.722595
3790.000000;1.679960
3789.000000;1.659417
3788.000000;1.657081
3787.000000;1.682667
3786.000000;1.754257
3785.000000;1.887115
3784.000000;2.046694
3783.000000;2.146999
3782.000000;2.234182
3781.000000;2.449085
3780.000000;2.763021
3779.000000;2.473794
3778.000000;2.251058
3777.000000;2.317180
3776.000000;2.548096
3775.000000;2.187632
3774.000000;1.976059
3773.000000;1.972314
3772.000000;2.025862
3771.000000;2.049330
3770.000000;2.039465
3769.000000;2.062476
3768.000000;2.128773
3767.000000;2.182434
3766.000000;2.086428
3765.000000;1.981454
3764.000000;1.982879
3763.000000;2.077363
3762.000000;2.197520
3761.000000;2.179652
3760.000000;2.122016
3759.000000;2.170973
3758.000000;2.323407
3757.000000;2.501103
3756.000000;2.570590
3755.000000;2.548574
3754.000000;2.518289
3753.000000;2.455012
3752.000000;2.378044
3751.000000;2.328963
3750.000000;2.330418
3749.000000;2.374601
3748.000000;2.376248
3747.000000;2.291113
3746.000000;2.180713
3745.000000;2.132366
3744.000000;2.150834
3743.000000;2.184062
3742.000000;2.242058
3741.000000;2.439695
3740.000000;2.496652
3739.000000;2.426084
3738.000000;2.728152
3737.000000;2.605825
3736.000000;2.298591
3735.000000;2.237570
3734.000000;2.196483
3733.000000;2.108495
3732.000000;2.026694
3731.000000;1.996216
3730.000000;1.994976
3729.000000;1.993806
3728.000000;1.984863
3727.000000;1.956414
3726.000000;1.919908
3725.000000;1.918816
3724.000000;1.981163
3723.000000;2.083398
3722.000000;2.106118
3721.000000;2.047312
3720.000000;2.017784
3719.000000;2.015379
3718.000000;1.957693
3717.000000;1.890944
3716.000000;1.891331
3715.000000;1.947282
3714.000000;2.023316
3713.000000;2.101968
3712.000000;2.178030
3711.000000;2.212245
3710.000000;2.174390
3709.000000;2.100977
3708.000000;2.031622
3707.000000;1.938313
3706.000000;1.824711
3705.000000;1.766786
3704.000000;1.782401
3703.000000;1.827794
3702.000000;1.831038
3701.000000;1.802682
3700.000000;1.810142
3699.000000;1.888227
3698.000000;2.056541
3697.000000;2.286114
3696.000000;2.459332
3695.000000;2.538327
3694.000000;2.559781
3693.000000;2.449447
3692.000000;2.292199
3691.000000;2.204920
3690.000000;2.254106
3689.000000;2.293986
3688.000000;2.137937
3687.000000;2.054030
3686.000000;2.088865
3685.000000;2.231616
3684.000000;2.238554
3683.000000;2.225815
3682.000000;2.255065
3681.000000;2.036482
3680.000000;1.904542
3679.000000;1.879686
3678.000000;1.875874
3677.000000;1.851100
3676.000000;1.853174
3675.000000;1.920558
3674.000000;1.989863
3673.000000;1.983994
3672.000000;1.899203
3671.000000;1.821607
3670.000000;1.847243
3669.000000;1.952423
3668.000000;2.038957
3667.000000;2.031873
3666.000000;1.940813
3665.000000;1.853747
3664.000000;1.811766
3663.000000;1.793250
3662.000000;1.777565
3661.000000;1.789734
3660.000000;1.858642
3659.000000;1.980994
3658.000000;2.109132
3657.000000;2.181169
3656.000000;2.258421
3655.000000;2.374698
3654.000000;2.432615
3653.000000;2.436784
3652.000000;2.461060
3651.000000;2.416142
3650.000000;2.363227
3649.000000;2.439906
3648.000000;2.546264
3647.000000;2.466137
3646.000000;2.333424
3645.000000;2.304748
3644.000000;2.455327
3643.000000;2.653119
3642.000000;2.367412
3641.000000;2.107311
3640.000000;1.997449
3639.000000;2.021289
3638.000000;2.144147
3637.000000;2.100739
3636.000000;1.990867
3635.000000;2.016082
3634.000000;2.212998
3633.000000;2.436277
3632.000000;2.391988
3631.000000;2.330662
3630.000000;2.309096
3629.000000;2.357575
3628.000000;2.474972
3627.000000;2.495478
3626.000000;2.352456
3625.000000;2.180226
3624.000000;2.032697
3623.000000;1.945613
3622.000000;1.898751
3621.000000;1.870350
3620.000000;1.872740
3619.000000;1.904624
3618.000000;1.941047
3617.000000;1.994850
3616.000000;2.124361
3615.000000;2.294886
3614.000000;2.381091
3613.000000;2.268256
3612.000000;2.029110
3611.000000;1.857839
3610.000000;1.768801
3609.000000;1.725918
3608.000000;1.664067
3607.000000;1.571417
3606.000000;1.506215
3605.000000;1.491651
3604.000000;1.503268
3603.000000;1.505585
3602.000000;1.504897
3601.000000;1.530128
3600.000000;1.589135
3599.000000;1.672909
3598.000000;1.769536
3597.000000;1.853379
3596.000000;1.892321
3595.000000;1.915103
3594.000000;1.978038
3593.000000;2.080418
3592.000000;2.167124
3591.000000;2.218695
3590.000000;2.277130
3589.000000;2.351276
3588.000000;2.392515
3587.000000;2.405281
3586.000000;2.513020
3585.000000;2.869272
3584.000000;2.320089
3583.000000;2.004812
3582.000000;1.897500
3581.000000;1.845092
3580.000000;1.788781
3579.000000;1.727833
3578.000000;1.697906
3577.000000;1.717656
3576.000000;1.779865
3575.000000;1.844786
3574.000000;1.906390
3573.000000;2.058155
3572.000000;2.243851
3571.000000;2.188337
3570.000000;2.140015
3569.000000;2.286088
3568.000000;2.353200
3567.000000;2.083141
3566.000000;2.011197
3565.000000;2.099116
3564.000000;2.106524
3563.000000;1.954596
3562.000000;1.873605
3561.000000;1.910004
3560.000000;2.049795
3559.000000;2.147433
3558.000000;2.028771
3557.000000;1.909966
3556.000000;1.854239
3555.000000;1.783911
3554.000000;1.695009
3553.000000;1.639587
3552.000000;1.622869
3551.000000;1.630617
3550.000000;1.674043
3549.000000;1.786363
3548.000000;1.984118
3547.000000;2.083838
3546.000000;1.980345
3545.000000;1.913292
3544.000000;1.890721
3543.000000;1.890458
3542.000000;1.923401
3541.000000;1.987338
3540.000000;2.004002
3539.000000;1.990742
3538.000000;2.014155
3537.000000;2.079459
3536.000000;2.133839
3535.000000;2.073535
3534.000000;1.912827
3533.000000;1.736304
3532.000000;1.608617
3531.000000;1.541944
3530.000000;1.520937
3529.000000;1.513521
3528.000000;1.484509
3527.000000;1.455611
3526.000000;1.465898
3525.000000;1.502755
3524.000000;1.506159
3523.000000;1.485235
3522.000000;1.515489
3521.000000;1.617622
3520.000000;1.710349
3519.000000;1.721727
3518.000000;1.787067
3517.000000;1.994356
3516.000000;2.374652
3515.000000;2.443858
3514.000000;2.010031
3513.000000;1.756411
3512.000000;1.636047
3511.000000;1.612933
3510.000000;1.656855
3509.000000;1.747014
3508.000000;1.887424
3507.000000;2.103144
3506.000000;2.322636
3505.000000;2.309690
3504.000000;2.258954
3503.000000;2.334307
3502.000000;2.565052
3501.000000;2.999062
3500.000000;2.727692
3499.000000;2.597927
3498.000000;2.583466
3497.000000;2.522629
3496.000000;2.753432
3495.000000;2.591852
3494.000000;2.154965
3493.000000;1.987642
3492.000000;1.894105
3491.000000;1.786187
3490.000000;1.676257
3489.000000;1.608542
3488.000000;1.573999
3487.000000;1.564934
3486.000000;1.611549
3485.000000;1.791551
3484.000000;2.133172
3483.000000;1.980793
3482.000000;1.738292
3481.000000;1.632210
3480.000000;1.543867
3479.000000;1.502278
3478.000000;1.490943
3477.000000;1.449727
3476.000000;1.381698
3475.000000;1.346299
3474.000000;1.363520
3473.000000;1.411636
3472.000000;1.450105
3471.000000;1.458721
3470.000000;1.455710
3469.000000;1.478067
3468.000000;1.568034
3467.000000;1.779785
3466.000000;2.224804
3465.000000;2.410447
3464.000000;2.054001
3463.000000;1.902009
3462.000000;1.763959
3461.000000;1.660220
3460.000000;1.591714
3459.000000;1.547036
3458.000000;1.504661
3457.000000;1.460449
3456.000000;1.449444
3455.000000;1.494773
3454.000000;1.585646
3453.000000;1.698926
3452.000000;1.880268
3451.000000;2.445079
3450.000000;2.273271
3449.000000;1.982003
3448.000000;1.923601
3447.000000;1.941446
3446.000000;1.946090
3445.000000;1.845077
3444.000000;1.792398
3443.000000;1.751036
3442.000000;1.664140
3441.000000;1.572068
3440.000000;1.506639
3439.000000;1.472391
3438.000000;1.477623
3437.000000;1.521804
3436.000000;1.558808
3435.000000;1.549000
3434.000000;1.532416
3433.000000;1.561124
3432.000000;1.655408
3431.000000;1.837863
3430.000000;2.132971
3429.000000;2.184501
3428.000000;2.069163
3427.000000;2.183607
3426.000000;2.546441
3425.000000;2.309045
3424.000000;2.003803
3423.000000;1.869705
3422.000000;1.787243
3421.000000;1.762621
3420.000000;1.799248
3419.000000;1.870663
3418.000000;1.904520
3417.000000;1.849670
3416.000000;1.782512
3415.000000;1.764145
3414.000000;1.794265
3413.000000;1.850435
3412.000000;1.863629
3411.000000;1.811822
3410.000000;1.808793
3409.000000;1.879957
3408.000000;1.862040
3407.000000;1.724976
3406.000000;1.622325
3405.000000;1.565456
3404.000000;1.530135
3403.000000;1.509599
3402.000000;1.507751
3401.000000;1.515631
3400.000000;1.525269
3399.000000;1.558951
3398.000000;1.641801
3397.000000;1.763937
3396.000000;1.881576
3395.000000;1.977738
3394.000000;2.063689
3393.000000;2.113797
3392.000000;2.115645
3391.000000;2.098978
3390.000000;2.053383
3389.000000;1.954585
3388.000000;1.863975
3387.000000;1.796728
3386.000000;1.711773
3385.000000;1.624425
3384.000000;1.587444
3383.000000;1.614469
3382.000000;1.638249
3381.000000;1.590786
3380.000000;1.538101
3379.000000;1.546327
3378.000000;1.617649
3377.000000;1.719061
3376.000000;1.829704
3375.000000;1.993248
3374.000000;2.169776
3373.000000;2.057103
3372.000000;1.929604
3371.000000;1.961867
3370.000000;2.100575
3369.000000;2.250722
3368.000000;2.180447
3367.000000;2.130453
3366.000000;2.246695
3365.000000;2.196954
3364.000000;1.983044
3363.000000;1.853619
3362.000000;1.818525
3361.000000;1.819143
3360.000000;1.765750
3359.000000;1.668927
3358.000000;1.607224
3357.000000;1.616110
3356.000000;1.676506
3355.000000;1.726265
3354.000000;1.743106
3353.000000;1.860258
3352.000000;2.145011
3351.000000;1.956660
3350.000000;1.713208
3349.000000;1.708493
3348.000000;1.709332
3347.000000;1.567591
3346.000000;1.442117
3345.000000;1.403702
3344.000000;1.407974
3343.000000;1.431715
3342.000000;1.486351
3341.000000;1.590839
3340.000000;1.728647
3339.000000;1.926169
3338.000000;2.370405
3337.000000;2.017677
3336.000000;1.762368
3335.000000;1.729573
3334.000000;1.779673
3333.000000;1.809243
3332.000000;1.783048
3331.000000;1.784766
3330.000000;1.850996
3329.000000;1.987251
3328.000000;2.184914
3327.000000;2.378818
3326.000000;2.319549
3325.000000;2.024018
3324.000000;1.780887
3323.000000;1.663620
3322.000000;1.664864
3321.000000;1.758293
3320.000000;1.900145
3319.000000;1.976663
3318.000000;1.847895
3317.000000;1.669281
3316.000000;1.561995
3315.000000;1.532157
3314.000000;1.549405
3313.000000;1.559269
3312.000000;1.547526
3311.000000;1.548751
3310.000000;1.574494
3309.000000;1.600758
3308.000000;1.624102
3307.000000;1.660207
3306.000000;1.701101
3305.000000;1.739181
3304.000000;1.821507
3303.000000;2.003223
3302.000000;2.184911
3301.000000;2.073168
3300.000000;1.826390
3299.000000;1.673130
3298.000000;1.654420
3297.000000;1.791412
3296.000000;2.048441
3295.000000;2.233887
3294.000000;2.347971
3293.000000;2.413558
3292.000000;2.654050
3291.000000;2.536913
3290.000000;2.174256
3289.000000;2.031235
3288.000000;1.971797
3287.000000;1.952826
3286.000000;1.955778
3285.000000;1.951295
3284.000000;1.971990
3283.000000;2.023082
3282.000000;1.948948
3281.000000;1.869072
3280.000000;1.914450
3279.000000;2.040520
3278.000000;2.175668
3277.000000;2.253900
3276.000000;2.097281
3275.000000;1.894321
3274.000000;1.838170
3273.000000;1.912531
3272.000000;2.006976
3271.000000;2.010097
3270.000000;1.985364
3269.000000;2.021723
3268.000000;2.130516
3267.000000;2.144070
3266.000000;1.998825
3265.000000;1.800667
3264.000000;1.606190
3263.000000;1.470070
3262.000000;1.417556
3261.000000;1.450620
3260.000000;1.559743
3259.000000;1.698148
3258.000000;1.739208
3257.000000;1.721118
3256.000000;1.746472
3255.000000;1.801164
3254.000000;1.862911
3253.000000;1.914190
3252.000000;1.890007
3251.000000;1.777311
3250.000000;1.692098
3249.000000;1.712394
3248.000000;1.877930
3247.000000;2.039649
3246.000000;1.821385
3245.000000;1.620396
3244.000000;1.555394
3243.000000;1.542124
3242.000000;1.537295
3241.000000;1.570878
3240.000000;1.712668
3239.000000;2.111112
3238.000000;2.849692
3237.000000;2.385404
3236.000000;1.870610
3235.000000;1.589589
3234.000000;1.434598
3233.000000;1.346584
3232.000000;1.302671
3231.000000;1.285608
3230.000000;1.284652
3229.000000;1.294459
3228.000000;1.314568
3227.000000;1.353274
3226.000000;1.411333
3225.000000;1.463145
3224.000000;1.492265
3223.000000;1.531345
3222.000000;1.597212
3221.000000;1.659818
3220.000000;1.679692
3219.000000;1.636437
3218.000000;1.591910
3217.000000;1.600280
3216.000000;1.625514
3215.000000;1.614462
3214.000000;1.590058
3213.000000;1.594960
3212.000000;1.625901
3211.000000;1.669784
3210.000000;1.687410
3209.000000;1.660000
3208.000000;1.649501
3207.000000;1.654775
3206.000000;1.619941
3205.000000;1.562269
3204.000000;1.546668
3203.000000;1.619365
3202.000000;1.710359
3201.000000;1.660336
3200.000000;1.598276
3199.000000;1.620592
3198.000000;1.705196
3197.000000;1.779867
3196.000000;1.773382
3195.000000;1.715121
3194.000000;1.652341
3193.000000;1.630567
3192.000000;1.672929
3191.000000;1.783304
3190.000000;1.869064
3189.000000;1.789319
3188.000000;1.707971
3187.000000;1.758827
3186.000000;2.012429
3185.000000;2.100448
3184.000000;1.876387
3183.000000;1.807379
3182.000000;1.873313
3181.000000;2.122154
3180.000000;2.181090
3179.000000;1.894186
3178.000000;1.763063
3177.000000;1.805507
3176.000000;2.015401
3175.000000;1.953756
3174.000000;1.742660
3173.000000;1.679519
3172.000000;1.677379
3171.000000;1.646300
3170.000000;1.586217
3169.000000;1.557923
3168.000000;1.587740
3167.000000;1.619564
3166.000000;1.576619
3165.000000;1.539832
3164.000000;1.590916
3163.000000;1.713669
3162.000000;1.829918
3161.000000;1.864371
3160.000000;1.851378
3159.000000;1.840784
3158.000000;1.729557
3157.000000;1.564493
3156.000000;1.468203
3155.000000;1.446419
3154.000000;1.468513
3153.000000;1.501370
3152.000000;1.537670
3151.000000;1.589704
3150.000000;1.662170
3149.000000;1.737250
3148.000000;1.770467
3147.000000;1.766991
3146.000000;1.735953
3145.000000;1.644010
3144.000000;1.527081
3143.000000;1.442239
3142.000000;1.413514
3141.000000;1.439488
3140.000000;1.498387
3139.000000;1.553531
3138.000000;1.579356
3137.000000;1.592456
3136.000000;1.611817
3135.000000;1.627224
3134.000000;1.640894
3133.000000;1.655368
3132.000000;1.637654
3131.000000;1.567184
3130.000000;1.480119
3129.000000;1.425951
3128.000000;1.421644
3127.000000;1.447835
3126.000000;1.470887
3125.000000;1.500306
3124.000000;1.584601
3123.000000;1.745693
3122.000000;1.926010
3121.000000;2.011166
3120.000000;1.971698
3119.000000;1.846875
3118.000000;1.754331
3117.000000;1.747185
3116.000000;1.794098
3115.000000;1.781745
3114.000000;1.678310
3113.000000;1.618271
3112.000000;1.662730
3111.000000;1.775881
3110.000000;1.825500
3109.000000;1.835108
3108.000000;1.908136
3107.000000;1.855023
3106.000000;1.696057
3105.000000;1.573109
3104.000000;1.466155
3103.000000;1.395446
3102.000000;1.385636
3101.000000;1.410170
3100.000000;1.425857
3099.000000;1.452292
3098.000000;1.550460
3097.000000;1.764342
3096.000000;2.167907
3095.000000;2.590288
3094.000000;2.177643
3093.000000;1.902890
3092.000000;1.741157
3091.000000;1.628317
3090.000000;1.545441
3089.000000;1.487246
3088.000000;1.458981
3087.000000;1.471025
3086.000000;1.536553
3085.000000;1.649481
3084.000000;1.760182
3083.000000;1.900533
3082.000000;2.143403
3081.000000;1.960135
3080.000000;1.690386
3079.000000;1.594746
3078.000000;1.546333
3077.000000;1.495612
3076.000000;1.455337
3075.000000;1.460920
3074.000000;1.512000
3073.000000;1.573215
3072.000000;1.628711
3071.000000;1.697514
3070.000000;1.793502
3069.000000;1.892915
3068.000000;1.985765
3067.000000;2.085715
3066.000000;2.010068
3065.000000;1.815950
3064.000000;1.705906
3063.000000;1.659845
3062.000000;1.607971
3061.000000;1.533248
3060.000000;1.491097
3059.000000;1.493002
3058.000000;1.462717
3057.000000;1.378752
3056.000000;1.325638
3055.000000;1.343463
3054.000000;1.410568
3053.000000;1.487843
3052.000000;1.556093
3051.000000;1.662350
3050.000000;1.821740
3049.000000;2.156201
3048.000000;2.687339
3047.000000;2.441600
3046.000000;2.924015
3045.000000;2.157364
3044.000000;1.801243
3043.000000;1.777882
3042.000000;1.894511
3041.000000;1.800362
3040.000000;1.575819
3039.000000;1.501405
3038.000000;1.548750
3037.000000;1.665521
3036.000000;1.732100
3035.000000;1.679223
3034.000000;1.626738
3033.000000;1.640162
3032.000000;1.734070
3031.000000;1.885298
3030.000000;2.027993
3029.000000;2.157456
3028.000000;2.085481
3027.000000;1.840603
3026.000000;1.664181
3025.000000;1.550065
3024.000000;1.484067
3023.000000;1.457137
3022.000000;1.442789
3021.000000;1.423058
3020.000000;1.414266
3019.000000;1.434618
3018.000000;1.460831
3017.000000;1.466201
3016.000000;1.490827
3015.000000;1.592664
3014.000000;1.814870
3013.000000;2.053064
3012.000000;2.041932
3011.000000;1.971667
3010.000000;1.832176
3009.000000;1.671602
3008.000000;1.583813
3007.000000;1.595761
3006.000000;1.724270
3005.000000;1.933299
3004.000000;2.140206
3003.000000;2.487544
3002.000000;2.645996
3001.000000;2.290231
3000.000000;2.087288
2999.000000;1.914621
2998.000000;1.819994
2997.000000;1.806570
2996.000000;1.800750
2995.000000;1.748920
2994.000000;1.719912
2993.000000;1.780157
2992.000000;1.934138
2991.000000;2.086219
2990.000000;2.069320
2989.000000;2.103123
2988.000000;2.478914
2987.000000;2.567298
2986.000000;2.224123
2985.000000;2.372050
2984.000000;2.237985
2983.000000;1.870691
2982.000000;1.790017
2981.000000;1.876926
2980.000000;2.046874
2979.000000;2.092097
2978.000000;1.987932
2977.000000;1.937660
2976.000000;1.957099
2975.000000;2.078327
2974.000000;2.445891
2973.000000;2.896691
2972.000000;2.608004
2971.000000;2.358312
2970.000000;2.198830
2969.000000;2.153912
2968.000000;2.148389
2967.000000;2.117735
2966.000000;2.056083
2965.000000;1.995135
2964.000000;1.980067
2963.000000;1.957225
2962.000000;1.840317
2961.000000;1.712663
2960.000000;1.635814
2959.000000;1.580750
2958.000000;1.529156
2957.000000;1.505490
2956.000000;1.520106
2955.000000;1.566433
2954.000000;1.654041
2953.000000;1.841391
2952.000000;2.203522
2951.000000;2.383795
2950.000000;2.237674
2949.000000;1.946238
2948.000000;1.660362
2947.000000;1.556449
2946.000000;1.582603
2945.000000;1.614397
2944.000000;1.557226
2943.000000;1.506095
2942.000000;1.524674
2941.000000;1.586591
2940.000000;1.706066
2939.000000;1.892866
2938.000000;1.823844
2937.000000;1.654339
2936.000000;1.613997
2935.000000;1.636889
2934.000000;1.651818
2933.000000;1.665242
2932.000000;1.689882
2931.000000;1.650482
2930.000000;1.593882
2929.000000;1.618341
2928.000000;1.775411
2927.000000;2.157240
2926.000000;2.095735
2925.000000;1.722643
2924.000000;1.585446
2923.000000;1.548170
2922.000000;1.585302
2921.000000;1.654600
2920.000000;1.698949
2919.000000;1.740553
2918.000000;1.823948
2917.000000;1.883562
2916.000000;1.779040
2915.000000;1.622099
2914.000000;1.504283
2913.000000;1.429714
2912.000000;1.383753
2911.000000;1.350927
2910.000000;1.335707
2909.000000;1.352001
2908.000000;1.383159
2907.000000;1.378495
2906.000000;1.350125
2905.000000;1.360895
2904.000000;1.431368
2903.000000;1.545364
2902.000000;1.599442
2901.000000;1.518251
2900.000000;1.453086
2899.000000;1.477244
2898.000000;1.591834
2897.000000;1.718720
2896.000000;1.692870
2895.000000;1.619833
2894.000000;1.628907
2893.000000;1.734989
2892.000000;1.880256
2891.000000;1.949701
2890.000000;2.043985
2889.000000;2.171745
2888.000000;2.200852
2887.000000;2.071208
2886.000000;1.752285
2885.000000;1.553454
2884.000000;1.520741
2883.000000;1.572605
2882.000000;1.564380
2881.000000;1.476915
2880.000000;1.413807
2879.000000;1.388488
2878.000000;1.373502
2877.000000;1.357276
2876.000000;1.344871
2875.000000;1.340447
2874.000000;1.346498
2873.000000;1.368693
2872.000000;1.410255
2871.000000;1.446947
2870.000000;1.427318
2869.000000;1.366081
2868.000000;1.324662
2867.000000;1.315547
2866.000000;1.318152
2865.000000;1.325785
2864.000000;1.349401
2863.000000;1.384181
2862.000000;1.403081
2861.000000;1.400514
2860.000000;1.405406
2859.000000;1.438251
2858.000000;1.472740
2857.000000;1.462281
2856.000000;1.433652
2855.000000;1.442297
2854.000000;1.503874
2853.000000;1.607314
2852.000000;1.739676
2851.000000;1.863316
2850.000000;1.901126
2849.000000;1.815634
2848.000000;1.664014
2847.000000;1.560220
2846.000000;1.538068
2845.000000;1.577591
2844.000000;1.616601
2843.000000;1.596800
2842.000000;1.547148
2841.000000;1.498017
2840.000000;1.462325
2839.000000;1.466506
2838.000000;1.523099
2837.000000;1.539945
2836.000000;1.472443
2835.000000;1.442801
2834.000000;1.521755
2833.000000;1.662649
2832.000000;1.664526
2831.000000;1.597111
2830.000000;1.672600
2829.000000;1.758748
2828.000000;1.584316
2827.000000;1.490316
2826.000000;1.557782
2825.000000;1.816599
2824.000000;2.231262
2823.000000;2.132830
2822.000000;2.266703
2821.000000;2.041139
2820.000000;1.664426
2819.000000;1.539585
2818.000000;1.557913
2817.000000;1.568261
2816.000000;1.444120
2815.000000;1.360168
2814.000000;1.369859
2813.000000;1.404436
2812.000000;1.391622
2811.000000;1.346040
2810.000000;1.311940
2809.000000;1.309106
2808.000000;1.369813
2807.000000;1.547009
2806.000000;1.699681
2805.000000;1.558585
2804.000000;1.436985
2803.000000;1.408498
2802.000000;1.395725
2801.000000;1.366518
2800.000000;1.327038
2799.000000;1.302855
2798.000000;1.321340
2797.000000;1.411099
2796.000000;1.572288
2795.000000;1.709830
2794.000000;1.822377
2793.000000;2.053465
2792.000000;2.014986
2791.000000;1.785246
2790.000000;1.687818
2789.000000;1.629916
2788.000000;1.610157
2787.000000;1.636848
2786.000000;1.627958
2785.000000;1.570420
2784.000000;1.550897
2783.000000;1.569204
2782.000000;1.584331
2781.000000;1.619623
2780.000000;1.689495
2779.000000;1.720562
2778.000000;1.717421
2777.000000;1.745741
2776.000000;1.762112
2775.000000;1.743855
2774.000000;1.713758
2773.000000;1.681777
2772.000000;1.677344
2771.000000;1.729541
2770.000000;1.814470
2769.000000;1.843922
2768.000000;1.807960
2767.000000;1.774538
2766.000000;1.770769
2765.000000;1.775688
2764.000000;1.738101
2763.000000;1.651288
2762.000000;1.559742
2761.000000;1.495757
2760.000000;1.464128
2759.000000;1.453177
2758.000000;1.446934
2757.000000;1.436619
2756.000000;1.426316
2755.000000;1.420819
2754.000000;1.420492
2753.000000;1.440789
2752.000000;1.503640
2751.000000;1.603315
2750.000000;1.693025
2749.000000;1.722900
2748.000000;1.713854
2747.000000;1.727991
2746.000000;1.794718
2745.000000;1.766716
2744.000000;1.583975
2743.000000;1.444216
2742.000000;1.390698
2741.000000;1.397631
2740.000000;1.409896
2739.000000;1.366331
2738.000000;1.300548
2737.000000;1.270157
2736.000000;1.282339
2735.000000;1.302016
2734.000000;1.295263
2733.000000;1.286956
2732.000000;1.323785
2731.000000;1.417333
2730.000000;1.492003
2729.000000;1.488666
2728.000000;1.494369
2727.000000;1.566371
2726.000000;1.701728
2725.000000;1.897683
2724.000000;2.157610
2723.000000;2.163031
2722.000000;1.958950
2721.000000;1.862783
2720.000000;1.842018
2719.000000;1.850725
2718.000000;1.854169
2717.000000;1.837651
2716.000000;1.807223
2715.000000;1.761518
2714.000000;1.680899
2713.000000;1.588901
2712.000000;1.537451
2711.000000;1.530610
2710.000000;1.546059
2709.000000;1.532334
2708.000000;1.462618
2707.000000;1.397322
2706.000000;1.379158
2705.000000;1.400087
2704.000000;1.420859
2703.000000;1.421620
2702.000000;1.429015
2701.000000;1.465523
2700.000000;1.536924
2699.000000;1.641021
2698.000000;1.755314
2697.000000;1.804230
2696.000000;1.759415
2695.000000;1.676754
2694.000000;1.557812
2693.000000;1.434775
2692.000000;1.360545
2691.000000;1.344454
2690.000000;1.362641
2689.000000;1.383985
2688.000000;1.406792
2687.000000;1.442685
2686.000000;1.467281
2685.000000;1.464576
2684.000000;1.482891
2683.000000;1.574020
2682.000000;1.751950
2681.000000;1.942813
2680.000000;1.945099
2679.000000;1.783271
2678.000000;1.640221
2677.000000;1.568468
2676.000000;1.562895
2675.000000;1.607923
2674.000000;1.646533
2673.000000;1.617552
2672.000000;1.559643
2671.000000;1.523339
2670.000000;1.522310
2669.000000;1.550158
2668.000000;1.583035
2667.000000;1.595887
2666.000000;1.554860
2665.000000;1.463629
2664.000000;1.378863
2663.000000;1.336584
2662.000000;1.336149
2661.000000;1.357657
2660.000000;1.391384
2659.000000;1.439637
2658.000000;1.491238
2657.000000;1.528328
2656.000000;1.558563
2655.000000;1.603039
2654.000000;1.619500
2653.000000;1.565385
2652.000000;1.512505
2651.000000;1.516613
2650.000000;1.539307
2649.000000;1.516790
2648.000000;1.498219
2647.000000;1.530352
2646.000000;1.596722
2645.000000;1.678520
2644.000000;1.841359
2643.000000;2.094276
2642.000000;2.053992
2641.000000;1.909899
2640.000000;1.743629
2639.000000;1.554791
2638.000000;1.448259
2637.000000;1.420214
2636.000000;1.436367
2635.000000;1.429919
2634.000000;1.374177
2633.000000;1.328481
2632.000000;1.323554
2631.000000;1.329084
2630.000000;1.315380
2629.000000;1.312956
2628.000000;1.365381
2627.000000;1.465932
2626.000000;1.561648
2625.000000;1.603563
2624.000000;1.637305
2623.000000;1.724915
2622.000000;1.900219
2621.000000;2.212788
2620.000000;2.205741
2619.000000;1.889407
2618.000000;1.705958
2617.000000;1.640120
2616.000000;1.727446
2615.000000;2.035203
2614.000000;2.075375
2613.000000;1.964923
2612.000000;2.257521
2611.000000;1.991759
2610.000000;1.566335
2609.000000;1.389622
2608.000000;1.352559
2607.000000;1.424730
2606.000000;1.542710
2605.000000;1.547748
2604.000000;1.411959
2603.000000;1.275646
2602.000000;1.203165
2601.000000;1.220549
2600.000000;1.331419
2599.000000;1.428832
2598.000000;1.399461
2597.000000;1.404858
2596.000000;1.514663
2595.000000;1.704974
2594.000000;2.059715
2593.000000;1.945413
2592.000000;1.591600
2591.000000;1.443986
2590.000000;1.417017
2589.000000;1.500721
2588.000000;1.617674
2587.000000;1.632800
2586.000000;1.590029
2585.000000;1.562593
2584.000000;1.564896
2583.000000;1.593976
2582.000000;1.599729
2581.000000;1.528807
2580.000000;1.445535
2579.000000;1.422644
2578.000000;1.481345
2577.000000;1.622820
2576.000000;1.769192
2575.000000;1.820654
2574.000000;1.876165
2573.000000;1.943602
2572.000000;1.984497
2571.000000;2.094313
2570.000000;2.402505
2569.000000;2.903137
2568.000000;2.484859
2567.000000;2.158455
2566.000000;2.056688
2565.000000;2.079698
2564.000000;2.116985
2563.000000;2.004912
2562.000000;1.899339
2561.000000;1.923109
2560.000000;2.114293
2559.000000;2.401748
2558.000000;2.293554
2557.000000;2.053826
2556.000000;1.904180
2555.000000;1.864950
2554.000000;1.906643
2553.000000;1.935284
2552.000000;1.934566
2551.000000;2.095276
2550.000000;2.566535
2549.000000;2.357905
2548.000000;2.085054
2547.000000;2.136386
2546.000000;2.372402
2545.000000;2.072982
2544.000000;1.717091
2543.000000;1.587070
2542.000000;1.554702
2541.000000;1.565367
2540.000000;1.608301
2539.000000;1.718317
2538.000000;1.988031
2537.000000;2.178108
2536.000000;1.891107
2535.000000;1.710352
2534.000000;1.721684
2533.000000;1.863309
2532.000000;2.093046
2531.000000;2.274520
2530.000000;1.985122
2529.000000;1.693331
2528.000000;1.541605
2527.000000;1.432007
2526.000000;1.326710
2525.000000;1.242260
2524.000000;1.182910
2523.000000;1.133006
2522.000000;1.094133
2521.000000;1.082582
2520.000000;1.101723
2519.000000;1.128215
2518.000000;1.142932
2517.000000;1.167361
2516.000000;1.223365
2515.000000;1.307737
2514.000000;1.407428
2513.000000;1.526722
2512.000000;1.661269
2511.000000;1.785121
2510.000000;1.939420
2509.000000;1.894728
2508.000000;1.663391
2507.000000;1.527501
2506.000000;1.444363
2505.000000;1.375549
2504.000000;1.347930
2503.000000;1.380308
2502.000000;1.458302
2501.000000;1.540252
2500.000000;1.627976
2499.000000;1.775855
2498.000000;1.997814
2497.000000;2.020909
2496.000000;1.769799
2495.000000;1.571227
2494.000000;1.454994
2493.000000;1.410910
2492.000000;1.444880
2491.000000;1.596394
2490.000000;1.872664
2489.000000;1.838272
2488.000000;1.728551
2487.000000;1.779226
2486.000000;1.571473
2485.000000;1.346715
2484.000000;1.275142
2483.000000;1.300027
2482.000000;1.310018
2481.000000;1.237281
2480.000000;1.194979
2479.000000;1.242479
2478.000000;1.375017
2477.000000;1.455813
2476.000000;1.434251
2475.000000;1.442271
2474.000000;1.638586
2473.000000;2.200086
2472.000000;1.880055
2471.000000;1.605148
2470.000000;1.543502
2469.000000;1.484928
2468.000000;1.421226
2467.000000;1.360846
2466.000000;1.356902
2465.000000;1.435491
2464.000000;1.614543
2463.000000;1.792786
2462.000000;1.758430
2461.000000;1.791316
2460.000000;2.034809
2459.000000;1.822428
2458.000000;1.587191
2457.000000;1.535101
2456.000000;1.476490
2455.000000;1.399515
2454.000000;1.354323
2453.000000;1.335939
2452.000000;1.318461
2451.000000;1.313735
2450.000000;1.347687
2449.000000;1.420155
2448.000000;1.517360
2447.000000;1.646824
2446.000000;1.826547
2445.000000;1.918638
2444.000000;1.836096
2443.000000;1.704131
2442.000000;1.558344
2441.000000;1.448928
2440.000000;1.395374
2439.000000;1.372743
2438.000000;1.344170
2437.000000;1.300699
2436.000000;1.265991
2435.000000;1.254764
2434.000000;1.269441
2433.000000;1.292494
2432.000000;1.320208
2431.000000;1.347743
2430.000000;1.406712
2429.000000;1.512171
2428.000000;1.724332
2427.000000;2.247977
2426.000000;2.285094
2425.000000;2.019792
2424.000000;2.159420
2423.000000;2.661578
2422.000000;2.391571
2421.000000;2.067503
2420.000000;2.101717
2419.000000;2.224717
2418.000000;2.238680
2417.000000;2.238753
2416.000000;2.120274
2415.000000;1.874622
2414.000000;1.728398
2413.000000;1.674336
2412.000000;1.634721
2411.000000;1.546508
2410.000000;1.448414
2409.000000;1.397816
2408.000000;1.387866
2407.000000;1.357012
2406.000000;1.278959
2405.000000;1.215996
2404.000000;1.215057
2403.000000;1.284329
2402.000000;1.406493
2401.000000;1.538681
2400.000000;1.642986
2399.000000;1.683235
2398.000000;1.610245
2397.000000;1.462309
2396.000000;1.339748
2395.000000;1.293535
2394.000000;1.330885
2393.000000;1.417725
2392.000000;1.446458
2391.000000;1.398156
2390.000000;1.363420
2389.000000;1.351778
2388.000000;1.352869
2387.000000;1.390025
2386.000000;1.490439
2385.000000;1.552435
2384.000000;1.475434
2383.000000;1.409856
2382.000000;1.419080
2381.000000;1.493140
2380.000000;1.606324
2379.000000;1.680724
2378.000000;1.677687
2377.000000;1.641110
2376.000000;1.564387
2375.000000;1.479263
2374.000000;1.457260
2373.000000;1.515592
2372.000000;1.570736
2371.000000;1.509308
2370.000000;1.436259
2369.000000;1.443953
2368.000000;1.526701
2367.000000;1.619142
2366.000000;1.631331
2365.000000;1.602580
2364.000000;1.588488
2363.000000;1.606685
2362.000000;1.700810
2361.000000;1.956024
2360.000000;2.281291
2359.000000;2.230449
2358.000000;2.193611
2357.000000;2.155138
2356.000000;2.044614
2355.000000;2.111177
2354.000000;2.099971
2353.000000;1.814899
2352.000000;1.653985
2351.000000;1.633431
2350.000000;1.706330
2349.000000;1.881970
2348.000000;1.986277
2347.000000;1.800895
2346.000000;1.625437
2345.000000;1.614532
2344.000000;1.727574
2343.000000;2.010276
2342.000000;2.638347
2341.000000;2.422353
2340.000000;2.264578
2339.000000;2.124150
2338.000000;1.878085
2337.000000;1.744157
2336.000000;1.660610
2335.000000;1.619605
2334.000000;1.642610
2333.000000;1.733146
2332.000000;1.799169
2331.000000;1.734476
2330.000000;1.693105
2329.000000;1.740317
2328.000000;1.919477
2327.000000;2.490889
2326.000000;2.238520
2325.000000;1.881426
2324.000000;1.825941
2323.000000;1.724016
2322.000000;1.654787
2321.000000;1.643350
2320.000000;1.641276
2319.000000;1.626071
2318.000000;1.642506
2317.000000;1.705569
2316.000000;1.818295
2315.000000;2.100121
2314.000000;1.944540
2313.000000;1.561058
2312.000000;1.377119
2311.000000;1.278599
2310.000000;1.208941
2309.000000;1.147734
2308.000000;1.107229
2307.000000;1.110990
2306.000000;1.168240
2305.000000;1.289504
2304.000000;1.439702
2303.000000;1.661314
2302.000000;1.974629
2301.000000;1.686127
2300.000000;1.419685
2299.000000;1.358969
2298.000000;1.382504
2297.000000;1.400844
2296.000000;1.381731
2295.000000;1.406440
2294.000000;1.542230
2293.000000;1.812354
2292.000000;1.853481
2291.000000;1.693925
2290.000000;1.646958
2289.000000;1.636373
2288.000000;1.643486
2287.000000;1.698265
2286.000000;1.797842
2285.000000;1.852529
2284.000000;1.866666
2283.000000;1.957295
2282.000000;2.189787
2281.000000;2.506080
2280.000000;2.386529
2279.000000;2.067538
2278.000000;1.892647
2277.000000;1.868113
2276.000000;1.805755
2275.000000;1.667573
2274.000000;1.599075
2273.000000;1.761957
2272.000000;2.253124
2271.000000;1.873824
2270.000000;1.606905
2269.000000;1.650724
2268.000000;1.865210
2267.000000;2.295223
2266.000000;2.237283
2265.000000;1.848434
2264.000000;1.618006
2263.000000;1.507856
2262.000000;1.500890
2261.000000;1.506279
2260.000000;1.388310
2259.000000;1.244648
2258.000000;1.175460
2257.000000;1.170700
2256.000000;1.199391
2255.000000;1.233029
2254.000000;1.269931
2253.000000;1.309732
2252.000000;1.328641
2251.000000;1.326786
2250.000000;1.316251
2249.000000;1.271712
2248.000000;1.185862
2247.000000;1.104912
2246.000000;1.071140
2245.000000;1.099857
2244.000000;1.190977
2243.000000;1.363521
2242.000000;1.666123
2241.000000;2.170404
2240.000000;2.433653
2239.000000;1.850493
2238.000000;1.486185
2237.000000;1.287282
2236.000000;1.197972
2235.000000;1.198144
2234.000000;1.222514
2233.000000;1.192328
2232.000000;1.137971
2231.000000;1.126330
2230.000000;1.161227
2229.000000;1.201584
2228.000000;1.236019
2227.000000;1.303833
2226.000000;1.441095
2225.000000;1.624194
2224.000000;1.775344
2223.000000;1.941157
2222.000000;1.854229
2221.000000;1.565583
2220.000000;1.399438
2219.000000;1.319121
2218.000000;1.293367
2217.000000;1.302907
2216.000000;1.321820
2215.000000;1.336636
2214.000000;1.338963
2213.000000;1.299437
2212.000000;1.213653
2211.000000;1.145992
2210.000000;1.141542
2209.000000;1.200772
2208.000000;1.281384
2207.000000;1.368210
2206.000000;1.503519
2205.000000;1.837936
2204.000000;2.046590
2203.000000;1.668768
2202.000000;1.543353
2201.000000;1.533942
2200.000000;1.527314
2199.000000;1.462973
2198.000000;1.385561
2197.000000;1.393621
2196.000000;1.472099
2195.000000;1.525691
2194.000000;1.503320
2193.000000;1.530395
2192.000000;1.640527
2191.000000;1.741559
2190.000000;1.835126
2189.000000;1.793316
2188.000000;1.686151
2187.000000;1.690584
2186.000000;1.920861
2185.000000;2.503033
2184.000000;2.325306
2183.000000;2.195540
2182.000000;1.798371
2181.000000;1.448877
2180.000000;1.301669
2179.000000;1.262295
2178.000000;1.305453
2177.000000;1.405628
2176.000000;1.542720
2175.000000;1.676439
2174.000000;1.769788
2173.000000;1.884850
2172.000000;2.121388
2171.000000;2.279000
2170.000000;2.316684
2169.000000;2.317201
2168.000000;2.034392
2167.000000;1.798669
2166.000000;1.681840
2165.000000;1.660387
2164.000000;1.651068
2163.000000;1.600082
2162.000000;1.546420
2161.000000;1.507946
2160.000000;1.491930
2159.000000;1.486448
2158.000000;1.496707
2157.000000;1.562292
2156.000000;1.706796
2155.000000;1.810859
2154.000000;1.701592
2153.000000;1.555992
2152.000000;1.498477
2151.000000;1.532036
2150.000000;1.627754
2149.000000;1.730770
2148.000000;1.749059
2147.000000;1.628801
2146.000000;1.460395
2145.000000;1.322497
2144.000000;1.242682
2143.000000;1.236298
2142.000000;1.268753
2141.000000;1.220739
2140.000000;1.134024
2139.000000;1.109875
2138.000000;1.189646
2137.000000;1.345933
2136.000000;1.407765
2135.000000;1.364660
2134.000000;1.436039
2133.000000;1.804037
2132.000000;1.953764
2131.000000;1.600655
2130.000000;1.574677
2129.000000;1.858897
2128.000000;1.774609
2127.000000;1.447971
2126.000000;1.360374
2125.000000;1.447526
2124.000000;1.648338
2123.000000;1.629283
2122.000000;1.505963
2121.000000;1.544978
2120.000000;1.783132
2119.000000;2.075291
2118.000000;2.016066
2117.000000;2.289668
2116.000000;2.112501
2115.000000;1.640931
2114.000000;1.439953
2113.000000;1.292906
2112.000000;1.197425
2111.000000;1.165617
2110.000000;1.166580
2109.000000;1.127564
2108.000000;1.067057
2107.000000;1.060455
2106.000000;1.113536
2105.000000;1.181646
2104.000000;1.230619
2103.000000;1.298647
2102.000000;1.456421
2101.000000;1.758129
2100.000000;1.839873
2099.000000;1.601631
2098.000000;1.456189
2097.000000;1.378432
2096.000000;1.345762
2095.000000;1.318315
2094.000000;1.280194
2093.000000;1.288319
2092.000000;1.392571
2091.000000;1.641354
2090.000000;1.749535
2089.000000;1.602701
2088.000000;1.634796
2087.000000;1.587043
2086.000000;1.378177
2085.000000;1.245972
2084.000000;1.193570
2083.000000;1.193880
2082.000000;1.213223
2081.000000;1.239383
2080.000000;1.275066
2079.000000;1.310221
2078.000000;1.332444
2077.000000;1.350930
2076.000000;1.376865
2075.000000;1.395641
2074.000000;1.403189
2073.000000;1.421754
2072.000000;1.438974
2071.000000;1.428555
2070.000000;1.417052
2069.000000;1.399441
2068.000000;1.351820
2067.000000;1.298691
2066.000000;1.286911
2065.000000;1.301019
2064.000000;1.321874
2063.000000;1.370913
2062.000000;1.517613
2061.000000;2.003697
2060.000000;1.978857
2059.000000;1.586572
2058.000000;1.568259
2057.000000;1.554177
2056.000000;1.438570
2055.000000;1.306951
2054.000000;1.240175
2053.000000;1.254115
2052.000000;1.309575
2051.000000;1.362507
2050.000000;1.401911
2049.000000;1.512562
2048.000000;1.533538
2047.000000;1.352367
2046.000000;1.244308
2045.000000;1.284593
2044.000000;1.451690
2043.000000;1.485999
2042.000000;1.342056
2041.000000;1.298401
2040.000000;1.380406
2039.000000;1.593939
2038.000000;1.786974
2037.000000;1.766914
2036.000000;1.795775
2035.000000;1.839245
2034.000000;1.751328
2033.000000;1.603498
2032.000000;1.471577
2031.000000;1.385877
2030.000000;1.352165
2029.000000;1.348569
2028.000000;1.338754
2027.000000;1.311480
2026.000000;1.286004
2025.000000;1.272427
2024.000000;1.259213
2023.000000;1.244299
2022.000000;1.239113
2021.000000;1.233972
2020.000000;1.198540
2019.000000;1.151031
2018.000000;1.148036
2017.000000;1.215790
2016.000000;1.328572
2015.000000;1.415904
2014.000000;1.437392
2013.000000;1.435129
2012.000000;1.425515
2011.000000;1.417450
2010.000000;1.475492
2009.000000;1.655711
2008.000000;1.989004
2007.000000;2.204410
2006.000000;2.285394
2005.000000;2.401698
2004.000000;1.884213
2003.000000;1.631894
2002.000000;1.684584
2001.000000;1.694625
2000.000000;1.440740
1999.000000;1.266351
1998.000000;1.214843
1997.000000;1.224344
1996.000000;1.214671
1995.000000;1.182057
1994.000000;1.196590
1993.000000;1.332984
1992.000000;1.628835
1991.000000;1.881972
1990.000000;1.776299
1989.000000;1.422097
1988.000000;1.178786
1987.000000;1.091181
1986.000000;1.113173
1985.000000;1.199000
1984.000000;1.221153
1983.000000;1.132090
1982.000000;1.052534
1981.000000;1.040866
1980.000000;1.091134
1979.000000;1.172630
1978.000000;1.236304
1977.000000;1.270114
1976.000000;1.291573
1975.000000;1.326944
1974.000000;1.375571
1973.000000;1.472013
1972.000000;1.619554
1971.000000;1.507875
1970.000000;1.313677
1969.000000;1.271102
1968.000000;1.365582
1967.000000;1.370572
1966.000000;1.184714
1965.000000;1.050123
1964.000000;0.990418
1963.000000;0.970337
1962.000000;0.972330
1961.000000;0.998715
1960.000000;1.056163
1959.000000;1.117770
1958.000000;1.152679
1957.000000;1.166594
1956.000000;1.187163
1955.000000;1.220853
1954.000000;1.239358
1953.000000;1.215844
1952.000000;1.177321
1951.000000;1.168272
1950.000000;1.204288
1949.000000;1.272733
1948.000000;1.344168
1947.000000;1.373677
1946.000000;1.329664
1945.000000;1.262978
1944.000000;1.242806
1943.000000;1.281178
1942.000000;1.290122
1941.000000;1.202170
1940.000000;1.122514
1939.000000;1.117850
1938.000000;1.179446
1937.000000;1.237714
1936.000000;1.231383
1935.000000;1.230457
1934.000000;1.344203
1933.000000;1.609121
1932.000000;1.665984
1931.000000;1.494278
1930.000000;1.478235
1929.000000;1.528165
1928.000000;1.632347
1927.000000;1.849867
1926.000000;1.701843
1925.000000;1.434468
1924.000000;1.402628
1923.000000;1.571804
1922.000000;1.539432
1921.000000;1.317383
1920.000000;1.228194
1919.000000;1.243469
1918.000000;1.383888
1917.000000;1.660056
1916.000000;2.043700
1915.000000;2.289573
1914.000000;1.910053
1913.000000;1.665331
1912.000000;1.591138
1911.000000;1.641434
1910.000000;1.907448
1909.000000;2.177207
1908.000000;1.786838
1907.000000;1.580356
1906.000000;1.496977
1905.000000;1.460827
1904.000000;1.535406
1903.000000;1.505211
1902.000000;1.274252
1901.000000;1.106148
1900.000000;1.036324
1899.000000;1.060031
1898.000000;1.140599
1897.000000;1.136321
1896.000000;1.051065
1895.000000;0.998479
1894.000000;1.007373
1893.000000;1.060129
1892.000000;1.126521
1891.000000;1.138113
1890.000000;1.157163
1889.000000;1.264591
1888.000000;1.562626
1887.000000;2.264469
1886.000000;1.817524
1885.000000;1.569857
1884.000000;1.618739
1883.000000;1.700132
1882.000000;1.756244
1881.000000;1.685790
1880.000000;1.969552
1879.000000;2.444844
1878.000000;1.672430
1877.000000;1.518197
1876.000000;1.510373
1875.000000;1.508620
1874.000000;1.389307
1873.000000;1.210738
1872.000000;1.135558
1871.000000;1.150546
1870.000000;1.221523
1869.000000;1.286739
1868.000000;1.338110
1867.000000;1.500694
1866.000000;1.841739
1865.000000;1.582408
1864.000000;1.305341
1863.000000;1.262708
1862.000000;1.381443
1861.000000;1.422772
1860.000000;1.205560
1859.000000;1.056789
1858.000000;0.996667
1857.000000;0.971689
1856.000000;0.963376
1855.000000;0.979241
1854.000000;1.022313
1853.000000;1.046294
1852.000000;1.029707
1851.000000;1.005148
1850.000000;1.016464
1849.000000;1.080931
1848.000000;1.245183
1847.000000;1.495914
1846.000000;1.426986
1845.000000;1.277437
1844.000000;1.342589
1843.000000;1.633422
1842.000000;1.951630
1841.000000;1.791858
1840.000000;1.582180
1839.000000;1.394175
1838.000000;1.302558
1837.000000;1.317748
1836.000000;1.341323
1835.000000;1.278829
1834.000000;1.209307
1833.000000;1.193515
1832.000000;1.262376
1831.000000;1.444484
1830.000000;1.340859
1829.000000;1.112329
1828.000000;1.064021
1827.000000;1.165192
1826.000000;1.440881
1825.000000;1.739233
1824.000000;1.602448
1823.000000;1.907544
1822.000000;2.252814
1821.000000;1.450080
1820.000000;1.239128
1819.000000;1.200672
1818.000000;1.280136
1817.000000;1.457249
1816.000000;1.556762
1815.000000;1.660913
1814.000000;2.218660
1813.000000;1.945460
1812.000000;1.505373
1811.000000;1.425145
1810.000000;1.434500
1809.000000;1.516478
1808.000000;1.544338
1807.000000;1.518319
1806.000000;1.504457
1805.000000;1.410106
1804.000000;1.261027
1803.000000;1.156498
1802.000000;1.108468
1801.000000;1.128419
1800.000000;1.231397
1799.000000;1.549825
1798.000000;1.946054
1797.000000;1.613635
1796.000000;1.537685
1795.000000;1.670160
1794.000000;1.635485
1793.000000;1.289600
1792.000000;1.074244
1791.000000;1.012461
1790.000000;1.052227
1789.000000;1.193933
1788.000000;1.329828
1787.000000;1.345362
1786.000000;1.349371
1785.000000;1.398393
1784.000000;1.490213
1783.000000;1.579370
1782.000000;1.484844
1781.000000;1.296672
1780.000000;1.123822
1779.000000;1.039865
1778.000000;1.050936
1777.000000;1.206285
1776.000000;1.477450
1775.000000;1.393750
1774.000000;1.277683
1773.000000;1.381027
1772.000000;1.477163
1771.000000;1.260585
1770.000000;1.113052
1769.000000;1.115487
1768.000000;1.206703
1767.000000;1.322676
1766.000000;1.313950
1765.000000;1.246460
1764.000000;1.219482
1763.000000;1.206369
1762.000000;1.169125
1761.000000;1.086633
1760.000000;0.991841
1759.000000;0.926250
1758.000000;0.892321
1757.000000;0.899918
1756.000000;0.948751
1755.000000;1.032785
1754.000000;1.157139
1753.000000;1.326980
1752.000000;1.608805
1751.000000;1.705743
1750.000000;1.410822
1749.000000;1.274180
1748.000000;1.257646
1747.000000;1.246737
1746.000000;1.192082
1745.000000;1.121168
1744.000000;1.072154
1743.000000;1.043921
1742.000000;1.031425
1741.000000;1.025711
1740.000000;1.040870
1739.000000;1.102397
1738.000000;1.218848
1737.000000;1.364715
1736.000000;1.476758
1735.000000;1.472325
1734.000000;1.334069
1733.000000;1.192082
1732.000000;1.119282
1731.000000;1.132150
1730.000000;1.254921
1729.000000;1.471706
1728.000000;1.561955
1727.000000;1.413691
1726.000000;1.264739
1725.000000;1.241545
1724.000000;1.331453
1723.000000;1.609782
1722.000000;2.193363
1721.000000;1.892731
1720.000000;1.715285
1719.000000;2.013677
1718.000000;1.968581
1717.000000;1.420049
1716.000000;1.229825
1715.000000;1.187732
1714.000000;1.211882
1713.000000;1.257909
1712.000000;1.242608
1711.000000;1.206133
1710.000000;1.200480
1709.000000;1.241207
1708.000000;1.278163
1707.000000;1.268158
1706.000000;1.204904
1705.000000;1.166218
1704.000000;1.204053
1703.000000;1.259800
1702.000000;1.216262
1701.000000;1.042998
1700.000000;0.894670
1699.000000;0.844410
1698.000000;0.851662
1697.000000;0.873395
1696.000000;0.895734
1695.000000;0.917705
1694.000000;0.932046
1693.000000;0.944678
1692.000000;0.969688
1691.000000;0.996751
1690.000000;1.006423
1689.000000;0.997583
1688.000000;0.993208
1687.000000;1.006004
1686.000000;1.011322
1685.000000;0.997804
1684.000000;1.014495
1683.000000;1.096319
1682.000000;1.223425
1681.000000;1.344856
1680.000000;1.365042
1679.000000;1.281815
1678.000000;1.188395
1677.000000;1.127810
1676.000000;1.110012
1675.000000;1.177506
1674.000000;1.385327
1673.000000;1.414622
1672.000000;1.154726
1671.000000;1.007718
1670.000000;0.994659
1669.000000;1.027104
1668.000000;1.005955
1667.000000;0.970327
1666.000000;0.982075
1665.000000;1.058774
1664.000000;1.225658
1663.000000;1.556177
1662.000000;2.237877
1661.000000;2.103037
1660.000000;1.479386
1659.000000;1.174279
1658.000000;1.037959
1657.000000;1.003440
1656.000000;1.020486
1655.000000;1.029368
1654.000000;1.023971
1653.000000;1.056948
1652.000000;1.073675
1651.000000;1.008960
1650.000000;0.947217
1649.000000;0.957953
1648.000000;1.072545
1647.000000;1.273173
1646.000000;1.387742
1645.000000;1.299529
1644.000000;1.186480
1643.000000;1.145126
1642.000000;1.200117
1641.000000;1.327546
1640.000000;1.383891
1639.000000;1.346866
1638.000000;1.370096
1637.000000;1.462552
1636.000000;1.478016
1635.000000;1.384365
1634.000000;1.310973
1633.000000;1.248719
1632.000000;1.181942
1631.000000;1.132662
1630.000000;1.126124
1629.000000;1.176076
1628.000000;1.182385
1627.000000;1.080351
1626.000000;0.980656
1625.000000;0.928155
1624.000000;0.932958
1623.000000;1.007090
1622.000000;1.120286
1621.000000;1.201774
1620.000000;1.220773
1619.000000;1.199524
1618.000000;1.163481
1617.000000;1.142886
1616.000000;1.185747
1615.000000;1.312082
1614.000000;1.531009
1613.000000;1.745502
1612.000000;1.572069
1611.000000;1.367089
1610.000000;1.322450
1609.000000;1.246877
1608.000000;1.087360
1607.000000;1.016377
1606.000000;1.122886
1605.000000;1.341914
1604.000000;1.220449
1603.000000;1.021502
1602.000000;0.947013
1601.000000;0.915778
1600.000000;0.931131
1599.000000;1.011123
1598.000000;1.174261
1597.000000;1.379980
1596.000000;1.404126
1595.000000;1.239357
1594.000000;1.087776
1593.000000;1.008076
1592.000000;1.002901
1591.000000;1.062963
1590.000000;1.169760
1589.000000;1.266988
1588.000000;1.318775
1587.000000;1.360225
1586.000000;1.315131
1585.000000;1.233948
1584.000000;1.265464
1583.000000;1.613609
1582.000000;1.755938
1581.000000;1.277809
1580.000000;1.158272
1579.000000;1.149449
1578.000000;1.155006
1577.000000;1.160389
1576.000000;1.201866
1575.000000;1.324557
1574.000000;1.460209
1573.000000;1.607685
1572.000000;1.721358
1571.000000;1.769060
1570.000000;1.704907
1569.000000;1.481083
1568.000000;1.315714
1567.000000;1.264063
1566.000000;1.155817
1565.000000;0.968603
1564.000000;0.846346
1563.000000;0.818401
1562.000000;0.836661
1561.000000;0.831134
1560.000000;0.778134
1559.000000;0.779346
1558.000000;0.895707
1557.000000;1.052890
1556.000000;1.154204
1555.000000;1.152022
1554.000000;1.079389
1553.000000;1.010324
1552.000000;0.979245
1551.000000;0.975181
1550.000000;0.964134
1549.000000;0.914957
1548.000000;0.891244
1547.000000;0.933556
1546.000000;1.062619
1545.000000;1.199103
1544.000000;1.268179
1543.000000;1.714107
1542.000000;1.489893
1541.000000;1.013427
1540.000000;0.924455
1539.000000;0.922232
1538.000000;0.833185
1537.000000;0.717038
1536.000000;0.662295
1535.000000;0.674053
1534.000000;0.699720
1533.000000;0.677904
1532.000000;0.639927
1531.000000;0.633261
1530.000000;0.656964
1529.000000;0.703417
1528.000000;0.762491
1527.000000;0.822771
1526.000000;0.868474
1525.000000;0.898323
1524.000000;0.950081
1523.000000;1.062187
1522.000000;1.234998
1521.000000;1.384573
1520.000000;1.351625
1519.000000;1.238042
1518.000000;1.236527
1517.000000;1.392475
1516.000000;1.606814
1515.000000;1.798813
1514.000000;1.730971
1513.000000;1.521731
1512.000000;1.425509
1511.000000;1.496767
1510.000000;1.601615
1509.000000;1.428202
1508.000000;1.257764
1507.000000;1.374537
1506.000000;1.804183
1505.000000;1.518352
1504.000000;1.299335
1503.000000;1.173954
1502.000000;1.051548
1501.000000;0.974631
1500.000000;0.928873
1499.000000;0.909764
1498.000000;0.905358
1497.000000;0.912779
1496.000000;0.918172
1495.000000;0.926064
1494.000000;0.967272
1493.000000;1.072958
1492.000000;1.221931
1491.000000;1.330147
1490.000000;1.395828
1489.000000;1.481945
1488.000000;1.586000
1487.000000;1.668103
1486.000000;1.707448
1485.000000;1.759419
1484.000000;1.731733
1483.000000;1.491576
1482.000000;1.208208
1481.000000;1.000915
1480.000000;0.876913
1479.000000;0.806579
1478.000000;0.777721
1477.000000;0.808860
1476.000000;0.916906
1475.000000;1.031711
1474.000000;1.006910
1473.000000;0.923131
1472.000000;0.932174
1471.000000;1.061261
1470.000000;1.229322
1469.000000;1.364022
1468.000000;1.572731
1467.000000;1.840140
1466.000000;1.548401
1465.000000;1.243664
1464.000000;1.113943
1463.000000;1.077449
1462.000000;1.133029
1461.000000;1.167386
1460.000000;1.042312
1459.000000;0.949634
1458.000000;0.970461
1457.000000;1.145213
1456.000000;1.495654
1455.000000;1.496983
1454.000000;1.341000
1453.000000;1.262839
1452.000000;1.159284
1451.000000;1.094976
1450.000000;1.089591
1449.000000;1.260876
1448.000000;1.684406
1447.000000;1.351816
1446.000000;1.067543
1445.000000;1.022576
1444.000000;1.102432
1443.000000;1.313232
1442.000000;1.550122
1441.000000;1.722745
1440.000000;1.804815
1439.000000;1.482092
1438.000000;1.219702
1437.000000;1.095176
1436.000000;1.038072
1435.000000;1.034279
1434.000000;1.070864
1433.000000;1.135290
1432.000000;1.201051
1431.000000;1.269304
1430.000000;1.370796
1429.000000;1.438998
1428.000000;1.372129
1427.000000;1.235006
1426.000000;1.146328
1425.000000;1.149489
1424.000000;1.203634
1423.000000;1.262053
1422.000000;1.346182
1421.000000;1.481497
1420.000000;1.724711
1419.000000;1.917013
1418.000000;1.810316
1417.000000;1.642322
1416.000000;1.411136
1415.000000;1.270241
1414.000000;1.257330
1413.000000;1.342532
1412.000000;1.359590
1411.000000;1.187446
1410.000000;1.044759
1409.000000;1.010130
1408.000000;1.091223
1407.000000;1.179750
1406.000000;1.055181
1405.000000;0.900288
1404.000000;0.837987
1403.000000;0.856241
1402.000000;0.924928
1401.000000;0.955589
1400.000000;0.936652
1399.000000;0.971973
1398.000000;1.149819
1397.000000;1.493249
1396.000000;1.701246
1395.000000;1.591271
1394.000000;1.353091
1393.000000;1.179552
1392.000000;1.164865
1391.000000;1.264543
1390.000000;1.162851
1389.000000;0.949481
1388.000000;0.870060
1387.000000;0.907110
1386.000000;1.077855
1385.000000;1.256566
1384.000000;1.179488
1383.000000;1.111588
1382.000000;1.144859
1381.000000;1.195795
1380.000000;1.177619
1379.000000;1.157895
1378.000000;1.253866
1377.000000;1.556969
1376.000000;1.932938
1375.000000;1.679715
1374.000000;1.728502
1373.000000;1.685310
1372.000000;1.275127
1371.000000;1.106146
1370.000000;1.083993
1369.000000;1.098939
1368.000000;1.034042
1367.000000;0.938827
1366.000000;0.911627
1365.000000;0.947657
1364.000000;1.023227
1363.000000;1.093109
1362.000000;1.168840
1361.000000;1.445161
1360.000000;1.492751
1359.000000;1.163289
1358.000000;1.074067
1357.000000;1.197126
1356.000000;1.383982
1355.000000;1.186647
1354.000000;1.015459
1353.000000;0.990049
1352.000000;1.007071
1351.000000;1.014885
1350.000000;1.004637
1349.000000;1.024914
1348.000000;1.093596
1347.000000;1.266296
1346.000000;1.533167
1345.000000;1.624515
1344.000000;1.593916
1343.000000;1.551397
1342.000000;1.472063
1341.000000;1.288427
1340.000000;1.148605
1339.000000;1.130702
1338.000000;1.147961
1337.000000;1.109775
1336.000000;1.089813
1335.000000;1.164982
1334.000000;1.473211
1333.000000;1.905430
1332.000000;1.494009
1331.000000;1.296535
1330.000000;1.291377
1329.000000;1.358249
1328.000000;1.392751
1327.000000;1.304394
1326.000000;1.170956
1325.000000;1.062709
1324.000000;1.036379
1323.000000;1.142074
1322.000000;1.420989
1321.000000;1.799262
1320.000000;1.938451
1319.000000;1.728153
1318.000000;1.470235
1317.000000;1.342800
1316.000000;1.306923
1315.000000;1.318783
1314.000000;1.443046
1313.000000;1.460301
1312.000000;1.211949
1311.000000;1.135250
1310.000000;1.218548
1309.000000;1.274630
1308.000000;1.200768
1307.000000;1.217266
1306.000000;1.337586
1305.000000;1.190991
1304.000000;1.034185
1303.000000;1.028318
1302.000000;1.057892
1301.000000;1.038998
1300.000000;1.016464
1299.000000;1.064667
1298.000000;1.148001
1297.000000;1.193102
1296.000000;1.232284
1295.000000;1.228999
1294.000000;1.195835
1293.000000;1.178234
1292.000000;1.031482
1291.000000;0.841474
1290.000000;0.720528
1289.000000;0.669456
1288.000000;0.677121
1287.000000;0.722265
1286.000000;0.795003
1285.000000;0.919702
1284.000000;1.122072
1283.000000;1.335542
1282.000000;1.351660
1281.000000;1.265388
1280.000000;1.246294
1279.000000;1.337354
1278.000000;1.447552
1277.000000;1.319570
1276.000000;1.124668
1275.000000;1.062366
1274.000000;1.085793
1273.000000;1.220350
1272.000000;1.832921
1271.000000;1.580528
1270.000000;1.191540
1269.000000;1.129913
1268.000000;1.210809
1267.000000;1.384981
1266.000000;1.398835
1265.000000;1.475053
1264.000000;1.447205
1263.000000;1.179443
1262.000000;1.025336
1261.000000;0.984113
1260.000000;1.031620
1259.000000;1.055171
1258.000000;0.964607
1257.000000;0.874217
1256.000000;0.852761
1255.000000;0.892764
1254.000000;0.956446
1253.000000;0.968344
1252.000000;0.887817
1251.000000;0.816556
1250.000000;0.809874
1249.000000;0.830834
1248.000000;0.803894
1247.000000;0.757981
1246.000000;0.758366
1245.000000;0.830457
1244.000000;0.977257
1243.000000;1.251063
1242.000000;1.798923
1241.000000;1.381204
1240.000000;1.028267
1239.000000;0.866506
1238.000000;0.793781
1237.000000;0.819825
1236.000000;0.921210
1235.000000;0.934306
1234.000000;0.809707
1233.000000;0.744841
1232.000000;0.770626
1231.000000;0.810760
1230.000000;0.789543
1229.000000;0.764760
1228.000000;0.795897
1227.000000;0.899656
1226.000000;1.110978
1225.000000;1.419197
1224.000000;1.652716
1223.000000;1.518692
1222.000000;1.168708
1221.000000;0.922545
1220.000000;0.822851
1219.000000;0.858965
1218.000000;1.054535
1217.000000;1.284649
1216.000000;1.149468
1215.000000;1.026399
1214.000000;1.052085
1213.000000;1.157525
1212.000000;1.248276
1211.000000;1.243029
1210.000000;1.136427
1209.000000;0.971018
1208.000000;0.867222
1207.000000;0.873446
1206.000000;1.002388
1205.000000;1.274305
1204.000000;1.459759
1203.000000;1.626539
1202.000000;1.676258
1201.000000;1.211597
1200.000000;0.986729
