Criado como novo conjunto de dados;"2706_e01_daniel.spp","53104.8 Secs"
cm-1;Abs
10000.000000;0.673528
9999.000000;0.674182
9998.000000;0.674852
9997.000000;0.675499
9996.000000;0.676163
9995.000000;0.676304
9994.000000;0.675653
9993.000000;0.674790
9992.000000;0.674261
9991.000000;0.674117
9990.000000;0.674060
9989.000000;0.673975
9988.000000;0.673988
9987.000000;0.674240
9986.000000;0.674755
9985.000000;0.675414
9984.000000;0.675896
9983.000000;0.675837
9982.000000;0.675226
9981.000000;0.674480
9980.000000;0.673941
9979.000000;0.673534
9978.000000;0.673119
9977.000000;0.672888
9976.000000;0.673081
9975.000000;0.673509
9974.000000;0.673755
9973.000000;0.673749
9972.000000;0.673742
9971.000000;0.673786
9970.000000;0.673632
9969.000000;0.673171
9968.000000;0.672598
9967.000000;0.672095
9966.000000;0.671663
9965.000000;0.671346
9964.000000;0.671305
9963.000000;0.671561
9962.000000;0.671910
9961.000000;0.672190
9960.000000;0.672422
9959.000000;0.672581
9958.000000;0.672447
9957.000000;0.671851
9956.000000;0.670972
9955.000000;0.670275
9954.000000;0.670132
9953.000000;0.670485
9952.000000;0.670814
9951.000000;0.670551
9950.000000;0.669663
9949.000000;0.668745
9948.000000;0.668411
9947.000000;0.668695
9946.000000;0.669185
9945.000000;0.669546
9944.000000;0.669719
9943.000000;0.669750
9942.000000;0.669736
9941.000000;0.669904
9940.000000;0.670411
9939.000000;0.671061
9938.000000;0.671452
9937.000000;0.671409
9936.000000;0.671076
9935.000000;0.670611
9934.000000;0.670091
9933.000000;0.669651
9932.000000;0.669451
9931.000000;0.669427
9930.000000;0.669316
9929.000000;0.668968
9928.000000;0.668463
9927.000000;0.667954
9926.000000;0.667581
9925.000000;0.667526
9924.000000;0.667892
9923.000000;0.668532
9922.000000;0.669151
9921.000000;0.669577
9920.000000;0.669775
9919.000000;0.669687
9918.000000;0.669295
9917.000000;0.668747
9916.000000;0.668209
9915.000000;0.667668
9914.000000;0.667095
9913.000000;0.666661
9912.000000;0.666490
9911.000000;0.666377
9910.000000;0.666087
9909.000000;0.665817
9908.000000;0.665912
9907.000000;0.666238
9906.000000;0.666337
9905.000000;0.666187
9904.000000;0.666242
9903.000000;0.666611
9902.000000;0.666735
9901.000000;0.666170
9900.000000;0.665258
9899.000000;0.664721
9898.000000;0.664879
9897.000000;0.665498
9896.000000;0.666111
9895.000000;0.666292
9894.000000;0.665854
9893.000000;0.665053
9892.000000;0.664432
9891.000000;0.664303
9890.000000;0.664518
9889.000000;0.664805
9888.000000;0.665051
9887.000000;0.665150
9886.000000;0.664905
9885.000000;0.664321
9884.000000;0.663729
9883.000000;0.663392
9882.000000;0.663187
9881.000000;0.662913
9880.000000;0.662694
9879.000000;0.662841
9878.000000;0.663418
9877.000000;0.664184
9876.000000;0.664843
9875.000000;0.665201
9874.000000;0.665185
9873.000000;0.664878
9872.000000;0.664461
9871.000000;0.664012
9870.000000;0.663502
9869.000000;0.663066
9868.000000;0.663060
9867.000000;0.663627
9866.000000;0.664396
9865.000000;0.664805
9864.000000;0.664664
9863.000000;0.664223
9862.000000;0.663790
9861.000000;0.663493
9860.000000;0.663344
9859.000000;0.663323
9858.000000;0.663360
9857.000000;0.663327
9856.000000;0.663080
9855.000000;0.662545
9854.000000;0.661842
9853.000000;0.661348
9852.000000;0.661484
9851.000000;0.662323
9850.000000;0.663463
9849.000000;0.664334
9848.000000;0.664587
9847.000000;0.664221
9846.000000;0.663491
9845.000000;0.662745
9844.000000;0.662209
9843.000000;0.661843
9842.000000;0.661488
9841.000000;0.661144
9840.000000;0.660956
9839.000000;0.660928
9838.000000;0.660857
9837.000000;0.660595
9836.000000;0.660218
9835.000000;0.659860
9834.000000;0.659588
9833.000000;0.659474
9832.000000;0.659577
9831.000000;0.659776
9830.000000;0.659817
9829.000000;0.659625
9828.000000;0.659377
9827.000000;0.659183
9826.000000;0.658945
9825.000000;0.658650
9824.000000;0.658550
9823.000000;0.658849
9822.000000;0.659383
9821.000000;0.659820
9820.000000;0.660020
9819.000000;0.660015
9818.000000;0.659793
9817.000000;0.659360
9816.000000;0.658905
9815.000000;0.658650
9814.000000;0.658558
9813.000000;0.658402
9812.000000;0.658132
9811.000000;0.657993
9810.000000;0.658223
9809.000000;0.658733
9808.000000;0.659135
9807.000000;0.659078
9806.000000;0.658564
9805.000000;0.657950
9804.000000;0.657596
9803.000000;0.657538
9802.000000;0.657560
9801.000000;0.657564
9800.000000;0.657681
9799.000000;0.657985
9798.000000;0.658278
9797.000000;0.658286
9796.000000;0.657950
9795.000000;0.657438
9794.000000;0.656999
9793.000000;0.656864
9792.000000;0.657161
9791.000000;0.657765
9790.000000;0.658323
9789.000000;0.658570
9788.000000;0.658534
9787.000000;0.658367
9786.000000;0.658108
9785.000000;0.657778
9784.000000;0.657557
9783.000000;0.657640
9782.000000;0.657909
9781.000000;0.657947
9780.000000;0.657445
9779.000000;0.656509
9778.000000;0.655551
9777.000000;0.654957
9776.000000;0.654863
9775.000000;0.655144
9774.000000;0.655533
9773.000000;0.655795
9772.000000;0.655838
9771.000000;0.655725
9770.000000;0.655614
9769.000000;0.655644
9768.000000;0.655815
9767.000000;0.655973
9766.000000;0.655962
9765.000000;0.655789
9764.000000;0.655578
9763.000000;0.655377
9762.000000;0.655106
9761.000000;0.654721
9760.000000;0.654324
9759.000000;0.654072
9758.000000;0.654004
9757.000000;0.654026
9756.000000;0.654017
9755.000000;0.653930
9754.000000;0.653792
9753.000000;0.653644
9752.000000;0.653467
9751.000000;0.653193
9750.000000;0.652820
9749.000000;0.652470
9748.000000;0.652310
9747.000000;0.652422
9746.000000;0.652778
9745.000000;0.653271
9744.000000;0.653714
9743.000000;0.653913
9742.000000;0.653851
9741.000000;0.653717
9740.000000;0.653647
9739.000000;0.653492
9738.000000;0.653006
9737.000000;0.652213
9736.000000;0.651430
9735.000000;0.650910
9734.000000;0.650612
9733.000000;0.650343
9732.000000;0.650031
9731.000000;0.649810
9730.000000;0.649881
9729.000000;0.650315
9728.000000;0.650952
9727.000000;0.651537
9726.000000;0.651958
9725.000000;0.652242
9724.000000;0.652327
9723.000000;0.652066
9722.000000;0.651575
9721.000000;0.651344
9720.000000;0.651712
9719.000000;0.652387
9718.000000;0.652755
9717.000000;0.652606
9716.000000;0.652249
9715.000000;0.651975
9714.000000;0.651762
9713.000000;0.651538
9712.000000;0.651385
9711.000000;0.651354
9710.000000;0.651328
9709.000000;0.651211
9708.000000;0.651060
9707.000000;0.650913
9706.000000;0.650685
9705.000000;0.650342
9704.000000;0.650025
9703.000000;0.649886
9702.000000;0.649937
9701.000000;0.650119
9700.000000;0.650384
9699.000000;0.650631
9698.000000;0.650706
9697.000000;0.650555
9696.000000;0.650280
9695.000000;0.650008
9694.000000;0.649805
9693.000000;0.649715
9692.000000;0.649696
9691.000000;0.649548
9690.000000;0.649114
9689.000000;0.648593
9688.000000;0.648404
9687.000000;0.648658
9686.000000;0.648985
9685.000000;0.649032
9684.000000;0.648895
9683.000000;0.648887
9682.000000;0.649039
9681.000000;0.649064
9680.000000;0.648745
9679.000000;0.648201
9678.000000;0.647760
9677.000000;0.647652
9676.000000;0.647801
9675.000000;0.647904
9674.000000;0.647740
9673.000000;0.647404
9672.000000;0.647145
9671.000000;0.647020
9670.000000;0.646885
9669.000000;0.646690
9668.000000;0.646583
9667.000000;0.646672
9666.000000;0.646866
9665.000000;0.647016
9664.000000;0.647031
9663.000000;0.646850
9662.000000;0.646488
9661.000000;0.646180
9660.000000;0.646241
9659.000000;0.646677
9658.000000;0.647117
9657.000000;0.647242
9656.000000;0.647103
9655.000000;0.646915
9654.000000;0.646753
9653.000000;0.646602
9652.000000;0.646521
9651.000000;0.646543
9650.000000;0.646539
9649.000000;0.646355
9648.000000;0.646007
9647.000000;0.645627
9646.000000;0.645324
9645.000000;0.645185
9644.000000;0.645259
9643.000000;0.645415
9642.000000;0.645374
9641.000000;0.645046
9640.000000;0.644700
9639.000000;0.644609
9638.000000;0.644679
9637.000000;0.644642
9636.000000;0.644490
9635.000000;0.644471
9634.000000;0.644694
9633.000000;0.644978
9632.000000;0.645131
9631.000000;0.645153
9630.000000;0.645102
9629.000000;0.644949
9628.000000;0.644667
9627.000000;0.644358
9626.000000;0.644184
9625.000000;0.644189
9624.000000;0.644267
9623.000000;0.644314
9622.000000;0.644364
9621.000000;0.644526
9620.000000;0.644796
9619.000000;0.644985
9618.000000;0.644911
9617.000000;0.644625
9616.000000;0.644354
9615.000000;0.644222
9614.000000;0.644122
9613.000000;0.643908
9612.000000;0.643612
9611.000000;0.643399
9610.000000;0.643362
9609.000000;0.643401
9608.000000;0.643305
9607.000000;0.642959
9606.000000;0.642505
9605.000000;0.642237
9604.000000;0.642255
9603.000000;0.642297
9602.000000;0.642063
9601.000000;0.641655
9600.000000;0.641479
9599.000000;0.641711
9598.000000;0.642098
9597.000000;0.642374
9596.000000;0.642607
9595.000000;0.642980
9594.000000;0.643396
9593.000000;0.643527
9592.000000;0.643188
9591.000000;0.642492
9590.000000;0.641688
9589.000000;0.641002
9588.000000;0.640613
9587.000000;0.640628
9586.000000;0.641014
9585.000000;0.641573
9584.000000;0.642001
9583.000000;0.642029
9582.000000;0.641610
9581.000000;0.641031
9580.000000;0.640712
9579.000000;0.640806
9578.000000;0.641078
9577.000000;0.641219
9576.000000;0.641182
9575.000000;0.641106
9574.000000;0.641032
9573.000000;0.640844
9572.000000;0.640476
9571.000000;0.640023
9570.000000;0.639637
9569.000000;0.639411
9568.000000;0.639359
9567.000000;0.639440
9566.000000;0.639575
9565.000000;0.639653
9564.000000;0.639562
9563.000000;0.639272
9562.000000;0.638934
9561.000000;0.638853
9560.000000;0.639243
9559.000000;0.639976
9558.000000;0.640667
9557.000000;0.641033
9556.000000;0.641090
9555.000000;0.640991
9554.000000;0.640807
9553.000000;0.640524
9552.000000;0.640146
9551.000000;0.639698
9550.000000;0.639194
9549.000000;0.638696
9548.000000;0.638342
9547.000000;0.638244
9546.000000;0.638379
9545.000000;0.638630
9544.000000;0.638854
9543.000000;0.638894
9542.000000;0.638638
9541.000000;0.638144
9540.000000;0.637644
9539.000000;0.637341
9538.000000;0.637270
9537.000000;0.637382
9536.000000;0.637643
9535.000000;0.637962
9534.000000;0.638121
9533.000000;0.637936
9532.000000;0.637463
9531.000000;0.636938
9530.000000;0.636537
9529.000000;0.636292
9528.000000;0.636200
9527.000000;0.636285
9526.000000;0.636513
9525.000000;0.636742
9524.000000;0.636843
9523.000000;0.636851
9522.000000;0.636942
9521.000000;0.637223
9520.000000;0.637545
9519.000000;0.637595
9518.000000;0.637222
9517.000000;0.636650
9516.000000;0.636267
9515.000000;0.636183
9514.000000;0.636116
9513.000000;0.635749
9512.000000;0.635129
9511.000000;0.634614
9510.000000;0.634501
9509.000000;0.634791
9508.000000;0.635265
9507.000000;0.635675
9506.000000;0.635878
9505.000000;0.635847
9504.000000;0.635639
9503.000000;0.635326
9502.000000;0.634963
9501.000000;0.634615
9500.000000;0.634364
9499.000000;0.634256
9498.000000;0.634237
9497.000000;0.634198
9496.000000;0.634094
9495.000000;0.633980
9494.000000;0.633908
9493.000000;0.633824
9492.000000;0.633639
9491.000000;0.633419
9490.000000;0.633413
9489.000000;0.633797
9488.000000;0.634413
9487.000000;0.634866
9486.000000;0.634927
9485.000000;0.634741
9484.000000;0.634597
9483.000000;0.634591
9482.000000;0.634592
9481.000000;0.634446
9480.000000;0.634118
9479.000000;0.633690
9478.000000;0.633318
9477.000000;0.633142
9476.000000;0.633155
9475.000000;0.633203
9474.000000;0.633173
9473.000000;0.633104
9472.000000;0.633043
9471.000000;0.632908
9470.000000;0.632646
9469.000000;0.632419
9468.000000;0.632427
9467.000000;0.632586
9466.000000;0.632601
9465.000000;0.632360
9464.000000;0.632062
9463.000000;0.631911
9462.000000;0.631887
9461.000000;0.631875
9460.000000;0.631861
9459.000000;0.631886
9458.000000;0.631951
9457.000000;0.632045
9456.000000;0.632172
9455.000000;0.632309
9454.000000;0.632400
9453.000000;0.632443
9452.000000;0.632466
9451.000000;0.632407
9450.000000;0.632160
9449.000000;0.631762
9448.000000;0.631411
9447.000000;0.631227
9446.000000;0.631149
9445.000000;0.631095
9444.000000;0.631092
9443.000000;0.631149
9442.000000;0.631184
9441.000000;0.631161
9440.000000;0.631176
9439.000000;0.631274
9438.000000;0.631307
9437.000000;0.631096
9436.000000;0.630651
9435.000000;0.630140
9434.000000;0.629721
9433.000000;0.629496
9432.000000;0.629520
9431.000000;0.629711
9430.000000;0.629867
9429.000000;0.629888
9428.000000;0.629903
9427.000000;0.630052
9426.000000;0.630217
9425.000000;0.630155
9424.000000;0.629834
9423.000000;0.629470
9422.000000;0.629239
9421.000000;0.629141
9420.000000;0.629143
9419.000000;0.629262
9418.000000;0.629453
9417.000000;0.629545
9416.000000;0.629406
9415.000000;0.629081
9414.000000;0.628696
9413.000000;0.628315
9412.000000;0.627962
9411.000000;0.627733
9410.000000;0.627752
9409.000000;0.628029
9408.000000;0.628414
9407.000000;0.628731
9406.000000;0.628897
9405.000000;0.628916
9404.000000;0.628804
9403.000000;0.628571
9402.000000;0.628259
9401.000000;0.627937
9400.000000;0.627652
9399.000000;0.627396
9398.000000;0.627135
9397.000000;0.626865
9396.000000;0.626620
9395.000000;0.626447
9394.000000;0.626404
9393.000000;0.626542
9392.000000;0.626875
9391.000000;0.627333
9390.000000;0.627739
9389.000000;0.627860
9388.000000;0.627534
9387.000000;0.626834
9386.000000;0.626088
9385.000000;0.625645
9384.000000;0.625578
9383.000000;0.625665
9382.000000;0.625677
9381.000000;0.625608
9380.000000;0.625591
9379.000000;0.625697
9378.000000;0.625916
9377.000000;0.626228
9376.000000;0.626551
9375.000000;0.626676
9374.000000;0.626423
9373.000000;0.625865
9372.000000;0.625295
9371.000000;0.624941
9370.000000;0.624829
9369.000000;0.624902
9368.000000;0.625118
9367.000000;0.625385
9366.000000;0.625525
9365.000000;0.625419
9364.000000;0.625136
9363.000000;0.624855
9362.000000;0.624700
9361.000000;0.624682
9360.000000;0.624756
9359.000000;0.624871
9358.000000;0.624984
9357.000000;0.625079
9356.000000;0.625176
9355.000000;0.625293
9354.000000;0.625392
9353.000000;0.625385
9352.000000;0.625190
9351.000000;0.624830
9350.000000;0.624467
9349.000000;0.624290
9348.000000;0.624310
9347.000000;0.624324
9346.000000;0.624151
9345.000000;0.623857
9344.000000;0.623667
9343.000000;0.623686
9342.000000;0.623794
9341.000000;0.623828
9340.000000;0.623761
9339.000000;0.623688
9338.000000;0.623697
9337.000000;0.623774
9336.000000;0.623796
9335.000000;0.623616
9334.000000;0.623205
9333.000000;0.622725
9332.000000;0.622411
9331.000000;0.622386
9330.000000;0.622600
9329.000000;0.622913
9328.000000;0.623170
9327.000000;0.623256
9326.000000;0.623166
9325.000000;0.623030
9324.000000;0.622993
9323.000000;0.623075
9322.000000;0.623179
9321.000000;0.623218
9320.000000;0.623172
9319.000000;0.623041
9318.000000;0.622820
9317.000000;0.622517
9316.000000;0.622132
9315.000000;0.621668
9314.000000;0.621215
9313.000000;0.620977
9312.000000;0.621083
9311.000000;0.621405
9310.000000;0.621671
9309.000000;0.621744
9308.000000;0.621696
9307.000000;0.621615
9306.000000;0.621492
9305.000000;0.621308
9304.000000;0.621091
9303.000000;0.620855
9302.000000;0.620606
9301.000000;0.620431
9300.000000;0.620452
9299.000000;0.620631
9298.000000;0.620754
9297.000000;0.620673
9296.000000;0.620482
9295.000000;0.620357
9294.000000;0.620313
9293.000000;0.620226
9292.000000;0.620036
9291.000000;0.619833
9290.000000;0.619735
9289.000000;0.619738
9288.000000;0.619714
9287.000000;0.619534
9286.000000;0.619197
9285.000000;0.618851
9284.000000;0.618680
9283.000000;0.618765
9282.000000;0.619061
9281.000000;0.619439
9280.000000;0.619732
9279.000000;0.619787
9278.000000;0.619580
9277.000000;0.619270
9276.000000;0.619060
9275.000000;0.619009
9274.000000;0.619035
9273.000000;0.619097
9272.000000;0.619246
9271.000000;0.619478
9270.000000;0.619626
9269.000000;0.619485
9268.000000;0.619038
9267.000000;0.618502
9266.000000;0.618147
9265.000000;0.618075
9264.000000;0.618143
9263.000000;0.618106
9262.000000;0.617884
9261.000000;0.617636
9260.000000;0.617577
9259.000000;0.617734
9258.000000;0.617939
9257.000000;0.618019
9256.000000;0.617931
9255.000000;0.617760
9254.000000;0.617639
9253.000000;0.617645
9252.000000;0.617727
9251.000000;0.617743
9250.000000;0.617651
9249.000000;0.617565
9248.000000;0.617574
9247.000000;0.617566
9246.000000;0.617375
9245.000000;0.617049
9244.000000;0.616826
9243.000000;0.616846
9242.000000;0.617024
9241.000000;0.617209
9240.000000;0.617322
9239.000000;0.617317
9238.000000;0.617163
9237.000000;0.616888
9236.000000;0.616553
9235.000000;0.616159
9234.000000;0.615672
9233.000000;0.615170
9232.000000;0.614855
9231.000000;0.614843
9230.000000;0.615056
9229.000000;0.615337
9228.000000;0.615583
9227.000000;0.615745
9226.000000;0.615804
9225.000000;0.615806
9224.000000;0.615835
9223.000000;0.615880
9222.000000;0.615812
9221.000000;0.615554
9220.000000;0.615205
9219.000000;0.614951
9218.000000;0.614876
9217.000000;0.614911
9216.000000;0.614932
9215.000000;0.614901
9214.000000;0.614922
9213.000000;0.615144
9212.000000;0.615539
9211.000000;0.615811
9210.000000;0.615644
9209.000000;0.615042
9208.000000;0.614327
9207.000000;0.613799
9206.000000;0.613544
9205.000000;0.613549
9204.000000;0.613815
9203.000000;0.614238
9202.000000;0.614539
9201.000000;0.614459
9200.000000;0.614006
9199.000000;0.613427
9198.000000;0.613003
9197.000000;0.612892
9196.000000;0.613078
9195.000000;0.613361
9194.000000;0.613481
9193.000000;0.613359
9192.000000;0.613165
9191.000000;0.613108
9190.000000;0.613199
9189.000000;0.613290
9188.000000;0.613283
9187.000000;0.613189
9186.000000;0.613050
9185.000000;0.612900
9184.000000;0.612784
9183.000000;0.612725
9182.000000;0.612670
9181.000000;0.612552
9180.000000;0.612389
9179.000000;0.612263
9178.000000;0.612209
9177.000000;0.612185
9176.000000;0.612156
9175.000000;0.612139
9174.000000;0.612149
9173.000000;0.612155
9172.000000;0.612117
9171.000000;0.612020
9170.000000;0.611866
9169.000000;0.611668
9168.000000;0.611470
9167.000000;0.611357
9166.000000;0.611392
9165.000000;0.611524
9164.000000;0.611597
9163.000000;0.611478
9162.000000;0.611217
9161.000000;0.611026
9160.000000;0.611060
9159.000000;0.611231
9158.000000;0.611295
9157.000000;0.611134
9156.000000;0.610901
9155.000000;0.610845
9154.000000;0.611038
9153.000000;0.611311
9152.000000;0.611427
9151.000000;0.611285
9150.000000;0.610969
9149.000000;0.610635
9148.000000;0.610364
9147.000000;0.610112
9146.000000;0.609799
9145.000000;0.609444
9144.000000;0.609184
9143.000000;0.609154
9142.000000;0.609357
9141.000000;0.609659
9140.000000;0.609910
9139.000000;0.610032
9138.000000;0.610025
9137.000000;0.609905
9136.000000;0.609666
9135.000000;0.609315
9134.000000;0.608912
9133.000000;0.608566
9132.000000;0.608366
9131.000000;0.608326
9130.000000;0.608381
9129.000000;0.608431
9128.000000;0.608431
9127.000000;0.608442
9126.000000;0.608559
9125.000000;0.608750
9124.000000;0.608827
9123.000000;0.608655
9122.000000;0.608365
9121.000000;0.608235
9120.000000;0.608370
9119.000000;0.608590
9118.000000;0.608675
9117.000000;0.608601
9116.000000;0.608472
9115.000000;0.608341
9114.000000;0.608190
9113.000000;0.608029
9112.000000;0.607899
9111.000000;0.607805
9110.000000;0.607727
9109.000000;0.607648
9108.000000;0.607540
9107.000000;0.607352
9106.000000;0.607100
9105.000000;0.606893
9104.000000;0.606806
9103.000000;0.606754
9102.000000;0.606614
9101.000000;0.606417
9100.000000;0.606338
9099.000000;0.606502
9098.000000;0.606855
9097.000000;0.607207
9096.000000;0.607345
9095.000000;0.607157
9094.000000;0.606739
9093.000000;0.606342
9092.000000;0.606142
9091.000000;0.606084
9090.000000;0.606026
9089.000000;0.605960
9088.000000;0.605982
9087.000000;0.606096
9086.000000;0.606212
9085.000000;0.606292
9084.000000;0.606358
9083.000000;0.606358
9082.000000;0.606181
9081.000000;0.605857
9080.000000;0.605585
9079.000000;0.605494
9078.000000;0.605479
9077.000000;0.605354
9076.000000;0.605085
9075.000000;0.604802
9074.000000;0.604631
9073.000000;0.604582
9072.000000;0.604572
9071.000000;0.604508
9070.000000;0.604358
9069.000000;0.604177
9068.000000;0.604062
9067.000000;0.604072
9066.000000;0.604193
9065.000000;0.604365
9064.000000;0.604498
9063.000000;0.604524
9062.000000;0.604463
9061.000000;0.604417
9060.000000;0.604447
9059.000000;0.604471
9058.000000;0.604366
9057.000000;0.604147
9056.000000;0.603952
9055.000000;0.603868
9054.000000;0.603839
9053.000000;0.603754
9052.000000;0.603579
9051.000000;0.603374
9050.000000;0.603234
9049.000000;0.603217
9048.000000;0.603287
9047.000000;0.603325
9046.000000;0.603243
9045.000000;0.603076
9044.000000;0.602944
9043.000000;0.602928
9042.000000;0.603024
9041.000000;0.603153
9040.000000;0.603186
9039.000000;0.603005
9038.000000;0.602625
9037.000000;0.602228
9036.000000;0.602001
9035.000000;0.601957
9034.000000;0.601974
9033.000000;0.601957
9032.000000;0.601902
9031.000000;0.601835
9030.000000;0.601798
9029.000000;0.601859
9028.000000;0.602051
9027.000000;0.602290
9026.000000;0.602462
9025.000000;0.602560
9024.000000;0.602654
9023.000000;0.602744
9022.000000;0.602758
9021.000000;0.602674
9020.000000;0.602550
9019.000000;0.602400
9018.000000;0.602173
9017.000000;0.601856
9016.000000;0.601529
9015.000000;0.601276
9014.000000;0.601117
9013.000000;0.601034
9012.000000;0.601004
9011.000000;0.600994
9010.000000;0.600994
9009.000000;0.601031
9008.000000;0.601112
9007.000000;0.601172
9006.000000;0.601160
9005.000000;0.601124
9004.000000;0.601114
9003.000000;0.601046
9002.000000;0.600804
9001.000000;0.600465
9000.000000;0.600269
8999.000000;0.600319
8998.000000;0.600459
8997.000000;0.600491
8996.000000;0.600396
8995.000000;0.600262
8994.000000;0.600123
8993.000000;0.599952
8992.000000;0.599754
8991.000000;0.599580
8990.000000;0.599461
8989.000000;0.599382
8988.000000;0.599278
8987.000000;0.599079
8986.000000;0.598813
8985.000000;0.598638
8984.000000;0.598694
8983.000000;0.598914
8982.000000;0.599070
8981.000000;0.599034
8980.000000;0.598895
8979.000000;0.598795
8978.000000;0.598760
8977.000000;0.598755
8976.000000;0.598795
8975.000000;0.598897
8974.000000;0.598983
8973.000000;0.598915
8972.000000;0.598639
8971.000000;0.598247
8970.000000;0.597916
8969.000000;0.597793
8968.000000;0.597901
8967.000000;0.598112
8966.000000;0.598252
8965.000000;0.598245
8964.000000;0.598141
8963.000000;0.598026
8962.000000;0.597959
8961.000000;0.597983
8960.000000;0.598093
8959.000000;0.598185
8958.000000;0.598105
8957.000000;0.597815
8956.000000;0.597449
8955.000000;0.597174
8954.000000;0.597054
8953.000000;0.597063
8952.000000;0.597172
8951.000000;0.597352
8950.000000;0.597537
8949.000000;0.597626
8948.000000;0.597539
8947.000000;0.597262
8946.000000;0.596877
8945.000000;0.596554
8944.000000;0.596432
8943.000000;0.596498
8942.000000;0.596600
8941.000000;0.596608
8940.000000;0.596518
8939.000000;0.596401
8938.000000;0.596311
8937.000000;0.596248
8936.000000;0.596200
8935.000000;0.596176
8934.000000;0.596219
8933.000000;0.596355
8932.000000;0.596504
8931.000000;0.596496
8930.000000;0.596256
8929.000000;0.595945
8928.000000;0.595821
8927.000000;0.595955
8926.000000;0.596159
8925.000000;0.596225
8924.000000;0.596131
8923.000000;0.595980
8922.000000;0.595834
8921.000000;0.595676
8920.000000;0.595490
8919.000000;0.595328
8918.000000;0.595269
8917.000000;0.595332
8916.000000;0.595419
8915.000000;0.595366
8914.000000;0.595122
8913.000000;0.594851
8912.000000;0.594786
8911.000000;0.594959
8910.000000;0.595154
8909.000000;0.595143
8908.000000;0.594924
8907.000000;0.594683
8906.000000;0.594566
8905.000000;0.594537
8904.000000;0.594440
8903.000000;0.594179
8902.000000;0.593843
8901.000000;0.593634
8900.000000;0.593667
8899.000000;0.593867
8898.000000;0.594078
8897.000000;0.594201
8896.000000;0.594192
8895.000000;0.594011
8894.000000;0.593679
8893.000000;0.593358
8892.000000;0.593235
8891.000000;0.593331
8890.000000;0.593498
8889.000000;0.593605
8888.000000;0.593628
8887.000000;0.593572
8886.000000;0.593411
8885.000000;0.593163
8884.000000;0.592904
8883.000000;0.592684
8882.000000;0.592489
8881.000000;0.592307
8880.000000;0.592183
8879.000000;0.592152
8878.000000;0.592178
8877.000000;0.592186
8876.000000;0.592131
8875.000000;0.592026
8874.000000;0.591960
8873.000000;0.592026
8872.000000;0.592186
8871.000000;0.592234
8870.000000;0.592009
8869.000000;0.591618
8868.000000;0.591336
8867.000000;0.591299
8866.000000;0.591411
8865.000000;0.591548
8864.000000;0.591691
8863.000000;0.591819
8862.000000;0.591828
8861.000000;0.591663
8860.000000;0.591431
8859.000000;0.591273
8858.000000;0.591209
8857.000000;0.591184
8856.000000;0.591188
8855.000000;0.591225
8854.000000;0.591238
8853.000000;0.591177
8852.000000;0.591095
8851.000000;0.591102
8850.000000;0.591235
8849.000000;0.591428
8848.000000;0.591586
8847.000000;0.591615
8846.000000;0.591446
8845.000000;0.591095
8844.000000;0.590707
8843.000000;0.590449
8842.000000;0.590369
8841.000000;0.590403
8840.000000;0.590484
8839.000000;0.590581
8838.000000;0.590660
8837.000000;0.590679
8836.000000;0.590644
8835.000000;0.590601
8834.000000;0.590550
8833.000000;0.590412
8832.000000;0.590151
8831.000000;0.589891
8830.000000;0.589832
8829.000000;0.590034
8828.000000;0.590305
8827.000000;0.590374
8826.000000;0.590162
8825.000000;0.589831
8824.000000;0.589576
8823.000000;0.589442
8822.000000;0.589391
8821.000000;0.589440
8820.000000;0.589623
8819.000000;0.589867
8818.000000;0.590031
8817.000000;0.590068
8816.000000;0.590060
8815.000000;0.590065
8814.000000;0.590037
8813.000000;0.589929
8812.000000;0.589777
8811.000000;0.589639
8810.000000;0.589507
8809.000000;0.589339
8808.000000;0.589133
8807.000000;0.588925
8806.000000;0.588763
8805.000000;0.588705
8804.000000;0.588785
8803.000000;0.588941
8802.000000;0.589010
8801.000000;0.588871
8800.000000;0.588571
8799.000000;0.588291
8798.000000;0.588180
8797.000000;0.588259
8796.000000;0.588436
8795.000000;0.588593
8794.000000;0.588661
8793.000000;0.588641
8792.000000;0.588573
8791.000000;0.588497
8790.000000;0.588446
8789.000000;0.588450
8788.000000;0.588510
8787.000000;0.588555
8786.000000;0.588502
8785.000000;0.588358
8784.000000;0.588243
8783.000000;0.588283
8782.000000;0.588491
8781.000000;0.588741
8780.000000;0.588859
8779.000000;0.588750
8778.000000;0.588487
8777.000000;0.588263
8776.000000;0.588224
8775.000000;0.588324
8774.000000;0.588374
8773.000000;0.588229
8772.000000;0.587920
8771.000000;0.587613
8770.000000;0.587463
8769.000000;0.587481
8768.000000;0.587531
8767.000000;0.587462
8766.000000;0.587265
8765.000000;0.587053
8764.000000;0.586898
8763.000000;0.586776
8762.000000;0.586696
8761.000000;0.586767
8760.000000;0.587037
8759.000000;0.587351
8758.000000;0.587506
8757.000000;0.587495
8756.000000;0.587471
8755.000000;0.587500
8754.000000;0.587509
8753.000000;0.587471
8752.000000;0.587458
8751.000000;0.587487
8750.000000;0.587447
8749.000000;0.587270
8748.000000;0.587062
8747.000000;0.586984
8746.000000;0.587055
8745.000000;0.587164
8744.000000;0.587197
8743.000000;0.587126
8742.000000;0.587005
8741.000000;0.586939
8740.000000;0.587001
8739.000000;0.587152
8738.000000;0.587278
8737.000000;0.587324
8736.000000;0.587322
8735.000000;0.587291
8734.000000;0.587185
8733.000000;0.586976
8732.000000;0.586735
8731.000000;0.586554
8730.000000;0.586474
8729.000000;0.586500
8728.000000;0.586626
8727.000000;0.586787
8726.000000;0.586852
8725.000000;0.586736
8724.000000;0.586500
8723.000000;0.586290
8722.000000;0.586211
8721.000000;0.586285
8720.000000;0.586461
8719.000000;0.586632
8718.000000;0.586671
8717.000000;0.586533
8716.000000;0.586298
8715.000000;0.586096
8714.000000;0.586022
8713.000000;0.586105
8712.000000;0.586304
8711.000000;0.586494
8710.000000;0.586524
8709.000000;0.586353
8708.000000;0.586108
8707.000000;0.585969
8706.000000;0.586017
8705.000000;0.586202
8704.000000;0.586410
8703.000000;0.586522
8702.000000;0.586476
8701.000000;0.586328
8700.000000;0.586224
8699.000000;0.586251
8698.000000;0.586350
8697.000000;0.586391
8696.000000;0.586323
8695.000000;0.586205
8694.000000;0.586116
8693.000000;0.586077
8692.000000;0.586060
8691.000000;0.586029
8690.000000;0.585976
8689.000000;0.585905
8688.000000;0.585794
8687.000000;0.585598
8686.000000;0.585331
8685.000000;0.585129
8684.000000;0.585126
8683.000000;0.585273
8682.000000;0.585369
8681.000000;0.585311
8680.000000;0.585224
8679.000000;0.585269
8678.000000;0.585407
8677.000000;0.585456
8676.000000;0.585332
8675.000000;0.585122
8674.000000;0.584938
8673.000000;0.584788
8672.000000;0.584645
8671.000000;0.584525
8670.000000;0.584454
8669.000000;0.584395
8668.000000;0.584284
8667.000000;0.584115
8666.000000;0.583952
8665.000000;0.583846
8664.000000;0.583792
8663.000000;0.583755
8662.000000;0.583737
8661.000000;0.583769
8660.000000;0.583850
8659.000000;0.583927
8658.000000;0.583929
8657.000000;0.583823
8656.000000;0.583634
8655.000000;0.583415
8654.000000;0.583218
8653.000000;0.583085
8652.000000;0.583036
8651.000000;0.583061
8650.000000;0.583107
8649.000000;0.583068
8648.000000;0.582847
8647.000000;0.582463
8646.000000;0.582094
8645.000000;0.581934
8644.000000;0.581997
8643.000000;0.582103
8642.000000;0.582069
8641.000000;0.581874
8640.000000;0.581616
8639.000000;0.581376
8638.000000;0.581175
8637.000000;0.581019
8636.000000;0.580916
8635.000000;0.580878
8634.000000;0.580925
8633.000000;0.581078
8632.000000;0.581291
8631.000000;0.581452
8630.000000;0.581483
8629.000000;0.581405
8628.000000;0.581265
8627.000000;0.581053
8626.000000;0.580766
8625.000000;0.580469
8624.000000;0.580217
8623.000000;0.579975
8622.000000;0.579721
8621.000000;0.579570
8620.000000;0.579639
8619.000000;0.579824
8618.000000;0.579852
8617.000000;0.579615
8616.000000;0.579299
8615.000000;0.579142
8614.000000;0.579175
8613.000000;0.579272
8612.000000;0.579340
8611.000000;0.579374
8610.000000;0.579367
8609.000000;0.579286
8608.000000;0.579118
8607.000000;0.578882
8606.000000;0.578600
8605.000000;0.578307
8604.000000;0.578063
8603.000000;0.577927
8602.000000;0.577909
8601.000000;0.577945
8600.000000;0.577918
8599.000000;0.577727
8598.000000;0.577386
8597.000000;0.577055
8596.000000;0.576918
8595.000000;0.576997
8594.000000;0.577122
8593.000000;0.577099
8592.000000;0.576891
8591.000000;0.576614
8590.000000;0.576405
8589.000000;0.576287
8588.000000;0.576172
8587.000000;0.575968
8586.000000;0.575712
8585.000000;0.575555
8584.000000;0.575587
8583.000000;0.575699
8582.000000;0.575693
8581.000000;0.575503
8580.000000;0.575253
8579.000000;0.575109
8578.000000;0.575132
8577.000000;0.575277
8576.000000;0.575436
8575.000000;0.575458
8574.000000;0.575247
8573.000000;0.574880
8572.000000;0.574563
8571.000000;0.574413
8570.000000;0.574340
8569.000000;0.574190
8568.000000;0.573938
8567.000000;0.573683
8566.000000;0.573495
8565.000000;0.573363
8564.000000;0.573262
8563.000000;0.573189
8562.000000;0.573133
8561.000000;0.573052
8560.000000;0.572935
8559.000000;0.572829
8558.000000;0.572780
8557.000000;0.572757
8556.000000;0.572679
8555.000000;0.572525
8554.000000;0.572374
8553.000000;0.572313
8552.000000;0.572313
8551.000000;0.572277
8550.000000;0.572202
8549.000000;0.572217
8548.000000;0.572398
8547.000000;0.572608
8546.000000;0.572619
8545.000000;0.572364
8544.000000;0.571987
8543.000000;0.571645
8542.000000;0.571368
8541.000000;0.571133
8540.000000;0.570982
8539.000000;0.570985
8538.000000;0.571126
8537.000000;0.571298
8536.000000;0.571383
8535.000000;0.571331
8534.000000;0.571156
8533.000000;0.570909
8532.000000;0.570638
8531.000000;0.570352
8530.000000;0.570042
8529.000000;0.569720
8528.000000;0.569435
8527.000000;0.569243
8526.000000;0.569169
8525.000000;0.569183
8524.000000;0.569188
8523.000000;0.569071
8522.000000;0.568805
8521.000000;0.568485
8520.000000;0.568254
8519.000000;0.568181
8518.000000;0.568250
8517.000000;0.568413
8516.000000;0.568601
8515.000000;0.568710
8514.000000;0.568652
8513.000000;0.568448
8512.000000;0.568199
8511.000000;0.567968
8510.000000;0.567750
8509.000000;0.567560
8508.000000;0.567484
8507.000000;0.567576
8506.000000;0.567778
8505.000000;0.567950
8504.000000;0.567983
8503.000000;0.567844
8502.000000;0.567561
8501.000000;0.567182
8500.000000;0.566761
8499.000000;0.566350
8498.000000;0.566011
8497.000000;0.565806
8496.000000;0.565744
8495.000000;0.565773
8494.000000;0.565837
8493.000000;0.565925
8492.000000;0.566029
8491.000000;0.566078
8490.000000;0.565990
8489.000000;0.565777
8488.000000;0.565559
8487.000000;0.565452
8486.000000;0.565484
8485.000000;0.565598
8484.000000;0.565680
8483.000000;0.565584
8482.000000;0.565241
8481.000000;0.564738
8480.000000;0.564274
8479.000000;0.564002
8478.000000;0.563951
8477.000000;0.564051
8476.000000;0.564178
8475.000000;0.564190
8474.000000;0.564024
8473.000000;0.563780
8472.000000;0.563643
8471.000000;0.563686
8470.000000;0.563814
8469.000000;0.563896
8468.000000;0.563888
8467.000000;0.563802
8466.000000;0.563665
8465.000000;0.563522
8464.000000;0.563415
8463.000000;0.563306
8462.000000;0.563110
8461.000000;0.562842
8460.000000;0.562659
8459.000000;0.562675
8458.000000;0.562797
8457.000000;0.562834
8456.000000;0.562722
8455.000000;0.562554
8454.000000;0.562422
8453.000000;0.562315
8452.000000;0.562184
8451.000000;0.562015
8450.000000;0.561819
8449.000000;0.561610
8448.000000;0.561412
8447.000000;0.561264
8446.000000;0.561187
8445.000000;0.561160
8444.000000;0.561140
8443.000000;0.561088
8442.000000;0.560998
8441.000000;0.560906
8440.000000;0.560862
8439.000000;0.560885
8438.000000;0.560929
8437.000000;0.560918
8436.000000;0.560819
8435.000000;0.560673
8434.000000;0.560551
8433.000000;0.560470
8432.000000;0.560377
8431.000000;0.560228
8430.000000;0.560066
8429.000000;0.559980
8428.000000;0.559986
8427.000000;0.559988
8426.000000;0.559890
8425.000000;0.559710
8424.000000;0.559529
8423.000000;0.559376
8422.000000;0.559222
8421.000000;0.559069
8420.000000;0.558970
8419.000000;0.558938
8418.000000;0.558893
8417.000000;0.558748
8416.000000;0.558509
8415.000000;0.558267
8414.000000;0.558112
8413.000000;0.558053
8412.000000;0.558016
8411.000000;0.557926
8410.000000;0.557804
8409.000000;0.557753
8408.000000;0.557815
8407.000000;0.557897
8406.000000;0.557866
8405.000000;0.557702
8404.000000;0.557491
8403.000000;0.557308
8402.000000;0.557183
8401.000000;0.557161
8400.000000;0.557266
8399.000000;0.557406
8398.000000;0.557428
8397.000000;0.557299
8396.000000;0.557147
8395.000000;0.557068
8394.000000;0.557006
8393.000000;0.556876
8392.000000;0.556725
8391.000000;0.556662
8390.000000;0.556690
8389.000000;0.556691
8388.000000;0.556577
8387.000000;0.556365
8386.000000;0.556121
8385.000000;0.555892
8384.000000;0.555706
8383.000000;0.555578
8382.000000;0.555510
8381.000000;0.555490
8380.000000;0.555501
8379.000000;0.555495
8378.000000;0.555403
8377.000000;0.555195
8376.000000;0.554947
8375.000000;0.554787
8374.000000;0.554778
8373.000000;0.554872
8372.000000;0.554972
8371.000000;0.555005
8370.000000;0.554946
8369.000000;0.554800
8368.000000;0.554601
8367.000000;0.554403
8366.000000;0.554257
8365.000000;0.554185
8364.000000;0.554161
8363.000000;0.554109
8362.000000;0.553941
8361.000000;0.553623
8360.000000;0.553228
8359.000000;0.552894
8358.000000;0.552721
8357.000000;0.552698
8356.000000;0.552737
8355.000000;0.552768
8354.000000;0.552782
8353.000000;0.552787
8352.000000;0.552764
8351.000000;0.552676
8350.000000;0.552529
8349.000000;0.552371
8348.000000;0.552237
8347.000000;0.552121
8346.000000;0.552022
8345.000000;0.551966
8344.000000;0.551966
8343.000000;0.551985
8342.000000;0.551985
8341.000000;0.551967
8340.000000;0.551942
8339.000000;0.551882
8338.000000;0.551753
8337.000000;0.551600
8336.000000;0.551501
8335.000000;0.551455
8334.000000;0.551359
8333.000000;0.551134
8332.000000;0.550822
8331.000000;0.550541
8330.000000;0.550364
8329.000000;0.550279
8328.000000;0.550227
8327.000000;0.550166
8326.000000;0.550107
8325.000000;0.550091
8324.000000;0.550134
8323.000000;0.550200
8322.000000;0.550242
8321.000000;0.550254
8320.000000;0.550244
8319.000000;0.550179
8318.000000;0.550009
8317.000000;0.549753
8316.000000;0.549509
8315.000000;0.549364
8314.000000;0.549324
8313.000000;0.549341
8312.000000;0.549353
8311.000000;0.549308
8310.000000;0.549188
8309.000000;0.549056
8308.000000;0.549010
8307.000000;0.549055
8306.000000;0.549071
8305.000000;0.548931
8304.000000;0.548649
8303.000000;0.548364
8302.000000;0.548201
8301.000000;0.548180
8300.000000;0.548234
8299.000000;0.548281
8298.000000;0.548272
8297.000000;0.548201
8296.000000;0.548092
8295.000000;0.547971
8294.000000;0.547861
8293.000000;0.547775
8292.000000;0.547716
8291.000000;0.547666
8290.000000;0.547598
8289.000000;0.547502
8288.000000;0.547377
8287.000000;0.547216
8286.000000;0.547010
8285.000000;0.546794
8284.000000;0.546628
8283.000000;0.546549
8282.000000;0.546545
8281.000000;0.546604
8280.000000;0.546728
8279.000000;0.546892
8278.000000;0.547008
8277.000000;0.546976
8276.000000;0.546776
8275.000000;0.546481
8274.000000;0.546213
8273.000000;0.546071
8272.000000;0.546090
8271.000000;0.546213
8270.000000;0.546305
8269.000000;0.546241
8268.000000;0.545997
8267.000000;0.545677
8266.000000;0.545423
8265.000000;0.545304
8264.000000;0.545287
8263.000000;0.545311
8262.000000;0.545336
8261.000000;0.545327
8260.000000;0.545226
8259.000000;0.545008
8258.000000;0.544750
8257.000000;0.544594
8256.000000;0.544594
8255.000000;0.544659
8254.000000;0.544676
8253.000000;0.544637
8252.000000;0.544608
8251.000000;0.544604
8250.000000;0.544571
8249.000000;0.544483
8248.000000;0.544384
8247.000000;0.544307
8246.000000;0.544223
8245.000000;0.544071
8244.000000;0.543836
8243.000000;0.543571
8242.000000;0.543362
8241.000000;0.543266
8240.000000;0.543256
8239.000000;0.543244
8238.000000;0.543168
8237.000000;0.543065
8236.000000;0.543007
8235.000000;0.543004
8234.000000;0.543014
8233.000000;0.543023
8232.000000;0.543047
8231.000000;0.543057
8230.000000;0.542980
8229.000000;0.542804
8228.000000;0.542608
8227.000000;0.542463
8226.000000;0.542352
8225.000000;0.542232
8224.000000;0.542118
8223.000000;0.542055
8222.000000;0.542036
8221.000000;0.542015
8220.000000;0.541977
8219.000000;0.541942
8218.000000;0.541905
8217.000000;0.541836
8216.000000;0.541734
8215.000000;0.541647
8214.000000;0.541621
8213.000000;0.541647
8212.000000;0.541670
8211.000000;0.541625
8210.000000;0.541480
8209.000000;0.541253
8208.000000;0.541018
8207.000000;0.540855
8206.000000;0.540795
8205.000000;0.540813
8204.000000;0.540871
8203.000000;0.540939
8202.000000;0.540979
8201.000000;0.540942
8200.000000;0.540801
8199.000000;0.540587
8198.000000;0.540375
8197.000000;0.540235
8196.000000;0.540186
8195.000000;0.540206
8194.000000;0.540251
8193.000000;0.540277
8192.000000;0.540258
8191.000000;0.540183
8190.000000;0.540061
8189.000000;0.539913
8188.000000;0.539763
8187.000000;0.539619
8186.000000;0.539466
8185.000000;0.539294
8184.000000;0.539118
8183.000000;0.538991
8182.000000;0.538964
8181.000000;0.539044
8180.000000;0.539185
8179.000000;0.539318
8178.000000;0.539388
8177.000000;0.539364
8176.000000;0.539237
8175.000000;0.539031
8174.000000;0.538796
8173.000000;0.538578
8172.000000;0.538407
8171.000000;0.538308
8170.000000;0.538303
8169.000000;0.538378
8168.000000;0.538457
8167.000000;0.538454
8166.000000;0.538343
8165.000000;0.538180
8164.000000;0.538041
8163.000000;0.537972
8162.000000;0.537971
8161.000000;0.537987
8160.000000;0.537953
8159.000000;0.537844
8158.000000;0.537702
8157.000000;0.537577
8156.000000;0.537455
8155.000000;0.537298
8154.000000;0.537130
8153.000000;0.537026
8152.000000;0.537007
8151.000000;0.537004
8150.000000;0.536951
8149.000000;0.536850
8148.000000;0.536730
8147.000000;0.536610
8146.000000;0.536516
8145.000000;0.536499
8144.000000;0.536573
8143.000000;0.536685
8142.000000;0.536755
8141.000000;0.536733
8140.000000;0.536590
8139.000000;0.536327
8138.000000;0.536015
8137.000000;0.535772
8136.000000;0.535661
8135.000000;0.535647
8134.000000;0.535685
8133.000000;0.535766
8132.000000;0.535853
8131.000000;0.535847
8130.000000;0.535703
8129.000000;0.535526
8128.000000;0.535455
8127.000000;0.535490
8126.000000;0.535497
8125.000000;0.535372
8124.000000;0.535121
8123.000000;0.534819
8122.000000;0.534579
8121.000000;0.534526
8120.000000;0.534690
8119.000000;0.534921
8118.000000;0.535003
8117.000000;0.534869
8116.000000;0.534639
8115.000000;0.534466
8114.000000;0.534394
8113.000000;0.534395
8112.000000;0.534428
8111.000000;0.534453
8110.000000;0.534424
8109.000000;0.534334
8108.000000;0.534215
8107.000000;0.534087
8106.000000;0.533945
8105.000000;0.533804
8104.000000;0.533697
8103.000000;0.533632
8102.000000;0.533579
8101.000000;0.533528
8100.000000;0.533505
8099.000000;0.533515
8098.000000;0.533514
8097.000000;0.533470
8096.000000;0.533403
8095.000000;0.533363
8094.000000;0.533383
8093.000000;0.533460
8092.000000;0.533544
8091.000000;0.533559
8090.000000;0.533469
8089.000000;0.533328
8088.000000;0.533222
8087.000000;0.533164
8086.000000;0.533085
8085.000000;0.532945
8084.000000;0.532785
8083.000000;0.532669
8082.000000;0.532610
8081.000000;0.532576
8080.000000;0.532518
8079.000000;0.532401
8078.000000;0.532232
8077.000000;0.532074
8076.000000;0.531984
8075.000000;0.531932
8074.000000;0.531839
8073.000000;0.531695
8072.000000;0.531583
8071.000000;0.531569
8070.000000;0.531630
8069.000000;0.531700
8068.000000;0.531725
8067.000000;0.531672
8066.000000;0.531540
8065.000000;0.531410
8064.000000;0.531389
8063.000000;0.531470
8062.000000;0.531494
8061.000000;0.531327
8060.000000;0.531017
8059.000000;0.530733
8058.000000;0.530589
8057.000000;0.530578
8056.000000;0.530649
8055.000000;0.530759
8054.000000;0.530865
8053.000000;0.530916
8052.000000;0.530891
8051.000000;0.530808
8050.000000;0.530700
8049.000000;0.530588
8048.000000;0.530475
8047.000000;0.530351
8046.000000;0.530210
8045.000000;0.530086
8044.000000;0.530039
8043.000000;0.530071
8042.000000;0.530089
8041.000000;0.529986
8040.000000;0.529757
8039.000000;0.529514
8038.000000;0.529380
8037.000000;0.529395
8036.000000;0.529513
8035.000000;0.529639
8034.000000;0.529684
8033.000000;0.529610
8032.000000;0.529436
8031.000000;0.529212
8030.000000;0.528994
8029.000000;0.528836
8028.000000;0.528790
8027.000000;0.528860
8026.000000;0.528979
8025.000000;0.529056
8024.000000;0.529042
8023.000000;0.528952
8022.000000;0.528827
8021.000000;0.528703
8020.000000;0.528602
8019.000000;0.528523
8018.000000;0.528438
8017.000000;0.528314
8016.000000;0.528150
8015.000000;0.527987
8014.000000;0.527884
8013.000000;0.527869
8012.000000;0.527918
8011.000000;0.527971
8010.000000;0.527970
8009.000000;0.527902
8008.000000;0.527792
8007.000000;0.527686
8006.000000;0.527618
8005.000000;0.527600
8004.000000;0.527615
8003.000000;0.527623
8002.000000;0.527595
8001.000000;0.527544
8000.000000;0.527513
7999.000000;0.527522
7998.000000;0.527541
7997.000000;0.527515
7996.000000;0.527417
7995.000000;0.527265
7994.000000;0.527112
7993.000000;0.527016
7992.000000;0.526990
7991.000000;0.526993
7990.000000;0.526950
7989.000000;0.526823
7988.000000;0.526645
7987.000000;0.526491
7986.000000;0.526418
7985.000000;0.526420
7984.000000;0.526436
7983.000000;0.526399
7982.000000;0.526299
7981.000000;0.526189
7980.000000;0.526128
7979.000000;0.526114
7978.000000;0.526089
7977.000000;0.526027
7976.000000;0.525965
7975.000000;0.525953
7974.000000;0.525990
7973.000000;0.526024
7972.000000;0.526005
7971.000000;0.525912
7970.000000;0.525758
7969.000000;0.525588
7968.000000;0.525468
7967.000000;0.525444
7966.000000;0.525500
7965.000000;0.525564
7964.000000;0.525560
7963.000000;0.525462
7962.000000;0.525312
7961.000000;0.525174
7960.000000;0.525081
7959.000000;0.525006
7958.000000;0.524906
7957.000000;0.524771
7956.000000;0.524625
7955.000000;0.524485
7954.000000;0.524345
7953.000000;0.524229
7952.000000;0.524198
7951.000000;0.524278
7950.000000;0.524392
7949.000000;0.524422
7948.000000;0.524343
7947.000000;0.524243
7946.000000;0.524206
7945.000000;0.524206
7944.000000;0.524150
7943.000000;0.524012
7942.000000;0.523856
7941.000000;0.523745
7940.000000;0.523683
7939.000000;0.523647
7938.000000;0.523635
7937.000000;0.523648
7936.000000;0.523657
7935.000000;0.523635
7934.000000;0.523602
7933.000000;0.523595
7932.000000;0.523599
7931.000000;0.523546
7930.000000;0.523402
7929.000000;0.523205
7928.000000;0.523019
7927.000000;0.522876
7926.000000;0.522791
7925.000000;0.522789
7924.000000;0.522882
7923.000000;0.523032
7922.000000;0.523165
7921.000000;0.523224
7920.000000;0.523190
7919.000000;0.523065
7918.000000;0.522861
7917.000000;0.522620
7916.000000;0.522419
7915.000000;0.522329
7914.000000;0.522355
7913.000000;0.522417
7912.000000;0.522401
7911.000000;0.522255
7910.000000;0.522048
7909.000000;0.521900
7908.000000;0.521869
7907.000000;0.521910
7906.000000;0.521939
7905.000000;0.521912
7904.000000;0.521846
7903.000000;0.521775
7902.000000;0.521720
7901.000000;0.521679
7900.000000;0.521630
7899.000000;0.521556
7898.000000;0.521459
7897.000000;0.521354
7896.000000;0.521245
7895.000000;0.521143
7894.000000;0.521090
7893.000000;0.521125
7892.000000;0.521215
7891.000000;0.521257
7890.000000;0.521194
7889.000000;0.521076
7888.000000;0.520998
7887.000000;0.520993
7886.000000;0.521017
7885.000000;0.521013
7884.000000;0.520954
7883.000000;0.520832
7882.000000;0.520655
7881.000000;0.520447
7880.000000;0.520251
7879.000000;0.520114
7878.000000;0.520069
7877.000000;0.520104
7876.000000;0.520143
7875.000000;0.520101
7874.000000;0.519967
7873.000000;0.519820
7872.000000;0.519743
7871.000000;0.519743
7870.000000;0.519781
7869.000000;0.519824
7868.000000;0.519840
7867.000000;0.519796
7866.000000;0.519690
7865.000000;0.519571
7864.000000;0.519479
7863.000000;0.519411
7862.000000;0.519365
7861.000000;0.519378
7860.000000;0.519461
7859.000000;0.519543
7858.000000;0.519541
7857.000000;0.519465
7856.000000;0.519386
7855.000000;0.519327
7854.000000;0.519261
7853.000000;0.519192
7852.000000;0.519157
7851.000000;0.519140
7850.000000;0.519069
7849.000000;0.518924
7848.000000;0.518771
7847.000000;0.518658
7846.000000;0.518563
7845.000000;0.518459
7844.000000;0.518377
7843.000000;0.518348
7842.000000;0.518336
7841.000000;0.518281
7840.000000;0.518181
7839.000000;0.518100
7838.000000;0.518085
7837.000000;0.518130
7836.000000;0.518190
7835.000000;0.518212
7834.000000;0.518169
7833.000000;0.518070
7832.000000;0.517947
7831.000000;0.517823
7830.000000;0.517707
7829.000000;0.517621
7828.000000;0.517586
7827.000000;0.517582
7826.000000;0.517558
7825.000000;0.517499
7824.000000;0.517447
7823.000000;0.517430
7822.000000;0.517417
7821.000000;0.517365
7820.000000;0.517282
7819.000000;0.517212
7818.000000;0.517171
7817.000000;0.517144
7816.000000;0.517122
7815.000000;0.517108
7814.000000;0.517079
7813.000000;0.517002
7812.000000;0.516885
7811.000000;0.516784
7810.000000;0.516750
7809.000000;0.516770
7808.000000;0.516780
7807.000000;0.516716
7806.000000;0.516574
7805.000000;0.516410
7804.000000;0.516303
7803.000000;0.516292
7802.000000;0.516340
7801.000000;0.516362
7800.000000;0.516278
7799.000000;0.516087
7798.000000;0.515872
7797.000000;0.515746
7796.000000;0.515752
7795.000000;0.515832
7794.000000;0.515899
7793.000000;0.515922
7792.000000;0.515904
7791.000000;0.515831
7790.000000;0.515676
7789.000000;0.515477
7788.000000;0.515340
7787.000000;0.515338
7786.000000;0.515429
7785.000000;0.515509
7784.000000;0.515502
7783.000000;0.515391
7782.000000;0.515203
7781.000000;0.515002
7780.000000;0.514876
7779.000000;0.514873
7778.000000;0.514946
7777.000000;0.514995
7776.000000;0.514971
7775.000000;0.514907
7774.000000;0.514844
7773.000000;0.514776
7772.000000;0.514675
7771.000000;0.514546
7770.000000;0.514437
7769.000000;0.514390
7768.000000;0.514409
7767.000000;0.514449
7766.000000;0.514452
7765.000000;0.514381
7764.000000;0.514258
7763.000000;0.514151
7762.000000;0.514113
7761.000000;0.514131
7760.000000;0.514129
7759.000000;0.514041
7758.000000;0.513878
7757.000000;0.513725
7756.000000;0.513643
7755.000000;0.513611
7754.000000;0.513555
7753.000000;0.513451
7752.000000;0.513355
7751.000000;0.513331
7750.000000;0.513351
7749.000000;0.513315
7748.000000;0.513164
7747.000000;0.512948
7746.000000;0.512766
7745.000000;0.512666
7744.000000;0.512631
7743.000000;0.512635
7742.000000;0.512674
7741.000000;0.512741
7740.000000;0.512802
7739.000000;0.512825
7738.000000;0.512828
7737.000000;0.512843
7736.000000;0.512859
7735.000000;0.512820
7734.000000;0.512687
7733.000000;0.512499
7732.000000;0.512344
7731.000000;0.512282
7730.000000;0.512287
7729.000000;0.512271
7728.000000;0.512164
7727.000000;0.511985
7726.000000;0.511831
7725.000000;0.511778
7724.000000;0.511812
7723.000000;0.511853
7722.000000;0.511851
7721.000000;0.511821
7720.000000;0.511785
7719.000000;0.511734
7718.000000;0.511649
7717.000000;0.511544
7716.000000;0.511455
7715.000000;0.511403
7714.000000;0.511381
7713.000000;0.511358
7712.000000;0.511290
7711.000000;0.511143
7710.000000;0.510941
7709.000000;0.510760
7708.000000;0.510663
7707.000000;0.510645
7706.000000;0.510671
7705.000000;0.510733
7704.000000;0.510832
7703.000000;0.510924
7702.000000;0.510934
7701.000000;0.510832
7700.000000;0.510668
7699.000000;0.510529
7698.000000;0.510468
7697.000000;0.510483
7696.000000;0.510524
7695.000000;0.510530
7694.000000;0.510498
7693.000000;0.510488
7692.000000;0.510556
7691.000000;0.510663
7690.000000;0.510700
7689.000000;0.510599
7688.000000;0.510388
7687.000000;0.510152
7686.000000;0.509955
7685.000000;0.509828
7684.000000;0.509773
7683.000000;0.509758
7682.000000;0.509737
7681.000000;0.509686
7680.000000;0.509615
7679.000000;0.509551
7678.000000;0.509511
7677.000000;0.509507
7676.000000;0.509529
7675.000000;0.509531
7674.000000;0.509456
7673.000000;0.509303
7672.000000;0.509149
7671.000000;0.509063
7670.000000;0.509041
7669.000000;0.509019
7668.000000;0.508962
7667.000000;0.508889
7666.000000;0.508832
7665.000000;0.508799
7664.000000;0.508773
7663.000000;0.508739
7662.000000;0.508688
7661.000000;0.508624
7660.000000;0.508566
7659.000000;0.508535
7658.000000;0.508546
7657.000000;0.508593
7656.000000;0.508643
7655.000000;0.508645
7654.000000;0.508554
7653.000000;0.508374
7652.000000;0.508161
7651.000000;0.507994
7650.000000;0.507921
7649.000000;0.507933
7648.000000;0.507985
7647.000000;0.508030
7646.000000;0.508044
7645.000000;0.508030
7644.000000;0.507997
7643.000000;0.507943
7642.000000;0.507865
7641.000000;0.507782
7640.000000;0.507718
7639.000000;0.507663
7638.000000;0.507565
7637.000000;0.507394
7636.000000;0.507199
7635.000000;0.507068
7634.000000;0.507045
7633.000000;0.507095
7632.000000;0.507158
7631.000000;0.507210
7630.000000;0.507242
7629.000000;0.507232
7628.000000;0.507149
7627.000000;0.507002
7626.000000;0.506847
7625.000000;0.506737
7624.000000;0.506686
7623.000000;0.506685
7622.000000;0.506723
7621.000000;0.506788
7620.000000;0.506855
7619.000000;0.506896
7618.000000;0.506886
7617.000000;0.506802
7616.000000;0.506638
7615.000000;0.506440
7614.000000;0.506299
7613.000000;0.506275
7612.000000;0.506332
7611.000000;0.506387
7610.000000;0.506390
7609.000000;0.506347
7608.000000;0.506272
7607.000000;0.506178
7606.000000;0.506105
7605.000000;0.506103
7604.000000;0.506153
7603.000000;0.506168
7602.000000;0.506099
7601.000000;0.506004
7600.000000;0.505967
7599.000000;0.505974
7598.000000;0.505937
7597.000000;0.505819
7596.000000;0.505685
7595.000000;0.505617
7594.000000;0.505619
7593.000000;0.505628
7592.000000;0.505586
7591.000000;0.505489
7590.000000;0.505385
7589.000000;0.505324
7588.000000;0.505322
7587.000000;0.505365
7586.000000;0.505428
7585.000000;0.505481
7584.000000;0.505476
7583.000000;0.505365
7582.000000;0.505169
7581.000000;0.504991
7580.000000;0.504934
7579.000000;0.504991
7578.000000;0.505057
7577.000000;0.505049
7576.000000;0.504980
7575.000000;0.504922
7574.000000;0.504927
7573.000000;0.504986
7572.000000;0.505040
7571.000000;0.505029
7570.000000;0.504945
7569.000000;0.504848
7568.000000;0.504809
7567.000000;0.504837
7566.000000;0.504880
7565.000000;0.504891
7564.000000;0.504872
7563.000000;0.504834
7562.000000;0.504764
7561.000000;0.504653
7560.000000;0.504525
7559.000000;0.504418
7558.000000;0.504345
7557.000000;0.504303
7556.000000;0.504298
7555.000000;0.504333
7554.000000;0.504376
7553.000000;0.504369
7552.000000;0.504281
7551.000000;0.504152
7550.000000;0.504057
7549.000000;0.504047
7548.000000;0.504105
7547.000000;0.504174
7546.000000;0.504197
7545.000000;0.504159
7544.000000;0.504082
7543.000000;0.504003
7542.000000;0.503956
7541.000000;0.503958
7540.000000;0.503998
7539.000000;0.504038
7538.000000;0.504031
7537.000000;0.503962
7536.000000;0.503855
7535.000000;0.503752
7534.000000;0.503688
7533.000000;0.503684
7532.000000;0.503732
7531.000000;0.503795
7530.000000;0.503829
7529.000000;0.503838
7528.000000;0.503867
7527.000000;0.503940
7526.000000;0.504013
7525.000000;0.504023
7524.000000;0.503970
7523.000000;0.503911
7522.000000;0.503883
7521.000000;0.503858
7520.000000;0.503806
7519.000000;0.503744
7518.000000;0.503714
7517.000000;0.503722
7516.000000;0.503747
7515.000000;0.503782
7514.000000;0.503824
7513.000000;0.503834
7512.000000;0.503758
7511.000000;0.503605
7510.000000;0.503452
7509.000000;0.503363
7508.000000;0.503327
7507.000000;0.503299
7506.000000;0.503271
7505.000000;0.503263
7504.000000;0.503271
7503.000000;0.503279
7502.000000;0.503297
7501.000000;0.503352
7500.000000;0.503432
7499.000000;0.503495
7498.000000;0.503525
7497.000000;0.503549
7496.000000;0.503581
7495.000000;0.503586
7494.000000;0.503526
7493.000000;0.503439
7492.000000;0.503394
7491.000000;0.503425
7490.000000;0.503497
7489.000000;0.503552
7488.000000;0.503560
7487.000000;0.503530
7486.000000;0.503478
7485.000000;0.503401
7484.000000;0.503302
7483.000000;0.503214
7482.000000;0.503199
7481.000000;0.503280
7480.000000;0.503406
7479.000000;0.503487
7478.000000;0.503481
7477.000000;0.503422
7476.000000;0.503374
7475.000000;0.503381
7474.000000;0.503450
7473.000000;0.503549
7472.000000;0.503610
7471.000000;0.503579
7470.000000;0.503472
7469.000000;0.503377
7468.000000;0.503371
7467.000000;0.503451
7466.000000;0.503552
7465.000000;0.503611
7464.000000;0.503593
7463.000000;0.503495
7462.000000;0.503338
7461.000000;0.503175
7460.000000;0.503071
7459.000000;0.503058
7458.000000;0.503118
7457.000000;0.503210
7456.000000;0.503308
7455.000000;0.503415
7454.000000;0.503531
7453.000000;0.503622
7452.000000;0.503641
7451.000000;0.503583
7450.000000;0.503512
7449.000000;0.503500
7448.000000;0.503558
7447.000000;0.503640
7446.000000;0.503705
7445.000000;0.503742
7444.000000;0.503728
7443.000000;0.503636
7442.000000;0.503489
7441.000000;0.503379
7440.000000;0.503388
7439.000000;0.503506
7438.000000;0.503653
7437.000000;0.503763
7436.000000;0.503821
7435.000000;0.503840
7434.000000;0.503830
7433.000000;0.503813
7432.000000;0.503813
7431.000000;0.503850
7430.000000;0.503912
7429.000000;0.503964
7428.000000;0.503977
7427.000000;0.503967
7426.000000;0.503979
7425.000000;0.504037
7424.000000;0.504096
7423.000000;0.504090
7422.000000;0.504014
7421.000000;0.503932
7420.000000;0.503898
7419.000000;0.503893
7418.000000;0.503869
7417.000000;0.503821
7416.000000;0.503797
7415.000000;0.503841
7414.000000;0.503953
7413.000000;0.504095
7412.000000;0.504212
7411.000000;0.504266
7410.000000;0.504271
7409.000000;0.504277
7408.000000;0.504324
7407.000000;0.504395
7406.000000;0.504444
7405.000000;0.504440
7404.000000;0.504392
7403.000000;0.504336
7402.000000;0.504311
7401.000000;0.504334
7400.000000;0.504395
7399.000000;0.504469
7398.000000;0.504554
7397.000000;0.504656
7396.000000;0.504739
7395.000000;0.504728
7394.000000;0.504597
7393.000000;0.504426
7392.000000;0.504341
7391.000000;0.504391
7390.000000;0.504519
7389.000000;0.504640
7388.000000;0.504716
7387.000000;0.504751
7386.000000;0.504762
7385.000000;0.504771
7384.000000;0.504809
7383.000000;0.504898
7382.000000;0.505016
7381.000000;0.505110
7380.000000;0.505135
7379.000000;0.505101
7378.000000;0.505058
7377.000000;0.505056
7376.000000;0.505095
7375.000000;0.505130
7374.000000;0.505131
7373.000000;0.505127
7372.000000;0.505173
7371.000000;0.505286
7370.000000;0.505419
7369.000000;0.505512
7368.000000;0.505568
7367.000000;0.505647
7366.000000;0.505775
7365.000000;0.505892
7364.000000;0.505921
7363.000000;0.505866
7362.000000;0.505811
7361.000000;0.505820
7360.000000;0.505874
7359.000000;0.505923
7358.000000;0.505952
7357.000000;0.505975
7356.000000;0.505990
7355.000000;0.505986
7354.000000;0.505981
7353.000000;0.506016
7352.000000;0.506114
7351.000000;0.506267
7350.000000;0.506448
7349.000000;0.506602
7348.000000;0.506661
7347.000000;0.506607
7346.000000;0.506513
7345.000000;0.506476
7344.000000;0.506513
7343.000000;0.506577
7342.000000;0.506641
7341.000000;0.506719
7340.000000;0.506815
7339.000000;0.506909
7338.000000;0.507013
7337.000000;0.507166
7336.000000;0.507360
7335.000000;0.507532
7334.000000;0.507643
7333.000000;0.507707
7332.000000;0.507741
7331.000000;0.507743
7330.000000;0.507732
7329.000000;0.507753
7328.000000;0.507807
7327.000000;0.507854
7326.000000;0.507913
7325.000000;0.508064
7324.000000;0.508331
7323.000000;0.508614
7322.000000;0.508806
7321.000000;0.508909
7320.000000;0.508995
7319.000000;0.509084
7318.000000;0.509154
7317.000000;0.509203
7316.000000;0.509248
7315.000000;0.509291
7314.000000;0.509338
7313.000000;0.509425
7312.000000;0.509552
7311.000000;0.509652
7310.000000;0.509687
7309.000000;0.509724
7308.000000;0.509850
7307.000000;0.510039
7306.000000;0.510186
7305.000000;0.510260
7304.000000;0.510335
7303.000000;0.510491
7302.000000;0.510724
7301.000000;0.510963
7300.000000;0.511126
7299.000000;0.511185
7298.000000;0.511206
7297.000000;0.511307
7296.000000;0.511526
7295.000000;0.511762
7294.000000;0.511904
7293.000000;0.511976
7292.000000;0.512098
7291.000000;0.512313
7290.000000;0.512561
7289.000000;0.512790
7288.000000;0.513018
7287.000000;0.513274
7286.000000;0.513551
7285.000000;0.513833
7284.000000;0.514112
7283.000000;0.514368
7282.000000;0.514567
7281.000000;0.514701
7280.000000;0.514815
7279.000000;0.514949
7278.000000;0.515114
7277.000000;0.515313
7276.000000;0.515553
7275.000000;0.515821
7274.000000;0.516079
7273.000000;0.516278
7272.000000;0.516403
7271.000000;0.516489
7270.000000;0.516614
7269.000000;0.516846
7268.000000;0.517165
7267.000000;0.517482
7266.000000;0.517738
7265.000000;0.517978
7264.000000;0.518273
7263.000000;0.518620
7262.000000;0.518966
7261.000000;0.519303
7260.000000;0.519665
7259.000000;0.520044
7258.000000;0.520381
7257.000000;0.520645
7256.000000;0.520855
7255.000000;0.521038
7254.000000;0.521203
7253.000000;0.521387
7252.000000;0.521642
7251.000000;0.521973
7250.000000;0.522313
7249.000000;0.522601
7248.000000;0.522841
7247.000000;0.523082
7246.000000;0.523378
7245.000000;0.523766
7244.000000;0.524235
7243.000000;0.524718
7242.000000;0.525129
7241.000000;0.525451
7240.000000;0.525746
7239.000000;0.526078
7238.000000;0.526453
7237.000000;0.526847
7236.000000;0.527257
7235.000000;0.527719
7234.000000;0.528260
7233.000000;0.528835
7232.000000;0.529293
7231.000000;0.529501
7230.000000;0.529540
7229.000000;0.529704
7228.000000;0.530201
7227.000000;0.530930
7226.000000;0.531614
7225.000000;0.532118
7224.000000;0.532532
7223.000000;0.532980
7222.000000;0.533464
7221.000000;0.533933
7220.000000;0.534382
7219.000000;0.534824
7218.000000;0.535244
7217.000000;0.535647
7216.000000;0.536086
7215.000000;0.536598
7214.000000;0.537136
7213.000000;0.537622
7212.000000;0.538038
7211.000000;0.538436
7210.000000;0.538889
7209.000000;0.539433
7208.000000;0.540032
7207.000000;0.540589
7206.000000;0.541037
7205.000000;0.541421
7204.000000;0.541846
7203.000000;0.542356
7202.000000;0.542905
7201.000000;0.543463
7200.000000;0.544044
7199.000000;0.544663
7198.000000;0.545309
7197.000000;0.545997
7196.000000;0.546754
7195.000000;0.547542
7194.000000;0.548250
7193.000000;0.548804
7192.000000;0.549239
7191.000000;0.549624
7190.000000;0.549988
7189.000000;0.550344
7188.000000;0.550728
7187.000000;0.551181
7186.000000;0.551727
7185.000000;0.552380
7184.000000;0.553133
7183.000000;0.553918
7182.000000;0.554633
7181.000000;0.555253
7180.000000;0.555856
7179.000000;0.556516
7178.000000;0.557230
7177.000000;0.557953
7176.000000;0.558634
7175.000000;0.559215
7174.000000;0.559665
7173.000000;0.560071
7172.000000;0.560597
7171.000000;0.561319
7170.000000;0.562176
7169.000000;0.563097
7168.000000;0.564075
7167.000000;0.565079
7166.000000;0.565970
7165.000000;0.566614
7164.000000;0.567048
7163.000000;0.567435
7162.000000;0.567902
7161.000000;0.568470
7160.000000;0.569102
7159.000000;0.569774
7158.000000;0.570506
7157.000000;0.571360
7156.000000;0.572387
7155.000000;0.573527
7154.000000;0.574603
7153.000000;0.575445
7152.000000;0.576026
7151.000000;0.576442
7150.000000;0.576817
7149.000000;0.577262
7148.000000;0.577854
7147.000000;0.578577
7146.000000;0.579289
7145.000000;0.579842
7144.000000;0.580245
7143.000000;0.580689
7142.000000;0.581338
7141.000000;0.582126
7140.000000;0.582806
7139.000000;0.583236
7138.000000;0.583571
7137.000000;0.584091
7136.000000;0.584872
7135.000000;0.585775
7134.000000;0.586713
7133.000000;0.587715
7132.000000;0.588662
7131.000000;0.589190
7130.000000;0.589083
7129.000000;0.588651
7128.000000;0.588480
7127.000000;0.588868
7126.000000;0.589652
7125.000000;0.590496
7124.000000;0.591124
7123.000000;0.591357
7122.000000;0.591223
7121.000000;0.591078
7120.000000;0.591350
7119.000000;0.592072
7118.000000;0.592845
7117.000000;0.593281
7116.000000;0.593364
7115.000000;0.593342
7114.000000;0.593475
7113.000000;0.593910
7112.000000;0.594566
7111.000000;0.595093
7110.000000;0.595166
7109.000000;0.594878
7108.000000;0.594590
7107.000000;0.594409
7106.000000;0.594121
7105.000000;0.593708
7104.000000;0.593532
7103.000000;0.593789
7102.000000;0.594120
7101.000000;0.594060
7100.000000;0.593632
7099.000000;0.593190
7098.000000;0.592830
7097.000000;0.592300
7096.000000;0.591454
7095.000000;0.590546
7094.000000;0.590011
7093.000000;0.590043
7092.000000;0.590386
7091.000000;0.590452
7090.000000;0.589734
7089.000000;0.588217
7088.000000;0.586419
7087.000000;0.585001
7086.000000;0.584344
7085.000000;0.584358
7084.000000;0.584531
7083.000000;0.584220
7082.000000;0.583145
7081.000000;0.581671
7080.000000;0.580431
7079.000000;0.579650
7078.000000;0.578995
7077.000000;0.578104
7076.000000;0.576971
7075.000000;0.575751
7074.000000;0.574475
7073.000000;0.573135
7072.000000;0.571827
7071.000000;0.570648
7070.000000;0.569561
7069.000000;0.568477
7068.000000;0.567321
7067.000000;0.566009
7066.000000;0.564528
7065.000000;0.563086
7064.000000;0.561922
7063.000000;0.560899
7062.000000;0.559553
7061.000000;0.557636
7060.000000;0.555389
7059.000000;0.553165
7058.000000;0.551078
7057.000000;0.549159
7056.000000;0.547562
7055.000000;0.546377
7054.000000;0.545399
7053.000000;0.544304
7052.000000;0.542916
7051.000000;0.541169
7050.000000;0.539040
7049.000000;0.536736
7048.000000;0.534750
7047.000000;0.533429
7046.000000;0.532495
7045.000000;0.531207
7044.000000;0.529008
7043.000000;0.525938
7042.000000;0.522510
7041.000000;0.519349
7040.000000;0.516835
7039.000000;0.514909
7038.000000;0.513170
7037.000000;0.511245
7036.000000;0.509058
7035.000000;0.506790
7034.000000;0.504705
7033.000000;0.503034
7032.000000;0.501819
7031.000000;0.500734
7030.000000;0.499227
7029.000000;0.497005
7028.000000;0.494305
7027.000000;0.491567
7026.000000;0.488975
7025.000000;0.486463
7024.000000;0.483983
7023.000000;0.481567
7022.000000;0.479216
7021.000000;0.476932
7020.000000;0.474836
7019.000000;0.473047
7018.000000;0.471441
7017.000000;0.469643
7016.000000;0.467286
7015.000000;0.464246
7014.000000;0.460717
7013.000000;0.457172
7012.000000;0.454161
7011.000000;0.451938
7010.000000;0.450203
7009.000000;0.448357
7008.000000;0.446083
7007.000000;0.443568
7006.000000;0.441129
7005.000000;0.438798
7004.000000;0.436386
7003.000000;0.433811
7002.000000;0.431123
7001.000000;0.428250
7000.000000;0.424945
6999.000000;0.421109
6998.000000;0.417108
6997.000000;0.413601
6996.000000;0.410965
6995.000000;0.408910
6994.000000;0.406743
6993.000000;0.404077
6992.000000;0.401225
6991.000000;0.398745
6990.000000;0.396674
6989.000000;0.394516
6988.000000;0.392054
6987.000000;0.389747
6986.000000;0.387974
6985.000000;0.386161
6984.000000;0.383212
6983.000000;0.378798
6982.000000;0.373823
6981.000000;0.369531
6980.000000;0.366547
6979.000000;0.364788
6978.000000;0.363772
6977.000000;0.362751
6976.000000;0.360975
6975.000000;0.358235
6974.000000;0.354987
6973.000000;0.351744
6972.000000;0.348586
6971.000000;0.345399
6970.000000;0.342276
6969.000000;0.339469
6968.000000;0.337195
6967.000000;0.335570
6966.000000;0.334396
6965.000000;0.332898
6964.000000;0.330209
6963.000000;0.326420
6962.000000;0.322629
6961.000000;0.319654
6960.000000;0.317239
6959.000000;0.314854
6958.000000;0.312605
6957.000000;0.310715
6956.000000;0.308682
6955.000000;0.305780
6954.000000;0.302120
6953.000000;0.298464
6952.000000;0.295229
6951.000000;0.292445
6950.000000;0.290395
6949.000000;0.289312
6948.000000;0.288459
6947.000000;0.286457
6946.000000;0.282852
6945.000000;0.278717
6944.000000;0.275397
6943.000000;0.273154
6942.000000;0.271220
6941.000000;0.268782
6940.000000;0.265726
6939.000000;0.262712
6938.000000;0.260597
6937.000000;0.259522
6936.000000;0.258641
6935.000000;0.257067
6934.000000;0.254866
6933.000000;0.252710
6932.000000;0.250786
6931.000000;0.248657
6930.000000;0.246099
6929.000000;0.243378
6928.000000;0.240665
6927.000000;0.237819
6926.000000;0.234910
6925.000000;0.232399
6924.000000;0.230629
6923.000000;0.229499
6922.000000;0.228705
6921.000000;0.227938
6920.000000;0.226819
6919.000000;0.225053
6918.000000;0.222712
6917.000000;0.220088
6916.000000;0.217351
6915.000000;0.214703
6914.000000;0.212660
6913.000000;0.211584
6912.000000;0.211028
6911.000000;0.210141
6910.000000;0.208732
6909.000000;0.207304
6908.000000;0.205985
6907.000000;0.204163
6906.000000;0.201452
6905.000000;0.198403
6904.000000;0.195940
6903.000000;0.194492
6902.000000;0.193938
6901.000000;0.193907
6900.000000;0.193806
6899.000000;0.192913
6898.000000;0.190838
6897.000000;0.187822
6896.000000;0.184500
6895.000000;0.181531
6894.000000;0.179430
6893.000000;0.178405
6892.000000;0.178161
6891.000000;0.178083
6890.000000;0.177648
6889.000000;0.176597
6888.000000;0.174865
6887.000000;0.172744
6886.000000;0.171034
6885.000000;0.170511
6884.000000;0.171044
6883.000000;0.171573
6882.000000;0.171111
6881.000000;0.169560
6880.000000;0.167530
6879.000000;0.165624
6878.000000;0.164052
6877.000000;0.162723
6876.000000;0.161522
6875.000000;0.160531
6874.000000;0.159970
6873.000000;0.159912
6872.000000;0.160149
6871.000000;0.160320
6870.000000;0.160010
6869.000000;0.158746
6868.000000;0.156337
6867.000000;0.153440
6866.000000;0.151408
6865.000000;0.151122
6864.000000;0.152163
6863.000000;0.153406
6862.000000;0.154098
6861.000000;0.154082
6860.000000;0.153416
6859.000000;0.152261
6858.000000;0.150923
6857.000000;0.149579
6856.000000;0.148157
6855.000000;0.146789
6854.000000;0.145959
6853.000000;0.145742
6852.000000;0.145360
6851.000000;0.144095
6850.000000;0.142339
6849.000000;0.141114
6848.000000;0.140873
6847.000000;0.141399
6846.000000;0.142519
6845.000000;0.144029
6844.000000;0.145154
6843.000000;0.145043
6842.000000;0.143896
6841.000000;0.142883
6840.000000;0.142802
6839.000000;0.143424
6838.000000;0.144170
6837.000000;0.144676
6836.000000;0.144629
6835.000000;0.143826
6834.000000;0.142633
6833.000000;0.141819
6832.000000;0.141727
6831.000000;0.142087
6830.000000;0.142653
6829.000000;0.143417
6828.000000;0.144128
6827.000000;0.144297
6826.000000;0.143899
6825.000000;0.143485
6824.000000;0.143331
6823.000000;0.143014
6822.000000;0.142096
6821.000000;0.140796
6820.000000;0.139754
6819.000000;0.139479
6818.000000;0.140167
6817.000000;0.141634
6816.000000;0.143274
6815.000000;0.144476
6814.000000;0.145270
6813.000000;0.146174
6812.000000;0.147320
6811.000000;0.148214
6810.000000;0.148531
6809.000000;0.148623
6808.000000;0.148971
6807.000000;0.149504
6806.000000;0.149803
6805.000000;0.149684
6804.000000;0.149344
6803.000000;0.149129
6802.000000;0.149305
6801.000000;0.149818
6800.000000;0.150261
6799.000000;0.150374
6798.000000;0.150589
6797.000000;0.151608
6796.000000;0.153332
6795.000000;0.154743
6794.000000;0.155092
6793.000000;0.154752
6792.000000;0.154643
6791.000000;0.155229
6790.000000;0.156421
6789.000000;0.158026
6788.000000;0.159719
6787.000000;0.160884
6786.000000;0.161051
6785.000000;0.160523
6784.000000;0.160134
6783.000000;0.160368
6782.000000;0.160988
6781.000000;0.161535
6780.000000;0.161855
6779.000000;0.162091
6778.000000;0.162427
6777.000000;0.163001
6776.000000;0.163883
6775.000000;0.164978
6774.000000;0.165996
6773.000000;0.166626
6772.000000;0.166786
6771.000000;0.166704
6770.000000;0.166746
6769.000000;0.167148
6768.000000;0.167916
6767.000000;0.168919
6766.000000;0.169984
6765.000000;0.170887
6764.000000;0.171447
6763.000000;0.171767
6762.000000;0.172256
6761.000000;0.173202
6760.000000;0.174392
6759.000000;0.175368
6758.000000;0.175988
6757.000000;0.176494
6756.000000;0.177066
6755.000000;0.177602
6754.000000;0.178021
6753.000000;0.178493
6752.000000;0.179214
6751.000000;0.180112
6750.000000;0.180926
6749.000000;0.181470
6748.000000;0.181751
6747.000000;0.181910
6746.000000;0.182121
6745.000000;0.182503
6744.000000;0.183105
6743.000000;0.184024
6742.000000;0.185377
6741.000000;0.187012
6740.000000;0.188368
6739.000000;0.188941
6738.000000;0.188914
6737.000000;0.189017
6736.000000;0.189702
6735.000000;0.190705
6734.000000;0.191516
6733.000000;0.191994
6732.000000;0.192342
6731.000000;0.192724
6730.000000;0.193177
6729.000000;0.193769
6728.000000;0.194566
6727.000000;0.195473
6726.000000;0.196295
6725.000000;0.196954
6724.000000;0.197533
6723.000000;0.198113
6722.000000;0.198657
6721.000000;0.199085
6720.000000;0.199417
6719.000000;0.199819
6718.000000;0.200486
6717.000000;0.201439
6716.000000;0.202474
6715.000000;0.203386
6714.000000;0.204205
6713.000000;0.205084
6712.000000;0.206000
6711.000000;0.206738
6710.000000;0.207217
6709.000000;0.207620
6708.000000;0.208123
6707.000000;0.208659
6706.000000;0.209071
6705.000000;0.209382
6704.000000;0.209751
6703.000000;0.210262
6702.000000;0.210852
6701.000000;0.211472
6700.000000;0.212151
6699.000000;0.212922
6698.000000;0.213752
6697.000000;0.214507
6696.000000;0.215035
6695.000000;0.215322
6694.000000;0.215588
6693.000000;0.216108
6692.000000;0.216932
6691.000000;0.217846
6690.000000;0.218623
6689.000000;0.219220
6688.000000;0.219699
6687.000000;0.220107
6686.000000;0.220508
6685.000000;0.221013
6684.000000;0.221672
6683.000000;0.222398
6682.000000;0.223082
6681.000000;0.223720
6680.000000;0.224382
6679.000000;0.225099
6678.000000;0.225835
6677.000000;0.226520
6676.000000;0.227071
6675.000000;0.227462
6674.000000;0.227807
6673.000000;0.228294
6672.000000;0.228998
6671.000000;0.229829
6670.000000;0.230686
6669.000000;0.231530
6668.000000;0.232278
6667.000000;0.232776
6666.000000;0.232999
6665.000000;0.233164
6664.000000;0.233534
6663.000000;0.234169
6662.000000;0.234949
6661.000000;0.235753
6660.000000;0.236496
6659.000000;0.237091
6658.000000;0.237506
6657.000000;0.237857
6656.000000;0.238317
6655.000000;0.238943
6654.000000;0.239663
6653.000000;0.240418
6652.000000;0.241212
6651.000000;0.242031
6650.000000;0.242809
6649.000000;0.243492
6648.000000;0.244072
6647.000000;0.244573
6646.000000;0.245035
6645.000000;0.245505
6644.000000;0.245990
6643.000000;0.246441
6642.000000;0.246824
6641.000000;0.247184
6640.000000;0.247593
6639.000000;0.248070
6638.000000;0.248592
6637.000000;0.249167
6636.000000;0.249819
6635.000000;0.250528
6634.000000;0.251224
6633.000000;0.251852
6632.000000;0.252393
6631.000000;0.252867
6630.000000;0.253334
6629.000000;0.253874
6628.000000;0.254498
6627.000000;0.255112
6626.000000;0.255622
6625.000000;0.256046
6624.000000;0.256469
6623.000000;0.256927
6622.000000;0.257393
6621.000000;0.257853
6620.000000;0.258331
6619.000000;0.258837
6618.000000;0.259355
6617.000000;0.259874
6616.000000;0.260389
6615.000000;0.260878
6614.000000;0.261328
6613.000000;0.261771
6612.000000;0.262243
6611.000000;0.262719
6610.000000;0.263150
6609.000000;0.263558
6608.000000;0.264039
6607.000000;0.264656
6606.000000;0.265360
6605.000000;0.266040
6604.000000;0.266614
6603.000000;0.267070
6602.000000;0.267455
6601.000000;0.267827
6600.000000;0.268210
6599.000000;0.268594
6598.000000;0.268974
6597.000000;0.269382
6596.000000;0.269835
6595.000000;0.270299
6594.000000;0.270738
6593.000000;0.271176
6592.000000;0.271672
6591.000000;0.272245
6590.000000;0.272855
6589.000000;0.273463
6588.000000;0.274042
6587.000000;0.274553
6586.000000;0.274945
6585.000000;0.275229
6584.000000;0.275498
6583.000000;0.275856
6582.000000;0.276328
6581.000000;0.276863
6580.000000;0.277394
6579.000000;0.277888
6578.000000;0.278356
6577.000000;0.278822
6576.000000;0.279296
6575.000000;0.279762
6574.000000;0.280188
6573.000000;0.280549
6572.000000;0.280851
6571.000000;0.281135
6570.000000;0.281469
6569.000000;0.281916
6568.000000;0.282471
6567.000000;0.283053
6566.000000;0.283564
6565.000000;0.283976
6564.000000;0.284336
6563.000000;0.284704
6562.000000;0.285104
6561.000000;0.285535
6560.000000;0.286002
6559.000000;0.286523
6558.000000;0.287101
6557.000000;0.287697
6556.000000;0.288241
6555.000000;0.288683
6554.000000;0.289043
6553.000000;0.289402
6552.000000;0.289820
6551.000000;0.290280
6550.000000;0.290721
6549.000000;0.291114
6548.000000;0.291506
6547.000000;0.291956
6546.000000;0.292456
6545.000000;0.292928
6544.000000;0.293304
6543.000000;0.293605
6542.000000;0.293915
6541.000000;0.294287
6540.000000;0.294692
6539.000000;0.295085
6538.000000;0.295474
6537.000000;0.295904
6536.000000;0.296363
6535.000000;0.296777
6534.000000;0.297092
6533.000000;0.297341
6532.000000;0.297607
6531.000000;0.297949
6530.000000;0.298379
6529.000000;0.298877
6528.000000;0.299410
6527.000000;0.299943
6526.000000;0.300455
6525.000000;0.300936
6524.000000;0.301364
6523.000000;0.301698
6522.000000;0.301915
6521.000000;0.302056
6520.000000;0.302222
6519.000000;0.302511
6518.000000;0.302943
6517.000000;0.303437
6516.000000;0.303871
6515.000000;0.304188
6514.000000;0.304459
6513.000000;0.304804
6512.000000;0.305256
6511.000000;0.305728
6510.000000;0.306116
6509.000000;0.306416
6508.000000;0.306700
6507.000000;0.307022
6506.000000;0.307381
6505.000000;0.307772
6504.000000;0.308206
6503.000000;0.308670
6502.000000;0.309091
6501.000000;0.309394
6500.000000;0.309588
6499.000000;0.309767
6498.000000;0.310016
6497.000000;0.310338
6496.000000;0.310683
6495.000000;0.311020
6494.000000;0.311353
6493.000000;0.311688
6492.000000;0.312014
6491.000000;0.312328
6490.000000;0.312638
6489.000000;0.312932
6488.000000;0.313198
6487.000000;0.313477
6486.000000;0.313856
6485.000000;0.314360
6484.000000;0.314888
6483.000000;0.315302
6482.000000;0.315564
6481.000000;0.315741
6480.000000;0.315917
6479.000000;0.316132
6478.000000;0.316407
6477.000000;0.316746
6476.000000;0.317110
6475.000000;0.317447
6474.000000;0.317747
6473.000000;0.318039
6472.000000;0.318334
6471.000000;0.318610
6470.000000;0.318864
6469.000000;0.319130
6468.000000;0.319430
6467.000000;0.319751
6466.000000;0.320082
6465.000000;0.320429
6464.000000;0.320790
6463.000000;0.321149
6462.000000;0.321512
6461.000000;0.321902
6460.000000;0.322307
6459.000000;0.322665
6458.000000;0.322927
6457.000000;0.323117
6456.000000;0.323295
6455.000000;0.323501
6454.000000;0.323733
6453.000000;0.323974
6452.000000;0.324218
6451.000000;0.324495
6450.000000;0.324852
6449.000000;0.325294
6448.000000;0.325739
6447.000000;0.326082
6446.000000;0.326302
6445.000000;0.326470
6444.000000;0.326652
6443.000000;0.326854
6442.000000;0.327070
6441.000000;0.327322
6440.000000;0.327614
6439.000000;0.327895
6438.000000;0.328119
6437.000000;0.328295
6436.000000;0.328470
6435.000000;0.328660
6434.000000;0.328856
6433.000000;0.329055
6432.000000;0.329272
6431.000000;0.329519
6430.000000;0.329807
6429.000000;0.330135
6428.000000;0.330464
6427.000000;0.330739
6426.000000;0.330946
6425.000000;0.331140
6424.000000;0.331373
6423.000000;0.331635
6422.000000;0.331880
6421.000000;0.332081
6420.000000;0.332251
6419.000000;0.332418
6418.000000;0.332616
6417.000000;0.332876
6416.000000;0.333182
6415.000000;0.333476
6414.000000;0.333721
6413.000000;0.333940
6412.000000;0.334171
6411.000000;0.334424
6410.000000;0.334688
6409.000000;0.334959
6408.000000;0.335210
6407.000000;0.335391
6406.000000;0.335489
6405.000000;0.335575
6404.000000;0.335731
6403.000000;0.335965
6402.000000;0.336225
6401.000000;0.336488
6400.000000;0.336772
6399.000000;0.337077
6398.000000;0.337360
6397.000000;0.337595
6396.000000;0.337802
6395.000000;0.338009
6394.000000;0.338208
6393.000000;0.338365
6392.000000;0.338469
6391.000000;0.338546
6390.000000;0.338647
6389.000000;0.338817
6388.000000;0.339067
6387.000000;0.339364
6386.000000;0.339654
6385.000000;0.339890
6384.000000;0.340052
6383.000000;0.340161
6382.000000;0.340266
6381.000000;0.340419
6380.000000;0.340624
6379.000000;0.340846
6378.000000;0.341050
6377.000000;0.341225
6376.000000;0.341368
6375.000000;0.341483
6374.000000;0.341605
6373.000000;0.341771
6372.000000;0.341981
6371.000000;0.342195
6370.000000;0.342397
6369.000000;0.342608
6368.000000;0.342831
6367.000000;0.343028
6366.000000;0.343176
6365.000000;0.343313
6364.000000;0.343469
6363.000000;0.343611
6362.000000;0.343695
6361.000000;0.343743
6360.000000;0.343830
6359.000000;0.344000
6358.000000;0.344240
6357.000000;0.344519
6356.000000;0.344784
6355.000000;0.344971
6354.000000;0.345052
6353.000000;0.345092
6352.000000;0.345186
6351.000000;0.345359
6350.000000;0.345563
6349.000000;0.345757
6348.000000;0.345938
6347.000000;0.346097
6346.000000;0.346212
6345.000000;0.346295
6344.000000;0.346392
6343.000000;0.346524
6342.000000;0.346655
6341.000000;0.346747
6340.000000;0.346811
6339.000000;0.346888
6338.000000;0.347006
6337.000000;0.347158
6336.000000;0.347323
6335.000000;0.347466
6334.000000;0.347559
6333.000000;0.347613
6332.000000;0.347673
6331.000000;0.347779
6330.000000;0.347932
6329.000000;0.348106
6328.000000;0.348260
6327.000000;0.348367
6326.000000;0.348436
6325.000000;0.348507
6324.000000;0.348611
6323.000000;0.348741
6322.000000;0.348883
6321.000000;0.349048
6320.000000;0.349245
6319.000000;0.349444
6318.000000;0.349600
6317.000000;0.349714
6316.000000;0.349818
6315.000000;0.349917
6314.000000;0.349992
6313.000000;0.350055
6312.000000;0.350148
6311.000000;0.350268
6310.000000;0.350354
6309.000000;0.350368
6308.000000;0.350353
6307.000000;0.350381
6306.000000;0.350477
6305.000000;0.350617
6304.000000;0.350762
6303.000000;0.350887
6302.000000;0.350980
6301.000000;0.351057
6300.000000;0.351149
6299.000000;0.351265
6298.000000;0.351373
6297.000000;0.351445
6296.000000;0.351488
6295.000000;0.351534
6294.000000;0.351604
6293.000000;0.351699
6292.000000;0.351806
6291.000000;0.351898
6290.000000;0.351954
6289.000000;0.351992
6288.000000;0.352062
6287.000000;0.352183
6286.000000;0.352318
6285.000000;0.352427
6284.000000;0.352517
6283.000000;0.352616
6282.000000;0.352718
6281.000000;0.352798
6280.000000;0.352861
6279.000000;0.352938
6278.000000;0.353037
6277.000000;0.353127
6276.000000;0.353182
6275.000000;0.353206
6274.000000;0.353221
6273.000000;0.353246
6272.000000;0.353300
6271.000000;0.353399
6270.000000;0.353531
6269.000000;0.353657
6268.000000;0.353739
6267.000000;0.353784
6266.000000;0.353824
6265.000000;0.353877
6264.000000;0.353935
6263.000000;0.353978
6262.000000;0.354001
6261.000000;0.354011
6260.000000;0.354016
6259.000000;0.354025
6258.000000;0.354047
6257.000000;0.354093
6256.000000;0.354157
6255.000000;0.354221
6254.000000;0.354273
6253.000000;0.354325
6252.000000;0.354397
6251.000000;0.354495
6250.000000;0.354602
6249.000000;0.354687
6248.000000;0.354725
6247.000000;0.354717
6246.000000;0.354696
6245.000000;0.354708
6244.000000;0.354772
6243.000000;0.354857
6242.000000;0.354915
6241.000000;0.354940
6240.000000;0.354967
6239.000000;0.355029
6238.000000;0.355113
6237.000000;0.355189
6236.000000;0.355244
6235.000000;0.355282
6234.000000;0.355307
6233.000000;0.355317
6232.000000;0.355316
6231.000000;0.355320
6230.000000;0.355340
6229.000000;0.355384
6228.000000;0.355463
6227.000000;0.355576
6226.000000;0.355688
6225.000000;0.355749
6224.000000;0.355740
6223.000000;0.355690
6222.000000;0.355639
6221.000000;0.355604
6220.000000;0.355584
6219.000000;0.355587
6218.000000;0.355628
6217.000000;0.355699
6216.000000;0.355762
6215.000000;0.355789
6214.000000;0.355798
6213.000000;0.355835
6212.000000;0.355922
6211.000000;0.356030
6210.000000;0.356121
6209.000000;0.356185
6208.000000;0.356243
6207.000000;0.356307
6206.000000;0.356360
6205.000000;0.356383
6204.000000;0.356378
6203.000000;0.356361
6202.000000;0.356336
6201.000000;0.356295
6200.000000;0.356245
6199.000000;0.356218
6198.000000;0.356245
6197.000000;0.356322
6196.000000;0.356416
6195.000000;0.356501
6194.000000;0.356569
6193.000000;0.356617
6192.000000;0.356633
6191.000000;0.356615
6190.000000;0.356569
6189.000000;0.356509
6188.000000;0.356448
6187.000000;0.356413
6186.000000;0.356438
6185.000000;0.356527
6184.000000;0.356633
6183.000000;0.356694
6182.000000;0.356699
6181.000000;0.356689
6180.000000;0.356699
6179.000000;0.356712
6178.000000;0.356686
6177.000000;0.356614
6176.000000;0.356525
6175.000000;0.356457
6174.000000;0.356430
6173.000000;0.356447
6172.000000;0.356503
6171.000000;0.356576
6170.000000;0.356636
6169.000000;0.356665
6168.000000;0.356670
6167.000000;0.356684
6166.000000;0.356734
6165.000000;0.356816
6164.000000;0.356901
6163.000000;0.356955
6162.000000;0.356950
6161.000000;0.356881
6160.000000;0.356771
6159.000000;0.356676
6158.000000;0.356652
6157.000000;0.356708
6156.000000;0.356791
6155.000000;0.356840
6154.000000;0.356843
6153.000000;0.356826
6152.000000;0.356810
6151.000000;0.356796
6150.000000;0.356789
6149.000000;0.356810
6148.000000;0.356872
6147.000000;0.356954
6146.000000;0.357026
6145.000000;0.357068
6144.000000;0.357077
6143.000000;0.357060
6142.000000;0.357030
6141.000000;0.357002
6140.000000;0.356979
6139.000000;0.356957
6138.000000;0.356941
6137.000000;0.356936
6136.000000;0.356934
6135.000000;0.356917
6134.000000;0.356894
6133.000000;0.356897
6132.000000;0.356943
6131.000000;0.357006
6130.000000;0.357053
6129.000000;0.357070
6128.000000;0.357065
6127.000000;0.357047
6126.000000;0.357027
6125.000000;0.357020
6124.000000;0.357032
6123.000000;0.357042
6122.000000;0.357031
6121.000000;0.357020
6120.000000;0.357042
6119.000000;0.357098
6118.000000;0.357150
6117.000000;0.357165
6116.000000;0.357148
6115.000000;0.357129
6114.000000;0.357126
6113.000000;0.357131
6112.000000;0.357125
6111.000000;0.357099
6110.000000;0.357065
6109.000000;0.357042
6108.000000;0.357032
6107.000000;0.357021
6106.000000;0.356998
6105.000000;0.356979
6104.000000;0.356987
6103.000000;0.357014
6102.000000;0.357026
6101.000000;0.357005
6100.000000;0.356971
6099.000000;0.356959
6098.000000;0.356991
6097.000000;0.357056
6096.000000;0.357120
6095.000000;0.357156
6094.000000;0.357158
6093.000000;0.357146
6092.000000;0.357145
6091.000000;0.357165
6090.000000;0.357200
6089.000000;0.357238
6088.000000;0.357265
6087.000000;0.357274
6086.000000;0.357266
6085.000000;0.357257
6084.000000;0.357253
6083.000000;0.357254
6082.000000;0.357260
6081.000000;0.357283
6080.000000;0.357319
6079.000000;0.357338
6078.000000;0.357309
6077.000000;0.357239
6076.000000;0.357166
6075.000000;0.357122
6074.000000;0.357109
6073.000000;0.357124
6072.000000;0.357172
6071.000000;0.357251
6070.000000;0.357330
6069.000000;0.357360
6068.000000;0.357313
6067.000000;0.357208
6066.000000;0.357095
6065.000000;0.357007
6064.000000;0.356946
6063.000000;0.356901
6062.000000;0.356885
6061.000000;0.356935
6060.000000;0.357061
6059.000000;0.357217
6058.000000;0.357328
6057.000000;0.357351
6056.000000;0.357307
6055.000000;0.357247
6054.000000;0.357215
6053.000000;0.357229
6052.000000;0.357277
6051.000000;0.357338
6050.000000;0.357389
6049.000000;0.357421
6048.000000;0.357448
6047.000000;0.357491
6046.000000;0.357558
6045.000000;0.357635
6044.000000;0.357691
6043.000000;0.357712
6042.000000;0.357709
6041.000000;0.357705
6040.000000;0.357703
6039.000000;0.357690
6038.000000;0.357664
6037.000000;0.357635
6036.000000;0.357614
6035.000000;0.357594
6034.000000;0.357572
6033.000000;0.357556
6032.000000;0.357550
6031.000000;0.357541
6030.000000;0.357520
6029.000000;0.357508
6028.000000;0.357535
6027.000000;0.357597
6026.000000;0.357654
6025.000000;0.357671
6024.000000;0.357642
6023.000000;0.357583
6022.000000;0.357519
6021.000000;0.357480
6020.000000;0.357492
6019.000000;0.357560
6018.000000;0.357656
6017.000000;0.357745
6016.000000;0.357805
6015.000000;0.357834
6014.000000;0.357839
6013.000000;0.357845
6012.000000;0.357879
6011.000000;0.357953
6010.000000;0.358047
6009.000000;0.358132
6008.000000;0.358195
6007.000000;0.358241
6006.000000;0.358260
6005.000000;0.358220
6004.000000;0.358102
6003.000000;0.357935
6002.000000;0.357791
6001.000000;0.357728
6000.000000;0.357751
5999.000000;0.357821
5998.000000;0.357893
5997.000000;0.357940
5996.000000;0.357956
5995.000000;0.357948
5994.000000;0.357933
5993.000000;0.357934
5992.000000;0.357961
5991.000000;0.358005
5990.000000;0.358040
5989.000000;0.358048
5988.000000;0.358027
5987.000000;0.357990
5986.000000;0.357964
5985.000000;0.357977
5984.000000;0.358036
5983.000000;0.358121
5982.000000;0.358191
5981.000000;0.358225
5980.000000;0.358228
5979.000000;0.358227
5978.000000;0.358239
5977.000000;0.358263
5976.000000;0.358294
5975.000000;0.358336
5974.000000;0.358396
5973.000000;0.358464
5972.000000;0.358523
5971.000000;0.358559
5970.000000;0.358580
5969.000000;0.358600
5968.000000;0.358624
5967.000000;0.358651
5966.000000;0.358680
5965.000000;0.358709
5964.000000;0.358740
5963.000000;0.358777
5962.000000;0.358831
5961.000000;0.358897
5960.000000;0.358939
5959.000000;0.358924
5958.000000;0.358856
5957.000000;0.358773
5956.000000;0.358711
5955.000000;0.358680
5954.000000;0.358680
5953.000000;0.358717
5952.000000;0.358792
5951.000000;0.358881
5950.000000;0.358950
5949.000000;0.358987
5948.000000;0.359004
5947.000000;0.359024
5946.000000;0.359067
5945.000000;0.359142
5944.000000;0.359236
5943.000000;0.359322
5942.000000;0.359382
5941.000000;0.359425
5940.000000;0.359471
5939.000000;0.359526
5938.000000;0.359576
5937.000000;0.359610
5936.000000;0.359629
5935.000000;0.359643
5934.000000;0.359652
5933.000000;0.359656
5932.000000;0.359663
5931.000000;0.359684
5930.000000;0.359718
5929.000000;0.359746
5928.000000;0.359757
5927.000000;0.359770
5926.000000;0.359821
5925.000000;0.359918
5924.000000;0.360027
5923.000000;0.360107
5922.000000;0.360146
5921.000000;0.360162
5920.000000;0.360169
5919.000000;0.360165
5918.000000;0.360152
5917.000000;0.360142
5916.000000;0.360141
5915.000000;0.360143
5914.000000;0.360145
5913.000000;0.360154
5912.000000;0.360180
5911.000000;0.360208
5910.000000;0.360213
5909.000000;0.360183
5908.000000;0.360135
5907.000000;0.360103
5906.000000;0.360109
5905.000000;0.360149
5904.000000;0.360206
5903.000000;0.360268
5902.000000;0.360333
5901.000000;0.360395
5900.000000;0.360434
5899.000000;0.360440
5898.000000;0.360435
5897.000000;0.360453
5896.000000;0.360512
5895.000000;0.360590
5894.000000;0.360656
5893.000000;0.360690
5892.000000;0.360689
5891.000000;0.360664
5890.000000;0.360637
5889.000000;0.360629
5888.000000;0.360650
5887.000000;0.360691
5886.000000;0.360734
5885.000000;0.360758
5884.000000;0.360748
5883.000000;0.360706
5882.000000;0.360658
5881.000000;0.360644
5880.000000;0.360694
5879.000000;0.360804
5878.000000;0.360934
5877.000000;0.361033
5876.000000;0.361075
5875.000000;0.361080
5874.000000;0.361101
5873.000000;0.361172
5872.000000;0.361278
5871.000000;0.361368
5870.000000;0.361413
5869.000000;0.361410
5868.000000;0.361372
5867.000000;0.361321
5866.000000;0.361287
5865.000000;0.361284
5864.000000;0.361296
5863.000000;0.361295
5862.000000;0.361288
5861.000000;0.361310
5860.000000;0.361374
5859.000000;0.361450
5858.000000;0.361506
5857.000000;0.361538
5856.000000;0.361554
5855.000000;0.361557
5854.000000;0.361555
5853.000000;0.361575
5852.000000;0.361626
5851.000000;0.361686
5850.000000;0.361735
5849.000000;0.361784
5848.000000;0.361860
5847.000000;0.361949
5846.000000;0.362001
5845.000000;0.361988
5844.000000;0.361930
5843.000000;0.361881
5842.000000;0.361885
5841.000000;0.361942
5840.000000;0.362014
5839.000000;0.362049
5838.000000;0.362025
5837.000000;0.361971
5836.000000;0.361939
5835.000000;0.361959
5834.000000;0.362027
5833.000000;0.362115
5832.000000;0.362201
5831.000000;0.362277
5830.000000;0.362351
5829.000000;0.362424
5828.000000;0.362478
5827.000000;0.362491
5826.000000;0.362474
5825.000000;0.362465
5824.000000;0.362491
5823.000000;0.362542
5822.000000;0.362601
5821.000000;0.362667
5820.000000;0.362737
5819.000000;0.362784
5818.000000;0.362784
5817.000000;0.362753
5816.000000;0.362737
5815.000000;0.362758
5814.000000;0.362806
5813.000000;0.362863
5812.000000;0.362919
5811.000000;0.362962
5810.000000;0.362978
5809.000000;0.362971
5808.000000;0.362963
5807.000000;0.362978
5806.000000;0.363017
5805.000000;0.363072
5804.000000;0.363125
5803.000000;0.363161
5802.000000;0.363169
5801.000000;0.363157
5800.000000;0.363151
5799.000000;0.363174
5798.000000;0.363233
5797.000000;0.363321
5796.000000;0.363429
5795.000000;0.363538
5794.000000;0.363617
5793.000000;0.363639
5792.000000;0.363612
5791.000000;0.363577
5790.000000;0.363577
5789.000000;0.363626
5788.000000;0.363702
5787.000000;0.363775
5786.000000;0.363837
5785.000000;0.363895
5784.000000;0.363951
5783.000000;0.363996
5782.000000;0.364018
5781.000000;0.364023
5780.000000;0.364025
5779.000000;0.364034
5778.000000;0.364043
5777.000000;0.364039
5776.000000;0.364017
5775.000000;0.363989
5774.000000;0.363975
5773.000000;0.363979
5772.000000;0.363976
5771.000000;0.363945
5770.000000;0.363909
5769.000000;0.363916
5768.000000;0.363990
5767.000000;0.364101
5766.000000;0.364202
5765.000000;0.364273
5764.000000;0.364316
5763.000000;0.364335
5762.000000;0.364329
5761.000000;0.364301
5760.000000;0.364267
5759.000000;0.364237
5758.000000;0.364218
5757.000000;0.364208
5756.000000;0.364202
5755.000000;0.364196
5754.000000;0.364203
5753.000000;0.364237
5752.000000;0.364287
5751.000000;0.364323
5750.000000;0.364337
5749.000000;0.364357
5748.000000;0.364400
5747.000000;0.364439
5746.000000;0.364428
5745.000000;0.364364
5744.000000;0.364294
5743.000000;0.364264
5742.000000;0.364280
5741.000000;0.364317
5740.000000;0.364347
5739.000000;0.364353
5738.000000;0.364346
5737.000000;0.364354
5736.000000;0.364398
5735.000000;0.364470
5734.000000;0.364542
5733.000000;0.364599
5732.000000;0.364644
5731.000000;0.364680
5730.000000;0.364704
5729.000000;0.364709
5728.000000;0.364698
5727.000000;0.364677
5726.000000;0.364648
5725.000000;0.364612
5724.000000;0.364567
5723.000000;0.364525
5722.000000;0.364511
5721.000000;0.364551
5720.000000;0.364640
5719.000000;0.364730
5718.000000;0.364777
5717.000000;0.364773
5716.000000;0.364739
5715.000000;0.364688
5714.000000;0.364621
5713.000000;0.364553
5712.000000;0.364512
5711.000000;0.364502
5710.000000;0.364498
5709.000000;0.364481
5708.000000;0.364471
5707.000000;0.364503
5706.000000;0.364575
5705.000000;0.364640
5704.000000;0.364660
5703.000000;0.364647
5702.000000;0.364643
5701.000000;0.364673
5700.000000;0.364729
5699.000000;0.364788
5698.000000;0.364850
5697.000000;0.364920
5696.000000;0.364986
5695.000000;0.365023
5694.000000;0.365033
5693.000000;0.365041
5692.000000;0.365059
5691.000000;0.365067
5690.000000;0.365046
5689.000000;0.365012
5688.000000;0.365005
5687.000000;0.365041
5686.000000;0.365095
5685.000000;0.365124
5684.000000;0.365111
5683.000000;0.365068
5682.000000;0.365023
5681.000000;0.364993
5680.000000;0.364976
5679.000000;0.364966
5678.000000;0.364967
5677.000000;0.364996
5676.000000;0.365062
5675.000000;0.365156
5674.000000;0.365257
5673.000000;0.365346
5672.000000;0.365406
5671.000000;0.365427
5670.000000;0.365421
5669.000000;0.365418
5668.000000;0.365443
5667.000000;0.365504
5666.000000;0.365587
5665.000000;0.365674
5664.000000;0.365749
5663.000000;0.365810
5662.000000;0.365869
5661.000000;0.365942
5660.000000;0.366033
5659.000000;0.366133
5658.000000;0.366230
5657.000000;0.366316
5656.000000;0.366384
5655.000000;0.366435
5654.000000;0.366489
5653.000000;0.366568
5652.000000;0.366655
5651.000000;0.366704
5650.000000;0.366699
5649.000000;0.366679
5648.000000;0.366695
5647.000000;0.366748
5646.000000;0.366811
5645.000000;0.366879
5644.000000;0.366969
5643.000000;0.367091
5642.000000;0.367236
5641.000000;0.367397
5640.000000;0.367577
5639.000000;0.367764
5638.000000;0.367926
5637.000000;0.368029
5636.000000;0.368071
5635.000000;0.368086
5634.000000;0.368119
5633.000000;0.368195
5632.000000;0.368315
5631.000000;0.368457
5630.000000;0.368606
5629.000000;0.368753
5628.000000;0.368895
5627.000000;0.369026
5626.000000;0.369148
5625.000000;0.369280
5624.000000;0.369440
5623.000000;0.369630
5622.000000;0.369828
5621.000000;0.370007
5620.000000;0.370148
5619.000000;0.370253
5618.000000;0.370347
5617.000000;0.370461
5616.000000;0.370600
5615.000000;0.370742
5614.000000;0.370869
5613.000000;0.370988
5612.000000;0.371107
5611.000000;0.371222
5610.000000;0.371342
5609.000000;0.371499
5608.000000;0.371704
5607.000000;0.371910
5606.000000;0.372049
5605.000000;0.372110
5604.000000;0.372155
5603.000000;0.372248
5602.000000;0.372397
5601.000000;0.372564
5600.000000;0.372719
5599.000000;0.372868
5598.000000;0.373043
5597.000000;0.373267
5596.000000;0.373520
5595.000000;0.373754
5594.000000;0.373937
5593.000000;0.374080
5592.000000;0.374219
5591.000000;0.374369
5590.000000;0.374517
5589.000000;0.374657
5588.000000;0.374803
5587.000000;0.374966
5586.000000;0.375141
5585.000000;0.375321
5584.000000;0.375503
5583.000000;0.375682
5582.000000;0.375855
5581.000000;0.376031
5580.000000;0.376230
5579.000000;0.376443
5578.000000;0.376634
5577.000000;0.376785
5576.000000;0.376926
5575.000000;0.377103
5574.000000;0.377306
5573.000000;0.377472
5572.000000;0.377554
5571.000000;0.377573
5570.000000;0.377597
5569.000000;0.377679
5568.000000;0.377835
5567.000000;0.378052
5566.000000;0.378301
5565.000000;0.378538
5564.000000;0.378723
5563.000000;0.378842
5562.000000;0.378923
5561.000000;0.379005
5560.000000;0.379114
5559.000000;0.379254
5558.000000;0.379418
5557.000000;0.379594
5556.000000;0.379758
5555.000000;0.379888
5554.000000;0.379981
5553.000000;0.380056
5552.000000;0.380139
5551.000000;0.380256
5550.000000;0.380418
5549.000000;0.380613
5548.000000;0.380802
5547.000000;0.380951
5546.000000;0.381055
5545.000000;0.381146
5544.000000;0.381249
5543.000000;0.381370
5542.000000;0.381498
5541.000000;0.381623
5540.000000;0.381736
5539.000000;0.381836
5538.000000;0.381940
5537.000000;0.382077
5536.000000;0.382249
5535.000000;0.382428
5534.000000;0.382577
5533.000000;0.382684
5532.000000;0.382763
5531.000000;0.382845
5530.000000;0.382958
5529.000000;0.383110
5528.000000;0.383279
5527.000000;0.383431
5526.000000;0.383551
5525.000000;0.383649
5524.000000;0.383743
5523.000000;0.383836
5522.000000;0.383921
5521.000000;0.383994
5520.000000;0.384067
5519.000000;0.384158
5518.000000;0.384281
5517.000000;0.384424
5516.000000;0.384551
5515.000000;0.384634
5514.000000;0.384683
5513.000000;0.384739
5512.000000;0.384831
5511.000000;0.384970
5510.000000;0.385159
5509.000000;0.385382
5508.000000;0.385592
5507.000000;0.385733
5506.000000;0.385805
5505.000000;0.385860
5504.000000;0.385927
5503.000000;0.385987
5502.000000;0.386036
5501.000000;0.386125
5500.000000;0.386291
5499.000000;0.386488
5498.000000;0.386631
5497.000000;0.386710
5496.000000;0.386811
5495.000000;0.386993
5494.000000;0.387210
5493.000000;0.387355
5492.000000;0.387385
5491.000000;0.387368
5490.000000;0.387390
5489.000000;0.387469
5488.000000;0.387559
5487.000000;0.387632
5486.000000;0.387715
5485.000000;0.387854
5484.000000;0.388060
5483.000000;0.388293
5482.000000;0.388500
5481.000000;0.388643
5480.000000;0.388702
5479.000000;0.388694
5478.000000;0.388691
5477.000000;0.388770
5476.000000;0.388917
5475.000000;0.389017
5474.000000;0.389000
5473.000000;0.388965
5472.000000;0.389073
5471.000000;0.389346
5470.000000;0.389650
5469.000000;0.389858
5468.000000;0.389981
5467.000000;0.390102
5466.000000;0.390251
5465.000000;0.390397
5464.000000;0.390527
5463.000000;0.390675
5462.000000;0.390853
5461.000000;0.391012
5460.000000;0.391097
5459.000000;0.391139
5458.000000;0.391250
5457.000000;0.391500
5456.000000;0.391814
5455.000000;0.392048
5454.000000;0.392155
5453.000000;0.392222
5452.000000;0.392347
5451.000000;0.392529
5450.000000;0.392701
5449.000000;0.392829
5448.000000;0.392939
5447.000000;0.393062
5446.000000;0.393190
5445.000000;0.393308
5444.000000;0.393443
5443.000000;0.393653
5442.000000;0.393935
5441.000000;0.394191
5440.000000;0.394328
5439.000000;0.394386
5438.000000;0.394517
5437.000000;0.394814
5436.000000;0.395204
5435.000000;0.395532
5434.000000;0.395734
5433.000000;0.395898
5432.000000;0.396139
5431.000000;0.396483
5430.000000;0.396856
5429.000000;0.397162
5428.000000;0.397363
5427.000000;0.397522
5426.000000;0.397735
5425.000000;0.398024
5424.000000;0.398321
5423.000000;0.398564
5422.000000;0.398770
5421.000000;0.399005
5420.000000;0.399284
5419.000000;0.399551
5418.000000;0.399765
5417.000000;0.399976
5416.000000;0.400274
5415.000000;0.400668
5414.000000;0.401069
5413.000000;0.401415
5412.000000;0.401759
5411.000000;0.402190
5410.000000;0.402691
5409.000000;0.403152
5408.000000;0.403523
5407.000000;0.403870
5406.000000;0.404281
5405.000000;0.404741
5404.000000;0.405152
5403.000000;0.405460
5402.000000;0.405713
5401.000000;0.405991
5400.000000;0.406333
5399.000000;0.406729
5398.000000;0.407163
5397.000000;0.407636
5396.000000;0.408158
5395.000000;0.408708
5394.000000;0.409228
5393.000000;0.409687
5392.000000;0.410131
5391.000000;0.410654
5390.000000;0.411288
5389.000000;0.411950
5388.000000;0.412549
5387.000000;0.413075
5386.000000;0.413583
5385.000000;0.414119
5384.000000;0.414699
5383.000000;0.415345
5382.000000;0.416073
5381.000000;0.416851
5380.000000;0.417621
5379.000000;0.418388
5378.000000;0.419205
5377.000000;0.420080
5376.000000;0.420953
5375.000000;0.421778
5374.000000;0.422570
5373.000000;0.423358
5372.000000;0.424141
5371.000000;0.424931
5370.000000;0.425785
5369.000000;0.426745
5368.000000;0.427777
5367.000000;0.428821
5366.000000;0.429882
5365.000000;0.430990
5364.000000;0.432118
5363.000000;0.433192
5362.000000;0.434209
5361.000000;0.435270
5360.000000;0.436482
5359.000000;0.437860
5358.000000;0.439306
5357.000000;0.440693
5356.000000;0.441970
5355.000000;0.443215
5354.000000;0.444567
5353.000000;0.446060
5352.000000;0.447589
5351.000000;0.449060
5350.000000;0.450513
5349.000000;0.452019
5348.000000;0.453572
5347.000000;0.455145
5346.000000;0.456769
5345.000000;0.458494
5344.000000;0.460322
5343.000000;0.462243
5342.000000;0.464279
5341.000000;0.466392
5340.000000;0.468443
5339.000000;0.470361
5338.000000;0.472308
5337.000000;0.474485
5336.000000;0.476814
5335.000000;0.478991
5334.000000;0.480850
5333.000000;0.482485
5332.000000;0.484073
5331.000000;0.485757
5330.000000;0.487617
5329.000000;0.489564
5328.000000;0.491317
5327.000000;0.492716
5326.000000;0.494006
5325.000000;0.495532
5324.000000;0.497191
5323.000000;0.498551
5322.000000;0.499465
5321.000000;0.500201
5320.000000;0.500907
5319.000000;0.501281
5318.000000;0.500906
5317.000000;0.499642
5316.000000;0.497616
5315.000000;0.495061
5314.000000;0.492162
5313.000000;0.488777
5312.000000;0.484395
5311.000000;0.478638
5310.000000;0.471599
5309.000000;0.463348
5308.000000;0.453480
5307.000000;0.441651
5306.000000;0.428091
5305.000000;0.413002
5304.000000;0.396325
5303.000000;0.379058
5302.000000;0.363918
5301.000000;0.353494
5300.000000;0.348130
5299.000000;0.346912
5298.000000;0.351236
5297.000000;0.364754
5296.000000;0.387656
5295.000000;0.415833
5294.000000;0.448602
5293.000000;0.489581
5292.000000;0.537688
5291.000000;0.585916
5290.000000;0.629577
5289.000000;0.667501
5288.000000;0.697619
5287.000000;0.721604
5286.000000;0.749057
5285.000000;0.785719
5284.000000;0.822155
5283.000000;0.845411
5282.000000;0.859521
5281.000000;0.878238
5280.000000;0.902706
5279.000000;0.922105
5278.000000;0.932106
5277.000000;0.938062
5276.000000;0.942225
5275.000000;0.943084
5274.000000;0.943875
5273.000000;0.948905
5272.000000;0.955105
5271.000000;0.957846
5270.000000;0.960903
5269.000000;0.969915
5268.000000;0.981422
5267.000000;0.989236
5266.000000;0.996476
5265.000000;1.008317
5264.000000;1.018528
5263.000000;1.017156
5262.000000;1.007650
5261.000000;1.001513
5260.000000;1.001369
5259.000000;1.002543
5258.000000;1.005123
5257.000000;1.011959
5256.000000;1.018846
5255.000000;1.018576
5254.000000;1.011926
5253.000000;1.004515
5252.000000;0.997103
5251.000000;0.988883
5250.000000;0.985007
5249.000000;0.990538
5248.000000;1.001303
5247.000000;1.009193
5246.000000;1.013673
5245.000000;1.018223
5244.000000;1.019593
5243.000000;1.013293
5242.000000;1.004734
5241.000000;1.002480
5240.000000;1.005924
5239.000000;1.008977
5238.000000;1.011085
5237.000000;1.013712
5236.000000;1.011526
5235.000000;1.001203
5234.000000;0.991748
5233.000000;0.992839
5232.000000;1.000064
5231.000000;1.001143
5230.000000;0.994072
5229.000000;0.987400
5228.000000;0.985132
5227.000000;0.985338
5226.000000;0.989894
5225.000000;1.002243
5224.000000;1.016407
5223.000000;1.019739
5222.000000;1.008789
5221.000000;0.991991
5220.000000;0.977317
5219.000000;0.967529
5218.000000;0.964053
5217.000000;0.966533
5216.000000;0.969432
5215.000000;0.966890
5214.000000;0.961501
5213.000000;0.960689
5212.000000;0.965681
5211.000000;0.971593
5210.000000;0.976936
5209.000000;0.984959
5208.000000;0.995310
5207.000000;1.002439
5206.000000;1.003020
5205.000000;0.997917
5204.000000;0.987475
5203.000000;0.972695
5202.000000;0.959641
5201.000000;0.955014
5200.000000;0.958449
5199.000000;0.964429
5198.000000;0.970812
5197.000000;0.979762
5196.000000;0.990302
5195.000000;0.996858
5194.000000;0.996546
5193.000000;0.991711
5192.000000;0.985075
5191.000000;0.978796
5190.000000;0.976954
5189.000000;0.982429
5188.000000;0.991216
5187.000000;0.995294
5186.000000;0.991888
5185.000000;0.984440
5184.000000;0.976179
5183.000000;0.969040
5182.000000;0.966112
5181.000000;0.968711
5180.000000;0.972185
5179.000000;0.970916
5178.000000;0.966324
5177.000000;0.964119
5176.000000;0.966293
5175.000000;0.970273
5174.000000;0.974382
5173.000000;0.979661
5172.000000;0.986381
5171.000000;0.993288
5170.000000;0.999666
5169.000000;1.003912
5168.000000;1.001762
5167.000000;0.991205
5166.000000;0.977237
5165.000000;0.967055
5164.000000;0.962967
5163.000000;0.962694
5162.000000;0.963789
5161.000000;0.964321
5160.000000;0.962478
5159.000000;0.960128
5158.000000;0.963208
5157.000000;0.974245
5156.000000;0.987281
5155.000000;0.994057
5154.000000;0.993393
5153.000000;0.989862
5152.000000;0.986651
5151.000000;0.985384
5150.000000;0.988392
5149.000000;0.994647
5148.000000;0.996712
5147.000000;0.989074
5146.000000;0.976964
5145.000000;0.969648
5144.000000;0.969345
5143.000000;0.971781
5142.000000;0.973803
5141.000000;0.974896
5140.000000;0.973153
5139.000000;0.967055
5138.000000;0.960406
5137.000000;0.959028
5136.000000;0.963544
5135.000000;0.969631
5134.000000;0.974205
5133.000000;0.977215
5132.000000;0.978305
5131.000000;0.976442
5130.000000;0.972150
5129.000000;0.966807
5128.000000;0.960857
5127.000000;0.956585
5126.000000;0.959552
5125.000000;0.971108
5124.000000;0.982909
5123.000000;0.984766
5122.000000;0.977101
5121.000000;0.968902
5120.000000;0.965055
5119.000000;0.963550
5118.000000;0.962843
5117.000000;0.964753
5116.000000;0.969835
5115.000000;0.975472
5114.000000;0.979456
5113.000000;0.982015
5112.000000;0.984120
5111.000000;0.985732
5110.000000;0.986137
5109.000000;0.984370
5108.000000;0.979794
5107.000000;0.974598
5106.000000;0.973020
5105.000000;0.975308
5104.000000;0.975921
5103.000000;0.971304
5102.000000;0.966381
5101.000000;0.967754
5100.000000;0.973603
5099.000000;0.975943
5098.000000;0.970909
5097.000000;0.961581
5096.000000;0.952363
5095.000000;0.946303
5094.000000;0.946044
5093.000000;0.951817
5092.000000;0.958727
5091.000000;0.960693
5090.000000;0.957531
5089.000000;0.953647
5088.000000;0.950862
5087.000000;0.947847
5086.000000;0.945126
5085.000000;0.945053
5084.000000;0.947570
5083.000000;0.950355
5082.000000;0.952805
5081.000000;0.956595
5080.000000;0.962456
5079.000000;0.969270
5078.000000;0.975593
5077.000000;0.979461
5076.000000;0.978278
5075.000000;0.972064
5074.000000;0.965213
5073.000000;0.961772
5072.000000;0.960732
5071.000000;0.958842
5070.000000;0.956252
5069.000000;0.955143
5068.000000;0.955272
5067.000000;0.955402
5066.000000;0.955997
5065.000000;0.957089
5064.000000;0.956390
5063.000000;0.953126
5062.000000;0.951074
5061.000000;0.953449
5060.000000;0.957289
5059.000000;0.957254
5058.000000;0.953036
5057.000000;0.948197
5056.000000;0.944188
5055.000000;0.940736
5054.000000;0.939755
5053.000000;0.943067
5052.000000;0.947365
5051.000000;0.947234
5050.000000;0.942817
5049.000000;0.939142
5048.000000;0.938665
5047.000000;0.939016
5046.000000;0.937534
5045.000000;0.933729
5044.000000;0.927555
5043.000000;0.920018
5042.000000;0.915018
5041.000000;0.915997
5040.000000;0.920992
5039.000000;0.924641
5038.000000;0.924533
5037.000000;0.921926
5036.000000;0.917539
5035.000000;0.911349
5034.000000;0.905410
5033.000000;0.902298
5032.000000;0.900563
5031.000000;0.895838
5030.000000;0.887383
5029.000000;0.878788
5028.000000;0.872292
5027.000000;0.866955
5026.000000;0.862859
5025.000000;0.863051
5024.000000;0.869264
5023.000000;0.878010
5022.000000;0.882445
5021.000000;0.878201
5020.000000;0.866913
5019.000000;0.854662
5018.000000;0.847605
5017.000000;0.846980
5016.000000;0.848574
5015.000000;0.847747
5014.000000;0.842923
5013.000000;0.834488
5012.000000;0.823072
5011.000000;0.810418
5010.000000;0.800201
5009.000000;0.795288
5008.000000;0.794618
5007.000000;0.794240
5006.000000;0.791239
5005.000000;0.785495
5004.000000;0.778591
5003.000000;0.772870
5002.000000;0.770063
5001.000000;0.768906
5000.000000;0.765655
4999.000000;0.758752
4998.000000;0.750960
4997.000000;0.744686
4996.000000;0.738076
4995.000000;0.728829
4994.000000;0.719216
4993.000000;0.713538
4992.000000;0.712258
4991.000000;0.711835
4990.000000;0.709518
4989.000000;0.704905
4988.000000;0.697507
4987.000000;0.686851
4986.000000;0.675006
4985.000000;0.665796
4984.000000;0.660935
4983.000000;0.658792
4982.000000;0.656883
4981.000000;0.653603
4980.000000;0.648036
4979.000000;0.640395
4978.000000;0.632514
4977.000000;0.625694
4976.000000;0.618474
4975.000000;0.608778
4974.000000;0.597506
4973.000000;0.587832
4972.000000;0.581389
4971.000000;0.577102
4970.000000;0.573325
4969.000000;0.569250
4968.000000;0.564558
4967.000000;0.559401
4966.000000;0.554520
4965.000000;0.549904
4964.000000;0.543799
4963.000000;0.534621
4962.000000;0.523369
4961.000000;0.512452
4960.000000;0.502747
4959.000000;0.493545
4958.000000;0.484631
4957.000000;0.476618
4956.000000;0.469853
4955.000000;0.464345
4954.000000;0.460152
4953.000000;0.456506
4952.000000;0.451177
4951.000000;0.442450
4950.000000;0.431484
4949.000000;0.421120
4948.000000;0.412681
4947.000000;0.405382
4946.000000;0.398243
4945.000000;0.390877
4944.000000;0.382777
4943.000000;0.373658
4942.000000;0.364560
4941.000000;0.357099
4940.000000;0.351397
4939.000000;0.345927
4938.000000;0.339400
4937.000000;0.331650
4936.000000;0.322790
4935.000000;0.312720
4934.000000;0.301641
4933.000000;0.290312
4932.000000;0.279649
4931.000000;0.270468
4930.000000;0.263262
4929.000000;0.257535
4928.000000;0.251713
4927.000000;0.244447
4926.000000;0.235748
4925.000000;0.226409
4924.000000;0.216975
4923.000000;0.207900
4922.000000;0.200009
4921.000000;0.193717
4920.000000;0.188185
4919.000000;0.182111
4918.000000;0.174956
4917.000000;0.166925
4916.000000;0.158288
4915.000000;0.149336
4914.000000;0.140556
4913.000000;0.132174
4912.000000;0.123845
4911.000000;0.115326
4910.000000;0.107130
4909.000000;0.099916
4908.000000;0.093491
4907.000000;0.086962
4906.000000;0.079629
4905.000000;0.071361
4904.000000;0.062582
4903.000000;0.054142
4902.000000;0.046467
4901.000000;0.038548
4900.000000;0.028676
4899.000000;0.016762
4898.000000;0.005170
4897.000000;-0.003514
4896.000000;-0.008989
4895.000000;-0.013035
4894.000000;-0.017517
4893.000000;-0.023279
4892.000000;-0.030321
4891.000000;-0.037939
4890.000000;-0.044823
4889.000000;-0.049873
4888.000000;-0.053087
4887.000000;-0.055404
4886.000000;-0.057879
4885.000000;-0.061326
4884.000000;-0.066264
4883.000000;-0.072454
4882.000000;-0.078707
4881.000000;-0.083763
4880.000000;-0.087397
4879.000000;-0.090379
4878.000000;-0.093465
4877.000000;-0.096834
4876.000000;-0.100455
4875.000000;-0.104443
4874.000000;-0.108768
4873.000000;-0.112910
4872.000000;-0.116146
4871.000000;-0.118103
4870.000000;-0.118828
4869.000000;-0.118458
4868.000000;-0.117187
4867.000000;-0.115617
4866.000000;-0.114684
4865.000000;-0.114956
4864.000000;-0.116207
4863.000000;-0.117762
4862.000000;-0.119087
4861.000000;-0.119932
4860.000000;-0.120112
4859.000000;-0.119591
4858.000000;-0.118686
4857.000000;-0.117772
4856.000000;-0.116686
4855.000000;-0.114735
4854.000000;-0.111621
4853.000000;-0.108180
4852.000000;-0.105770
4851.000000;-0.104783
4850.000000;-0.104090
4849.000000;-0.102202
4848.000000;-0.098806
4847.000000;-0.094861
4846.000000;-0.091420
4845.000000;-0.088847
4844.000000;-0.086985
4843.000000;-0.085391
4842.000000;-0.083277
4841.000000;-0.079951
4840.000000;-0.075655
4839.000000;-0.071502
4838.000000;-0.068236
4837.000000;-0.065543
4836.000000;-0.062855
4835.000000;-0.060142
4834.000000;-0.057468
4833.000000;-0.054444
4832.000000;-0.050858
4831.000000;-0.047375
4830.000000;-0.044781
4829.000000;-0.042805
4828.000000;-0.040455
4827.000000;-0.037342
4826.000000;-0.033931
4825.000000;-0.030616
4824.000000;-0.027364
4823.000000;-0.024283
4822.000000;-0.021702
4821.000000;-0.019446
4820.000000;-0.016689
4819.000000;-0.012902
4818.000000;-0.008526
4817.000000;-0.004419
4816.000000;-0.000993
4815.000000;0.001890
4814.000000;0.004523
4813.000000;0.007124
4812.000000;0.009830
4811.000000;0.012674
4810.000000;0.015602
4809.000000;0.018576
4808.000000;0.021592
4807.000000;0.024598
4806.000000;0.027497
4805.000000;0.030203
4804.000000;0.032672
4803.000000;0.034959
4802.000000;0.037339
4801.000000;0.040163
4800.000000;0.043436
4799.000000;0.046713
4798.000000;0.049573
4797.000000;0.052071
4796.000000;0.054535
4795.000000;0.057140
4794.000000;0.059904
4793.000000;0.062854
4792.000000;0.065875
4791.000000;0.068617
4790.000000;0.070862
4789.000000;0.072836
4788.000000;0.074848
4787.000000;0.076829
4786.000000;0.078584
4785.000000;0.080338
4784.000000;0.082581
4783.000000;0.085383
4782.000000;0.088258
4781.000000;0.090761
4780.000000;0.092917
4779.000000;0.095083
4778.000000;0.097612
4777.000000;0.100629
4776.000000;0.103835
4775.000000;0.106607
4774.000000;0.108599
4773.000000;0.110218
4772.000000;0.112185
4771.000000;0.114645
4770.000000;0.117043
4769.000000;0.118902
4768.000000;0.120359
4767.000000;0.121824
4766.000000;0.123434
4765.000000;0.125038
4764.000000;0.126525
4763.000000;0.127970
4762.000000;0.129540
4761.000000;0.131369
4760.000000;0.133474
4759.000000;0.135753
4758.000000;0.138081
4757.000000;0.140387
4756.000000;0.142594
4755.000000;0.144591
4754.000000;0.146393
4753.000000;0.148201
4752.000000;0.150157
4751.000000;0.152105
4750.000000;0.153780
4749.000000;0.155145
4748.000000;0.156396
4747.000000;0.157714
4746.000000;0.159191
4745.000000;0.160892
4744.000000;0.162767
4743.000000;0.164603
4742.000000;0.166270
4741.000000;0.167933
4740.000000;0.169771
4739.000000;0.171613
4738.000000;0.173172
4737.000000;0.174563
4736.000000;0.176203
4735.000000;0.178178
4734.000000;0.180082
4733.000000;0.181583
4732.000000;0.182794
4731.000000;0.183940
4730.000000;0.184990
4729.000000;0.185863
4728.000000;0.186769
4727.000000;0.188042
4726.000000;0.189738
4725.000000;0.191584
4724.000000;0.193260
4723.000000;0.194593
4722.000000;0.195578
4721.000000;0.196379
4720.000000;0.197292
4719.000000;0.198532
4718.000000;0.200033
4717.000000;0.201520
4716.000000;0.202808
4715.000000;0.203973
4714.000000;0.205249
4713.000000;0.206766
4712.000000;0.208390
4711.000000;0.209824
4710.000000;0.210910
4709.000000;0.211793
4708.000000;0.212742
4707.000000;0.213839
4706.000000;0.214940
4705.000000;0.215917
4704.000000;0.216803
4703.000000;0.217700
4702.000000;0.218661
4701.000000;0.219715
4700.000000;0.220897
4699.000000;0.222186
4698.000000;0.223465
4697.000000;0.224623
4696.000000;0.225642
4695.000000;0.226568
4694.000000;0.227453
4693.000000;0.228375
4692.000000;0.229415
4691.000000;0.230579
4690.000000;0.231763
4689.000000;0.232843
4688.000000;0.233785
4687.000000;0.234642
4686.000000;0.235485
4685.000000;0.236332
4684.000000;0.237144
4683.000000;0.237890
4682.000000;0.238598
4681.000000;0.239348
4680.000000;0.240178
4679.000000;0.241063
4678.000000;0.242000
4677.000000;0.243037
4676.000000;0.244163
4675.000000;0.245257
4674.000000;0.246235
4673.000000;0.247178
4672.000000;0.248216
4671.000000;0.249330
4670.000000;0.250393
4669.000000;0.251361
4668.000000;0.252260
4667.000000;0.253038
4666.000000;0.253600
4665.000000;0.254004
4664.000000;0.254483
4663.000000;0.255209
4662.000000;0.256134
4661.000000;0.257106
4660.000000;0.258032
4659.000000;0.258886
4658.000000;0.259662
4657.000000;0.260376
4656.000000;0.261051
4655.000000;0.261661
4654.000000;0.262165
4653.000000;0.262621
4652.000000;0.263183
4651.000000;0.263945
4650.000000;0.264843
4649.000000;0.265742
4648.000000;0.266535
4647.000000;0.267163
4646.000000;0.267632
4645.000000;0.268056
4644.000000;0.268582
4643.000000;0.269234
4642.000000;0.269890
4641.000000;0.270480
4640.000000;0.271091
4639.000000;0.271836
4638.000000;0.272675
4637.000000;0.273446
4636.000000;0.274034
4635.000000;0.274465
4634.000000;0.274877
4633.000000;0.275434
4632.000000;0.276191
4631.000000;0.277022
4630.000000;0.277731
4629.000000;0.278278
4628.000000;0.278812
4627.000000;0.279419
4626.000000;0.279977
4625.000000;0.280336
4624.000000;0.280596
4623.000000;0.281049
4622.000000;0.281856
4621.000000;0.282870
4620.000000;0.283792
4619.000000;0.284441
4618.000000;0.284850
4617.000000;0.285149
4616.000000;0.285425
4615.000000;0.285693
4614.000000;0.285986
4613.000000;0.286419
4612.000000;0.287082
4611.000000;0.287880
4610.000000;0.288533
4609.000000;0.288804
4608.000000;0.288715
4607.000000;0.288533
4606.000000;0.288583
4605.000000;0.289064
4604.000000;0.289943
4603.000000;0.290953
4602.000000;0.291761
4601.000000;0.292231
4600.000000;0.292537
4599.000000;0.292952
4598.000000;0.293555
4597.000000;0.294204
4596.000000;0.294741
4595.000000;0.295160
4594.000000;0.295550
4593.000000;0.295961
4592.000000;0.296357
4591.000000;0.296665
4590.000000;0.296853
4589.000000;0.296987
4588.000000;0.297210
4587.000000;0.297621
4586.000000;0.298160
4585.000000;0.298653
4584.000000;0.299001
4583.000000;0.299283
4582.000000;0.299636
4581.000000;0.300099
4580.000000;0.300580
4579.000000;0.300970
4578.000000;0.301229
4577.000000;0.301402
4576.000000;0.301585
4575.000000;0.301891
4574.000000;0.302363
4573.000000;0.302911
4572.000000;0.303362
4571.000000;0.303600
4570.000000;0.303651
4569.000000;0.303627
4568.000000;0.303638
4567.000000;0.303765
4566.000000;0.304067
4565.000000;0.304560
4564.000000;0.305164
4563.000000;0.305731
4562.000000;0.306122
4561.000000;0.306288
4560.000000;0.306302
4559.000000;0.306334
4558.000000;0.306544
4557.000000;0.306928
4556.000000;0.307293
4555.000000;0.307443
4554.000000;0.307390
4553.000000;0.307342
4552.000000;0.307471
4551.000000;0.307772
4550.000000;0.308141
4549.000000;0.308511
4548.000000;0.308858
4547.000000;0.309128
4546.000000;0.309258
4545.000000;0.309251
4544.000000;0.309196
4543.000000;0.309206
4542.000000;0.309349
4541.000000;0.309597
4540.000000;0.309835
4539.000000;0.309947
4538.000000;0.309929
4537.000000;0.309891
4536.000000;0.309928
4535.000000;0.310019
4534.000000;0.310104
4533.000000;0.310206
4532.000000;0.310422
4531.000000;0.310805
4530.000000;0.311298
4529.000000;0.311774
4528.000000;0.312108
4527.000000;0.312231
4526.000000;0.312192
4525.000000;0.312155
4524.000000;0.312267
4523.000000;0.312524
4522.000000;0.312777
4521.000000;0.312903
4520.000000;0.312928
4519.000000;0.312963
4518.000000;0.313070
4517.000000;0.313218
4516.000000;0.313353
4515.000000;0.313470
4514.000000;0.313599
4513.000000;0.313754
4512.000000;0.313915
4511.000000;0.314069
4510.000000;0.314246
4509.000000;0.314486
4508.000000;0.314793
4507.000000;0.315118
4506.000000;0.315386
4505.000000;0.315517
4504.000000;0.315473
4503.000000;0.315316
4502.000000;0.315202
4501.000000;0.315229
4500.000000;0.315334
4499.000000;0.315408
4498.000000;0.315505
4497.000000;0.315808
4496.000000;0.316341
4495.000000;0.316841
4494.000000;0.316996
4493.000000;0.316769
4492.000000;0.316423
4491.000000;0.316271
4490.000000;0.316459
4489.000000;0.316899
4488.000000;0.317324
4487.000000;0.317471
4486.000000;0.317317
4485.000000;0.317132
4484.000000;0.317208
4483.000000;0.317538
4482.000000;0.317843
4481.000000;0.317888
4480.000000;0.317684
4479.000000;0.317413
4478.000000;0.317265
4477.000000;0.317356
4476.000000;0.317676
4475.000000;0.318050
4474.000000;0.318253
4473.000000;0.318229
4472.000000;0.318151
4471.000000;0.318229
4470.000000;0.318489
4469.000000;0.318797
4468.000000;0.319022
4467.000000;0.319118
4466.000000;0.319057
4465.000000;0.318796
4464.000000;0.318357
4463.000000;0.317913
4462.000000;0.317711
4461.000000;0.317886
4460.000000;0.318296
4459.000000;0.318590
4458.000000;0.318491
4457.000000;0.318068
4456.000000;0.317699
4455.000000;0.317708
4454.000000;0.318054
4453.000000;0.318395
4452.000000;0.318470
4451.000000;0.318342
4450.000000;0.318261
4449.000000;0.318361
4448.000000;0.318566
4447.000000;0.318734
4446.000000;0.318768
4445.000000;0.318617
4444.000000;0.318304
4443.000000;0.318016
4442.000000;0.318015
4441.000000;0.318355
4440.000000;0.318766
4439.000000;0.318943
4438.000000;0.318857
4437.000000;0.318696
4436.000000;0.318584
4435.000000;0.318525
4434.000000;0.318565
4433.000000;0.318770
4432.000000;0.319019
4431.000000;0.319062
4430.000000;0.318849
4429.000000;0.318625
4428.000000;0.318595
4427.000000;0.318677
4426.000000;0.318720
4425.000000;0.318778
4424.000000;0.318977
4423.000000;0.319225
4422.000000;0.319263
4421.000000;0.318963
4420.000000;0.318420
4419.000000;0.317787
4418.000000;0.317181
4417.000000;0.316717
4416.000000;0.316489
4415.000000;0.316498
4414.000000;0.316685
4413.000000;0.316994
4412.000000;0.317298
4411.000000;0.317342
4410.000000;0.316927
4409.000000;0.316170
4408.000000;0.315441
4407.000000;0.314998
4406.000000;0.314821
4405.000000;0.314768
4404.000000;0.314724
4403.000000;0.314588
4402.000000;0.314259
4401.000000;0.313778
4400.000000;0.313368
4399.000000;0.313224
4398.000000;0.313276
4397.000000;0.313250
4396.000000;0.312927
4395.000000;0.312308
4394.000000;0.311547
4393.000000;0.310821
4392.000000;0.310269
4391.000000;0.309972
4390.000000;0.309870
4389.000000;0.309705
4388.000000;0.309149
4387.000000;0.308115
4386.000000;0.306874
4385.000000;0.305771
4384.000000;0.304896
4383.000000;0.304157
4382.000000;0.303590
4381.000000;0.303327
4380.000000;0.303229
4379.000000;0.302874
4378.000000;0.302087
4377.000000;0.301215
4376.000000;0.300628
4375.000000;0.300139
4374.000000;0.299242
4373.000000;0.297823
4372.000000;0.296320
4371.000000;0.295193
4370.000000;0.294516
4369.000000;0.294083
4368.000000;0.293618
4367.000000;0.292849
4366.000000;0.291675
4365.000000;0.290366
4364.000000;0.289380
4363.000000;0.288893
4362.000000;0.288679
4361.000000;0.288457
4360.000000;0.288124
4359.000000;0.287587
4358.000000;0.286652
4357.000000;0.285246
4356.000000;0.283553
4355.000000;0.281788
4354.000000;0.280031
4353.000000;0.278408
4352.000000;0.277182
4351.000000;0.276413
4350.000000;0.275742
4349.000000;0.274787
4348.000000;0.273635
4347.000000;0.272631
4346.000000;0.271792
4345.000000;0.270757
4344.000000;0.269351
4343.000000;0.267906
4342.000000;0.266929
4341.000000;0.266573
4340.000000;0.266483
4339.000000;0.266030
4338.000000;0.264714
4337.000000;0.262551
4336.000000;0.260144
4335.000000;0.258210
4334.000000;0.256958
4333.000000;0.256023
4332.000000;0.254954
4331.000000;0.253563
4330.000000;0.251846
4329.000000;0.249897
4328.000000;0.247990
4327.000000;0.246478
4326.000000;0.245418
4325.000000;0.244507
4324.000000;0.243578
4323.000000;0.242883
4322.000000;0.242579
4321.000000;0.242160
4320.000000;0.240872
4319.000000;0.238715
4318.000000;0.236587
4317.000000;0.235232
4316.000000;0.234364
4315.000000;0.233035
4314.000000;0.230680
4313.000000;0.227696
4312.000000;0.225108
4311.000000;0.223791
4310.000000;0.223818
4309.000000;0.224349
4308.000000;0.224243
4307.000000;0.223044
4306.000000;0.221432
4305.000000;0.220623
4304.000000;0.221323
4303.000000;0.223083
4302.000000;0.224411
4301.000000;0.223678
4300.000000;0.220517
4299.000000;0.216528
4298.000000;0.214079
4297.000000;0.214025
4296.000000;0.214910
4295.000000;0.214739
4294.000000;0.213223
4293.000000;0.211804
4292.000000;0.211807
4291.000000;0.213211
4290.000000;0.215074
4289.000000;0.216543
4288.000000;0.217444
4287.000000;0.218482
4286.000000;0.220661
4285.000000;0.223915
4284.000000;0.226592
4283.000000;0.227116
4282.000000;0.226219
4281.000000;0.226525
4280.000000;0.229667
4279.000000;0.234515
4278.000000;0.238609
4277.000000;0.240764
4276.000000;0.241749
4275.000000;0.242994
4274.000000;0.245293
4273.000000;0.248541
4272.000000;0.252282
4271.000000;0.256400
4270.000000;0.261241
4269.000000;0.266913
4268.000000;0.272753
4267.000000;0.278036
4266.000000;0.283134
4265.000000;0.289139
4264.000000;0.296386
4263.000000;0.304165
4262.000000;0.311820
4261.000000;0.319313
4260.000000;0.326588
4259.000000;0.333458
4258.000000;0.340502
4257.000000;0.348929
4256.000000;0.358865
4255.000000;0.368490
4254.000000;0.375700
4253.000000;0.380382
4252.000000;0.384597
4251.000000;0.390699
4250.000000;0.399617
4249.000000;0.410497
4248.000000;0.421575
4247.000000;0.431762
4246.000000;0.441785
4245.000000;0.452813
4244.000000;0.464490
4243.000000;0.474935
4242.000000;0.482980
4241.000000;0.489340
4240.000000;0.495425
4239.000000;0.502283
4238.000000;0.511099
4237.000000;0.523276
4236.000000;0.538951
4235.000000;0.556152
4234.000000;0.572404
4233.000000;0.586482
4232.000000;0.597917
4231.000000;0.605911
4230.000000;0.610433
4229.000000;0.613923
4228.000000;0.619730
4227.000000;0.629056
4226.000000;0.640391
4225.000000;0.651647
4224.000000;0.662455
4223.000000;0.673905
4222.000000;0.686459
4221.000000;0.699166
4220.000000;0.711005
4219.000000;0.722277
4218.000000;0.734222
4217.000000;0.747355
4216.000000;0.760683
4215.000000;0.772802
4214.000000;0.783013
4213.000000;0.791039
4212.000000;0.796989
4211.000000;0.802646
4210.000000;0.811583
4209.000000;0.826268
4208.000000;0.844935
4207.000000;0.862098
4206.000000;0.872678
4205.000000;0.876104
4204.000000;0.876493
4203.000000;0.878826
4202.000000;0.885649
4201.000000;0.896465
4200.000000;0.909086
4199.000000;0.922015
4198.000000;0.935314
4197.000000;0.949130
4196.000000;0.962760
4195.000000;0.975702
4194.000000;0.988344
4193.000000;1.000564
4192.000000;1.010709
4191.000000;1.018113
4190.000000;1.025648
4189.000000;1.035889
4188.000000;1.046550
4187.000000;1.053106
4186.000000;1.054606
4185.000000;1.055329
4184.000000;1.061276
4183.000000;1.075782
4182.000000;1.096122
4181.000000;1.115095
4180.000000;1.129218
4179.000000;1.142993
4178.000000;1.162396
4177.000000;1.185546
4176.000000;1.203893
4175.000000;1.213650
4174.000000;1.219084
4173.000000;1.227070
4172.000000;1.239753
4171.000000;1.252225
4170.000000;1.260102
4169.000000;1.260866
4168.000000;1.254131
4167.000000;1.247429
4166.000000;1.251521
4165.000000;1.268684
4164.000000;1.289954
4163.000000;1.307748
4162.000000;1.324123
4161.000000;1.337275
4160.000000;1.338179
4159.000000;1.329467
4158.000000;1.327971
4157.000000;1.341766
4156.000000;1.358105
4155.000000;1.363029
4154.000000;1.365434
4153.000000;1.382044
4152.000000;1.410356
4151.000000;1.432034
4150.000000;1.442206
4149.000000;1.456935
4148.000000;1.483817
4147.000000;1.506978
4146.000000;1.509539
4145.000000;1.495945
4144.000000;1.479045
4143.000000;1.465963
4142.000000;1.468562
4141.000000;1.501695
4140.000000;1.563609
4139.000000;1.625057
4138.000000;1.647764
4137.000000;1.634737
4136.000000;1.615292
4135.000000;1.607510
4134.000000;1.625574
4133.000000;1.662285
4132.000000;1.687852
4131.000000;1.687277
4130.000000;1.683251
4129.000000;1.706826
4128.000000;1.754919
4127.000000;1.789550
4126.000000;1.797058
4125.000000;1.810928
4124.000000;1.841205
4123.000000;1.846078
4122.000000;1.803004
4121.000000;1.751294
4120.000000;1.731034
4119.000000;1.738715
4118.000000;1.746567
4117.000000;1.738930
4116.000000;1.723172
4115.000000;1.708780
4114.000000;1.707896
4113.000000;1.740256
4112.000000;1.800494
4111.000000;1.837849
4110.000000;1.828747
4109.000000;1.827784
4108.000000;1.875271
4107.000000;1.960354
4106.000000;2.040922
4105.000000;2.073660
4104.000000;2.030507
4103.000000;1.948418
4102.000000;1.898656
4101.000000;1.917551
4100.000000;1.988200
4099.000000;2.021014
4098.000000;1.948874
4097.000000;1.854415
4096.000000;1.816377
4095.000000;1.835435
4094.000000;1.875316
4093.000000;1.908731
4092.000000;1.946320
4091.000000;1.983896
4090.000000;1.996174
4089.000000;2.012615
4088.000000;2.076744
4087.000000;2.189897
4086.000000;2.271222
4085.000000;2.292427
4084.000000;2.312343
4083.000000;2.272488
4082.000000;2.108401
4081.000000;1.917934
4080.000000;1.795158
4079.000000;1.754604
4078.000000;1.769773
4077.000000;1.800754
4076.000000;1.830577
4075.000000;1.874081
4074.000000;1.941472
4073.000000;2.024414
4072.000000;2.111307
4071.000000;2.201164
4070.000000;2.276977
4069.000000;2.305598
4068.000000;2.296931
4067.000000;2.259119
4066.000000;2.177639
4065.000000;2.082028
4064.000000;2.023890
4063.000000;2.012927
4062.000000;2.012397
4061.000000;1.994129
4060.000000;1.973794
4059.000000;1.954491
4058.000000;1.928036
4057.000000;1.916278
4056.000000;1.951025
4055.000000;2.032139
4054.000000;2.107861
4053.000000;2.154994
4052.000000;2.221467
4051.000000;2.301916
4050.000000;2.331895
4049.000000;2.284035
4048.000000;2.191127
4047.000000;2.085174
4046.000000;1.988839
4045.000000;1.924846
4044.000000;1.914259
4043.000000;1.941816
4042.000000;1.943857
4041.000000;1.915871
4040.000000;1.879938
4039.000000;1.873277
4038.000000;1.940110
4037.000000;2.045736
4036.000000;2.091854
4035.000000;2.067996
4034.000000;2.046924
4033.000000;2.093349
4032.000000;2.208435
4031.000000;2.310683
4030.000000;2.323917
4029.000000;2.242700
4028.000000;2.099189
4027.000000;2.011743
4026.000000;2.006786
4025.000000;2.040851
4024.000000;2.075713
4023.000000;2.089921
4022.000000;2.057782
4021.000000;1.986651
4020.000000;1.901809
4019.000000;1.839732
4018.000000;1.837666
4017.000000;1.929183
4016.000000;2.144836
4015.000000;2.486774
4014.000000;2.640068
4013.000000;2.941325
4012.000000;2.892813
4011.000000;2.607178
4010.000000;2.501324
4009.000000;2.303831
4008.000000;2.110755
4007.000000;2.023522
4006.000000;2.043814
4005.000000;2.116300
4004.000000;2.139028
4003.000000;2.094169
4002.000000;2.045611
4001.000000;2.011272
4000.000000;2.001888
3999.000000;2.024215
3998.000000;2.082686
3997.000000;2.216648
3996.000000;2.356340
3995.000000;2.344642
3994.000000;2.404800
3993.000000;2.347434
3992.000000;2.221711
3991.000000;2.314480
3990.000000;2.368710
3989.000000;2.239564
3988.000000;2.205510
3987.000000;2.294958
3986.000000;2.526264
3985.000000;3.087421
3984.000000;2.686304
3983.000000;2.585874
3982.000000;2.904525
3981.000000;2.609006
3980.000000;2.210728
3979.000000;2.086881
3978.000000;2.116894
3977.000000;2.207254
3976.000000;2.308183
3975.000000;2.547446
3974.000000;2.879394
3973.000000;2.628056
3972.000000;2.277507
3971.000000;2.061262
3970.000000;1.987958
3969.000000;2.030533
3968.000000;2.127595
3967.000000;2.191708
3966.000000;2.209564
3965.000000;2.253205
3964.000000;2.319337
3963.000000;2.246550
3962.000000;2.129937
3961.000000;2.137251
3960.000000;2.382498
3959.000000;2.805245
3958.000000;2.482019
3957.000000;2.484342
3956.000000;2.464841
3955.000000;2.273055
3954.000000;2.162948
3953.000000;2.131746
3952.000000;2.168126
3951.000000;2.444748
3950.000000;3.184152
3949.000000;2.207737
3948.000000;2.082748
3947.000000;2.100442
3946.000000;2.247871
3945.000000;2.272976
3944.000000;2.129829
3943.000000;2.007360
3942.000000;1.955549
3941.000000;2.032051
3940.000000;2.265553
3939.000000;2.394918
3938.000000;2.358782
3937.000000;2.365771
3936.000000;2.351434
3935.000000;2.467959
3934.000000;3.016068
3933.000000;3.206238
3932.000000;2.722501
3931.000000;2.315509
3930.000000;2.125510
3929.000000;2.125827
3928.000000;2.346587
3927.000000;3.212026
3926.000000;2.792329
3925.000000;2.645540
3924.000000;2.343944
3923.000000;2.353922
3922.000000;2.398817
3921.000000;2.198491
3920.000000;2.293082
3919.000000;2.510952
3918.000000;2.387765
3917.000000;2.325942
3916.000000;2.499317
3915.000000;2.964112
3914.000000;2.627015
3913.000000;2.384825
3912.000000;2.497043
3911.000000;2.605789
3910.000000;2.463770
3909.000000;2.221859
3908.000000;2.105498
3907.000000;2.363704
3906.000000;2.449176
3905.000000;2.025069
3904.000000;1.983738
3903.000000;2.208405
3902.000000;2.644035
3901.000000;2.493566
3900.000000;2.631158
3899.000000;2.730338
3898.000000;2.572826
3897.000000;2.583829
3896.000000;2.394146
3895.000000;2.208638
3894.000000;2.317204
3893.000000;2.630374
3892.000000;2.355764
3891.000000;2.277803
3890.000000;2.228176
3889.000000;2.054334
3888.000000;1.942780
3887.000000;2.003375
3886.000000;2.223064
3885.000000;2.621600
3884.000000;2.810983
3883.000000;2.494845
3882.000000;2.317085
3881.000000;2.170580
3880.000000;2.130336
3879.000000;2.161623
3878.000000;2.180134
3877.000000;2.183747
3876.000000;2.177662
3875.000000;2.122839
3874.000000;2.042304
3873.000000;1.967309
3872.000000;1.958952
3871.000000;2.086585
3870.000000;2.111373
3869.000000;2.002961
3868.000000;1.983354
3867.000000;2.043431
3866.000000;2.150024
3865.000000;2.190263
3864.000000;2.150791
3863.000000;2.079930
3862.000000;2.187638
3861.000000;2.380330
3860.000000;2.248049
3859.000000;2.115504
3858.000000;2.228133
3857.000000;2.539772
3856.000000;2.012421
3855.000000;1.778269
3854.000000;1.814795
3853.000000;1.873462
3852.000000;1.911710
3851.000000;1.948312
3850.000000;1.994969
3849.000000;2.059841
3848.000000;2.154607
3847.000000;2.253256
3846.000000;2.496754
3845.000000;2.875180
3844.000000;2.449461
3843.000000;2.279379
3842.000000;1.999514
3841.000000;1.793984
3840.000000;1.758999
3839.000000;1.970654
3838.000000;2.444259
3837.000000;2.149013
3836.000000;1.909005
3835.000000;1.946435
3834.000000;2.149268
3833.000000;2.433219
3832.000000;2.428835
3831.000000;2.325861
3830.000000;2.229374
3829.000000;2.109290
3828.000000;2.058218
3827.000000;2.159329
3826.000000;2.714320
3825.000000;2.693234
3824.000000;2.222506
3823.000000;1.985713
3822.000000;1.963892
3821.000000;2.078390
3820.000000;2.142056
3819.000000;2.064554
3818.000000;1.881000
3817.000000;1.777373
3816.000000;1.922698
3815.000000;2.144413
3814.000000;2.072442
3813.000000;1.984438
3812.000000;2.035231
3811.000000;2.287413
3810.000000;2.915161
3809.000000;3.283947
3808.000000;2.515413
3807.000000;2.342416
3806.000000;2.238173
3805.000000;2.042439
3804.000000;1.867426
3803.000000;1.853437
3802.000000;2.035040
3801.000000;2.355864
3800.000000;2.355942
3799.000000;2.176987
3798.000000;1.944625
3797.000000;1.838267
3796.000000;1.880969
3795.000000;1.954746
3794.000000;2.011827
3793.000000;2.089018
3792.000000;2.156650
3791.000000;2.137437
3790.000000;2.133279
3789.000000;2.240819
3788.000000;2.614192
3787.000000;2.537796
3786.000000;2.093605
3785.000000;1.991371
3784.000000;2.000699
3783.000000;2.254117
3782.000000;2.694495
3781.000000;2.313005
3780.000000;2.251911
3779.000000;2.552668
3778.000000;2.813433
3777.000000;2.348313
3776.000000;2.124147
3775.000000;2.154794
3774.000000;2.284323
3773.000000;2.298274
3772.000000;2.418915
3771.000000;2.320340
3770.000000;2.033493
3769.000000;1.927264
3768.000000;1.964510
3767.000000;2.182549
3766.000000;2.526705
3765.000000;2.551305
3764.000000;2.723659
3763.000000;2.691654
3762.000000;2.413707
3761.000000;2.308633
3760.000000;2.360490
3759.000000;2.606370
3758.000000;2.735564
3757.000000;2.455892
3756.000000;2.322841
3755.000000;2.233556
3754.000000;2.233211
3753.000000;2.273438
3752.000000;2.225789
3751.000000;2.140237
3750.000000;2.152481
3749.000000;2.453414
3748.000000;2.722488
3747.000000;2.427562
3746.000000;2.466620
3745.000000;2.934985
3744.000000;2.348289
3743.000000;2.196431
3742.000000;2.100227
3741.000000;2.190558
3740.000000;2.180574
3739.000000;1.946259
3738.000000;1.925675
3737.000000;2.205672
3736.000000;2.308766
3735.000000;1.782786
3734.000000;1.645422
3733.000000;1.776075
3732.000000;2.287156
3731.000000;2.190878
3730.000000;1.880321
3729.000000;1.783774
3728.000000;1.744848
3727.000000;1.768154
3726.000000;1.831797
3725.000000;1.887316
3724.000000;1.861928
3723.000000;1.836667
3722.000000;1.923729
3721.000000;2.077471
3720.000000;2.099670
3719.000000;2.096803
3718.000000;2.242511
3717.000000;2.712144
3716.000000;2.769089
3715.000000;2.277772
3714.000000;2.094591
3713.000000;2.036838
3712.000000;2.005814
3711.000000;2.017853
3710.000000;2.184277
3709.000000;2.317435
3708.000000;2.071605
3707.000000;1.970961
3706.000000;2.001090
3705.000000;2.171761
3704.000000;2.332829
3703.000000;2.366546
3702.000000;2.693950
3701.000000;3.026701
3700.000000;2.647117
3699.000000;2.718933
3698.000000;2.494718
3697.000000;2.194948
3696.000000;2.185320
3695.000000;2.609830
3694.000000;2.264349
3693.000000;1.969425
3692.000000;2.067937
3691.000000;2.422006
3690.000000;1.847860
3689.000000;1.638492
3688.000000;1.816401
3687.000000;2.041648
3686.000000;2.055757
3685.000000;2.297763
3684.000000;2.338809
3683.000000;2.049358
3682.000000;1.995203
3681.000000;2.080362
3680.000000;2.371314
3679.000000;2.894857
3678.000000;2.808890
3677.000000;2.416243
3676.000000;2.038948
3675.000000;1.876181
3674.000000;1.757638
3673.000000;1.681142
3672.000000;1.687387
3671.000000;1.845984
3670.000000;2.167132
3669.000000;1.983696
3668.000000;1.882659
3667.000000;2.031457
3666.000000;2.372114
3665.000000;2.783009
3664.000000;2.401041
3663.000000;2.244769
3662.000000;2.319032
3661.000000;2.155069
3660.000000;1.993793
3659.000000;2.130144
3658.000000;2.741162
3657.000000;2.050778
3656.000000;1.971455
3655.000000;1.983383
3654.000000;1.938332
3653.000000;1.909820
3652.000000;1.964665
3651.000000;1.969348
3650.000000;1.938142
3649.000000;1.988397
3648.000000;2.185881
3647.000000;2.295779
3646.000000;2.042685
3645.000000;1.884552
3644.000000;1.862824
3643.000000;1.847075
3642.000000;1.813818
3641.000000;1.806165
3640.000000;1.820890
3639.000000;1.917240
3638.000000;2.132780
3637.000000;2.195416
3636.000000;2.126989
3635.000000;2.103539
3634.000000;2.171735
3633.000000;2.412304
3632.000000;2.669081
3631.000000;2.556500
3630.000000;2.437384
3629.000000;2.471757
3628.000000;2.630083
3627.000000;2.792628
3626.000000;2.901926
3625.000000;2.563286
3624.000000;2.276327
3623.000000;2.192978
3622.000000;2.120899
3621.000000;2.128749
3620.000000;2.262610
3619.000000;2.304412
3618.000000;2.122237
3617.000000;1.927548
3616.000000;1.819481
3615.000000;1.857869
3614.000000;2.041317
3613.000000;1.977076
3612.000000;1.829440
3611.000000;1.786476
3610.000000;1.793543
3609.000000;1.830097
3608.000000;1.908248
3607.000000;2.066598
3606.000000;2.364747
3605.000000;2.600694
3604.000000;2.353946
3603.000000;2.125848
3602.000000;2.004306
3601.000000;1.960902
3600.000000;1.917869
3599.000000;1.800238
3598.000000;1.689169
3597.000000;1.677524
3596.000000;1.755521
3595.000000;1.814908
3594.000000;1.820411
3593.000000;1.854166
3592.000000;1.911022
3591.000000;1.926945
3590.000000;1.914205
3589.000000;1.935481
3588.000000;1.988587
3587.000000;2.075662
3586.000000;2.265303
3585.000000;2.241367
3584.000000;2.061667
3583.000000;2.007892
3582.000000;2.039890
3581.000000;2.093985
3580.000000;2.179083
3579.000000;2.311357
3578.000000;2.434443
3577.000000;3.058230
3576.000000;2.144976
3575.000000;1.874349
3574.000000;1.896036
3573.000000;2.277758
3572.000000;2.760075
3571.000000;2.059848
3570.000000;1.906674
3569.000000;1.807961
3568.000000;1.728112
3567.000000;1.619416
3566.000000;1.539663
3565.000000;1.574291
3564.000000;1.774194
3563.000000;2.141838
3562.000000;2.110071
3561.000000;1.981216
3560.000000;2.087910
3559.000000;2.554377
3558.000000;2.501362
3557.000000;2.284198
3556.000000;2.558307
3555.000000;2.357135
3554.000000;1.942583
3553.000000;1.744502
3552.000000;1.664770
3551.000000;1.681195
3550.000000;1.744859
3549.000000;1.776194
3548.000000;1.812696
3547.000000;1.933244
3546.000000;2.116041
3545.000000;1.888182
3544.000000;1.679426
3543.000000;1.765446
3542.000000;2.125758
3541.000000;2.123108
3540.000000;1.997057
3539.000000;2.208448
3538.000000;2.014792
3537.000000;1.743072
3536.000000;1.707158
3535.000000;1.839106
3534.000000;2.159843
3533.000000;2.623816
3532.000000;3.355440
3531.000000;3.172144
3530.000000;2.654606
3529.000000;2.393192
3528.000000;2.327089
3527.000000;2.229991
3526.000000;1.930641
3525.000000;1.723031
3524.000000;1.682149
3523.000000;1.781128
3522.000000;1.888149
3521.000000;1.913791
3520.000000;2.010747
3519.000000;2.294568
3518.000000;2.666241
3517.000000;2.347371
3516.000000;2.147654
3515.000000;2.103452
3514.000000;2.270782
3513.000000;2.539888
3512.000000;2.252886
3511.000000;1.978314
3510.000000;1.825669
3509.000000;1.744341
3508.000000;1.745565
3507.000000;1.808772
3506.000000;1.837565
3505.000000;1.782323
3504.000000;1.728879
3503.000000;1.709996
3502.000000;1.717636
3501.000000;1.776923
3500.000000;1.924839
3499.000000;2.222335
3498.000000;2.376055
3497.000000;2.112072
3496.000000;2.018142
3495.000000;2.026402
3494.000000;2.036754
3493.000000;2.028699
3492.000000;2.059024
3491.000000;2.195197
3490.000000;2.253747
3489.000000;2.050270
3488.000000;1.890658
3487.000000;1.792117
3486.000000;1.741891
3485.000000;1.750536
3484.000000;1.826096
3483.000000;1.967038
3482.000000;2.088913
3481.000000;2.058129
3480.000000;1.997279
3479.000000;2.023103
3478.000000;2.122925
3477.000000;2.185207
3476.000000;2.048107
3475.000000;1.831980
3474.000000;1.712148
3473.000000;1.740211
3472.000000;1.955666
3471.000000;2.448149
3470.000000;2.330884
3469.000000;2.351124
3468.000000;2.929249
3467.000000;2.261713
3466.000000;2.091679
3465.000000;2.093623
3464.000000;2.125749
3463.000000;1.941367
3462.000000;1.700639
3461.000000;1.628296
3460.000000;1.722592
3459.000000;1.854774
3458.000000;1.795551
3457.000000;1.735505
3456.000000;1.788297
3455.000000;1.958224
3454.000000;2.183083
3453.000000;2.224437
3452.000000;2.269243
3451.000000;2.166474
3450.000000;1.915450
3449.000000;1.784234
3448.000000;1.766076
3447.000000;1.794156
3446.000000;1.832782
3445.000000;1.896486
3444.000000;2.014715
3443.000000;2.151775
3442.000000;2.035797
3441.000000;2.040803
3440.000000;1.902709
3439.000000;1.587001
3438.000000;1.460184
3437.000000;1.454177
3436.000000;1.506449
3435.000000;1.638119
3434.000000;1.762740
3433.000000;1.572964
3432.000000;1.382518
3431.000000;1.316357
3430.000000;1.324618
3429.000000;1.372156
3428.000000;1.450477
3427.000000;1.577166
3426.000000;1.944944
3425.000000;2.043052
3424.000000;1.641421
3423.000000;1.542503
3422.000000;1.582434
3421.000000;1.388116
3420.000000;1.181875
3419.000000;1.111316
3418.000000;1.149696
3417.000000;1.263998
3416.000000;1.402952
3415.000000;1.565814
3414.000000;1.843598
3413.000000;2.314845
3412.000000;2.730455
3411.000000;2.324633
3410.000000;1.911195
3409.000000;1.707062
3408.000000;1.705352
3407.000000;1.817238
3406.000000;1.791651
3405.000000;1.611204
3404.000000;1.423090
3403.000000;1.318610
3402.000000;1.330641
3401.000000;1.429340
3400.000000;1.545640
3399.000000;1.608634
3398.000000;1.576145
3397.000000;1.544030
3396.000000;1.630592
3395.000000;1.809487
3394.000000;1.960393
3393.000000;2.266660
3392.000000;1.727286
3391.000000;1.351764
3390.000000;1.190035
3389.000000;1.147899
3388.000000;1.193586
3387.000000;1.341326
3386.000000;1.596096
3385.000000;1.559773
3384.000000;1.411520
3383.000000;1.411072
3382.000000;1.459027
3381.000000;1.561197
3380.000000;1.753122
3379.000000;2.174891
3378.000000;2.186807
3377.000000;1.673003
3376.000000;1.457776
3375.000000;1.364249
3374.000000;1.342301
3373.000000;1.327343
3372.000000;1.286551
3371.000000;1.268837
3370.000000;1.322578
3369.000000;1.458155
3368.000000;1.615328
3367.000000;1.681421
3366.000000;1.657431
3365.000000;1.645530
3364.000000;1.730789
3363.000000;2.067764
3362.000000;2.674649
3361.000000;2.052072
3360.000000;1.746676
3359.000000;1.479299
3358.000000;1.351734
3357.000000;1.355752
3356.000000;1.443485
3355.000000;1.548552
3354.000000;1.644035
3353.000000;1.783883
3352.000000;2.087134
3351.000000;2.661859
3350.000000;2.322171
3349.000000;1.934142
3348.000000;1.749286
3347.000000;1.704632
3346.000000;1.812302
3345.000000;2.053316
3344.000000;2.266091
3343.000000;2.169990
3342.000000;2.015846
3341.000000;1.983031
3340.000000;2.009358
3339.000000;1.994989
3338.000000;1.939877
3337.000000;1.804241
3336.000000;1.665951
3335.000000;1.606477
3334.000000;1.620316
3333.000000;1.679282
3332.000000;1.784441
3331.000000;1.922743
3330.000000;2.004059
3329.000000;2.004701
3328.000000;1.942646
3327.000000;1.829003
3326.000000;1.650420
3325.000000;1.483286
3324.000000;1.410657
3323.000000;1.473986
3322.000000;1.710168
3321.000000;1.901778
3320.000000;1.753072
3319.000000;1.622402
3318.000000;1.572429
3317.000000;1.619906
3316.000000;2.075598
3315.000000;1.905142
3314.000000;1.441138
3313.000000;1.308729
3312.000000;1.350919
3311.000000;1.626355
3310.000000;2.816540
3309.000000;1.967830
3308.000000;2.060753
3307.000000;2.207840
3306.000000;1.735484
3305.000000;1.679613
3304.000000;1.743123
3303.000000;1.693255
3302.000000;1.669791
3301.000000;1.875023
3300.000000;1.949801
3299.000000;1.734065
3298.000000;1.649174
3297.000000;1.545456
3296.000000;1.433740
3295.000000;1.376321
3294.000000;1.402602
3293.000000;1.505154
3292.000000;1.770337
3291.000000;2.035716
3290.000000;1.627177
3289.000000;1.441832
3288.000000;1.459395
3287.000000;1.612584
3286.000000;2.010338
3285.000000;1.776691
3284.000000;1.464987
3283.000000;1.359780
3282.000000;1.387269
3281.000000;1.552016
3280.000000;1.862736
3279.000000;2.238334
3278.000000;2.127935
3277.000000;1.825705
3276.000000;1.689914
3275.000000;1.678538
3274.000000;1.749041
3273.000000;1.879197
3272.000000;2.063578
3271.000000;1.975264
3270.000000;1.718001
3269.000000;1.606470
3268.000000;1.624174
3267.000000;1.716223
3266.000000;1.721754
3265.000000;1.652657
3264.000000;1.657702
3263.000000;1.891107
3262.000000;2.326081
3261.000000;1.956029
3260.000000;1.819272
3259.000000;1.865676
3258.000000;1.860545
3257.000000;1.726317
3256.000000;1.579371
3255.000000;1.525080
3254.000000;1.641014
3253.000000;2.038919
3252.000000;1.863040
3251.000000;1.597954
3250.000000;1.617893
3249.000000;1.897968
3248.000000;2.225681
3247.000000;1.960111
3246.000000;1.934798
3245.000000;2.037189
3244.000000;2.027102
3243.000000;1.778531
3242.000000;1.566273
3241.000000;1.441964
3240.000000;1.369558
3239.000000;1.339656
3238.000000;1.357113
3237.000000;1.448732
3236.000000;1.649289
3235.000000;2.008186
3234.000000;2.060528
3233.000000;1.732901
3232.000000;1.637548
3231.000000;1.762915
3230.000000;1.725929
3229.000000;1.544326
3228.000000;1.470294
3227.000000;1.435581
3226.000000;1.406702
3225.000000;1.416440
3224.000000;1.510038
3223.000000;1.586783
3222.000000;1.466287
3221.000000;1.349093
3220.000000;1.333472
3219.000000;1.432923
3218.000000;1.707152
3217.000000;2.140594
3216.000000;2.005679
3215.000000;1.802752
3214.000000;1.778873
3213.000000;1.691694
3212.000000;1.576004
3211.000000;1.530597
3210.000000;1.574227
3209.000000;1.665009
3208.000000;1.599879
3207.000000;1.499825
3206.000000;1.506903
3205.000000;1.664991
3204.000000;1.863919
3203.000000;1.624530
3202.000000;1.478075
3201.000000;1.475032
3200.000000;1.512560
3199.000000;1.537386
3198.000000;1.518782
3197.000000;1.567773
3196.000000;1.781597
3195.000000;1.785241
3194.000000;1.517606
3193.000000;1.376257
3192.000000;1.327221
3191.000000;1.353557
3190.000000;1.578161
3189.000000;1.818363
3188.000000;1.446232
3187.000000;1.244886
3186.000000;1.209360
3185.000000;1.251207
3184.000000;1.358074
3183.000000;1.547009
3182.000000;1.850378
3181.000000;1.945752
3180.000000;1.860449
3179.000000;1.778165
3178.000000;1.666071
3177.000000;1.654093
3176.000000;1.788999
3175.000000;2.150369
3174.000000;2.619190
3173.000000;1.961093
3172.000000;1.663586
3171.000000;1.542158
3170.000000;1.559201
3169.000000;1.741389
3168.000000;2.235968
3167.000000;2.451800
3166.000000;2.067731
3165.000000;2.196610
3164.000000;2.097508
3163.000000;1.992817
3162.000000;2.390977
3161.000000;2.131581
3160.000000;1.827470
3159.000000;2.105520
3158.000000;2.357709
3157.000000;2.085892
3156.000000;2.052655
3155.000000;1.822379
3154.000000;1.827469
3153.000000;2.399827
3152.000000;1.847911
3151.000000;1.647379
3150.000000;1.795724
3149.000000;1.982891
3148.000000;1.732972
3147.000000;1.545347
3146.000000;1.536999
3145.000000;1.649607
3144.000000;1.760606
3143.000000;1.722047
3142.000000;1.589403
3141.000000;1.450744
3140.000000;1.408890
3139.000000;1.569021
3138.000000;2.036192
3137.000000;1.901724
3136.000000;1.658565
3135.000000;1.712360
3134.000000;1.758638
3133.000000;1.733754
3132.000000;1.754574
3131.000000;2.065932
3130.000000;2.165049
3129.000000;1.839987
3128.000000;1.797710
3127.000000;1.881674
3126.000000;1.903324
3125.000000;1.764223
3124.000000;1.550191
3123.000000;1.372062
3122.000000;1.285043
3121.000000;1.313478
3120.000000;1.503063
3119.000000;1.976681
3118.000000;2.220456
3117.000000;1.845568
3116.000000;1.588984
3115.000000;1.396135
3114.000000;1.322078
3113.000000;1.362156
3112.000000;1.511159
3111.000000;1.751073
3110.000000;1.969018
3109.000000;2.060023
3108.000000;2.104218
3107.000000;2.167562
3106.000000;2.140073
3105.000000;1.992663
3104.000000;1.926777
3103.000000;1.963624
3102.000000;2.081975
3101.000000;2.422121
3100.000000;2.501517
3099.000000;2.038485
3098.000000;1.732251
3097.000000;1.575851
3096.000000;1.546298
3095.000000;1.705039
3094.000000;2.240023
3093.000000;2.120618
3092.000000;1.792096
3091.000000;1.650865
3090.000000;1.597778
3089.000000;1.667018
3088.000000;2.074882
3087.000000;2.654688
3086.000000;1.898109
3085.000000;1.827171
3084.000000;1.877970
3083.000000;2.081078
3082.000000;2.456784
3081.000000;2.039755
3080.000000;1.682104
3079.000000;1.523202
3078.000000;1.490812
3077.000000;1.607337
3076.000000;1.742782
3075.000000;1.680108
3074.000000;1.672342
3073.000000;1.880980
3072.000000;2.354942
3071.000000;2.104411
3070.000000;1.824541
3069.000000;1.688810
3068.000000;1.599115
3067.000000;1.573844
3066.000000;1.603987
3065.000000;1.692889
3064.000000;1.776814
3063.000000;1.753492
3062.000000;1.686670
3061.000000;1.676092
3060.000000;1.751994
3059.000000;1.825715
3058.000000;2.243036
3057.000000;2.489770
3056.000000;1.781867
3055.000000;1.714314
3054.000000;1.884036
3053.000000;2.507757
3052.000000;2.767361
3051.000000;2.319099
3050.000000;2.477312
3049.000000;2.245071
3048.000000;2.033436
3047.000000;1.955889
3046.000000;2.077087
3045.000000;2.938205
3044.000000;2.297771
3043.000000;2.239137
3042.000000;2.531461
3041.000000;2.021364
3040.000000;2.028079
3039.000000;2.265727
3038.000000;2.045424
3037.000000;1.961114
3036.000000;1.996962
3035.000000;1.889157
3034.000000;1.729397
3033.000000;1.658183
3032.000000;1.674415
3031.000000;1.718167
3030.000000;1.810268
3029.000000;2.141812
3028.000000;2.077987
3027.000000;1.771150
3026.000000;1.791227
3025.000000;1.958648
3024.000000;2.159814
3023.000000;2.176806
3022.000000;2.139355
3021.000000;2.317897
3020.000000;2.179500
3019.000000;1.867096
3018.000000;1.746580
3017.000000;1.774371
3016.000000;1.997603
3015.000000;2.423369
3014.000000;2.357358
3013.000000;2.499503
3012.000000;2.293997
3011.000000;1.937010
3010.000000;1.861182
3009.000000;2.052429
3008.000000;2.368683
3007.000000;2.073401
3006.000000;2.005787
3005.000000;2.087047
3004.000000;1.978701
3003.000000;1.837593
3002.000000;1.786012
3001.000000;1.817767
3000.000000;1.950681
2999.000000;2.077847
2998.000000;1.990913
2997.000000;1.959252
2996.000000;2.297524
2995.000000;2.258986
2994.000000;1.876460
2993.000000;1.788121
2992.000000;1.874242
2991.000000;2.021067
2990.000000;1.907543
2989.000000;1.737192
2988.000000;1.655770
2987.000000;1.657545
2986.000000;1.751299
2985.000000;1.999906
2984.000000;2.228964
2983.000000;1.961492
2982.000000;1.876925
2981.000000;2.015623
2980.000000;2.333618
2979.000000;2.351982
2978.000000;2.084301
2977.000000;1.969895
2976.000000;1.994549
2975.000000;2.267044
2974.000000;2.264532
2973.000000;1.956534
2972.000000;1.916606
2971.000000;1.982767
2970.000000;1.976721
2969.000000;1.912617
2968.000000;1.870504
2967.000000;1.854218
2966.000000;1.889323
2965.000000;1.976444
2964.000000;1.958340
2963.000000;1.848137
2962.000000;1.790253
2961.000000;1.830188
2960.000000;1.905486
2959.000000;1.973776
2958.000000;2.145564
2957.000000;2.086932
2956.000000;1.840256
2955.000000;1.736827
2954.000000;1.746438
2953.000000;1.881484
2952.000000;2.057066
2951.000000;1.998498
2950.000000;1.861338
2949.000000;1.797807
2948.000000;1.816515
2947.000000;1.969538
2946.000000;2.245614
2945.000000;2.262533
2944.000000;2.302532
2943.000000;2.499765
2942.000000;2.252643
2941.000000;2.047160
2940.000000;1.926093
2939.000000;1.838200
2938.000000;1.816032
2937.000000;1.866298
2936.000000;1.963757
2935.000000;2.098066
2934.000000;2.229657
2933.000000;2.100673
2932.000000;1.996650
2931.000000;2.189688
2930.000000;2.379077
2929.000000;2.094310
2928.000000;2.106162
2927.000000;2.233169
2926.000000;2.161212
2925.000000;2.159452
2924.000000;2.317093
2923.000000;2.345233
2922.000000;2.255118
2921.000000;2.317723
2920.000000;2.318340
2919.000000;2.118003
2918.000000;1.951766
2917.000000;1.884562
2916.000000;1.926377
2915.000000;2.005206
2914.000000;2.146562
2913.000000;2.883558
2912.000000;2.425915
2911.000000;2.008860
2910.000000;1.912849
2909.000000;2.002574
2908.000000;2.493895
2907.000000;2.270471
2906.000000;1.925800
2905.000000;1.821181
2904.000000;1.828483
2903.000000;1.990703
2902.000000;2.437103
2901.000000;2.479670
2900.000000;2.068340
2899.000000;2.001516
2898.000000;2.092030
2897.000000;2.006221
2896.000000;1.799906
2895.000000;1.742149
2894.000000;1.777093
2893.000000;1.805439
2892.000000;1.810592
2891.000000;1.848032
2890.000000;1.984472
2889.000000;2.212423
2888.000000;2.317603
2887.000000;2.275975
2886.000000;2.360860
2885.000000;2.664280
2884.000000;2.453424
2883.000000;2.090005
2882.000000;1.976377
2881.000000;1.973495
2880.000000;1.998229
2879.000000;2.055782
2878.000000;2.251893
2877.000000;2.781810
2876.000000;2.523209
2875.000000;2.082774
2874.000000;1.910415
2873.000000;1.869937
2872.000000;1.889709
2871.000000;1.891737
2870.000000;1.884807
2869.000000;1.964982
2868.000000;2.391808
2867.000000;2.505263
2866.000000;2.135600
2865.000000;2.145719
2864.000000;1.984052
2863.000000;1.822629
2862.000000;1.806115
2861.000000;1.885233
2860.000000;2.016738
2859.000000;2.125950
2858.000000;2.209784
2857.000000;2.328280
2856.000000;2.410735
2855.000000;2.168886
2854.000000;1.960237
2853.000000;1.855520
2852.000000;1.799816
2851.000000;1.812668
2850.000000;1.911089
2849.000000;2.006311
2848.000000;1.947269
2847.000000;1.942036
2846.000000;2.097490
2845.000000;1.950822
2844.000000;1.725384
2843.000000;1.700865
2842.000000;1.813263
2841.000000;1.996368
2840.000000;1.992252
2839.000000;1.856685
2838.000000;1.822351
2837.000000;1.906279
2836.000000;2.113945
2835.000000;2.486125
2834.000000;3.109423
2833.000000;2.839881
2832.000000;2.783087
2831.000000;2.496707
2830.000000;2.181476
2829.000000;2.057246
2828.000000;2.154481
2827.000000;2.716607
2826.000000;2.517842
2825.000000;2.295391
2824.000000;2.185547
2823.000000;2.005367
2822.000000;1.968630
2821.000000;1.950010
2820.000000;1.907825
2819.000000;1.939696
2818.000000;2.039448
2817.000000;2.087003
2816.000000;2.079231
2815.000000;2.184338
2814.000000;2.301330
2813.000000;2.280808
2812.000000;2.542246
2811.000000;2.625278
2810.000000;2.229827
2809.000000;2.165472
2808.000000;2.466176
2807.000000;2.665716
2806.000000;2.151777
2805.000000;1.939597
2804.000000;1.910052
2803.000000;2.011258
2802.000000;2.196638
2801.000000;2.216468
2800.000000;2.171737
2799.000000;2.317656
2798.000000;2.855189
2797.000000;2.527403
2796.000000;2.098936
2795.000000;1.956913
2794.000000;2.076497
2793.000000;2.519791
2792.000000;2.481977
2791.000000;2.389542
2790.000000;2.688211
2789.000000;2.475251
2788.000000;2.041938
2787.000000;1.868496
2786.000000;1.887773
2785.000000;2.067489
2784.000000;2.396128
2783.000000;2.717069
2782.000000;2.634185
2781.000000;2.499441
2780.000000;2.674872
2779.000000;2.626730
2778.000000;2.554742
2777.000000;2.850594
2776.000000;2.181164
2775.000000;1.842819
2774.000000;1.759065
2773.000000;1.833033
2772.000000;2.042588
2771.000000;2.403932
2770.000000;2.553070
2769.000000;2.148715
2768.000000;2.033228
2767.000000;2.121053
2766.000000;2.258859
2765.000000;2.182353
2764.000000;2.218384
2763.000000;2.579028
2762.000000;2.504795
2761.000000;2.350468
2760.000000;2.250553
2759.000000;2.026613
2758.000000;1.937604
2757.000000;1.963869
2756.000000;2.006791
2755.000000;2.002028
2754.000000;2.085397
2753.000000;2.279769
2752.000000;2.217342
2751.000000;2.162354
2750.000000;2.337442
2749.000000;2.906334
2748.000000;2.545433
2747.000000;2.064116
2746.000000;1.917402
2745.000000;2.003000
2744.000000;2.444428
2743.000000;2.539304
2742.000000;2.205534
2741.000000;2.173968
2740.000000;2.212259
2739.000000;2.289388
2738.000000;2.317411
2737.000000;2.343151
2736.000000;2.487409
2735.000000;2.278669
2734.000000;1.985364
2733.000000;1.893439
2732.000000;2.072906
2731.000000;2.528346
2730.000000;2.333891
2729.000000;2.223088
2728.000000;2.572705
2727.000000;2.827499
2726.000000;2.441716
2725.000000;2.236154
2724.000000;2.142666
2723.000000;2.062665
2722.000000;2.018933
2721.000000;2.011727
2720.000000;1.998570
2719.000000;2.030247
2718.000000;2.168979
2717.000000;2.534217
2716.000000;2.705369
2715.000000;2.311710
2714.000000;2.316385
2713.000000;2.440318
2712.000000;2.415565
2711.000000;2.351925
2710.000000;2.144971
2709.000000;1.996176
2708.000000;1.990628
2707.000000;2.167275
2706.000000;2.360252
2705.000000;2.254392
2704.000000;2.184548
2703.000000;2.204915
2702.000000;2.233678
2701.000000;2.166715
2700.000000;2.002221
2699.000000;1.906863
2698.000000;1.888678
2697.000000;1.917480
2696.000000;1.975649
2695.000000;2.193772
2694.000000;2.675559
2693.000000;2.495177
2692.000000;2.562489
2691.000000;2.352646
2690.000000;1.982798
2689.000000;1.912829
2688.000000;2.083062
2687.000000;2.322419
2686.000000;2.230250
2685.000000;2.180455
2684.000000;2.148154
2683.000000;2.072858
2682.000000;2.273079
2681.000000;2.633040
2680.000000;2.149406
2679.000000;2.072325
2678.000000;2.232444
2677.000000;2.111388
2676.000000;2.007324
2675.000000;1.977764
2674.000000;1.995156
2673.000000;2.148938
2672.000000;2.136267
2671.000000;2.228737
2670.000000;2.581035
2669.000000;2.042505
2668.000000;1.834427
2667.000000;1.863075
2666.000000;1.918901
2665.000000;1.919892
2664.000000;2.104368
2663.000000;2.424831
2662.000000;1.988003
2661.000000;1.787080
2660.000000;1.724649
2659.000000;1.729720
2658.000000;1.836374
2657.000000;2.112674
2656.000000;2.327466
2655.000000;1.990537
2654.000000;1.840137
2653.000000;1.799963
2652.000000;1.771162
2651.000000;1.729035
2650.000000;1.836418
2649.000000;2.370405
2648.000000;2.004399
2647.000000;1.622324
2646.000000;1.540313
2645.000000;1.564977
2644.000000;1.673200
2643.000000;1.824600
2642.000000;1.880064
2641.000000;1.985435
2640.000000;2.408903
2639.000000;2.492189
2638.000000;2.611302
2637.000000;2.262382
2636.000000;1.943335
2635.000000;1.995263
2634.000000;1.976181
2633.000000;1.693948
2632.000000;1.518927
2631.000000;1.463295
2630.000000;1.484205
2629.000000;1.549926
2628.000000;1.673013
2627.000000;2.055407
2626.000000;2.092049
2625.000000;1.697257
2624.000000;1.519856
2623.000000;1.404241
2622.000000;1.397659
2621.000000;1.630531
2620.000000;2.052407
2619.000000;1.770160
2618.000000;1.623417
2617.000000;1.866844
2616.000000;2.230627
2615.000000;2.120813
2614.000000;2.384161
2613.000000;2.430168
2612.000000;2.075601
2611.000000;1.931413
2610.000000;1.786675
2609.000000;1.690911
2608.000000;1.798608
2607.000000;2.116729
2606.000000;1.868746
2605.000000;1.714787
2604.000000;1.846444
2603.000000;1.942649
2602.000000;1.755594
2601.000000;1.634421
2600.000000;1.728214
2599.000000;2.157765
2598.000000;2.015534
2597.000000;1.646444
2596.000000;1.583095
2595.000000;1.662348
2594.000000;1.891036
2593.000000;2.212389
2592.000000;2.350194
2591.000000;1.955404
2590.000000;1.649896
2589.000000;1.540696
2588.000000;1.530439
2587.000000;1.674893
2586.000000;2.069337
2585.000000;1.912656
2584.000000;1.657700
2583.000000;1.642818
2582.000000;1.721863
2581.000000;1.843370
2580.000000;1.944012
2579.000000;2.034100
2578.000000;2.026361
2577.000000;2.110283
2576.000000;2.002079
2575.000000;1.674361
2574.000000;1.518232
2573.000000;1.576695
2572.000000;2.011730
2571.000000;1.915542
2570.000000;1.551116
2569.000000;1.632285
2568.000000;2.173500
2567.000000;2.335090
2566.000000;2.007121
2565.000000;2.116644
2564.000000;2.190316
2563.000000;2.304547
2562.000000;2.085845
2561.000000;1.818353
2560.000000;1.735236
2559.000000;1.740938
2558.000000;1.771750
2557.000000;1.735616
2556.000000;1.814234
2555.000000;2.113286
2554.000000;2.029924
2553.000000;1.805507
2552.000000;1.754109
2551.000000;1.809741
2550.000000;1.903513
2549.000000;1.826157
2548.000000;1.758036
2547.000000;1.746821
2546.000000;1.690667
2545.000000;1.670508
2544.000000;1.722559
2543.000000;1.808661
2542.000000;1.892405
2541.000000;2.149078
2540.000000;2.402234
2539.000000;2.043780
2538.000000;1.875184
2537.000000;2.011264
2536.000000;2.331588
2535.000000;2.462551
2534.000000;2.584129
2533.000000;2.104045
2532.000000;1.892504
2531.000000;2.160754
2530.000000;2.391925
2529.000000;1.942217
2528.000000;1.871890
2527.000000;2.004580
2526.000000;2.116112
2525.000000;2.159349
2524.000000;2.164826
2523.000000;2.455531
2522.000000;2.912566
2521.000000;2.434037
2520.000000;2.185873
2519.000000;2.378457
2518.000000;2.522717
2517.000000;1.925070
2516.000000;1.703636
2515.000000;1.704798
2514.000000;1.954553
2513.000000;2.324619
2512.000000;1.990596
2511.000000;1.824100
2510.000000;1.854124
2509.000000;2.009482
2508.000000;2.129999
2507.000000;2.071121
2506.000000;2.090954
2505.000000;2.082204
2504.000000;2.101768
2503.000000;2.153303
2502.000000;1.965445
2501.000000;1.851657
2500.000000;1.936229
2499.000000;2.258842
2498.000000;2.455649
2497.000000;2.227936
2496.000000;2.111288
2495.000000;1.969929
2494.000000;1.833294
2493.000000;1.812789
2492.000000;1.884220
2491.000000;1.936372
2490.000000;2.312320
2489.000000;2.471613
2488.000000;1.907149
2487.000000;1.783037
2486.000000;1.812272
2485.000000;2.089606
2484.000000;2.479058
2483.000000;2.131937
2482.000000;2.064732
2481.000000;2.024355
2480.000000;2.031877
2479.000000;2.191091
2478.000000;1.977964
2477.000000;1.800473
2476.000000;1.864105
2475.000000;1.894396
2474.000000;1.664074
2473.000000;1.530783
2472.000000;1.547641
2471.000000;1.682052
2470.000000;1.904128
2469.000000;2.083183
2468.000000;2.261722
2467.000000;2.346342
2466.000000;2.146242
2465.000000;1.997988
2464.000000;2.030418
2463.000000;2.073873
2462.000000;2.012956
2461.000000;2.098515
2460.000000;2.231944
2459.000000;2.137790
2458.000000;2.129309
2457.000000;2.061661
2456.000000;1.859081
2455.000000;1.720605
2454.000000;1.737924
2453.000000;2.091293
2452.000000;2.182964
2451.000000;1.720648
2450.000000;1.605098
2449.000000;1.675095
2448.000000;1.965577
2447.000000;2.629937
2446.000000;2.190989
2445.000000;2.146914
2444.000000;2.397326
2443.000000;1.959300
2442.000000;1.688515
2441.000000;1.643558
2440.000000;1.766373
2439.000000;2.018931
2438.000000;2.086503
2437.000000;1.892368
2436.000000;1.791127
2435.000000;1.812954
2434.000000;1.921798
2433.000000;2.015588
2432.000000;2.146898
2431.000000;2.234401
2430.000000;1.918097
2429.000000;1.665514
2428.000000;1.575361
2427.000000;1.586331
2426.000000;1.715041
2425.000000;2.037132
2424.000000;2.126280
2423.000000;1.912658
2422.000000;1.894256
2421.000000;1.919488
2420.000000;2.048604
2419.000000;2.441053
2418.000000;2.524581
2417.000000;2.267111
2416.000000;1.950618
2415.000000;1.709472
2414.000000;1.646944
2413.000000;1.971900
2412.000000;2.229478
2411.000000;1.659304
2410.000000;1.625796
2409.000000;2.075772
2408.000000;2.206744
2407.000000;1.761511
2406.000000;1.805511
2405.000000;2.389727
2404.000000;2.203697
2403.000000;1.833997
2402.000000;1.880158
2401.000000;2.238628
2400.000000;2.439665
2399.000000;2.095053
2398.000000;1.953635
2397.000000;1.901938
2396.000000;1.878541
2395.000000;2.016302
2394.000000;2.269500
2393.000000;2.074839
2392.000000;2.076495
2391.000000;2.187943
2390.000000;1.862625
2389.000000;1.751509
2388.000000;1.917451
2387.000000;2.126249
2386.000000;2.050334
2385.000000;2.039667
2384.000000;2.009638
2383.000000;1.885554
2382.000000;1.765789
2381.000000;1.681118
2380.000000;1.702583
2379.000000;1.870300
2378.000000;2.007950
2377.000000;1.876373
2376.000000;1.791739
2375.000000;1.807374
2374.000000;1.880926
2373.000000;2.005102
2372.000000;2.132662
2371.000000;2.227507
2370.000000;2.364093
2369.000000;2.444948
2368.000000;2.249509
2367.000000;2.110436
2366.000000;2.048398
2365.000000;2.061169
2364.000000;2.091868
2363.000000;1.976575
2362.000000;1.857865
2361.000000;1.809173
2360.000000;1.820903
2359.000000;1.887795
2358.000000;1.989575
2357.000000;1.971343
2356.000000;1.844414
2355.000000;1.733829
2354.000000;1.719823
2353.000000;1.758571
2352.000000;1.914262
2351.000000;2.512148
2350.000000;2.248232
2349.000000;1.912755
2348.000000;1.847815
2347.000000;1.793776
2346.000000;1.799910
2345.000000;1.865233
2344.000000;1.981428
2343.000000;2.126172
2342.000000;2.568545
2341.000000;2.172309
2340.000000;1.760682
2339.000000;1.618600
2338.000000;1.816639
2337.000000;2.369880
2336.000000;1.767888
2335.000000;1.564657
2334.000000;1.522978
2333.000000;1.525349
2332.000000;1.635945
2331.000000;1.833877
2330.000000;2.025346
2329.000000;2.132210
2328.000000;2.690171
2327.000000;2.818128
2326.000000;2.129979
2325.000000;1.797406
2324.000000;1.645055
2323.000000;1.594206
2322.000000;1.547325
2321.000000;1.489280
2320.000000;1.424426
2319.000000;1.371396
2318.000000;1.367566
2317.000000;1.459465
2316.000000;1.653547
2315.000000;1.928111
2314.000000;2.031492
2313.000000;1.798157
2312.000000;1.735607
2311.000000;1.736396
2310.000000;1.642369
2309.000000;1.573092
2308.000000;1.531848
2307.000000;1.484901
2306.000000;1.443612
2305.000000;1.448152
2304.000000;1.625520
2303.000000;1.781291
2302.000000;1.645089
2301.000000;1.737335
2300.000000;1.810269
2299.000000;1.541238
2298.000000;1.545606
2297.000000;1.942707
2296.000000;1.776456
2295.000000;1.490354
2294.000000;1.455948
2293.000000;1.506248
2292.000000;1.554125
2291.000000;1.451253
2290.000000;1.378690
2289.000000;1.411462
2288.000000;1.523847
2287.000000;1.695356
2286.000000;1.915424
2285.000000;2.097181
2284.000000;1.987297
2283.000000;1.955163
2282.000000;2.149939
2281.000000;2.245815
2280.000000;1.933611
2279.000000;1.763317
2278.000000;1.990335
2277.000000;2.103510
2276.000000;1.685752
2275.000000;1.585309
2274.000000;1.623312
2273.000000;1.741824
2272.000000;1.886168
2271.000000;1.851770
2270.000000;1.782538
2269.000000;1.747867
2268.000000;1.734549
2267.000000;1.826554
2266.000000;2.078243
2265.000000;1.884222
2264.000000;1.634645
2263.000000;1.549076
2262.000000;1.551104
2261.000000;1.593216
2260.000000;1.755732
2259.000000;1.904319
2258.000000;1.681840
2257.000000;1.497296
2256.000000;1.637949
2255.000000;1.888161
2254.000000;1.433428
2253.000000;1.247422
2252.000000;1.249536
2251.000000;1.446679
2250.000000;1.807948
2249.000000;1.515514
2248.000000;1.349231
2247.000000;1.433045
2246.000000;1.594318
2245.000000;1.587885
2244.000000;1.505095
2243.000000;1.498477
2242.000000;1.540102
2241.000000;1.634388
2240.000000;1.846611
2239.000000;2.133361
2238.000000;2.119703
2237.000000;1.848820
2236.000000;1.559664
2235.000000;1.402465
2234.000000;1.383925
2233.000000;1.438596
2232.000000;1.422467
2231.000000;1.341756
2230.000000;1.334124
2229.000000;1.427202
2228.000000;1.634990
2227.000000;1.684739
2226.000000;1.520468
2225.000000;1.507533
2224.000000;1.711537
2223.000000;2.200910
2222.000000;2.097922
2221.000000;1.902410
2220.000000;2.038198
2219.000000;1.918988
2218.000000;1.754938
2217.000000;1.773025
2216.000000;1.899148
2215.000000;2.003810
2214.000000;2.072254
2213.000000;2.365835
2212.000000;2.696814
2211.000000;2.214957
2210.000000;1.939420
2209.000000;1.879888
2208.000000;1.953897
2207.000000;2.007594
2206.000000;2.020682
2205.000000;2.089916
2204.000000;2.171487
2203.000000;2.213402
2202.000000;2.168825
2201.000000;2.076630
2200.000000;2.069199
2199.000000;2.078109
2198.000000;1.886154
2197.000000;1.766098
2196.000000;1.852052
2195.000000;2.108181
2194.000000;2.362859
2193.000000;2.226750
2192.000000;2.369126
2191.000000;2.501034
2190.000000;1.977933
2189.000000;1.756761
2188.000000;1.807597
2187.000000;2.024731
2186.000000;1.963364
2185.000000;1.796699
2184.000000;1.962045
2183.000000;2.431478
2182.000000;2.578479
2181.000000;2.885296
2180.000000;2.187838
2179.000000;1.934260
2178.000000;1.904941
2177.000000;1.900352
2176.000000;2.034284
2175.000000;2.115508
2174.000000;2.006682
2173.000000;1.929873
2172.000000;1.936412
2171.000000;1.938492
2170.000000;1.904895
2169.000000;1.858028
2168.000000;1.772625
2167.000000;1.724077
2166.000000;1.776994
2165.000000;1.859501
2164.000000;1.902159
2163.000000;1.959481
2162.000000;2.372441
2161.000000;2.419495
2160.000000;1.949170
2159.000000;1.797264
2158.000000;1.930022
2157.000000;2.316792
2156.000000;2.261220
2155.000000;2.503394
2154.000000;2.237516
2153.000000;1.854175
2152.000000;1.869562
2151.000000;2.090899
2150.000000;1.994593
2149.000000;1.777116
2148.000000;1.821449
2147.000000;2.041227
2146.000000;1.983801
2145.000000;1.765976
2144.000000;1.736872
2143.000000;1.751259
2142.000000;1.742005
2141.000000;1.824783
2140.000000;1.914278
2139.000000;1.774407
2138.000000;1.732174
2137.000000;2.029014
2136.000000;2.148470
2135.000000;1.876117
2134.000000;2.020059
2133.000000;2.524997
2132.000000;2.126896
2131.000000;1.867538
2130.000000;1.796464
2129.000000;1.770908
2128.000000;1.955345
2127.000000;2.323381
2126.000000;2.079711
2125.000000;1.850040
2124.000000;1.752496
2123.000000;1.762362
2122.000000;1.878227
2121.000000;1.992976
2120.000000;1.873752
2119.000000;1.639355
2118.000000;1.545717
2117.000000;1.617740
2116.000000;1.821026
2115.000000;1.749530
2114.000000;1.560722
2113.000000;1.581318
2112.000000;1.733268
2111.000000;1.874135
2110.000000;2.001216
2109.000000;1.822135
2108.000000;1.707426
2107.000000;1.982133
2106.000000;1.960396
2105.000000;1.679679
2104.000000;1.642390
2103.000000;1.712898
2102.000000;1.813775
2101.000000;1.799134
2100.000000;1.732989
2099.000000;1.735274
2098.000000;1.778215
2097.000000;1.781895
2096.000000;1.717716
2095.000000;1.657628
2094.000000;1.641892
2093.000000;1.821105
2092.000000;2.023368
2091.000000;1.755413
2090.000000;1.622399
2089.000000;1.671213
2088.000000;1.782365
2087.000000;1.664796
2086.000000;1.493790
2085.000000;1.508127
2084.000000;1.703432
2083.000000;1.790511
2082.000000;1.683613
2081.000000;1.684440
2080.000000;1.827309
2079.000000;2.075188
2078.000000;2.151076
2077.000000;2.029357
2076.000000;1.835401
2075.000000;1.645914
2074.000000;1.748448
2073.000000;2.220326
2072.000000;1.922475
2071.000000;1.796464
2070.000000;2.128244
2069.000000;2.192682
2068.000000;1.818554
2067.000000;1.685230
2066.000000;1.712150
2065.000000;1.870545
2064.000000;2.136291
2063.000000;1.895060
2062.000000;1.631114
2061.000000;1.532379
2060.000000;1.608866
2059.000000;2.036726
2058.000000;1.830370
2057.000000;1.462930
2056.000000;1.419100
2055.000000;1.489768
2054.000000;1.629601
2053.000000;1.753974
2052.000000;1.789319
2051.000000;1.758632
2050.000000;1.713684
2049.000000;1.874465
2048.000000;2.132266
2047.000000;1.894288
2046.000000;1.816712
2045.000000;2.127327
2044.000000;2.196516
2043.000000;1.758004
2042.000000;1.630858
2041.000000;1.673466
2040.000000;1.716044
2039.000000;1.632385
2038.000000;1.466416
2037.000000;1.383740
2036.000000;1.431412
2035.000000;1.536205
2034.000000;1.592079
2033.000000;1.660043
2032.000000;1.666159
2031.000000;1.553397
2030.000000;1.506221
2029.000000;1.568331
2028.000000;1.816830
2027.000000;1.822354
2026.000000;1.780888
2025.000000;2.424378
2024.000000;2.090682
2023.000000;1.727107
2022.000000;1.830989
2021.000000;2.257978
2020.000000;2.247105
2019.000000;1.782616
2018.000000;1.587255
2017.000000;1.494815
2016.000000;1.655543
2015.000000;2.135426
2014.000000;1.825369
2013.000000;1.626667
2012.000000;1.597046
2011.000000;1.574710
2010.000000;1.606250
2009.000000;1.649470
2008.000000;1.651303
2007.000000;1.571403
2006.000000;1.512475
2005.000000;1.568641
2004.000000;1.852902
2003.000000;2.174866
2002.000000;2.238893
2001.000000;2.373680
2000.000000;1.973904
1999.000000;1.926869
1998.000000;2.118494
1997.000000;1.788854
1996.000000;1.614110
1995.000000;1.730417
1994.000000;2.180041
1993.000000;2.400568
1992.000000;2.121214
1991.000000;1.991011
1990.000000;2.121764
1989.000000;2.205828
1988.000000;1.761720
1987.000000;1.576726
1986.000000;1.528251
1985.000000;1.548876
1984.000000;1.501267
1983.000000;1.386604
1982.000000;1.411025
1981.000000;1.675040
1980.000000;2.306539
1979.000000;2.267384
1978.000000;2.108168
1977.000000;2.096271
1976.000000;1.994126
1975.000000;2.111384
1974.000000;1.937947
1973.000000;1.724288
1972.000000;1.727651
1971.000000;1.752248
1970.000000;1.721855
1969.000000;1.715507
1968.000000;1.828680
1967.000000;2.051531
1966.000000;1.988918
1965.000000;1.875023
1964.000000;1.921472
1963.000000;1.947555
1962.000000;1.893341
1961.000000;1.836612
1960.000000;1.792527
1959.000000;1.792056
1958.000000;1.753775
1957.000000;1.627491
1956.000000;1.580790
1955.000000;1.673035
1954.000000;1.832553
1953.000000;1.791276
1952.000000;1.626508
1951.000000;1.760999
1950.000000;1.870949
1949.000000;1.557126
1948.000000;1.406657
1947.000000;1.479579
1946.000000;1.983837
1945.000000;1.937458
1944.000000;1.812442
1943.000000;2.207964
1942.000000;1.634999
1941.000000;1.454471
1940.000000;1.526008
1939.000000;1.619743
1938.000000;1.645840
1937.000000;1.559998
1936.000000;1.598910
1935.000000;1.847271
1934.000000;1.961522
1933.000000;1.994800
1932.000000;2.446186
1931.000000;2.464423
1930.000000;2.196396
1929.000000;1.906495
1928.000000;1.617707
1927.000000;1.474003
1926.000000;1.459740
1925.000000;1.679700
1924.000000;2.103588
1923.000000;1.745806
1922.000000;1.604919
1921.000000;2.035216
1920.000000;2.172368
1919.000000;1.768789
1918.000000;1.777367
1917.000000;1.649913
1916.000000;1.496220
1915.000000;1.452090
1914.000000;1.599181
1913.000000;2.181699
1912.000000;1.976672
1911.000000;1.609029
1910.000000;1.472065
1909.000000;1.447629
1908.000000;1.791742
1907.000000;1.936941
1906.000000;1.485449
1905.000000;1.435124
1904.000000;1.774143
1903.000000;2.180009
1902.000000;1.619815
1901.000000;1.498246
1900.000000;1.515516
1899.000000;1.517044
1898.000000;1.558222
1897.000000;1.598005
1896.000000;1.660749
1895.000000;1.660704
1894.000000;1.664783
1893.000000;1.726188
1892.000000;1.883613
1891.000000;1.976228
1890.000000;1.843728
1889.000000;1.687423
1888.000000;1.547936
1887.000000;1.417767
1886.000000;1.364617
1885.000000;1.405968
1884.000000;1.505671
1883.000000;1.584655
1882.000000;1.591622
1881.000000;1.561186
1880.000000;1.549367
1879.000000;1.597948
1878.000000;1.752695
1877.000000;2.012704
1876.000000;1.955398
1875.000000;1.817099
1874.000000;2.060582
1873.000000;2.358522
1872.000000;2.121279
1871.000000;1.937814
1870.000000;1.867647
1869.000000;2.059552
1868.000000;1.947810
1867.000000;1.708869
1866.000000;1.615971
1865.000000;1.536583
1864.000000;1.536066
1863.000000;1.601498
1862.000000;1.890653
1861.000000;1.924036
1860.000000;1.579677
1859.000000;1.439689
1858.000000;1.593239
1857.000000;2.110303
1856.000000;1.643423
1855.000000;1.450548
1854.000000;1.546181
1853.000000;1.714617
1852.000000;1.724748
1851.000000;1.631471
1850.000000;1.711097
1849.000000;1.829952
1848.000000;1.816007
1847.000000;1.834513
1846.000000;1.913337
1845.000000;1.822414
1844.000000;1.835725
1843.000000;1.673659
1842.000000;1.443422
1841.000000;1.453166
1840.000000;1.660710
1839.000000;1.820879
1838.000000;1.804675
1837.000000;1.795823
1836.000000;1.918248
1835.000000;2.382239
1834.000000;2.395484
1833.000000;1.823490
1832.000000;1.570462
1831.000000;1.503928
1830.000000;1.583436
1829.000000;1.679933
1828.000000;1.860813
1827.000000;2.084450
1826.000000;1.635711
1825.000000;1.371064
1824.000000;1.352163
1823.000000;1.516241
1822.000000;1.507657
1821.000000;1.292504
1820.000000;1.190608
1819.000000;1.175033
1818.000000;1.255136
1817.000000;1.454918
1816.000000;1.778212
1815.000000;1.903669
1814.000000;1.776350
1813.000000;1.669481
1812.000000;1.577002
1811.000000;1.541300
1810.000000;1.595608
1809.000000;1.716505
1808.000000;1.982944
1807.000000;2.309853
1806.000000;1.587464
1805.000000;1.210696
1804.000000;1.075861
1803.000000;1.084783
1802.000000;1.253259
1801.000000;1.460554
1800.000000;1.297011
1799.000000;1.099590
1798.000000;1.009908
1797.000000;1.002970
1796.000000;1.070843
1795.000000;1.195711
1794.000000;1.321509
1793.000000;1.382664
1792.000000;1.416595
1791.000000;1.460525
1790.000000;1.881062
1789.000000;2.028559
1788.000000;1.452126
1787.000000;1.346571
1786.000000;1.398353
1785.000000;1.505529
1784.000000;1.562832
1783.000000;1.525036
1782.000000;1.546773
1781.000000;1.838601
1780.000000;2.180008
1779.000000;1.672759
1778.000000;1.450759
1777.000000;1.369550
1776.000000;1.462720
1775.000000;1.650981
1774.000000;1.493488
1773.000000;1.376498
1772.000000;1.434247
1771.000000;1.613801
1770.000000;1.781440
1769.000000;1.853357
1768.000000;1.756436
1767.000000;1.874964
1766.000000;1.970623
1765.000000;1.479001
1764.000000;1.259169
1763.000000;1.209453
1762.000000;1.266433
1761.000000;1.458617
1760.000000;1.828859
1759.000000;1.732452
1758.000000;1.407821
1757.000000;1.227428
1756.000000;1.167818
1755.000000;1.257353
1754.000000;1.528812
1753.000000;2.218575
1752.000000;1.954695
1751.000000;1.554201
1750.000000;1.442444
1749.000000;1.414371
1748.000000;1.505190
1747.000000;1.873757
1746.000000;2.587037
1745.000000;2.016872
1744.000000;1.597402
1743.000000;1.373880
1742.000000;1.315175
1741.000000;1.386078
1740.000000;1.554729
1739.000000;1.485617
1738.000000;1.342963
1737.000000;1.480125
1736.000000;1.731207
1735.000000;1.590482
1734.000000;1.463847
1733.000000;1.482866
1732.000000;1.542674
1731.000000;1.728931
1730.000000;1.629571
1729.000000;1.325282
1728.000000;1.235275
1727.000000;1.339773
1726.000000;1.580959
1725.000000;1.539348
1724.000000;1.427953
1723.000000;1.431322
1722.000000;1.587769
1721.000000;2.068554
1720.000000;1.820414
1719.000000;1.720887
1718.000000;1.755859
1717.000000;1.526223
1716.000000;1.428246
1715.000000;1.499351
1714.000000;1.441340
1713.000000;1.215739
1712.000000;1.176219
1711.000000;1.432447
1710.000000;1.747848
1709.000000;1.549463
1708.000000;1.742993
1707.000000;2.010128
1706.000000;1.572675
1705.000000;1.482627
1704.000000;1.556239
1703.000000;1.752237
1702.000000;2.142197
1701.000000;2.489858
1700.000000;2.118515
1699.000000;1.798770
1698.000000;1.748927
1697.000000;1.790814
1696.000000;1.836904
1695.000000;2.010177
1694.000000;1.857364
1693.000000;1.444578
1692.000000;1.232366
1691.000000;1.200021
1690.000000;1.302267
1689.000000;1.467239
1688.000000;1.688286
1687.000000;1.831591
1686.000000;1.883962
1685.000000;2.108621
1684.000000;1.810133
1683.000000;1.508572
1682.000000;1.451835
1681.000000;1.547153
1680.000000;1.728621
1679.000000;1.630941
1678.000000;1.417995
1677.000000;1.322230
1676.000000;1.322911
1675.000000;1.416805
1674.000000;1.469156
1673.000000;1.396405
1672.000000;1.322445
1671.000000;1.280899
1670.000000;1.277800
1669.000000;1.318452
1668.000000;1.349110
1667.000000;1.371301
1666.000000;1.468651
1665.000000;1.620525
1664.000000;1.608472
1663.000000;1.475547
1662.000000;1.457301
1661.000000;1.584660
1660.000000;1.752634
1659.000000;1.662157
1658.000000;1.448184
1657.000000;1.351530
1656.000000;1.400949
1655.000000;1.625584
1654.000000;1.940266
1653.000000;2.012988
1652.000000;2.054425
1651.000000;2.210364
1650.000000;2.101170
1649.000000;1.748991
1648.000000;1.512792
1647.000000;1.400571
1646.000000;1.333799
1645.000000;1.274299
1644.000000;1.230729
1643.000000;1.219947
1642.000000;1.272102
1641.000000;1.388980
1640.000000;1.557613
1639.000000;1.699210
1638.000000;1.859592
1637.000000;2.256312
1636.000000;1.813040
1635.000000;1.404196
1634.000000;1.246285
1633.000000;1.223114
1632.000000;1.315344
1631.000000;1.503616
1630.000000;1.893698
1629.000000;2.030588
1628.000000;1.722716
1627.000000;1.695707
1626.000000;1.677894
1625.000000;1.546511
1624.000000;1.377070
1623.000000;1.253136
1622.000000;1.230490
1621.000000;1.319860
1620.000000;1.368047
1619.000000;1.348519
1618.000000;1.427681
1617.000000;1.684261
1616.000000;2.202325
1615.000000;1.894986
1614.000000;1.528648
1613.000000;1.337913
1612.000000;1.275313
1611.000000;1.391181
1610.000000;1.709412
1609.000000;1.882630
1608.000000;1.674468
1607.000000;1.752745
1606.000000;2.135717
1605.000000;1.760061
1604.000000;1.439323
1603.000000;1.369370
1602.000000;1.370342
1601.000000;1.424099
1600.000000;1.532929
1599.000000;1.498995
1598.000000;1.343185
1597.000000;1.254330
1596.000000;1.257786
1595.000000;1.280988
1594.000000;1.222421
1593.000000;1.164802
1592.000000;1.210833
1591.000000;1.418776
1590.000000;1.515956
1589.000000;1.288417
1588.000000;1.200748
1587.000000;1.273212
1586.000000;1.457872
1585.000000;1.676945
1584.000000;1.784525
1583.000000;1.769799
1582.000000;1.662841
1581.000000;1.611596
1580.000000;1.613120
1579.000000;1.640563
1578.000000;1.725300
1577.000000;1.885185
1576.000000;2.181060
1575.000000;2.029180
1574.000000;1.559160
1573.000000;1.347413
1572.000000;1.305153
1571.000000;1.441608
1570.000000;1.976729
1569.000000;2.078640
1568.000000;1.800120
1567.000000;2.122067
1566.000000;2.314560
1565.000000;1.800911
1564.000000;1.505236
1563.000000;1.405668
1562.000000;1.439735
1561.000000;1.496946
1560.000000;1.513353
1559.000000;1.628670
1558.000000;1.806356
1557.000000;1.715640
1556.000000;1.874549
1555.000000;1.927832
1554.000000;1.515171
1553.000000;1.443023
1552.000000;1.506196
1551.000000;1.785068
1550.000000;2.070387
1549.000000;1.510410
1548.000000;1.298706
1547.000000;1.333816
1546.000000;1.637772
1545.000000;1.848120
1544.000000;1.699050
1543.000000;1.744350
1542.000000;1.791728
1541.000000;1.990047
1540.000000;2.008649
1539.000000;1.697297
1538.000000;1.544586
1537.000000;1.494117
1536.000000;1.601956
1535.000000;1.858198
1534.000000;1.708407
1533.000000;1.791725
1532.000000;1.991179
1531.000000;1.606020
1530.000000;1.593587
1529.000000;1.833587
1528.000000;1.826071
1527.000000;1.783706
1526.000000;1.769074
1525.000000;1.715781
1524.000000;2.008581
1523.000000;1.980527
1522.000000;1.581168
1521.000000;1.393780
1520.000000;1.253323
1519.000000;1.216551
1518.000000;1.295993
1517.000000;1.340789
1516.000000;1.306267
1515.000000;1.349666
1514.000000;1.453844
1513.000000;1.414165
1512.000000;1.532228
1511.000000;2.372070
1510.000000;1.874877
1509.000000;1.570265
1508.000000;1.497587
1507.000000;1.427507
1506.000000;1.454964
1505.000000;1.468427
1504.000000;1.298375
1503.000000;1.114839
1502.000000;1.075588
1501.000000;1.189921
1500.000000;1.628367
1499.000000;1.821746
1498.000000;1.351307
1497.000000;1.289876
1496.000000;1.470550
1495.000000;1.763040
1494.000000;1.484287
1493.000000;1.291380
1492.000000;1.320851
1491.000000;1.424684
1490.000000;1.599734
1489.000000;1.831202
1488.000000;2.025231
1487.000000;2.018150
1486.000000;1.913796
1485.000000;1.761358
1484.000000;1.902914
1483.000000;1.929045
1482.000000;1.519395
1481.000000;1.376517
1480.000000;1.315669
1479.000000;1.256234
1478.000000;1.266046
1477.000000;1.413092
1476.000000;1.521338
1475.000000;1.347131
1474.000000;1.298836
1473.000000;1.550744
1472.000000;1.648971
1471.000000;1.269813
1470.000000;1.215646
1469.000000;1.298185
1468.000000;1.228853
1467.000000;1.146355
1466.000000;1.177837
1465.000000;1.287737
1464.000000;1.404921
1463.000000;1.499130
1462.000000;1.506324
1461.000000;1.350668
1460.000000;1.202512
1459.000000;1.181641
1458.000000;1.213246
1457.000000;1.244202
1456.000000;1.280021
1455.000000;1.442113
1454.000000;1.987385
1453.000000;1.701236
1452.000000;1.545536
1451.000000;1.700874
1450.000000;1.474533
1449.000000;1.276065
1448.000000;1.287443
1447.000000;1.626573
1446.000000;1.845671
1445.000000;1.523913
1444.000000;1.652001
1443.000000;1.675225
1442.000000;1.404831
1441.000000;1.382451
1440.000000;1.897900
1439.000000;2.126013
1438.000000;1.485578
1437.000000;1.309603
1436.000000;1.250202
1435.000000;1.418134
1434.000000;1.663442
1433.000000;1.580818
1432.000000;1.436861
1431.000000;1.301145
1430.000000;1.348325
1429.000000;1.547292
1428.000000;1.432776
1427.000000;1.346539
1426.000000;1.492318
1425.000000;1.707632
1424.000000;1.654478
1423.000000;1.519670
1422.000000;1.448740
1421.000000;1.518370
1420.000000;1.760366
1419.000000;1.921349
1418.000000;1.859393
1417.000000;1.663024
1416.000000;1.625549
1415.000000;1.683543
1414.000000;1.518173
1413.000000;1.559402
1412.000000;1.566186
1411.000000;1.296649
1410.000000;1.233225
1409.000000;1.405121
1408.000000;1.595074
1407.000000;1.497338
1406.000000;1.379036
1405.000000;1.387999
1404.000000;1.421609
1403.000000;1.542276
1402.000000;1.864335
1401.000000;1.534827
1400.000000;1.345600
1399.000000;1.535560
1398.000000;1.845809
1397.000000;1.663786
1396.000000;1.736515
1395.000000;1.742176
1394.000000;1.658962
1393.000000;1.672175
1392.000000;1.411393
1391.000000;1.271861
1390.000000;1.275377
1389.000000;1.295952
1388.000000;1.292306
1387.000000;1.381602
1386.000000;1.602617
1385.000000;1.632620
1384.000000;1.551609
1383.000000;1.682236
1382.000000;1.747698
1381.000000;1.526390
1380.000000;1.357888
1379.000000;1.463935
1378.000000;1.969391
1377.000000;1.534404
1376.000000;1.280257
1375.000000;1.238375
1374.000000;1.211835
1373.000000;1.230425
1372.000000;1.334810
1371.000000;1.628866
1370.000000;1.967818
1369.000000;2.083625
1368.000000;1.727569
1367.000000;1.329446
1366.000000;1.203789
1365.000000;1.226394
1364.000000;1.330329
1363.000000;1.456820
1362.000000;1.496072
1361.000000;1.492319
1360.000000;1.521478
1359.000000;1.432826
1358.000000;1.299368
1357.000000;1.257875
1356.000000;1.305815
1355.000000;1.480520
1354.000000;1.551662
1353.000000;1.334756
1352.000000;1.192063
1351.000000;1.193850
1350.000000;1.360511
1349.000000;1.595235
1348.000000;1.566936
1347.000000;1.489953
1346.000000;1.491074
1345.000000;1.621825
1344.000000;1.896367
1343.000000;1.934680
1342.000000;1.794196
1341.000000;1.854360
1340.000000;2.133480
1339.000000;1.923934
1338.000000;1.555282
1337.000000;1.353907
1336.000000;1.242676
1335.000000;1.228262
1334.000000;1.309381
1333.000000;1.474857
1332.000000;1.645427
1331.000000;1.705587
1330.000000;2.128837
1329.000000;2.092248
1328.000000;1.567809
1327.000000;1.431358
1326.000000;1.559942
1325.000000;2.053459
1324.000000;1.692394
1323.000000;1.525940
1322.000000;1.609195
1321.000000;1.539047
1320.000000;1.487358
1319.000000;1.555184
1318.000000;1.709672
1317.000000;1.724445
1316.000000;1.736244
1315.000000;1.959296
1314.000000;1.876646
1313.000000;1.565416
1312.000000;1.398928
1311.000000;1.333735
1310.000000;1.446483
1309.000000;1.498750
1308.000000;1.285594
1307.000000;1.195617
1306.000000;1.242867
1305.000000;1.361859
1304.000000;1.580150
1303.000000;1.999476
1302.000000;1.631710
1301.000000;1.317293
1300.000000;1.280306
1299.000000;1.369412
1298.000000;1.698776
1297.000000;1.964725
1296.000000;1.455838
1295.000000;1.220854
1294.000000;1.148852
1293.000000;1.163578
1292.000000;1.241979
1291.000000;1.355460
1290.000000;1.502922
1289.000000;1.737744
1288.000000;2.163500
1287.000000;1.893582
1286.000000;1.482507
1285.000000;1.305202
1284.000000;1.234397
1283.000000;1.208071
1282.000000;1.206638
1281.000000;1.273144
1280.000000;1.459751
1279.000000;1.543774
1278.000000;1.450061
1277.000000;1.485049
1276.000000;1.571080
1275.000000;1.520112
1274.000000;1.374184
1273.000000;1.243523
1272.000000;1.175127
1271.000000;1.189853
1270.000000;1.276755
1269.000000;1.390210
1268.000000;1.480032
1267.000000;1.501605
1266.000000;1.442747
1265.000000;1.318439
1264.000000;1.244664
1263.000000;1.256083
1262.000000;1.322417
1261.000000;1.406228
1260.000000;1.393012
1259.000000;1.306110
1258.000000;1.249223
1257.000000;1.225834
1256.000000;1.234691
1255.000000;1.244154
1254.000000;1.260789
1253.000000;1.351503
1252.000000;1.556218
1251.000000;2.154395
1250.000000;2.270090
1249.000000;1.743555
1248.000000;1.828087
1247.000000;2.125133
1246.000000;1.957003
1245.000000;1.751066
1244.000000;1.559557
1243.000000;1.423657
1242.000000;1.436242
1241.000000;1.519539
1240.000000;1.506553
1239.000000;1.415265
1238.000000;1.297143
1237.000000;1.154532
1236.000000;1.083249
1235.000000;1.115038
1234.000000;1.370480
1233.000000;1.800831
1232.000000;1.343358
1231.000000;1.170097
1230.000000;1.214644
1229.000000;1.402833
1228.000000;1.702773
1227.000000;1.866104
1226.000000;1.665760
1225.000000;1.443266
1224.000000;1.370861
1223.000000;1.394421
1222.000000;1.574056
1221.000000;1.785379
1220.000000;1.543226
1219.000000;1.433156
1218.000000;1.614772
1217.000000;2.055722
1216.000000;1.937102
1215.000000;1.481460
1214.000000;1.247353
1213.000000;1.175404
1212.000000;1.221237
1211.000000;1.320867
1210.000000;1.401325
1209.000000;1.410802
1208.000000;1.324000
1207.000000;1.216082
1206.000000;1.172399
1205.000000;1.221591
1204.000000;1.323484
1203.000000;1.323290
1202.000000;1.221796
1201.000000;1.146542
1200.000000;1.095410
