Criado como novo conjunto de dados;"2706_e01_daniel.spp","48424.3 Secs"
cm-1;Abs
10000.000000;0.986106
9999.000000;0.986609
9998.000000;0.986785
9997.000000;0.986088
9996.000000;0.984882
9995.000000;0.984016
9994.000000;0.983957
9993.000000;0.984387
9992.000000;0.984540
9991.000000;0.983909
9990.000000;0.982744
9989.000000;0.981876
9988.000000;0.981906
9987.000000;0.982628
9986.000000;0.983360
9985.000000;0.983710
9984.000000;0.983724
9983.000000;0.983375
9982.000000;0.982484
9981.000000;0.981310
9980.000000;0.980668
9979.000000;0.981098
9978.000000;0.982267
9977.000000;0.983491
9976.000000;0.984480
9975.000000;0.985192
9974.000000;0.985298
9973.000000;0.984458
9972.000000;0.983020
9971.000000;0.981876
9970.000000;0.981561
9969.000000;0.981891
9968.000000;0.982458
9967.000000;0.983015
9966.000000;0.983341
9965.000000;0.983197
9964.000000;0.982634
9963.000000;0.982004
9962.000000;0.981544
9961.000000;0.981226
9960.000000;0.981046
9959.000000;0.981094
9958.000000;0.981191
9957.000000;0.980856
9956.000000;0.979954
9955.000000;0.979095
9954.000000;0.978995
9953.000000;0.979602
9952.000000;0.980222
9951.000000;0.980467
9950.000000;0.980694
9949.000000;0.981362
9948.000000;0.982259
9947.000000;0.982684
9946.000000;0.982258
9945.000000;0.981271
9944.000000;0.980238
9943.000000;0.979426
9942.000000;0.978977
9941.000000;0.979180
9940.000000;0.980165
9939.000000;0.981396
9938.000000;0.981932
9937.000000;0.981375
9936.000000;0.980250
9935.000000;0.979239
9934.000000;0.978374
9933.000000;0.977288
9932.000000;0.975999
9931.000000;0.975038
9930.000000;0.974861
9929.000000;0.975441
9928.000000;0.976401
9927.000000;0.977309
9926.000000;0.977843
9925.000000;0.977930
9924.000000;0.977809
9923.000000;0.977780
9922.000000;0.977896
9921.000000;0.978036
9920.000000;0.978194
9919.000000;0.978412
9918.000000;0.978452
9917.000000;0.977879
9916.000000;0.976634
9915.000000;0.975322
9914.000000;0.974721
9913.000000;0.975063
9912.000000;0.975835
9911.000000;0.976216
9910.000000;0.975710
9909.000000;0.974488
9908.000000;0.973245
9907.000000;0.972699
9906.000000;0.973140
9905.000000;0.974247
9904.000000;0.975218
9903.000000;0.975200
9902.000000;0.973966
9901.000000;0.972305
9900.000000;0.971519
9899.000000;0.972279
9898.000000;0.973976
9897.000000;0.975319
9896.000000;0.975549
9895.000000;0.974985
9894.000000;0.974477
9893.000000;0.974532
9892.000000;0.974934
9891.000000;0.974976
9890.000000;0.974112
9889.000000;0.972581
9888.000000;0.971291
9887.000000;0.970994
9886.000000;0.971738
9885.000000;0.973124
9884.000000;0.974722
9883.000000;0.975983
9882.000000;0.976132
9881.000000;0.974801
9880.000000;0.972769
9879.000000;0.971479
9878.000000;0.971590
9877.000000;0.972321
9876.000000;0.972404
9875.000000;0.971464
9874.000000;0.970237
9873.000000;0.969663
9872.000000;0.970052
9871.000000;0.970978
9870.000000;0.971693
9869.000000;0.971672
9868.000000;0.970990
9867.000000;0.970248
9866.000000;0.970052
9865.000000;0.970508
9864.000000;0.971178
9863.000000;0.971462
9862.000000;0.971057
9861.000000;0.970171
9860.000000;0.969342
9859.000000;0.968984
9858.000000;0.969063
9857.000000;0.969208
9856.000000;0.969090
9855.000000;0.968615
9854.000000;0.967845
9853.000000;0.966945
9852.000000;0.966244
9851.000000;0.966171
9850.000000;0.966893
9849.000000;0.968014
9848.000000;0.968752
9847.000000;0.968520
9846.000000;0.967457
9845.000000;0.966359
9844.000000;0.965990
9843.000000;0.966398
9842.000000;0.966932
9841.000000;0.966942
9840.000000;0.966389
9839.000000;0.965715
9838.000000;0.965324
9837.000000;0.965352
9836.000000;0.965746
9835.000000;0.966283
9834.000000;0.966582
9833.000000;0.966393
9832.000000;0.965933
9831.000000;0.965744
9830.000000;0.966130
9829.000000;0.966841
9828.000000;0.967315
9827.000000;0.967175
9826.000000;0.966494
9825.000000;0.965699
9824.000000;0.965238
9823.000000;0.965215
9822.000000;0.965331
9821.000000;0.965241
9820.000000;0.964904
9819.000000;0.964488
9818.000000;0.964081
9817.000000;0.963692
9816.000000;0.963457
9815.000000;0.963540
9814.000000;0.963761
9813.000000;0.963633
9812.000000;0.962956
9811.000000;0.962241
9810.000000;0.962328
9809.000000;0.963562
9808.000000;0.965394
9807.000000;0.966786
9806.000000;0.966985
9805.000000;0.965978
9804.000000;0.964324
9803.000000;0.962693
9802.000000;0.961622
9801.000000;0.961514
9800.000000;0.962477
9799.000000;0.964038
9798.000000;0.965301
9797.000000;0.965667
9796.000000;0.965298
9795.000000;0.964736
9794.000000;0.964278
9793.000000;0.963947
9792.000000;0.963796
9791.000000;0.963851
9790.000000;0.963854
9789.000000;0.963491
9788.000000;0.962876
9787.000000;0.962413
9786.000000;0.962171
9785.000000;0.961795
9784.000000;0.961189
9783.000000;0.960836
9782.000000;0.961152
9781.000000;0.961804
9780.000000;0.962049
9779.000000;0.961603
9778.000000;0.960857
9777.000000;0.960247
9776.000000;0.959791
9775.000000;0.959321
9774.000000;0.958917
9773.000000;0.958850
9772.000000;0.959172
9771.000000;0.959579
9770.000000;0.959775
9769.000000;0.959827
9768.000000;0.959983
9767.000000;0.960210
9766.000000;0.960176
9765.000000;0.959744
9764.000000;0.959229
9763.000000;0.958949
9762.000000;0.958749
9761.000000;0.958280
9760.000000;0.957645
9759.000000;0.957404
9758.000000;0.957891
9757.000000;0.958803
9756.000000;0.959521
9755.000000;0.959639
9754.000000;0.959141
9753.000000;0.958352
9752.000000;0.957796
9751.000000;0.957827
9750.000000;0.958230
9749.000000;0.958412
9748.000000;0.958131
9747.000000;0.957814
9746.000000;0.957948
9745.000000;0.958398
9744.000000;0.958614
9743.000000;0.958327
9742.000000;0.957744
9741.000000;0.957132
9740.000000;0.956565
9739.000000;0.956072
9738.000000;0.955696
9737.000000;0.955329
9736.000000;0.954787
9735.000000;0.954192
9734.000000;0.954021
9733.000000;0.954528
9732.000000;0.955299
9731.000000;0.955651
9730.000000;0.955379
9729.000000;0.954863
9728.000000;0.954483
9727.000000;0.954260
9726.000000;0.954126
9725.000000;0.954191
9724.000000;0.954508
9723.000000;0.954819
9722.000000;0.954798
9721.000000;0.954491
9720.000000;0.954254
9719.000000;0.954264
9718.000000;0.954366
9717.000000;0.954403
9716.000000;0.954411
9715.000000;0.954431
9714.000000;0.954334
9713.000000;0.954002
9712.000000;0.953566
9711.000000;0.953330
9710.000000;0.953536
9709.000000;0.954185
9708.000000;0.954974
9707.000000;0.955381
9706.000000;0.955038
9705.000000;0.954146
9704.000000;0.953351
9703.000000;0.953100
9702.000000;0.953249
9701.000000;0.953379
9700.000000;0.953274
9699.000000;0.952931
9698.000000;0.952365
9697.000000;0.951662
9696.000000;0.951101
9695.000000;0.950934
9694.000000;0.951048
9693.000000;0.951077
9692.000000;0.950860
9691.000000;0.950628
9690.000000;0.950724
9689.000000;0.951232
9688.000000;0.951854
9687.000000;0.952067
9686.000000;0.951523
9685.000000;0.950471
9684.000000;0.949647
9683.000000;0.949552
9682.000000;0.949945
9681.000000;0.950250
9680.000000;0.950325
9679.000000;0.950483
9678.000000;0.950817
9677.000000;0.950907
9676.000000;0.950373
9675.000000;0.949435
9674.000000;0.948663
9673.000000;0.948331
9672.000000;0.948256
9671.000000;0.948222
9670.000000;0.948306
9669.000000;0.948675
9668.000000;0.949205
9667.000000;0.949483
9666.000000;0.949235
9665.000000;0.948600
9664.000000;0.947903
9663.000000;0.947315
9662.000000;0.946932
9661.000000;0.947007
9660.000000;0.947735
9659.000000;0.948776
9658.000000;0.949384
9657.000000;0.949202
9656.000000;0.948655
9655.000000;0.948331
9654.000000;0.948303
9653.000000;0.948317
9652.000000;0.948315
9651.000000;0.948362
9650.000000;0.948296
9649.000000;0.947933
9648.000000;0.947530
9647.000000;0.947588
9646.000000;0.948178
9645.000000;0.948859
9644.000000;0.949249
9643.000000;0.949350
9642.000000;0.949268
9641.000000;0.949027
9640.000000;0.948739
9639.000000;0.948573
9638.000000;0.948416
9637.000000;0.947939
9636.000000;0.947138
9635.000000;0.946499
9634.000000;0.946411
9633.000000;0.946676
9632.000000;0.946793
9631.000000;0.946513
9630.000000;0.945972
9629.000000;0.945481
9628.000000;0.945361
9627.000000;0.945731
9626.000000;0.946249
9625.000000;0.946293
9624.000000;0.945653
9623.000000;0.944848
9622.000000;0.944544
9621.000000;0.944822
9620.000000;0.945229
9619.000000;0.945403
9618.000000;0.945370
9617.000000;0.945307
9616.000000;0.945303
9615.000000;0.945369
9614.000000;0.945449
9613.000000;0.945378
9612.000000;0.945009
9611.000000;0.944435
9610.000000;0.943943
9609.000000;0.943710
9608.000000;0.943639
9607.000000;0.943544
9606.000000;0.943372
9605.000000;0.943172
9604.000000;0.942899
9603.000000;0.942398
9602.000000;0.941629
9601.000000;0.940841
9600.000000;0.940425
9599.000000;0.940554
9598.000000;0.941035
9597.000000;0.941562
9596.000000;0.942007
9595.000000;0.942348
9594.000000;0.942415
9593.000000;0.941938
9592.000000;0.940930
9591.000000;0.939879
9590.000000;0.939416
9589.000000;0.939789
9588.000000;0.940703
9587.000000;0.941572
9586.000000;0.941945
9585.000000;0.941742
9584.000000;0.941164
9583.000000;0.940456
9582.000000;0.939809
9581.000000;0.939426
9580.000000;0.939502
9579.000000;0.940029
9578.000000;0.940732
9577.000000;0.941316
9576.000000;0.941700
9575.000000;0.941899
9574.000000;0.941816
9573.000000;0.941391
9572.000000;0.940843
9571.000000;0.940479
9570.000000;0.940295
9569.000000;0.940020
9568.000000;0.939578
9567.000000;0.939236
9566.000000;0.939198
9565.000000;0.939317
9564.000000;0.939357
9563.000000;0.939324
9562.000000;0.939344
9561.000000;0.939383
9560.000000;0.939317
9559.000000;0.939177
9558.000000;0.939144
9557.000000;0.939275
9556.000000;0.939380
9555.000000;0.939203
9554.000000;0.938691
9553.000000;0.938045
9552.000000;0.937511
9551.000000;0.937140
9550.000000;0.936796
9549.000000;0.936415
9548.000000;0.936145
9547.000000;0.936173
9546.000000;0.936518
9545.000000;0.937089
9544.000000;0.937801
9543.000000;0.938442
9542.000000;0.938605
9541.000000;0.938073
9540.000000;0.937193
9539.000000;0.936534
9538.000000;0.936177
9537.000000;0.935751
9536.000000;0.935201
9535.000000;0.935083
9534.000000;0.935852
9533.000000;0.937219
9532.000000;0.938477
9531.000000;0.939189
9530.000000;0.939305
9529.000000;0.938897
9528.000000;0.938181
9527.000000;0.937573
9526.000000;0.937292
9525.000000;0.937008
9524.000000;0.936273
9523.000000;0.935260
9522.000000;0.934637
9521.000000;0.934698
9520.000000;0.935004
9519.000000;0.934982
9518.000000;0.934552
9517.000000;0.934024
9516.000000;0.933693
9515.000000;0.933705
9514.000000;0.934068
9513.000000;0.934575
9512.000000;0.934864
9511.000000;0.934787
9510.000000;0.934587
9509.000000;0.934566
9508.000000;0.934696
9507.000000;0.934718
9506.000000;0.934485
9505.000000;0.934031
9504.000000;0.933407
9503.000000;0.932684
9502.000000;0.932096
9501.000000;0.931932
9500.000000;0.932203
9499.000000;0.932564
9498.000000;0.932649
9497.000000;0.932386
9496.000000;0.931955
9495.000000;0.931564
9494.000000;0.931345
9493.000000;0.931363
9492.000000;0.931586
9491.000000;0.931867
9490.000000;0.932049
9489.000000;0.932104
9488.000000;0.932148
9487.000000;0.932283
9486.000000;0.932478
9485.000000;0.932642
9484.000000;0.932788
9483.000000;0.933041
9482.000000;0.933403
9481.000000;0.933569
9480.000000;0.933143
9479.000000;0.932110
9478.000000;0.930985
9477.000000;0.930347
9476.000000;0.930300
9475.000000;0.930513
9474.000000;0.930688
9473.000000;0.930800
9472.000000;0.930875
9471.000000;0.930851
9470.000000;0.930760
9469.000000;0.930852
9468.000000;0.931293
9467.000000;0.931864
9466.000000;0.932150
9465.000000;0.932000
9464.000000;0.931627
9463.000000;0.931318
9462.000000;0.931205
9461.000000;0.931270
9460.000000;0.931366
9459.000000;0.931243
9458.000000;0.930775
9457.000000;0.930184
9456.000000;0.929846
9455.000000;0.929797
9454.000000;0.929653
9453.000000;0.929114
9452.000000;0.928368
9451.000000;0.927869
9450.000000;0.927867
9449.000000;0.928290
9448.000000;0.928906
9447.000000;0.929406
9446.000000;0.929429
9445.000000;0.928808
9444.000000;0.927813
9443.000000;0.926998
9442.000000;0.926738
9441.000000;0.926981
9440.000000;0.927429
9439.000000;0.927812
9438.000000;0.927953
9437.000000;0.927756
9436.000000;0.927306
9435.000000;0.926949
9434.000000;0.927049
9433.000000;0.927567
9432.000000;0.927949
9431.000000;0.927634
9430.000000;0.926716
9429.000000;0.925950
9428.000000;0.925970
9427.000000;0.926592
9426.000000;0.927027
9425.000000;0.926775
9424.000000;0.926098
9423.000000;0.925563
9422.000000;0.925402
9421.000000;0.925448
9420.000000;0.925508
9419.000000;0.925544
9418.000000;0.925523
9417.000000;0.925320
9416.000000;0.924898
9415.000000;0.924449
9414.000000;0.924290
9413.000000;0.924583
9412.000000;0.925159
9411.000000;0.925585
9410.000000;0.925477
9409.000000;0.924835
9408.000000;0.924087
9407.000000;0.923770
9406.000000;0.924094
9405.000000;0.924763
9404.000000;0.925180
9403.000000;0.924890
9402.000000;0.923952
9401.000000;0.922909
9400.000000;0.922348
9399.000000;0.922460
9398.000000;0.922978
9397.000000;0.923439
9396.000000;0.923448
9395.000000;0.922858
9394.000000;0.921917
9393.000000;0.921257
9392.000000;0.921469
9391.000000;0.922533
9390.000000;0.923754
9389.000000;0.924389
9388.000000;0.924247
9387.000000;0.923644
9386.000000;0.922935
9385.000000;0.922249
9384.000000;0.921565
9383.000000;0.920866
9382.000000;0.920212
9381.000000;0.919729
9380.000000;0.919556
9379.000000;0.919757
9378.000000;0.920322
9377.000000;0.921196
9376.000000;0.922173
9375.000000;0.922779
9374.000000;0.922541
9373.000000;0.921535
9372.000000;0.920488
9371.000000;0.920131
9370.000000;0.920495
9369.000000;0.920988
9368.000000;0.921074
9367.000000;0.920689
9366.000000;0.920094
9365.000000;0.919554
9364.000000;0.919226
9363.000000;0.919163
9362.000000;0.919305
9361.000000;0.919521
9360.000000;0.919687
9359.000000;0.919724
9358.000000;0.919577
9357.000000;0.919232
9356.000000;0.918754
9355.000000;0.918216
9354.000000;0.917618
9353.000000;0.916960
9352.000000;0.916409
9351.000000;0.916283
9350.000000;0.916805
9349.000000;0.917819
9348.000000;0.918791
9347.000000;0.919158
9346.000000;0.918799
9345.000000;0.918156
9344.000000;0.917843
9343.000000;0.918097
9342.000000;0.918635
9341.000000;0.918965
9340.000000;0.918765
9339.000000;0.918039
9338.000000;0.917089
9337.000000;0.916400
9336.000000;0.916352
9335.000000;0.916877
9334.000000;0.917470
9333.000000;0.917646
9332.000000;0.917376
9331.000000;0.917040
9330.000000;0.917012
9329.000000;0.917298
9328.000000;0.917557
9327.000000;0.917443
9326.000000;0.916988
9325.000000;0.916607
9324.000000;0.916645
9323.000000;0.916960
9322.000000;0.917119
9321.000000;0.916908
9320.000000;0.916488
9319.000000;0.916073
9318.000000;0.915760
9317.000000;0.915671
9316.000000;0.915933
9315.000000;0.916397
9314.000000;0.916635
9313.000000;0.916439
9312.000000;0.916124
9311.000000;0.916130
9310.000000;0.916488
9309.000000;0.916839
9308.000000;0.916821
9307.000000;0.916270
9306.000000;0.915251
9305.000000;0.914102
9304.000000;0.913302
9303.000000;0.913102
9302.000000;0.913362
9301.000000;0.913814
9300.000000;0.914290
9299.000000;0.914583
9298.000000;0.914375
9297.000000;0.913617
9296.000000;0.912779
9295.000000;0.912420
9294.000000;0.912583
9293.000000;0.912884
9292.000000;0.913062
9291.000000;0.913175
9290.000000;0.913304
9289.000000;0.913399
9288.000000;0.913401
9287.000000;0.913307
9286.000000;0.913102
9285.000000;0.912807
9284.000000;0.912538
9283.000000;0.912352
9282.000000;0.912123
9281.000000;0.911773
9280.000000;0.911502
9279.000000;0.911536
9278.000000;0.911717
9277.000000;0.911664
9276.000000;0.911334
9275.000000;0.911107
9274.000000;0.911255
9273.000000;0.911597
9272.000000;0.911749
9271.000000;0.911539
9270.000000;0.911104
9269.000000;0.910738
9268.000000;0.910702
9267.000000;0.911035
9266.000000;0.911463
9265.000000;0.911595
9264.000000;0.911257
9263.000000;0.910588
9262.000000;0.909866
9261.000000;0.909340
9260.000000;0.909165
9259.000000;0.909325
9258.000000;0.909640
9257.000000;0.909959
9256.000000;0.910287
9255.000000;0.910631
9254.000000;0.910825
9253.000000;0.910706
9252.000000;0.910377
9251.000000;0.910094
9250.000000;0.909947
9249.000000;0.909851
9248.000000;0.909778
9247.000000;0.909756
9246.000000;0.909700
9245.000000;0.909475
9244.000000;0.909119
9243.000000;0.908764
9242.000000;0.908404
9241.000000;0.907971
9240.000000;0.907603
9239.000000;0.907573
9238.000000;0.907897
9237.000000;0.908280
9236.000000;0.908438
9235.000000;0.908279
9234.000000;0.907796
9233.000000;0.907073
9232.000000;0.906451
9231.000000;0.906344
9230.000000;0.906757
9229.000000;0.907204
9228.000000;0.907202
9227.000000;0.906712
9226.000000;0.906051
9225.000000;0.905588
9224.000000;0.905584
9223.000000;0.906040
9222.000000;0.906592
9221.000000;0.906741
9220.000000;0.906353
9219.000000;0.905766
9218.000000;0.905347
9217.000000;0.905140
9216.000000;0.905061
9215.000000;0.905169
9214.000000;0.905511
9213.000000;0.905848
9212.000000;0.905786
9211.000000;0.905185
9210.000000;0.904348
9209.000000;0.903767
9208.000000;0.903731
9207.000000;0.904095
9206.000000;0.904421
9205.000000;0.904431
9204.000000;0.904318
9203.000000;0.904513
9202.000000;0.905121
9201.000000;0.905761
9200.000000;0.905972
9199.000000;0.905642
9198.000000;0.905005
9197.000000;0.904405
9196.000000;0.904143
9195.000000;0.904348
9194.000000;0.904853
9193.000000;0.905278
9192.000000;0.905338
9191.000000;0.905009
9190.000000;0.904399
9189.000000;0.903629
9188.000000;0.902897
9187.000000;0.902476
9186.000000;0.902488
9185.000000;0.902765
9184.000000;0.903018
9183.000000;0.903069
9182.000000;0.902882
9181.000000;0.902540
9180.000000;0.902242
9179.000000;0.902200
9178.000000;0.902399
9177.000000;0.902592
9176.000000;0.902619
9175.000000;0.902611
9174.000000;0.902737
9173.000000;0.902901
9172.000000;0.902855
9171.000000;0.902516
9170.000000;0.902023
9169.000000;0.901553
9168.000000;0.901222
9167.000000;0.901132
9166.000000;0.901308
9165.000000;0.901599
9164.000000;0.901778
9163.000000;0.901795
9162.000000;0.901805
9161.000000;0.901923
9160.000000;0.902021
9159.000000;0.901841
9158.000000;0.901264
9157.000000;0.900446
9156.000000;0.899695
9155.000000;0.899247
9154.000000;0.899135
9153.000000;0.899231
9152.000000;0.899376
9151.000000;0.899469
9150.000000;0.899473
9149.000000;0.899389
9148.000000;0.899241
9147.000000;0.899060
9146.000000;0.898876
9145.000000;0.898720
9144.000000;0.898622
9143.000000;0.898587
9142.000000;0.898600
9141.000000;0.898635
9140.000000;0.898619
9139.000000;0.898419
9138.000000;0.897994
9137.000000;0.897580
9136.000000;0.897553
9135.000000;0.897986
9134.000000;0.898482
9133.000000;0.898594
9132.000000;0.898316
9131.000000;0.897998
9130.000000;0.897857
9129.000000;0.897780
9128.000000;0.897578
9127.000000;0.897212
9126.000000;0.896762
9125.000000;0.896342
9124.000000;0.896092
9123.000000;0.896100
9122.000000;0.896300
9121.000000;0.896555
9120.000000;0.896840
9119.000000;0.897169
9118.000000;0.897373
9117.000000;0.897203
9116.000000;0.896710
9115.000000;0.896300
9114.000000;0.896275
9113.000000;0.896488
9112.000000;0.896574
9111.000000;0.896399
9110.000000;0.896110
9109.000000;0.895892
9108.000000;0.895821
9107.000000;0.895892
9106.000000;0.896015
9105.000000;0.895974
9104.000000;0.895556
9103.000000;0.894775
9102.000000;0.893907
9101.000000;0.893303
9100.000000;0.893188
9099.000000;0.893586
9098.000000;0.894329
9097.000000;0.895102
9096.000000;0.895536
9095.000000;0.895390
9094.000000;0.894747
9093.000000;0.894031
9092.000000;0.893716
9091.000000;0.893936
9090.000000;0.894405
9089.000000;0.894752
9088.000000;0.894859
9087.000000;0.894826
9086.000000;0.894711
9085.000000;0.894503
9084.000000;0.894281
9083.000000;0.894207
9082.000000;0.894280
9081.000000;0.894269
9080.000000;0.893964
9079.000000;0.893431
9078.000000;0.892948
9077.000000;0.892762
9076.000000;0.892914
9075.000000;0.893220
9074.000000;0.893390
9073.000000;0.893250
9072.000000;0.892885
9071.000000;0.892515
9070.000000;0.892242
9069.000000;0.891991
9068.000000;0.891668
9067.000000;0.891285
9066.000000;0.890929
9065.000000;0.890733
9064.000000;0.890853
9063.000000;0.891319
9062.000000;0.891868
9061.000000;0.892060
9060.000000;0.891657
9059.000000;0.890858
9058.000000;0.890126
9057.000000;0.889882
9056.000000;0.890295
9055.000000;0.891174
9054.000000;0.891953
9053.000000;0.891981
9052.000000;0.891056
9051.000000;0.889682
9050.000000;0.888713
9049.000000;0.888687
9048.000000;0.889440
9047.000000;0.890284
9046.000000;0.890566
9045.000000;0.890169
9044.000000;0.889545
9043.000000;0.889253
9042.000000;0.889469
9041.000000;0.889946
9040.000000;0.890346
9039.000000;0.890481
9038.000000;0.890302
9037.000000;0.889878
9036.000000;0.889447
9035.000000;0.889286
9034.000000;0.889404
9033.000000;0.889480
9032.000000;0.889214
9031.000000;0.888686
9030.000000;0.888264
9029.000000;0.888238
9028.000000;0.888615
9027.000000;0.889155
9026.000000;0.889504
9025.000000;0.889387
9024.000000;0.888809
9023.000000;0.888106
9022.000000;0.887674
9021.000000;0.887641
9020.000000;0.887791
9019.000000;0.887774
9018.000000;0.887385
9017.000000;0.886707
9016.000000;0.886086
9015.000000;0.885880
9014.000000;0.886181
9013.000000;0.886740
9012.000000;0.887230
9011.000000;0.887529
9010.000000;0.887710
9009.000000;0.887830
9008.000000;0.887825
9007.000000;0.887642
9006.000000;0.887334
9005.000000;0.887011
9004.000000;0.886735
9003.000000;0.886544
9002.000000;0.886522
9001.000000;0.886766
9000.000000;0.887225
8999.000000;0.887615
8998.000000;0.887579
8997.000000;0.887021
8996.000000;0.886228
8995.000000;0.885614
8994.000000;0.885358
8993.000000;0.885318
8992.000000;0.885262
8991.000000;0.885083
8990.000000;0.884806
8989.000000;0.884524
8988.000000;0.884347
8987.000000;0.884348
8986.000000;0.884465
8985.000000;0.884514
8984.000000;0.884384
8983.000000;0.884191
8982.000000;0.884185
8981.000000;0.884496
8980.000000;0.885011
8979.000000;0.885476
8978.000000;0.885710
8977.000000;0.885714
8976.000000;0.885611
8975.000000;0.885494
8974.000000;0.885332
8973.000000;0.884996
8972.000000;0.884408
8971.000000;0.883663
8970.000000;0.883049
8969.000000;0.882865
8968.000000;0.883177
8967.000000;0.883721
8966.000000;0.884095
8965.000000;0.884063
8964.000000;0.883690
8963.000000;0.883226
8962.000000;0.882905
8961.000000;0.882839
8960.000000;0.882960
8959.000000;0.883037
8958.000000;0.882845
8957.000000;0.882410
8956.000000;0.882032
8955.000000;0.881992
8954.000000;0.882262
8953.000000;0.882551
8952.000000;0.882591
8951.000000;0.882331
8950.000000;0.881940
8949.000000;0.881669
8948.000000;0.881669
8947.000000;0.881849
8946.000000;0.881964
8945.000000;0.881881
8944.000000;0.881699
8943.000000;0.881544
8942.000000;0.881378
8941.000000;0.881094
8940.000000;0.880736
8939.000000;0.880453
8938.000000;0.880301
8937.000000;0.880218
8936.000000;0.880147
8935.000000;0.880069
8934.000000;0.879934
8933.000000;0.879730
8932.000000;0.879600
8931.000000;0.879719
8930.000000;0.880027
8929.000000;0.880231
8928.000000;0.880138
8927.000000;0.879896
8926.000000;0.879813
8925.000000;0.880028
8924.000000;0.880381
8923.000000;0.880556
8922.000000;0.880328
8921.000000;0.879758
8920.000000;0.879194
8919.000000;0.879002
8918.000000;0.879231
8917.000000;0.879536
8916.000000;0.879488
8915.000000;0.878981
8914.000000;0.878323
8913.000000;0.877941
8912.000000;0.877999
8911.000000;0.878283
8910.000000;0.878456
8909.000000;0.878382
8908.000000;0.878187
8907.000000;0.878020
8906.000000;0.877895
8905.000000;0.877813
8904.000000;0.877884
8903.000000;0.878191
8902.000000;0.878580
8901.000000;0.878731
8900.000000;0.878461
8899.000000;0.877884
8898.000000;0.877283
8897.000000;0.876895
8896.000000;0.876776
8895.000000;0.876771
8894.000000;0.876655
8893.000000;0.876366
8892.000000;0.876115
8891.000000;0.876163
8890.000000;0.876539
8889.000000;0.877018
8888.000000;0.877321
8887.000000;0.877265
8886.000000;0.876782
8885.000000;0.876011
8884.000000;0.875341
8883.000000;0.875187
8882.000000;0.875594
8881.000000;0.876155
8880.000000;0.876372
8879.000000;0.876060
8878.000000;0.875408
8877.000000;0.874761
8876.000000;0.874409
8875.000000;0.874460
8874.000000;0.874793
8873.000000;0.875127
8872.000000;0.875221
8871.000000;0.875049
8870.000000;0.874786
8869.000000;0.874633
8868.000000;0.874617
8867.000000;0.874563
8866.000000;0.874294
8865.000000;0.873895
8864.000000;0.873691
8863.000000;0.873918
8862.000000;0.874442
8861.000000;0.874887
8860.000000;0.874981
8859.000000;0.874712
8858.000000;0.874238
8857.000000;0.873776
8856.000000;0.873538
8855.000000;0.873614
8854.000000;0.873848
8853.000000;0.873956
8852.000000;0.873800
8851.000000;0.873477
8850.000000;0.873164
8849.000000;0.872994
8848.000000;0.873065
8847.000000;0.873400
8846.000000;0.873823
8845.000000;0.874020
8844.000000;0.873827
8843.000000;0.873398
8842.000000;0.873004
8841.000000;0.872746
8840.000000;0.872546
8839.000000;0.872353
8838.000000;0.872201
8837.000000;0.872102
8836.000000;0.871986
8835.000000;0.871801
8834.000000;0.871600
8833.000000;0.871463
8832.000000;0.871383
8831.000000;0.871297
8830.000000;0.871190
8829.000000;0.871108
8828.000000;0.871068
8827.000000;0.871050
8826.000000;0.871092
8825.000000;0.871306
8824.000000;0.871674
8823.000000;0.871933
8822.000000;0.871817
8821.000000;0.871400
8820.000000;0.871043
8819.000000;0.870961
8818.000000;0.870999
8817.000000;0.870901
8816.000000;0.870664
8815.000000;0.870512
8814.000000;0.870639
8813.000000;0.871045
8812.000000;0.871535
8811.000000;0.871769
8810.000000;0.871448
8809.000000;0.870602
8808.000000;0.869637
8807.000000;0.869008
8806.000000;0.868888
8805.000000;0.869199
8804.000000;0.869764
8803.000000;0.870282
8802.000000;0.870334
8801.000000;0.869755
8800.000000;0.868976
8799.000000;0.868668
8798.000000;0.868988
8797.000000;0.869403
8796.000000;0.869358
8795.000000;0.868909
8794.000000;0.868557
8793.000000;0.868620
8792.000000;0.868951
8791.000000;0.869196
8790.000000;0.869157
8789.000000;0.868906
8788.000000;0.868672
8787.000000;0.868641
8786.000000;0.868839
8785.000000;0.869154
8784.000000;0.869449
8783.000000;0.869605
8782.000000;0.869508
8781.000000;0.869112
8780.000000;0.868558
8779.000000;0.868163
8778.000000;0.868153
8777.000000;0.868435
8776.000000;0.868664
8775.000000;0.868557
8774.000000;0.868135
8773.000000;0.867672
8772.000000;0.867438
8771.000000;0.867509
8770.000000;0.867778
8769.000000;0.868080
8768.000000;0.868287
8767.000000;0.868298
8766.000000;0.868069
8765.000000;0.867704
8764.000000;0.867433
8763.000000;0.867379
8762.000000;0.867397
8761.000000;0.867244
8760.000000;0.866907
8759.000000;0.866674
8758.000000;0.866823
8757.000000;0.867314
8756.000000;0.867797
8755.000000;0.867899
8754.000000;0.867502
8753.000000;0.866831
8752.000000;0.866311
8751.000000;0.866296
8750.000000;0.866822
8749.000000;0.867557
8748.000000;0.867994
8747.000000;0.867816
8746.000000;0.867145
8745.000000;0.866438
8744.000000;0.866103
8743.000000;0.866170
8742.000000;0.866330
8741.000000;0.866253
8740.000000;0.865851
8739.000000;0.865311
8738.000000;0.864972
8737.000000;0.865107
8736.000000;0.865663
8735.000000;0.866170
8734.000000;0.866093
8733.000000;0.865396
8732.000000;0.864621
8731.000000;0.864343
8730.000000;0.864663
8729.000000;0.865266
8728.000000;0.865788
8727.000000;0.866003
8726.000000;0.865822
8725.000000;0.865368
8724.000000;0.865005
8723.000000;0.865060
8722.000000;0.865449
8721.000000;0.865723
8720.000000;0.865525
8719.000000;0.864916
8718.000000;0.864261
8717.000000;0.863912
8716.000000;0.864034
8715.000000;0.864565
8714.000000;0.865228
8713.000000;0.865640
8712.000000;0.865551
8711.000000;0.865012
8710.000000;0.864325
8709.000000;0.863836
8708.000000;0.863711
8707.000000;0.863826
8706.000000;0.863878
8705.000000;0.863673
8704.000000;0.863368
8703.000000;0.863353
8702.000000;0.863869
8701.000000;0.864697
8700.000000;0.865261
8699.000000;0.865092
8698.000000;0.864268
8697.000000;0.863366
8696.000000;0.862949
8695.000000;0.863105
8694.000000;0.863484
8693.000000;0.863708
8692.000000;0.863638
8691.000000;0.863341
8690.000000;0.862993
8689.000000;0.862834
8688.000000;0.863006
8687.000000;0.863347
8686.000000;0.863499
8685.000000;0.863325
8684.000000;0.863079
8683.000000;0.863059
8682.000000;0.863257
8681.000000;0.863472
8680.000000;0.863595
8679.000000;0.863596
8678.000000;0.863375
8677.000000;0.862870
8676.000000;0.862293
8675.000000;0.862020
8674.000000;0.862208
8673.000000;0.862629
8672.000000;0.862896
8671.000000;0.862773
8670.000000;0.862283
8669.000000;0.861657
8668.000000;0.861183
8667.000000;0.861007
8666.000000;0.861044
8665.000000;0.861102
8664.000000;0.861096
8663.000000;0.861083
8662.000000;0.861161
8661.000000;0.861391
8660.000000;0.861726
8659.000000;0.861973
8658.000000;0.861896
8657.000000;0.861491
8656.000000;0.861070
8655.000000;0.860934
8654.000000;0.861034
8653.000000;0.861060
8652.000000;0.860819
8651.000000;0.860374
8650.000000;0.859881
8649.000000;0.859465
8648.000000;0.859238
8647.000000;0.859274
8646.000000;0.859500
8645.000000;0.859702
8644.000000;0.859686
8643.000000;0.859404
8642.000000;0.858968
8641.000000;0.858602
8640.000000;0.858501
8639.000000;0.858638
8638.000000;0.858743
8637.000000;0.858590
8636.000000;0.858264
8635.000000;0.858050
8634.000000;0.858111
8633.000000;0.858391
8632.000000;0.858764
8631.000000;0.859125
8630.000000;0.859360
8629.000000;0.859373
8628.000000;0.859178
8627.000000;0.858856
8626.000000;0.858419
8625.000000;0.857827
8624.000000;0.857124
8623.000000;0.856457
8622.000000;0.855967
8621.000000;0.855727
8620.000000;0.855765
8619.000000;0.856037
8618.000000;0.856375
8617.000000;0.856574
8616.000000;0.856534
8615.000000;0.856271
8614.000000;0.855845
8613.000000;0.855331
8612.000000;0.854834
8611.000000;0.854434
8610.000000;0.854143
8609.000000;0.853981
8608.000000;0.854005
8607.000000;0.854169
8606.000000;0.854252
8605.000000;0.854078
8604.000000;0.853755
8603.000000;0.853553
8602.000000;0.853583
8601.000000;0.853728
8600.000000;0.853849
8599.000000;0.853867
8598.000000;0.853714
8597.000000;0.853371
8596.000000;0.852970
8595.000000;0.852682
8594.000000;0.852495
8593.000000;0.852236
8592.000000;0.851851
8591.000000;0.851488
8590.000000;0.851280
8589.000000;0.851207
8588.000000;0.851199
8587.000000;0.851240
8586.000000;0.851269
8585.000000;0.851134
8584.000000;0.850757
8583.000000;0.850285
8582.000000;0.849983
8581.000000;0.850002
8580.000000;0.850270
8579.000000;0.850579
8578.000000;0.850752
8577.000000;0.850746
8576.000000;0.850622
8575.000000;0.850395
8574.000000;0.850006
8573.000000;0.849466
8572.000000;0.848961
8571.000000;0.848694
8570.000000;0.848678
8569.000000;0.848785
8568.000000;0.848941
8567.000000;0.849130
8566.000000;0.849240
8565.000000;0.849092
8564.000000;0.848667
8563.000000;0.848180
8562.000000;0.847853
8561.000000;0.847715
8560.000000;0.847664
8559.000000;0.847634
8558.000000;0.847632
8557.000000;0.847666
8556.000000;0.847701
8555.000000;0.847684
8554.000000;0.847595
8553.000000;0.847490
8552.000000;0.847442
8551.000000;0.847405
8550.000000;0.847214
8549.000000;0.846805
8548.000000;0.846376
8547.000000;0.846198
8546.000000;0.846278
8545.000000;0.846333
8544.000000;0.846111
8543.000000;0.845632
8542.000000;0.845132
8541.000000;0.844877
8540.000000;0.845041
8539.000000;0.845611
8538.000000;0.846304
8537.000000;0.846680
8536.000000;0.846455
8535.000000;0.845717
8534.000000;0.844820
8533.000000;0.844093
8532.000000;0.843668
8531.000000;0.843509
8530.000000;0.843527
8529.000000;0.843639
8528.000000;0.843765
8527.000000;0.843844
8526.000000;0.843888
8525.000000;0.843979
8524.000000;0.844117
8523.000000;0.844109
8522.000000;0.843713
8521.000000;0.842953
8520.000000;0.842185
8519.000000;0.841783
8518.000000;0.841812
8517.000000;0.842063
8516.000000;0.842308
8515.000000;0.842450
8514.000000;0.842499
8513.000000;0.842512
8512.000000;0.842523
8511.000000;0.842477
8510.000000;0.842281
8509.000000;0.841970
8508.000000;0.841733
8507.000000;0.841666
8506.000000;0.841638
8505.000000;0.841491
8504.000000;0.841272
8503.000000;0.841094
8502.000000;0.840890
8501.000000;0.840511
8500.000000;0.840036
8499.000000;0.839769
8498.000000;0.839874
8497.000000;0.840187
8496.000000;0.840426
8495.000000;0.840462
8494.000000;0.840334
8493.000000;0.840112
8492.000000;0.839842
8491.000000;0.839544
8490.000000;0.839224
8489.000000;0.838894
8488.000000;0.838613
8487.000000;0.838438
8486.000000;0.838355
8485.000000;0.838298
8484.000000;0.838216
8483.000000;0.838080
8482.000000;0.837863
8481.000000;0.837605
8480.000000;0.837451
8479.000000;0.837496
8478.000000;0.837610
8477.000000;0.837526
8476.000000;0.837130
8475.000000;0.836597
8474.000000;0.836206
8473.000000;0.836116
8472.000000;0.836297
8471.000000;0.836605
8470.000000;0.836854
8469.000000;0.836894
8468.000000;0.836680
8467.000000;0.836296
8466.000000;0.835903
8465.000000;0.835644
8464.000000;0.835554
8463.000000;0.835567
8462.000000;0.835619
8461.000000;0.835727
8460.000000;0.835928
8459.000000;0.836149
8458.000000;0.836209
8457.000000;0.835977
8456.000000;0.835456
8455.000000;0.834742
8454.000000;0.834015
8453.000000;0.833553
8452.000000;0.833558
8451.000000;0.833913
8450.000000;0.834253
8449.000000;0.834349
8448.000000;0.834269
8447.000000;0.834114
8446.000000;0.833830
8445.000000;0.833433
8444.000000;0.833179
8443.000000;0.833260
8442.000000;0.833477
8441.000000;0.833476
8440.000000;0.833208
8439.000000;0.832932
8438.000000;0.832813
8437.000000;0.832760
8436.000000;0.832636
8435.000000;0.832425
8434.000000;0.832169
8433.000000;0.831921
8432.000000;0.831753
8431.000000;0.831666
8430.000000;0.831531
8429.000000;0.831298
8428.000000;0.831172
8427.000000;0.831376
8426.000000;0.831750
8425.000000;0.831853
8424.000000;0.831493
8423.000000;0.830940
8422.000000;0.830542
8421.000000;0.830352
8420.000000;0.830231
8419.000000;0.830124
8418.000000;0.830065
8417.000000;0.830047
8416.000000;0.830032
8415.000000;0.830031
8414.000000;0.830087
8413.000000;0.830189
8412.000000;0.830266
8411.000000;0.830217
8410.000000;0.829958
8409.000000;0.829490
8408.000000;0.828950
8407.000000;0.828507
8406.000000;0.828221
8405.000000;0.828059
8404.000000;0.828042
8403.000000;0.828239
8402.000000;0.828594
8401.000000;0.828876
8400.000000;0.828869
8399.000000;0.828557
8398.000000;0.828101
8397.000000;0.827697
8396.000000;0.827451
8395.000000;0.827346
8394.000000;0.827309
8393.000000;0.827342
8392.000000;0.827526
8391.000000;0.827815
8390.000000;0.827938
8389.000000;0.827655
8388.000000;0.827100
8387.000000;0.826673
8386.000000;0.826577
8385.000000;0.826630
8384.000000;0.826581
8383.000000;0.826419
8382.000000;0.826281
8381.000000;0.826211
8380.000000;0.826164
8379.000000;0.826148
8378.000000;0.826210
8377.000000;0.826289
8376.000000;0.826227
8375.000000;0.825950
8374.000000;0.825585
8373.000000;0.825334
8372.000000;0.825296
8371.000000;0.825388
8370.000000;0.825429
8369.000000;0.825256
8368.000000;0.824811
8367.000000;0.824207
8366.000000;0.823723
8365.000000;0.823630
8364.000000;0.823936
8363.000000;0.824314
8362.000000;0.824397
8361.000000;0.824129
8360.000000;0.823751
8359.000000;0.823473
8358.000000;0.823314
8357.000000;0.823230
8356.000000;0.823216
8355.000000;0.823203
8354.000000;0.823058
8353.000000;0.822785
8352.000000;0.822596
8351.000000;0.822649
8350.000000;0.822841
8349.000000;0.822963
8348.000000;0.822929
8347.000000;0.822738
8346.000000;0.822375
8345.000000;0.821917
8344.000000;0.821590
8343.000000;0.821517
8342.000000;0.821501
8341.000000;0.821297
8340.000000;0.820984
8339.000000;0.820869
8338.000000;0.821066
8337.000000;0.821404
8336.000000;0.821695
8335.000000;0.821833
8334.000000;0.821668
8333.000000;0.821078
8332.000000;0.820232
8331.000000;0.819536
8330.000000;0.819223
8329.000000;0.819166
8328.000000;0.819175
8327.000000;0.819263
8326.000000;0.819531
8325.000000;0.819919
8324.000000;0.820211
8323.000000;0.820226
8322.000000;0.819918
8321.000000;0.819402
8320.000000;0.818918
8319.000000;0.818702
8318.000000;0.818810
8317.000000;0.819096
8316.000000;0.819360
8315.000000;0.819451
8314.000000;0.819273
8313.000000;0.818825
8312.000000;0.818267
8311.000000;0.817838
8310.000000;0.817653
8309.000000;0.817633
8308.000000;0.817637
8307.000000;0.817578
8306.000000;0.817431
8305.000000;0.817254
8304.000000;0.817181
8303.000000;0.817279
8302.000000;0.817407
8301.000000;0.817341
8300.000000;0.817051
8299.000000;0.816759
8298.000000;0.816674
8297.000000;0.816788
8296.000000;0.816936
8295.000000;0.816950
8294.000000;0.816742
8293.000000;0.816361
8292.000000;0.816005
8291.000000;0.815875
8290.000000;0.815973
8289.000000;0.816091
8288.000000;0.816025
8287.000000;0.815728
8286.000000;0.815280
8285.000000;0.814823
8284.000000;0.814528
8283.000000;0.814481
8282.000000;0.814561
8281.000000;0.814519
8280.000000;0.814237
8279.000000;0.813855
8278.000000;0.813617
8277.000000;0.813666
8276.000000;0.813956
8275.000000;0.814274
8274.000000;0.814359
8273.000000;0.814119
8272.000000;0.813755
8271.000000;0.813566
8270.000000;0.813616
8269.000000;0.813710
8268.000000;0.813675
8267.000000;0.813530
8266.000000;0.813356
8265.000000;0.813178
8264.000000;0.813036
8263.000000;0.813040
8262.000000;0.813218
8261.000000;0.813373
8260.000000;0.813237
8259.000000;0.812778
8258.000000;0.812271
8257.000000;0.812062
8256.000000;0.812239
8255.000000;0.812537
8254.000000;0.812570
8253.000000;0.812197
8252.000000;0.811646
8251.000000;0.811268
8250.000000;0.811207
8249.000000;0.811354
8248.000000;0.811517
8247.000000;0.811543
8246.000000;0.811343
8245.000000;0.810955
8244.000000;0.810599
8243.000000;0.810536
8242.000000;0.810825
8241.000000;0.811254
8240.000000;0.811511
8239.000000;0.811410
8238.000000;0.810999
8237.000000;0.810561
8236.000000;0.810417
8235.000000;0.810597
8234.000000;0.810734
8233.000000;0.810426
8232.000000;0.809688
8231.000000;0.808916
8230.000000;0.808444
8229.000000;0.808317
8228.000000;0.808441
8227.000000;0.808731
8226.000000;0.809036
8225.000000;0.809135
8224.000000;0.808954
8223.000000;0.808684
8222.000000;0.808580
8221.000000;0.808703
8220.000000;0.808895
8219.000000;0.808936
8218.000000;0.808688
8217.000000;0.808214
8216.000000;0.807797
8215.000000;0.807744
8214.000000;0.808058
8213.000000;0.808393
8212.000000;0.808379
8211.000000;0.807965
8210.000000;0.807410
8209.000000;0.807025
8208.000000;0.806946
8207.000000;0.807068
8206.000000;0.807125
8205.000000;0.806915
8204.000000;0.806508
8203.000000;0.806192
8202.000000;0.806185
8201.000000;0.806430
8200.000000;0.806685
8199.000000;0.806708
8198.000000;0.806395
8197.000000;0.805850
8196.000000;0.805387
8195.000000;0.805326
8194.000000;0.805692
8193.000000;0.806159
8192.000000;0.806329
8191.000000;0.806053
8190.000000;0.805462
8189.000000;0.804819
8188.000000;0.804375
8187.000000;0.804267
8186.000000;0.804414
8185.000000;0.804563
8184.000000;0.804528
8183.000000;0.804360
8182.000000;0.804248
8181.000000;0.804285
8180.000000;0.804394
8179.000000;0.804424
8178.000000;0.804283
8177.000000;0.803992
8176.000000;0.803668
8175.000000;0.803455
8174.000000;0.803441
8173.000000;0.803617
8172.000000;0.803901
8171.000000;0.804151
8170.000000;0.804210
8169.000000;0.804013
8168.000000;0.803669
8167.000000;0.803374
8166.000000;0.803245
8165.000000;0.803261
8164.000000;0.803342
8163.000000;0.803390
8162.000000;0.803297
8161.000000;0.803029
8160.000000;0.802733
8159.000000;0.802624
8158.000000;0.802720
8157.000000;0.802785
8156.000000;0.802611
8155.000000;0.802263
8154.000000;0.801979
8153.000000;0.801902
8152.000000;0.801969
8151.000000;0.802021
8150.000000;0.801922
8149.000000;0.801614
8148.000000;0.801148
8147.000000;0.800682
8146.000000;0.800403
8145.000000;0.800417
8144.000000;0.800683
8143.000000;0.801028
8142.000000;0.801247
8141.000000;0.801239
8140.000000;0.801089
8139.000000;0.800959
8138.000000;0.800890
8137.000000;0.800749
8136.000000;0.800399
8135.000000;0.799865
8134.000000;0.799336
8133.000000;0.799028
8132.000000;0.799054
8131.000000;0.799368
8130.000000;0.799764
8129.000000;0.799988
8128.000000;0.799897
8127.000000;0.799547
8126.000000;0.799131
8125.000000;0.798834
8124.000000;0.798721
8123.000000;0.798700
8122.000000;0.798596
8121.000000;0.798319
8120.000000;0.797977
8119.000000;0.797793
8118.000000;0.797882
8117.000000;0.798148
8116.000000;0.798388
8115.000000;0.798465
8114.000000;0.798378
8113.000000;0.798214
8112.000000;0.798087
8111.000000;0.798091
8110.000000;0.798243
8109.000000;0.798433
8108.000000;0.798442
8107.000000;0.798101
8106.000000;0.797504
8105.000000;0.797008
8104.000000;0.796931
8103.000000;0.797216
8102.000000;0.797484
8101.000000;0.797443
8100.000000;0.797157
8099.000000;0.796900
8098.000000;0.796844
8097.000000;0.796973
8096.000000;0.797192
8095.000000;0.797371
8094.000000;0.797357
8093.000000;0.797088
8092.000000;0.796687
8091.000000;0.796355
8090.000000;0.796177
8089.000000;0.796092
8088.000000;0.796019
8087.000000;0.795925
8086.000000;0.795797
8085.000000;0.795663
8084.000000;0.795608
8083.000000;0.795663
8082.000000;0.795710
8081.000000;0.795602
8080.000000;0.795354
8079.000000;0.795111
8078.000000;0.794923
8077.000000;0.794721
8076.000000;0.794493
8075.000000;0.794348
8074.000000;0.794344
8073.000000;0.794381
8072.000000;0.794345
8071.000000;0.794260
8070.000000;0.794224
8069.000000;0.794266
8068.000000;0.794333
8067.000000;0.794367
8066.000000;0.794339
8065.000000;0.794230
8064.000000;0.794045
8063.000000;0.793819
8062.000000;0.793601
8061.000000;0.793440
8060.000000;0.793381
8059.000000;0.793418
8058.000000;0.793454
8057.000000;0.793375
8056.000000;0.793180
8055.000000;0.792999
8054.000000;0.792953
8053.000000;0.793036
8052.000000;0.793127
8051.000000;0.793089
8050.000000;0.792872
8049.000000;0.792564
8048.000000;0.792348
8047.000000;0.792346
8046.000000;0.792501
8045.000000;0.792645
8044.000000;0.792644
8043.000000;0.792470
8042.000000;0.792191
8041.000000;0.791951
8040.000000;0.791894
8039.000000;0.792013
8038.000000;0.792099
8037.000000;0.791965
8036.000000;0.791682
8035.000000;0.791489
8034.000000;0.791481
8033.000000;0.791534
8032.000000;0.791501
8031.000000;0.791335
8030.000000;0.791027
8029.000000;0.790587
8028.000000;0.790170
8027.000000;0.790047
8026.000000;0.790312
8025.000000;0.790717
8024.000000;0.790885
8023.000000;0.790663
8022.000000;0.790201
8021.000000;0.789770
8020.000000;0.789583
8019.000000;0.789720
8018.000000;0.790062
8017.000000;0.790312
8016.000000;0.790211
8015.000000;0.789786
8014.000000;0.789353
8013.000000;0.789230
8012.000000;0.789460
8011.000000;0.789783
8010.000000;0.789860
8009.000000;0.789541
8008.000000;0.788988
8007.000000;0.788563
8006.000000;0.788564
8005.000000;0.788979
8004.000000;0.789464
8003.000000;0.789563
8002.000000;0.789062
8001.000000;0.788189
8000.000000;0.787458
7999.000000;0.787256
7998.000000;0.787553
7997.000000;0.787974
7996.000000;0.788138
7995.000000;0.787932
7994.000000;0.787541
7993.000000;0.787272
7992.000000;0.787311
7991.000000;0.787588
7990.000000;0.787829
7989.000000;0.787773
7988.000000;0.787361
7987.000000;0.786762
7986.000000;0.786265
7985.000000;0.786114
7984.000000;0.786340
7983.000000;0.786710
7982.000000;0.786894
7981.000000;0.786766
7980.000000;0.786494
7979.000000;0.786325
7978.000000;0.786348
7977.000000;0.786490
7976.000000;0.786614
7975.000000;0.786573
7974.000000;0.786301
7973.000000;0.785952
7972.000000;0.785845
7971.000000;0.786114
7970.000000;0.786499
7969.000000;0.786596
7968.000000;0.786281
7967.000000;0.785760
7966.000000;0.785292
7965.000000;0.785021
7964.000000;0.785012
7963.000000;0.785212
7962.000000;0.785378
7961.000000;0.785247
7960.000000;0.784846
7959.000000;0.784481
7958.000000;0.784386
7957.000000;0.784516
7956.000000;0.784682
7955.000000;0.784740
7954.000000;0.784607
7953.000000;0.784284
7952.000000;0.783946
7951.000000;0.783835
7950.000000;0.783970
7949.000000;0.784075
7948.000000;0.783911
7947.000000;0.783573
7946.000000;0.783343
7945.000000;0.783360
7944.000000;0.783524
7943.000000;0.783655
7942.000000;0.783628
7941.000000;0.783403
7940.000000;0.783069
7939.000000;0.782811
7938.000000;0.782743
7937.000000;0.782799
7936.000000;0.782827
7935.000000;0.782765
7934.000000;0.782651
7933.000000;0.782529
7932.000000;0.782425
7931.000000;0.782366
7930.000000;0.782334
7929.000000;0.782226
7928.000000;0.781975
7927.000000;0.781692
7926.000000;0.781595
7925.000000;0.781764
7924.000000;0.782038
7923.000000;0.782179
7922.000000;0.782093
7921.000000;0.781874
7920.000000;0.781679
7919.000000;0.781586
7918.000000;0.781560
7917.000000;0.781514
7916.000000;0.781400
7915.000000;0.781233
7914.000000;0.781043
7913.000000;0.780839
7912.000000;0.780650
7911.000000;0.780525
7910.000000;0.780475
7909.000000;0.780435
7908.000000;0.780350
7907.000000;0.780268
7906.000000;0.780286
7905.000000;0.780388
7904.000000;0.780416
7903.000000;0.780236
7902.000000;0.779888
7901.000000;0.779553
7900.000000;0.779373
7899.000000;0.779352
7898.000000;0.779395
7897.000000;0.779406
7896.000000;0.779333
7895.000000;0.779181
7894.000000;0.779009
7893.000000;0.778907
7892.000000;0.778937
7891.000000;0.779067
7890.000000;0.779186
7889.000000;0.779199
7888.000000;0.779106
7887.000000;0.778989
7886.000000;0.778931
7885.000000;0.778952
7884.000000;0.778987
7883.000000;0.778928
7882.000000;0.778689
7881.000000;0.778295
7880.000000;0.777892
7879.000000;0.777672
7878.000000;0.777728
7877.000000;0.777966
7876.000000;0.778147
7875.000000;0.778066
7874.000000;0.777728
7873.000000;0.777353
7872.000000;0.777174
7871.000000;0.777220
7870.000000;0.777318
7869.000000;0.777294
7868.000000;0.777133
7867.000000;0.776946
7866.000000;0.776847
7865.000000;0.776875
7864.000000;0.776988
7863.000000;0.777089
7862.000000;0.777084
7861.000000;0.776943
7860.000000;0.776713
7859.000000;0.776490
7858.000000;0.776380
7857.000000;0.776450
7856.000000;0.776649
7855.000000;0.776794
7854.000000;0.776713
7853.000000;0.776423
7852.000000;0.776098
7851.000000;0.775849
7850.000000;0.775636
7849.000000;0.775389
7848.000000;0.775143
7847.000000;0.774974
7846.000000;0.774902
7845.000000;0.774911
7844.000000;0.774983
7843.000000;0.775052
7842.000000;0.774993
7841.000000;0.774754
7840.000000;0.774458
7839.000000;0.774306
7838.000000;0.774391
7837.000000;0.774652
7836.000000;0.774958
7835.000000;0.775150
7834.000000;0.775084
7833.000000;0.774754
7832.000000;0.774370
7831.000000;0.774202
7830.000000;0.774315
7829.000000;0.774501
7828.000000;0.774507
7827.000000;0.774287
7826.000000;0.774011
7825.000000;0.773880
7824.000000;0.773923
7823.000000;0.773991
7822.000000;0.773917
7821.000000;0.773678
7820.000000;0.773384
7819.000000;0.773141
7818.000000;0.772997
7817.000000;0.772979
7816.000000;0.773086
7815.000000;0.773192
7814.000000;0.773097
7813.000000;0.772748
7812.000000;0.772348
7811.000000;0.772147
7810.000000;0.772188
7809.000000;0.772327
7808.000000;0.772429
7807.000000;0.772446
7806.000000;0.772359
7805.000000;0.772173
7804.000000;0.771966
7803.000000;0.771835
7802.000000;0.771790
7801.000000;0.771761
7800.000000;0.771708
7799.000000;0.771658
7798.000000;0.771634
7797.000000;0.771615
7796.000000;0.771581
7795.000000;0.771520
7794.000000;0.771406
7793.000000;0.771229
7792.000000;0.771034
7791.000000;0.770887
7790.000000;0.770804
7789.000000;0.770754
7788.000000;0.770715
7787.000000;0.770681
7786.000000;0.770606
7785.000000;0.770440
7784.000000;0.770209
7783.000000;0.770017
7782.000000;0.769948
7781.000000;0.769981
7780.000000;0.770016
7779.000000;0.769966
7778.000000;0.769828
7777.000000;0.769678
7776.000000;0.769589
7775.000000;0.769554
7774.000000;0.769516
7773.000000;0.769451
7772.000000;0.769374
7771.000000;0.769272
7770.000000;0.769114
7769.000000;0.768958
7768.000000;0.768932
7767.000000;0.769072
7766.000000;0.769239
7765.000000;0.769276
7764.000000;0.769169
7763.000000;0.769000
7762.000000;0.768801
7761.000000;0.768563
7760.000000;0.768318
7759.000000;0.768140
7758.000000;0.768050
7757.000000;0.767994
7756.000000;0.767907
7755.000000;0.767761
7754.000000;0.767607
7753.000000;0.767586
7752.000000;0.767811
7751.000000;0.768187
7750.000000;0.768416
7749.000000;0.768281
7748.000000;0.767879
7747.000000;0.767494
7746.000000;0.767296
7745.000000;0.767238
7744.000000;0.767179
7743.000000;0.767013
7742.000000;0.766748
7741.000000;0.766541
7740.000000;0.766607
7739.000000;0.766984
7738.000000;0.767408
7737.000000;0.767519
7736.000000;0.767212
7735.000000;0.766713
7734.000000;0.766355
7733.000000;0.766318
7732.000000;0.766515
7731.000000;0.766656
7730.000000;0.766471
7729.000000;0.765985
7728.000000;0.765548
7727.000000;0.765507
7726.000000;0.765864
7725.000000;0.766314
7724.000000;0.766542
7723.000000;0.766419
7722.000000;0.766004
7721.000000;0.765493
7720.000000;0.765143
7719.000000;0.765091
7718.000000;0.765215
7717.000000;0.765248
7716.000000;0.765057
7715.000000;0.764751
7714.000000;0.764554
7713.000000;0.764607
7712.000000;0.764868
7711.000000;0.765107
7710.000000;0.765065
7709.000000;0.764697
7708.000000;0.764233
7707.000000;0.763936
7706.000000;0.763851
7705.000000;0.763844
7704.000000;0.763790
7703.000000;0.763637
7702.000000;0.763392
7701.000000;0.763174
7700.000000;0.763182
7699.000000;0.763456
7698.000000;0.763734
7697.000000;0.763699
7696.000000;0.763352
7695.000000;0.762982
7694.000000;0.762810
7693.000000;0.762840
7692.000000;0.762986
7691.000000;0.763155
7690.000000;0.763197
7689.000000;0.762984
7688.000000;0.762594
7687.000000;0.762275
7686.000000;0.762172
7685.000000;0.762208
7684.000000;0.762248
7683.000000;0.762257
7682.000000;0.762243
7681.000000;0.762195
7680.000000;0.762129
7679.000000;0.762080
7678.000000;0.762041
7677.000000;0.761980
7676.000000;0.761937
7675.000000;0.761960
7674.000000;0.761974
7673.000000;0.761858
7672.000000;0.761650
7671.000000;0.761525
7670.000000;0.761518
7669.000000;0.761452
7668.000000;0.761202
7667.000000;0.760865
7666.000000;0.760598
7665.000000;0.760450
7664.000000;0.760421
7663.000000;0.760540
7662.000000;0.760757
7661.000000;0.760872
7660.000000;0.760730
7659.000000;0.760408
7658.000000;0.760107
7657.000000;0.759925
7656.000000;0.759840
7655.000000;0.759827
7654.000000;0.759876
7653.000000;0.759928
7652.000000;0.759923
7651.000000;0.759890
7650.000000;0.759914
7649.000000;0.760015
7648.000000;0.760120
7647.000000;0.760142
7646.000000;0.760023
7645.000000;0.759759
7644.000000;0.759412
7643.000000;0.759094
7642.000000;0.758875
7641.000000;0.758726
7640.000000;0.758589
7639.000000;0.758457
7638.000000;0.758357
7637.000000;0.758291
7636.000000;0.758246
7635.000000;0.758231
7634.000000;0.758250
7633.000000;0.758264
7632.000000;0.758215
7631.000000;0.758094
7630.000000;0.757948
7629.000000;0.757837
7628.000000;0.757803
7627.000000;0.757840
7626.000000;0.757893
7625.000000;0.757911
7624.000000;0.757913
7623.000000;0.757952
7622.000000;0.758019
7621.000000;0.758026
7620.000000;0.757921
7619.000000;0.757756
7618.000000;0.757617
7617.000000;0.757514
7616.000000;0.757398
7615.000000;0.757248
7614.000000;0.757106
7613.000000;0.757023
7612.000000;0.757009
7611.000000;0.757028
7610.000000;0.757029
7609.000000;0.756992
7608.000000;0.756913
7607.000000;0.756780
7606.000000;0.756588
7605.000000;0.756382
7604.000000;0.756263
7603.000000;0.756286
7602.000000;0.756394
7601.000000;0.756486
7600.000000;0.756510
7599.000000;0.756450
7598.000000;0.756283
7597.000000;0.756026
7596.000000;0.755780
7595.000000;0.755649
7594.000000;0.755619
7593.000000;0.755596
7592.000000;0.755556
7591.000000;0.755550
7590.000000;0.755588
7589.000000;0.755610
7588.000000;0.755589
7587.000000;0.755567
7586.000000;0.755553
7585.000000;0.755485
7584.000000;0.755330
7583.000000;0.755145
7582.000000;0.755000
7581.000000;0.754901
7580.000000;0.754826
7579.000000;0.754786
7578.000000;0.754794
7577.000000;0.754814
7576.000000;0.754780
7575.000000;0.754654
7574.000000;0.754472
7573.000000;0.754324
7572.000000;0.754279
7571.000000;0.754310
7570.000000;0.754316
7569.000000;0.754258
7568.000000;0.754209
7567.000000;0.754225
7566.000000;0.754216
7565.000000;0.754071
7564.000000;0.753849
7563.000000;0.753737
7562.000000;0.753801
7561.000000;0.753914
7560.000000;0.753945
7559.000000;0.753888
7558.000000;0.753785
7557.000000;0.753628
7556.000000;0.753419
7555.000000;0.753237
7554.000000;0.753167
7553.000000;0.753200
7552.000000;0.753257
7551.000000;0.753268
7550.000000;0.753213
7549.000000;0.753119
7548.000000;0.753051
7547.000000;0.753054
7546.000000;0.753077
7545.000000;0.753011
7544.000000;0.752814
7543.000000;0.752561
7542.000000;0.752352
7541.000000;0.752233
7540.000000;0.752221
7539.000000;0.752329
7538.000000;0.752525
7537.000000;0.752720
7536.000000;0.752827
7535.000000;0.752829
7534.000000;0.752755
7533.000000;0.752656
7532.000000;0.752589
7531.000000;0.752578
7530.000000;0.752570
7529.000000;0.752484
7528.000000;0.752315
7527.000000;0.752143
7526.000000;0.752028
7525.000000;0.751962
7524.000000;0.751939
7523.000000;0.751978
7522.000000;0.752058
7521.000000;0.752092
7520.000000;0.752021
7519.000000;0.751897
7518.000000;0.751823
7517.000000;0.751852
7516.000000;0.751949
7515.000000;0.752015
7514.000000;0.751958
7513.000000;0.751769
7512.000000;0.751540
7511.000000;0.751373
7510.000000;0.751271
7509.000000;0.751169
7508.000000;0.751055
7507.000000;0.750981
7506.000000;0.750964
7505.000000;0.750959
7504.000000;0.750941
7503.000000;0.750934
7502.000000;0.750924
7501.000000;0.750850
7500.000000;0.750701
7499.000000;0.750568
7498.000000;0.750545
7497.000000;0.750611
7496.000000;0.750739
7495.000000;0.750836
7494.000000;0.750852
7493.000000;0.750796
7492.000000;0.750755
7491.000000;0.750802
7490.000000;0.750871
7489.000000;0.750789
7488.000000;0.750491
7487.000000;0.750124
7486.000000;0.749886
7485.000000;0.749848
7484.000000;0.749970
7483.000000;0.750197
7482.000000;0.750439
7481.000000;0.750545
7480.000000;0.750414
7479.000000;0.750132
7478.000000;0.749913
7477.000000;0.749878
7476.000000;0.749959
7475.000000;0.750016
7474.000000;0.749973
7473.000000;0.749850
7472.000000;0.749727
7471.000000;0.749711
7470.000000;0.749880
7469.000000;0.750176
7468.000000;0.750381
7467.000000;0.750286
7466.000000;0.749925
7465.000000;0.749585
7464.000000;0.749527
7463.000000;0.749696
7462.000000;0.749795
7461.000000;0.749629
7460.000000;0.749301
7459.000000;0.749042
7458.000000;0.748967
7457.000000;0.749054
7456.000000;0.749266
7455.000000;0.749534
7454.000000;0.749695
7453.000000;0.749600
7452.000000;0.749318
7451.000000;0.749125
7450.000000;0.749217
7449.000000;0.749505
7448.000000;0.749721
7447.000000;0.749677
7446.000000;0.749417
7445.000000;0.749162
7444.000000;0.749125
7443.000000;0.749324
7442.000000;0.749560
7441.000000;0.749606
7440.000000;0.749417
7439.000000;0.749132
7438.000000;0.748904
7437.000000;0.748807
7436.000000;0.748859
7435.000000;0.749019
7434.000000;0.749135
7433.000000;0.749041
7432.000000;0.748763
7431.000000;0.748540
7430.000000;0.748585
7429.000000;0.748860
7428.000000;0.749145
7427.000000;0.749255
7426.000000;0.749157
7425.000000;0.748943
7424.000000;0.748772
7423.000000;0.748783
7422.000000;0.748981
7421.000000;0.749187
7420.000000;0.749172
7419.000000;0.748861
7418.000000;0.748420
7417.000000;0.748131
7416.000000;0.748190
7415.000000;0.748567
7414.000000;0.749036
7413.000000;0.749331
7412.000000;0.749310
7411.000000;0.749026
7410.000000;0.748683
7409.000000;0.748495
7408.000000;0.748529
7407.000000;0.748657
7406.000000;0.748700
7405.000000;0.748619
7404.000000;0.748535
7403.000000;0.748550
7402.000000;0.748650
7401.000000;0.748764
7400.000000;0.748824
7399.000000;0.748738
7398.000000;0.748441
7397.000000;0.748036
7396.000000;0.747776
7395.000000;0.747799
7394.000000;0.747970
7393.000000;0.748083
7392.000000;0.748119
7391.000000;0.748173
7390.000000;0.748202
7389.000000;0.748072
7388.000000;0.747801
7387.000000;0.747552
7386.000000;0.747382
7385.000000;0.747199
7384.000000;0.747008
7383.000000;0.746963
7382.000000;0.747125
7381.000000;0.747337
7380.000000;0.747450
7379.000000;0.747490
7378.000000;0.747539
7377.000000;0.747594
7376.000000;0.747639
7375.000000;0.747717
7374.000000;0.747800
7373.000000;0.747760
7372.000000;0.747579
7371.000000;0.747461
7370.000000;0.747588
7369.000000;0.747880
7368.000000;0.748133
7367.000000;0.748273
7366.000000;0.748333
7365.000000;0.748265
7364.000000;0.747995
7363.000000;0.747618
7362.000000;0.747360
7361.000000;0.747339
7360.000000;0.747500
7359.000000;0.747727
7358.000000;0.747926
7357.000000;0.748036
7356.000000;0.748042
7355.000000;0.747994
7354.000000;0.747924
7353.000000;0.747801
7352.000000;0.747612
7351.000000;0.747438
7350.000000;0.747346
7349.000000;0.747295
7348.000000;0.747221
7347.000000;0.747127
7346.000000;0.747009
7345.000000;0.746769
7344.000000;0.746337
7343.000000;0.745859
7342.000000;0.745633
7341.000000;0.745834
7340.000000;0.746369
7339.000000;0.746979
7338.000000;0.747426
7337.000000;0.747624
7336.000000;0.747699
7335.000000;0.747867
7334.000000;0.748176
7333.000000;0.748418
7332.000000;0.748390
7331.000000;0.748151
7330.000000;0.747898
7329.000000;0.747680
7328.000000;0.747392
7327.000000;0.747017
7326.000000;0.746724
7325.000000;0.746683
7324.000000;0.746883
7323.000000;0.747194
7322.000000;0.747540
7321.000000;0.747945
7320.000000;0.748429
7319.000000;0.748955
7318.000000;0.749437
7317.000000;0.749717
7316.000000;0.749648
7315.000000;0.749251
7314.000000;0.748762
7313.000000;0.748416
7312.000000;0.748237
7311.000000;0.748113
7310.000000;0.748033
7309.000000;0.748145
7308.000000;0.748535
7307.000000;0.749047
7306.000000;0.749434
7305.000000;0.749611
7304.000000;0.749672
7303.000000;0.749718
7302.000000;0.749802
7301.000000;0.749955
7300.000000;0.750167
7299.000000;0.750337
7298.000000;0.750381
7297.000000;0.750383
7296.000000;0.750537
7295.000000;0.750878
7294.000000;0.751187
7293.000000;0.751282
7292.000000;0.751275
7291.000000;0.751412
7290.000000;0.751740
7289.000000;0.752083
7288.000000;0.752338
7287.000000;0.752603
7286.000000;0.752987
7285.000000;0.753442
7284.000000;0.753833
7283.000000;0.754077
7282.000000;0.754167
7281.000000;0.754157
7280.000000;0.754153
7279.000000;0.754246
7278.000000;0.754411
7277.000000;0.754522
7276.000000;0.754526
7275.000000;0.754510
7274.000000;0.754573
7273.000000;0.754697
7272.000000;0.754826
7271.000000;0.754999
7270.000000;0.755314
7269.000000;0.755776
7268.000000;0.756267
7267.000000;0.756678
7266.000000;0.757016
7265.000000;0.757337
7264.000000;0.757631
7263.000000;0.757809
7262.000000;0.757827
7261.000000;0.757789
7260.000000;0.757856
7259.000000;0.758061
7258.000000;0.758292
7257.000000;0.758463
7256.000000;0.758639
7255.000000;0.758928
7254.000000;0.759312
7253.000000;0.759639
7252.000000;0.759807
7251.000000;0.759883
7250.000000;0.759981
7249.000000;0.760082
7248.000000;0.760084
7247.000000;0.759989
7246.000000;0.759929
7245.000000;0.760023
7244.000000;0.760257
7243.000000;0.760503
7242.000000;0.760666
7241.000000;0.760795
7240.000000;0.761031
7239.000000;0.761431
7238.000000;0.761882
7237.000000;0.762220
7236.000000;0.762405
7235.000000;0.762572
7234.000000;0.762921
7233.000000;0.763499
7232.000000;0.764077
7231.000000;0.764339
7230.000000;0.764243
7229.000000;0.764120
7228.000000;0.764362
7227.000000;0.765030
7226.000000;0.765838
7225.000000;0.766509
7224.000000;0.767059
7223.000000;0.767664
7222.000000;0.768381
7221.000000;0.769106
7220.000000;0.769720
7219.000000;0.770183
7218.000000;0.770530
7217.000000;0.770864
7216.000000;0.771289
7215.000000;0.771773
7214.000000;0.772176
7213.000000;0.772472
7212.000000;0.772812
7211.000000;0.773282
7210.000000;0.773730
7209.000000;0.773959
7208.000000;0.774016
7207.000000;0.774110
7206.000000;0.774326
7205.000000;0.774593
7204.000000;0.774907
7203.000000;0.775356
7202.000000;0.775917
7201.000000;0.776440
7200.000000;0.776875
7199.000000;0.777367
7198.000000;0.778090
7197.000000;0.779054
7196.000000;0.780098
7195.000000;0.780991
7194.000000;0.781553
7193.000000;0.781793
7192.000000;0.781945
7191.000000;0.782265
7190.000000;0.782794
7189.000000;0.783335
7188.000000;0.783633
7187.000000;0.783565
7186.000000;0.783241
7185.000000;0.783002
7184.000000;0.783229
7183.000000;0.784019
7182.000000;0.785067
7181.000000;0.785958
7180.000000;0.786568
7179.000000;0.787102
7178.000000;0.787812
7177.000000;0.788824
7176.000000;0.790125
7175.000000;0.791482
7174.000000;0.792472
7173.000000;0.792779
7172.000000;0.792514
7171.000000;0.792133
7170.000000;0.792078
7169.000000;0.792505
7168.000000;0.793220
7167.000000;0.793796
7166.000000;0.793940
7165.000000;0.793888
7164.000000;0.794233
7163.000000;0.795253
7162.000000;0.796565
7161.000000;0.797612
7160.000000;0.798303
7159.000000;0.798883
7158.000000;0.799376
7157.000000;0.799649
7156.000000;0.799889
7155.000000;0.800548
7154.000000;0.801751
7153.000000;0.803102
7152.000000;0.804157
7151.000000;0.804824
7150.000000;0.805258
7149.000000;0.805635
7148.000000;0.806109
7147.000000;0.806734
7146.000000;0.807280
7145.000000;0.807362
7144.000000;0.806879
7143.000000;0.806189
7142.000000;0.805789
7141.000000;0.806004
7140.000000;0.806946
7139.000000;0.808439
7138.000000;0.809920
7137.000000;0.810781
7136.000000;0.811009
7135.000000;0.811267
7134.000000;0.812171
7133.000000;0.813597
7132.000000;0.814752
7131.000000;0.814882
7130.000000;0.813946
7129.000000;0.812731
7128.000000;0.812277
7127.000000;0.812988
7126.000000;0.814275
7125.000000;0.815159
7124.000000;0.815203
7123.000000;0.814741
7122.000000;0.814336
7121.000000;0.814322
7120.000000;0.814776
7119.000000;0.815540
7118.000000;0.816192
7117.000000;0.816304
7116.000000;0.815881
7115.000000;0.815365
7114.000000;0.815202
7113.000000;0.815534
7112.000000;0.816178
7111.000000;0.816684
7110.000000;0.816573
7109.000000;0.815784
7108.000000;0.814805
7107.000000;0.814240
7106.000000;0.814370
7105.000000;0.815116
7104.000000;0.816025
7103.000000;0.816196
7102.000000;0.814896
7101.000000;0.812636
7100.000000;0.811008
7099.000000;0.810864
7098.000000;0.811191
7097.000000;0.810562
7096.000000;0.809229
7095.000000;0.808665
7094.000000;0.809373
7093.000000;0.810417
7092.000000;0.811077
7091.000000;0.811596
7090.000000;0.811937
7089.000000;0.811139
7088.000000;0.808680
7087.000000;0.805573
7086.000000;0.803363
7085.000000;0.802596
7084.000000;0.802778
7083.000000;0.803214
7082.000000;0.803362
7081.000000;0.802786
7080.000000;0.801369
7079.000000;0.799354
7078.000000;0.796897
7077.000000;0.793918
7076.000000;0.790636
7075.000000;0.787808
7074.000000;0.786150
7073.000000;0.785817
7072.000000;0.786524
7071.000000;0.787710
7070.000000;0.788459
7069.000000;0.787880
7068.000000;0.785992
7067.000000;0.783780
7066.000000;0.782028
7065.000000;0.780500
7064.000000;0.778494
7063.000000;0.775846
7062.000000;0.773133
7061.000000;0.771063
7060.000000;0.769827
7059.000000;0.768905
7058.000000;0.767558
7057.000000;0.765784
7056.000000;0.764497
7055.000000;0.764249
7054.000000;0.764129
7053.000000;0.762688
7052.000000;0.759874
7051.000000;0.757007
7050.000000;0.754704
7049.000000;0.752069
7048.000000;0.748417
7047.000000;0.744717
7046.000000;0.742406
7045.000000;0.741466
7044.000000;0.740617
7043.000000;0.739129
7042.000000;0.737579
7041.000000;0.736771
7040.000000;0.736535
7039.000000;0.735756
7038.000000;0.733355
7037.000000;0.729286
7036.000000;0.724715
7035.000000;0.721123
7034.000000;0.719091
7033.000000;0.717945
7032.000000;0.716547
7031.000000;0.714302
7030.000000;0.711421
7029.000000;0.708525
7028.000000;0.706165
7027.000000;0.704474
7026.000000;0.702946
7025.000000;0.700683
7024.000000;0.697103
7023.000000;0.692558
7022.000000;0.688408
7021.000000;0.686422
7020.000000;0.687466
7019.000000;0.690185
7018.000000;0.691394
7017.000000;0.688734
7016.000000;0.682957
7015.000000;0.676908
7014.000000;0.672609
7013.000000;0.669965
7012.000000;0.667899
7011.000000;0.665786
7010.000000;0.663653
7009.000000;0.661738
7008.000000;0.660171
7007.000000;0.658570
7006.000000;0.655863
7005.000000;0.651181
7004.000000;0.645142
7003.000000;0.639518
7002.000000;0.635543
7001.000000;0.633253
7000.000000;0.632303
6999.000000;0.632294
6998.000000;0.632107
6997.000000;0.630255
6996.000000;0.626704
6995.000000;0.623249
6994.000000;0.621195
6993.000000;0.619592
6992.000000;0.616622
6991.000000;0.612066
6990.000000;0.607402
6989.000000;0.604021
6988.000000;0.602371
6987.000000;0.602391
6986.000000;0.603504
6985.000000;0.604146
6984.000000;0.602503
6983.000000;0.598234
6982.000000;0.592825
6981.000000;0.587996
6980.000000;0.584288
6979.000000;0.581208
6978.000000;0.578053
6977.000000;0.574480
6976.000000;0.570768
6975.000000;0.567803
6974.000000;0.566574
6973.000000;0.567278
6972.000000;0.568707
6971.000000;0.568637
6970.000000;0.565217
6969.000000;0.558592
6968.000000;0.551158
6967.000000;0.545715
6966.000000;0.543300
6965.000000;0.542748
6964.000000;0.542123
6963.000000;0.540340
6962.000000;0.537482
6961.000000;0.534245
6960.000000;0.531497
6959.000000;0.529716
6958.000000;0.528095
6957.000000;0.524773
6956.000000;0.519030
6955.000000;0.512831
6954.000000;0.509110
6953.000000;0.508734
6952.000000;0.509875
6951.000000;0.510165
6950.000000;0.508621
6949.000000;0.505545
6948.000000;0.501637
6947.000000;0.497736
6946.000000;0.494595
6945.000000;0.492165
6944.000000;0.489648
6943.000000;0.486806
6942.000000;0.484590
6941.000000;0.483889
6940.000000;0.484169
6939.000000;0.483922
6938.000000;0.482091
6937.000000;0.478605
6936.000000;0.474024
6935.000000;0.469346
6934.000000;0.465829
6933.000000;0.464202
6932.000000;0.463977
6931.000000;0.463982
6930.000000;0.463455
6929.000000;0.462212
6928.000000;0.460021
6927.000000;0.456733
6926.000000;0.453084
6925.000000;0.450289
6924.000000;0.448501
6923.000000;0.446578
6922.000000;0.443773
6921.000000;0.440858
6920.000000;0.439007
6919.000000;0.438240
6918.000000;0.437590
6917.000000;0.436352
6916.000000;0.434535
6915.000000;0.432398
6914.000000;0.430290
6913.000000;0.428746
6912.000000;0.427940
6911.000000;0.427063
6910.000000;0.425020
6909.000000;0.421929
6908.000000;0.419208
6907.000000;0.417889
6906.000000;0.417500
6905.000000;0.416907
6904.000000;0.415726
6903.000000;0.414383
6902.000000;0.413119
6901.000000;0.411689
6900.000000;0.410016
6899.000000;0.408496
6898.000000;0.407425
6897.000000;0.406384
6896.000000;0.404528
6895.000000;0.401621
6894.000000;0.398609
6893.000000;0.396873
6892.000000;0.396771
6891.000000;0.397144
6890.000000;0.396512
6889.000000;0.394665
6888.000000;0.392696
6887.000000;0.391543
6886.000000;0.391013
6885.000000;0.390362
6884.000000;0.389396
6883.000000;0.388553
6882.000000;0.387992
6881.000000;0.387146
6880.000000;0.385277
6879.000000;0.382461
6878.000000;0.380021
6877.000000;0.379593
6876.000000;0.381352
6875.000000;0.383365
6874.000000;0.383290
6873.000000;0.380774
6872.000000;0.377631
6871.000000;0.375757
6870.000000;0.375543
6869.000000;0.376270
6868.000000;0.377048
6867.000000;0.376955
6866.000000;0.375352
6865.000000;0.372891
6864.000000;0.371346
6863.000000;0.371556
6862.000000;0.372012
6861.000000;0.370407
6860.000000;0.366442
6859.000000;0.362033
6858.000000;0.359165
6857.000000;0.358675
6856.000000;0.360544
6855.000000;0.363969
6854.000000;0.367072
6853.000000;0.367911
6852.000000;0.366343
6851.000000;0.363963
6850.000000;0.362083
6849.000000;0.360608
6848.000000;0.359106
6847.000000;0.358011
6846.000000;0.357986
6845.000000;0.358907
6844.000000;0.360288
6843.000000;0.361965
6842.000000;0.363608
6841.000000;0.364234
6840.000000;0.363181
6839.000000;0.361180
6838.000000;0.359583
6837.000000;0.358911
6836.000000;0.358907
6835.000000;0.359522
6834.000000;0.360816
6833.000000;0.361969
6832.000000;0.361531
6831.000000;0.359273
6830.000000;0.357058
6829.000000;0.357112
6828.000000;0.359743
6827.000000;0.363161
6826.000000;0.365288
6825.000000;0.365415
6824.000000;0.364211
6823.000000;0.362634
6822.000000;0.361223
6821.000000;0.360269
6820.000000;0.360028
6819.000000;0.360474
6818.000000;0.361154
6817.000000;0.361704
6816.000000;0.362418
6815.000000;0.363890
6814.000000;0.366043
6813.000000;0.367874
6812.000000;0.368406
6811.000000;0.367673
6810.000000;0.366600
6809.000000;0.366167
6808.000000;0.366809
6807.000000;0.368257
6806.000000;0.369666
6805.000000;0.370187
6804.000000;0.369756
6803.000000;0.369179
6802.000000;0.369205
6801.000000;0.369737
6800.000000;0.370199
6799.000000;0.370430
6798.000000;0.370791
6797.000000;0.371548
6796.000000;0.372644
6795.000000;0.374044
6794.000000;0.375768
6793.000000;0.377428
6792.000000;0.378241
6791.000000;0.377918
6790.000000;0.377255
6789.000000;0.377438
6788.000000;0.378853
6787.000000;0.380831
6786.000000;0.382450
6785.000000;0.383300
6784.000000;0.383526
6783.000000;0.383477
6782.000000;0.383523
6781.000000;0.383977
6780.000000;0.384842
6779.000000;0.385623
6778.000000;0.385715
6777.000000;0.385112
6776.000000;0.384595
6775.000000;0.385119
6774.000000;0.386978
6773.000000;0.389429
6772.000000;0.391109
6771.000000;0.391042
6770.000000;0.389545
6769.000000;0.388066
6768.000000;0.387916
6767.000000;0.389162
6766.000000;0.390851
6765.000000;0.392118
6764.000000;0.392800
6763.000000;0.393157
6762.000000;0.393539
6761.000000;0.394386
6760.000000;0.395975
6759.000000;0.397906
6758.000000;0.399229
6757.000000;0.399370
6756.000000;0.398720
6755.000000;0.398152
6754.000000;0.398315
6753.000000;0.399505
6752.000000;0.401632
6751.000000;0.403945
6750.000000;0.405307
6749.000000;0.405305
6748.000000;0.404830
6747.000000;0.405070
6746.000000;0.406152
6745.000000;0.407203
6744.000000;0.407546
6743.000000;0.407336
6742.000000;0.407157
6741.000000;0.407540
6740.000000;0.408784
6739.000000;0.410711
6738.000000;0.412571
6737.000000;0.413642
6736.000000;0.413957
6735.000000;0.414088
6734.000000;0.414365
6733.000000;0.414764
6732.000000;0.415387
6731.000000;0.416404
6730.000000;0.417527
6729.000000;0.418184
6728.000000;0.418358
6727.000000;0.418677
6726.000000;0.419539
6725.000000;0.420668
6724.000000;0.421663
6723.000000;0.422456
6722.000000;0.423008
6721.000000;0.423129
6720.000000;0.422955
6719.000000;0.423120
6718.000000;0.424018
6717.000000;0.425243
6716.000000;0.426164
6715.000000;0.426758
6714.000000;0.427436
6713.000000;0.428290
6712.000000;0.429042
6711.000000;0.429616
6710.000000;0.430270
6709.000000;0.431129
6708.000000;0.431927
6707.000000;0.432365
6706.000000;0.432533
6705.000000;0.432835
6704.000000;0.433574
6703.000000;0.434630
6702.000000;0.435474
6701.000000;0.435750
6700.000000;0.435721
6699.000000;0.436149
6698.000000;0.437498
6697.000000;0.439382
6696.000000;0.440938
6695.000000;0.441634
6694.000000;0.441574
6693.000000;0.441189
6692.000000;0.440933
6691.000000;0.441229
6690.000000;0.442298
6689.000000;0.443850
6688.000000;0.445156
6687.000000;0.445670
6686.000000;0.445567
6685.000000;0.445511
6684.000000;0.445981
6683.000000;0.446921
6682.000000;0.447965
6681.000000;0.448791
6680.000000;0.449272
6679.000000;0.449497
6678.000000;0.449782
6677.000000;0.450485
6676.000000;0.451624
6675.000000;0.452734
6674.000000;0.453308
6673.000000;0.453335
6672.000000;0.453264
6671.000000;0.453488
6670.000000;0.454078
6669.000000;0.454940
6668.000000;0.455904
6667.000000;0.456635
6666.000000;0.456844
6665.000000;0.456737
6664.000000;0.456962
6663.000000;0.457886
6662.000000;0.459177
6661.000000;0.460293
6660.000000;0.461107
6659.000000;0.461776
6658.000000;0.462276
6657.000000;0.462517
6656.000000;0.462734
6655.000000;0.463334
6654.000000;0.464335
6653.000000;0.465319
6652.000000;0.465993
6651.000000;0.466477
6650.000000;0.467021
6649.000000;0.467711
6648.000000;0.468514
6647.000000;0.469306
6646.000000;0.469834
6645.000000;0.469918
6644.000000;0.469779
6643.000000;0.469896
6642.000000;0.470474
6641.000000;0.471261
6640.000000;0.471954
6639.000000;0.472520
6638.000000;0.473035
6637.000000;0.473463
6636.000000;0.473784
6635.000000;0.474142
6634.000000;0.474712
6633.000000;0.475511
6632.000000;0.476405
6631.000000;0.477200
6630.000000;0.477692
6629.000000;0.477830
6628.000000;0.477879
6627.000000;0.478226
6626.000000;0.478960
6625.000000;0.479813
6624.000000;0.480539
6623.000000;0.481130
6622.000000;0.481618
6621.000000;0.481942
6620.000000;0.482181
6619.000000;0.482643
6618.000000;0.483501
6617.000000;0.484499
6616.000000;0.485221
6615.000000;0.485542
6614.000000;0.485643
6613.000000;0.485744
6612.000000;0.485985
6611.000000;0.486436
6610.000000;0.487020
6609.000000;0.487497
6608.000000;0.487757
6607.000000;0.488051
6606.000000;0.488753
6605.000000;0.489928
6604.000000;0.491274
6603.000000;0.492430
6602.000000;0.493179
6601.000000;0.493428
6600.000000;0.493236
6599.000000;0.492914
6598.000000;0.492861
6597.000000;0.493204
6596.000000;0.493685
6595.000000;0.493991
6594.000000;0.494145
6593.000000;0.494472
6592.000000;0.495217
6591.000000;0.496282
6590.000000;0.497323
6589.000000;0.498043
6588.000000;0.498365
6587.000000;0.498400
6586.000000;0.498352
6585.000000;0.498495
6584.000000;0.499082
6583.000000;0.500115
6582.000000;0.501202
6581.000000;0.501827
6580.000000;0.501826
6579.000000;0.501560
6578.000000;0.501571
6577.000000;0.502126
6576.000000;0.503089
6575.000000;0.504065
6574.000000;0.504661
6573.000000;0.504748
6572.000000;0.504592
6571.000000;0.504659
6570.000000;0.505207
6569.000000;0.506057
6568.000000;0.506792
6567.000000;0.507125
6566.000000;0.507082
6565.000000;0.506948
6564.000000;0.507088
6563.000000;0.507684
6562.000000;0.508553
6561.000000;0.509276
6560.000000;0.509635
6559.000000;0.509836
6558.000000;0.510229
6557.000000;0.510906
6556.000000;0.511682
6555.000000;0.512378
6554.000000;0.512954
6553.000000;0.513423
6552.000000;0.513782
6551.000000;0.514064
6550.000000;0.514337
6549.000000;0.514622
6548.000000;0.514898
6547.000000;0.515175
6546.000000;0.515490
6545.000000;0.515837
6544.000000;0.516217
6543.000000;0.516723
6542.000000;0.517435
6541.000000;0.518226
6540.000000;0.518825
6539.000000;0.519125
6538.000000;0.519287
6537.000000;0.519463
6536.000000;0.519589
6535.000000;0.519579
6534.000000;0.519599
6533.000000;0.519937
6532.000000;0.520616
6531.000000;0.521338
6530.000000;0.521844
6529.000000;0.522163
6528.000000;0.522459
6527.000000;0.522774
6526.000000;0.523072
6525.000000;0.523394
6524.000000;0.523820
6523.000000;0.524307
6522.000000;0.524710
6521.000000;0.525003
6520.000000;0.525335
6519.000000;0.525826
6518.000000;0.526382
6517.000000;0.526776
6516.000000;0.526886
6515.000000;0.526807
6514.000000;0.526786
6513.000000;0.527060
6512.000000;0.527703
6511.000000;0.528552
6510.000000;0.529298
6509.000000;0.529730
6508.000000;0.529880
6507.000000;0.529946
6506.000000;0.530100
6505.000000;0.530384
6504.000000;0.530748
6503.000000;0.531114
6502.000000;0.531420
6501.000000;0.531652
6500.000000;0.531871
6499.000000;0.532180
6498.000000;0.532655
6497.000000;0.533252
6496.000000;0.533795
6495.000000;0.534094
6494.000000;0.534138
6493.000000;0.534136
6492.000000;0.534309
6491.000000;0.534657
6490.000000;0.535016
6489.000000;0.535315
6488.000000;0.535655
6487.000000;0.536120
6486.000000;0.536642
6485.000000;0.537135
6484.000000;0.537613
6483.000000;0.538088
6482.000000;0.538438
6481.000000;0.538533
6480.000000;0.538448
6479.000000;0.538416
6478.000000;0.538571
6477.000000;0.538862
6476.000000;0.539178
6475.000000;0.539474
6474.000000;0.539750
6473.000000;0.540015
6472.000000;0.540302
6471.000000;0.540641
6470.000000;0.541007
6469.000000;0.541339
6468.000000;0.541611
6467.000000;0.541844
6466.000000;0.542057
6465.000000;0.542258
6464.000000;0.542493
6463.000000;0.542819
6462.000000;0.543225
6461.000000;0.543635
6460.000000;0.543991
6459.000000;0.544313
6458.000000;0.544643
6457.000000;0.544992
6456.000000;0.545329
6455.000000;0.545594
6454.000000;0.545745
6453.000000;0.545829
6452.000000;0.545976
6451.000000;0.546282
6450.000000;0.546717
6449.000000;0.547168
6448.000000;0.547569
6447.000000;0.547908
6446.000000;0.548179
6445.000000;0.548376
6444.000000;0.548540
6443.000000;0.548722
6442.000000;0.548926
6441.000000;0.549130
6440.000000;0.549348
6439.000000;0.549587
6438.000000;0.549786
6437.000000;0.549897
6436.000000;0.549993
6435.000000;0.550189
6434.000000;0.550465
6433.000000;0.550684
6432.000000;0.550798
6431.000000;0.550920
6430.000000;0.551162
6429.000000;0.551493
6428.000000;0.551814
6427.000000;0.552080
6426.000000;0.552290
6425.000000;0.552433
6424.000000;0.552519
6423.000000;0.552604
6422.000000;0.552725
6421.000000;0.552865
6420.000000;0.553006
6419.000000;0.553190
6418.000000;0.553455
6417.000000;0.553760
6416.000000;0.554034
6415.000000;0.554275
6414.000000;0.554537
6413.000000;0.554828
6412.000000;0.555076
6411.000000;0.555219
6410.000000;0.555295
6409.000000;0.555389
6408.000000;0.555536
6407.000000;0.555696
6406.000000;0.555853
6405.000000;0.556080
6404.000000;0.556457
6403.000000;0.556922
6402.000000;0.557286
6401.000000;0.557427
6400.000000;0.557430
6399.000000;0.557468
6398.000000;0.557625
6397.000000;0.557873
6396.000000;0.558170
6395.000000;0.558480
6394.000000;0.558744
6393.000000;0.558920
6392.000000;0.559064
6391.000000;0.559254
6390.000000;0.559456
6389.000000;0.559547
6388.000000;0.559495
6387.000000;0.559422
6386.000000;0.559445
6385.000000;0.559574
6384.000000;0.559780
6383.000000;0.560073
6382.000000;0.560432
6381.000000;0.560744
6380.000000;0.560910
6379.000000;0.560972
6378.000000;0.561055
6377.000000;0.561204
6376.000000;0.561355
6375.000000;0.561449
6374.000000;0.561502
6373.000000;0.561572
6372.000000;0.561692
6371.000000;0.561866
6370.000000;0.562073
6369.000000;0.562271
6368.000000;0.562423
6367.000000;0.562536
6366.000000;0.562662
6365.000000;0.562842
6364.000000;0.563050
6363.000000;0.563194
6362.000000;0.563211
6361.000000;0.563142
6360.000000;0.563102
6359.000000;0.563158
6358.000000;0.563292
6357.000000;0.563483
6356.000000;0.563760
6355.000000;0.564134
6354.000000;0.564517
6353.000000;0.564794
6352.000000;0.564947
6351.000000;0.565027
6350.000000;0.565045
6349.000000;0.564989
6348.000000;0.564937
6347.000000;0.565020
6346.000000;0.565253
6345.000000;0.565506
6344.000000;0.565705
6343.000000;0.565910
6342.000000;0.566154
6341.000000;0.566323
6340.000000;0.566312
6339.000000;0.566206
6338.000000;0.566167
6337.000000;0.566216
6336.000000;0.566266
6335.000000;0.566331
6334.000000;0.566522
6333.000000;0.566837
6332.000000;0.567098
6331.000000;0.567170
6330.000000;0.567115
6329.000000;0.567068
6328.000000;0.567061
6327.000000;0.567046
6326.000000;0.567025
6325.000000;0.567049
6324.000000;0.567143
6323.000000;0.567296
6322.000000;0.567499
6321.000000;0.567721
6320.000000;0.567864
6319.000000;0.567860
6318.000000;0.567786
6317.000000;0.567801
6316.000000;0.567953
6315.000000;0.568134
6314.000000;0.568255
6313.000000;0.568360
6312.000000;0.568516
6311.000000;0.568672
6310.000000;0.568715
6309.000000;0.568644
6308.000000;0.568584
6307.000000;0.568629
6306.000000;0.568766
6305.000000;0.568930
6304.000000;0.569084
6303.000000;0.569213
6302.000000;0.569303
6301.000000;0.569347
6300.000000;0.569346
6299.000000;0.569286
6298.000000;0.569157
6297.000000;0.569014
6296.000000;0.568956
6295.000000;0.569022
6294.000000;0.569147
6293.000000;0.569254
6292.000000;0.569345
6291.000000;0.569461
6290.000000;0.569605
6289.000000;0.569743
6288.000000;0.569870
6287.000000;0.569993
6286.000000;0.570090
6285.000000;0.570122
6284.000000;0.570102
6283.000000;0.570087
6282.000000;0.570113
6281.000000;0.570165
6280.000000;0.570237
6279.000000;0.570357
6278.000000;0.570539
6277.000000;0.570735
6276.000000;0.570883
6275.000000;0.570976
6274.000000;0.571059
6273.000000;0.571152
6272.000000;0.571210
6271.000000;0.571166
6270.000000;0.571009
6269.000000;0.570797
6268.000000;0.570616
6267.000000;0.570526
6266.000000;0.570560
6265.000000;0.570705
6264.000000;0.570899
6263.000000;0.571052
6262.000000;0.571109
6261.000000;0.571095
6260.000000;0.571073
6259.000000;0.571085
6258.000000;0.571121
6257.000000;0.571138
6256.000000;0.571085
6255.000000;0.570961
6254.000000;0.570861
6253.000000;0.570907
6252.000000;0.571096
6251.000000;0.571254
6250.000000;0.571224
6249.000000;0.571052
6248.000000;0.570914
6247.000000;0.570901
6246.000000;0.570983
6245.000000;0.571122
6244.000000;0.571298
6243.000000;0.571398
6242.000000;0.571283
6241.000000;0.571011
6240.000000;0.570848
6239.000000;0.570963
6238.000000;0.571215
6237.000000;0.571356
6236.000000;0.571339
6235.000000;0.571298
6234.000000;0.571329
6233.000000;0.571437
6232.000000;0.571628
6231.000000;0.571882
6230.000000;0.572066
6229.000000;0.572021
6228.000000;0.571786
6227.000000;0.571584
6226.000000;0.571568
6225.000000;0.571681
6224.000000;0.571787
6223.000000;0.571830
6222.000000;0.571810
6221.000000;0.571713
6220.000000;0.571564
6219.000000;0.571468
6218.000000;0.571514
6217.000000;0.571651
6216.000000;0.571735
6215.000000;0.571687
6214.000000;0.571567
6213.000000;0.571504
6212.000000;0.571563
6211.000000;0.571698
6210.000000;0.571809
6209.000000;0.571835
6208.000000;0.571792
6207.000000;0.571708
6206.000000;0.571572
6205.000000;0.571385
6204.000000;0.571215
6203.000000;0.571148
6202.000000;0.571182
6201.000000;0.571238
6200.000000;0.571278
6199.000000;0.571350
6198.000000;0.571508
6197.000000;0.571731
6196.000000;0.571932
6195.000000;0.572025
6194.000000;0.571963
6193.000000;0.571771
6192.000000;0.571552
6191.000000;0.571421
6190.000000;0.571403
6189.000000;0.571429
6188.000000;0.571436
6187.000000;0.571443
6186.000000;0.571503
6185.000000;0.571620
6184.000000;0.571729
6183.000000;0.571761
6182.000000;0.571703
6181.000000;0.571600
6180.000000;0.571503
6179.000000;0.571419
6178.000000;0.571325
6177.000000;0.571222
6176.000000;0.571133
6175.000000;0.571056
6174.000000;0.570945
6173.000000;0.570799
6172.000000;0.570712
6171.000000;0.570771
6170.000000;0.570936
6169.000000;0.571061
6168.000000;0.571055
6167.000000;0.570959
6166.000000;0.570872
6165.000000;0.570871
6164.000000;0.570979
6163.000000;0.571139
6162.000000;0.571210
6161.000000;0.571082
6160.000000;0.570802
6159.000000;0.570557
6158.000000;0.570489
6157.000000;0.570574
6156.000000;0.570696
6155.000000;0.570777
6154.000000;0.570811
6153.000000;0.570819
6152.000000;0.570837
6151.000000;0.570898
6150.000000;0.570986
6149.000000;0.571032
6148.000000;0.570985
6147.000000;0.570872
6146.000000;0.570774
6145.000000;0.570751
6144.000000;0.570794
6143.000000;0.570846
6142.000000;0.570837
6141.000000;0.570745
6140.000000;0.570616
6139.000000;0.570529
6138.000000;0.570525
6137.000000;0.570583
6136.000000;0.570666
6135.000000;0.570748
6134.000000;0.570799
6133.000000;0.570784
6132.000000;0.570692
6131.000000;0.570549
6130.000000;0.570392
6129.000000;0.570243
6128.000000;0.570113
6127.000000;0.570010
6126.000000;0.569945
6125.000000;0.569947
6124.000000;0.570057
6123.000000;0.570261
6122.000000;0.570449
6121.000000;0.570510
6120.000000;0.570452
6119.000000;0.570366
6118.000000;0.570273
6117.000000;0.570100
6116.000000;0.569829
6115.000000;0.569578
6114.000000;0.569478
6113.000000;0.569533
6112.000000;0.569652
6111.000000;0.569768
6110.000000;0.569854
6109.000000;0.569885
6108.000000;0.569849
6107.000000;0.569778
6106.000000;0.569701
6105.000000;0.569597
6104.000000;0.569442
6103.000000;0.569296
6102.000000;0.569251
6101.000000;0.569316
6100.000000;0.569415
6099.000000;0.569509
6098.000000;0.569627
6097.000000;0.569755
6096.000000;0.569782
6095.000000;0.569625
6094.000000;0.569364
6093.000000;0.569184
6092.000000;0.569194
6091.000000;0.569344
6090.000000;0.569513
6089.000000;0.569637
6088.000000;0.569713
6087.000000;0.569734
6086.000000;0.569671
6085.000000;0.569515
6084.000000;0.569310
6083.000000;0.569126
6082.000000;0.569004
6081.000000;0.568946
6080.000000;0.568951
6079.000000;0.569032
6078.000000;0.569176
6077.000000;0.569312
6076.000000;0.569338
6075.000000;0.569209
6074.000000;0.568970
6073.000000;0.568714
6072.000000;0.568505
6071.000000;0.568359
6070.000000;0.568274
6069.000000;0.568248
6068.000000;0.568268
6067.000000;0.568296
6066.000000;0.568305
6065.000000;0.568303
6064.000000;0.568314
6063.000000;0.568328
6062.000000;0.568298
6061.000000;0.568199
6060.000000;0.568077
6059.000000;0.568017
6058.000000;0.568069
6057.000000;0.568201
6056.000000;0.568329
6055.000000;0.568384
6054.000000;0.568371
6053.000000;0.568348
6052.000000;0.568348
6051.000000;0.568343
6050.000000;0.568298
6049.000000;0.568234
6048.000000;0.568201
6047.000000;0.568204
6046.000000;0.568190
6045.000000;0.568139
6044.000000;0.568106
6043.000000;0.568141
6042.000000;0.568218
6041.000000;0.568265
6040.000000;0.568249
6039.000000;0.568197
6038.000000;0.568154
6037.000000;0.568145
6036.000000;0.568149
6035.000000;0.568100
6034.000000;0.567958
6033.000000;0.567783
6032.000000;0.567714
6031.000000;0.567802
6030.000000;0.567926
6029.000000;0.567932
6028.000000;0.567826
6027.000000;0.567746
6026.000000;0.567775
6025.000000;0.567853
6024.000000;0.567890
6023.000000;0.567867
6022.000000;0.567817
6021.000000;0.567759
6020.000000;0.567716
6019.000000;0.567727
6018.000000;0.567802
6017.000000;0.567894
6016.000000;0.567940
6015.000000;0.567925
6014.000000;0.567862
6013.000000;0.567766
6012.000000;0.567663
6011.000000;0.567609
6010.000000;0.567639
6009.000000;0.567713
6008.000000;0.567759
6007.000000;0.567765
6006.000000;0.567783
6005.000000;0.567836
6004.000000;0.567870
6003.000000;0.567805
6002.000000;0.567626
6001.000000;0.567388
6000.000000;0.567169
5999.000000;0.567036
5998.000000;0.567037
5997.000000;0.567169
5996.000000;0.567356
5995.000000;0.567489
5994.000000;0.567516
5993.000000;0.567489
5992.000000;0.567486
5991.000000;0.567514
5990.000000;0.567507
5989.000000;0.567425
5988.000000;0.567292
5987.000000;0.567159
5986.000000;0.567055
5985.000000;0.567009
5984.000000;0.567053
5983.000000;0.567169
5982.000000;0.567279
5981.000000;0.567313
5980.000000;0.567286
5979.000000;0.567264
5978.000000;0.567285
5977.000000;0.567346
5976.000000;0.567423
5975.000000;0.567478
5974.000000;0.567464
5973.000000;0.567384
5972.000000;0.567319
5971.000000;0.567339
5970.000000;0.567403
5969.000000;0.567405
5968.000000;0.567326
5967.000000;0.567249
5966.000000;0.567240
5965.000000;0.567268
5964.000000;0.567283
5963.000000;0.567302
5962.000000;0.567358
5961.000000;0.567419
5960.000000;0.567416
5959.000000;0.567333
5958.000000;0.567240
5957.000000;0.567209
5956.000000;0.567244
5955.000000;0.567280
5954.000000;0.567260
5953.000000;0.567192
5952.000000;0.567130
5951.000000;0.567117
5950.000000;0.567135
5949.000000;0.567148
5948.000000;0.567163
5947.000000;0.567222
5946.000000;0.567332
5945.000000;0.567435
5944.000000;0.567467
5943.000000;0.567412
5942.000000;0.567302
5941.000000;0.567187
5940.000000;0.567118
5939.000000;0.567127
5938.000000;0.567216
5937.000000;0.567351
5936.000000;0.567492
5935.000000;0.567602
5934.000000;0.567653
5933.000000;0.567644
5932.000000;0.567611
5931.000000;0.567599
5930.000000;0.567594
5929.000000;0.567538
5928.000000;0.567421
5927.000000;0.567330
5926.000000;0.567370
5925.000000;0.567546
5924.000000;0.567752
5923.000000;0.567864
5922.000000;0.567834
5921.000000;0.567705
5920.000000;0.567563
5919.000000;0.567484
5918.000000;0.567493
5917.000000;0.567557
5916.000000;0.567608
5915.000000;0.567583
5914.000000;0.567471
5913.000000;0.567328
5912.000000;0.567241
5911.000000;0.567250
5910.000000;0.567304
5909.000000;0.567311
5908.000000;0.567243
5907.000000;0.567162
5906.000000;0.567137
5905.000000;0.567173
5904.000000;0.567221
5903.000000;0.567245
5902.000000;0.567239
5901.000000;0.567213
5900.000000;0.567181
5899.000000;0.567171
5898.000000;0.567220
5897.000000;0.567331
5896.000000;0.567462
5895.000000;0.567551
5894.000000;0.567563
5893.000000;0.567502
5892.000000;0.567395
5891.000000;0.567278
5890.000000;0.567188
5889.000000;0.567143
5888.000000;0.567128
5887.000000;0.567105
5886.000000;0.567071
5885.000000;0.567064
5884.000000;0.567118
5883.000000;0.567201
5882.000000;0.567243
5881.000000;0.567221
5880.000000;0.567187
5879.000000;0.567196
5878.000000;0.567237
5877.000000;0.567255
5876.000000;0.567226
5875.000000;0.567172
5874.000000;0.567126
5873.000000;0.567114
5872.000000;0.567152
5871.000000;0.567231
5870.000000;0.567306
5869.000000;0.567321
5868.000000;0.567261
5867.000000;0.567161
5866.000000;0.567070
5865.000000;0.567025
5864.000000;0.567029
5863.000000;0.567049
5862.000000;0.567032
5861.000000;0.566961
5860.000000;0.566877
5859.000000;0.566840
5858.000000;0.566859
5857.000000;0.566908
5856.000000;0.566964
5855.000000;0.567020
5854.000000;0.567049
5853.000000;0.567038
5852.000000;0.567036
5851.000000;0.567120
5850.000000;0.567274
5849.000000;0.567374
5848.000000;0.567332
5847.000000;0.567213
5846.000000;0.567163
5845.000000;0.567237
5844.000000;0.567358
5843.000000;0.567419
5842.000000;0.567391
5841.000000;0.567318
5840.000000;0.567255
5839.000000;0.567234
5838.000000;0.567250
5837.000000;0.567250
5836.000000;0.567163
5835.000000;0.566978
5834.000000;0.566799
5833.000000;0.566772
5832.000000;0.566947
5831.000000;0.567213
5830.000000;0.567403
5829.000000;0.567441
5828.000000;0.567377
5827.000000;0.567303
5826.000000;0.567264
5825.000000;0.567256
5824.000000;0.567247
5823.000000;0.567200
5822.000000;0.567104
5821.000000;0.567022
5820.000000;0.567049
5819.000000;0.567202
5818.000000;0.567370
5817.000000;0.567411
5816.000000;0.567301
5815.000000;0.567153
5814.000000;0.567095
5813.000000;0.567168
5812.000000;0.567317
5811.000000;0.567442
5810.000000;0.567459
5809.000000;0.567358
5808.000000;0.567229
5807.000000;0.567188
5806.000000;0.567275
5805.000000;0.567435
5804.000000;0.567577
5803.000000;0.567631
5802.000000;0.567553
5801.000000;0.567336
5800.000000;0.567069
5799.000000;0.566907
5798.000000;0.566942
5797.000000;0.567093
5796.000000;0.567198
5795.000000;0.567185
5794.000000;0.567136
5793.000000;0.567160
5792.000000;0.567264
5791.000000;0.567364
5790.000000;0.567403
5789.000000;0.567395
5788.000000;0.567377
5787.000000;0.567357
5786.000000;0.567354
5785.000000;0.567434
5784.000000;0.567632
5783.000000;0.567845
5782.000000;0.567878
5781.000000;0.567659
5780.000000;0.567364
5779.000000;0.567253
5778.000000;0.567386
5777.000000;0.567577
5776.000000;0.567621
5775.000000;0.567503
5774.000000;0.567348
5773.000000;0.567243
5772.000000;0.567187
5771.000000;0.567180
5770.000000;0.567259
5769.000000;0.567419
5768.000000;0.567546
5767.000000;0.567512
5766.000000;0.567320
5765.000000;0.567113
5764.000000;0.567022
5763.000000;0.567041
5762.000000;0.567054
5761.000000;0.566977
5760.000000;0.566844
5759.000000;0.566758
5758.000000;0.566793
5757.000000;0.566930
5756.000000;0.567085
5755.000000;0.567176
5754.000000;0.567161
5753.000000;0.567045
5752.000000;0.566869
5751.000000;0.566703
5750.000000;0.566633
5749.000000;0.566705
5748.000000;0.566852
5747.000000;0.566920
5746.000000;0.566813
5745.000000;0.566622
5744.000000;0.566544
5743.000000;0.566659
5742.000000;0.566826
5741.000000;0.566833
5740.000000;0.566616
5739.000000;0.566313
5738.000000;0.566117
5737.000000;0.566123
5736.000000;0.566284
5735.000000;0.566487
5734.000000;0.566631
5733.000000;0.566671
5732.000000;0.566619
5731.000000;0.566525
5730.000000;0.566453
5729.000000;0.566445
5728.000000;0.566492
5727.000000;0.566524
5726.000000;0.566477
5725.000000;0.566360
5724.000000;0.566249
5723.000000;0.566194
5722.000000;0.566187
5721.000000;0.566201
5720.000000;0.566230
5719.000000;0.566259
5718.000000;0.566245
5717.000000;0.566185
5716.000000;0.566145
5715.000000;0.566188
5714.000000;0.566279
5713.000000;0.566321
5712.000000;0.566258
5711.000000;0.566103
5710.000000;0.565888
5709.000000;0.565653
5708.000000;0.565487
5707.000000;0.565469
5706.000000;0.565569
5705.000000;0.565646
5704.000000;0.565599
5703.000000;0.565480
5702.000000;0.565414
5701.000000;0.565441
5700.000000;0.565494
5699.000000;0.565514
5698.000000;0.565514
5697.000000;0.565532
5696.000000;0.565530
5695.000000;0.565457
5694.000000;0.565343
5693.000000;0.565281
5692.000000;0.565309
5691.000000;0.565356
5690.000000;0.565346
5689.000000;0.565313
5688.000000;0.565345
5687.000000;0.565446
5686.000000;0.565523
5685.000000;0.565526
5684.000000;0.565512
5683.000000;0.565532
5682.000000;0.565537
5681.000000;0.565465
5680.000000;0.565357
5679.000000;0.565312
5678.000000;0.565338
5677.000000;0.565339
5676.000000;0.565247
5675.000000;0.565116
5674.000000;0.565073
5673.000000;0.565201
5672.000000;0.565470
5671.000000;0.565730
5670.000000;0.565803
5669.000000;0.565637
5668.000000;0.565382
5667.000000;0.565248
5666.000000;0.565283
5665.000000;0.565352
5664.000000;0.565333
5663.000000;0.565251
5662.000000;0.565197
5661.000000;0.565191
5660.000000;0.565207
5659.000000;0.565274
5658.000000;0.565438
5657.000000;0.565642
5656.000000;0.565736
5655.000000;0.565652
5654.000000;0.565505
5653.000000;0.565457
5652.000000;0.565530
5651.000000;0.565606
5650.000000;0.565604
5649.000000;0.565574
5648.000000;0.565601
5647.000000;0.565680
5646.000000;0.565749
5645.000000;0.565808
5644.000000;0.565931
5643.000000;0.566153
5642.000000;0.566407
5641.000000;0.566592
5640.000000;0.566663
5639.000000;0.566641
5638.000000;0.566576
5637.000000;0.566525
5636.000000;0.566519
5635.000000;0.566522
5634.000000;0.566476
5633.000000;0.566418
5632.000000;0.566481
5631.000000;0.566737
5630.000000;0.567071
5629.000000;0.567299
5628.000000;0.567364
5627.000000;0.567341
5626.000000;0.567291
5625.000000;0.567210
5624.000000;0.567133
5623.000000;0.567158
5622.000000;0.567305
5621.000000;0.567453
5620.000000;0.567497
5619.000000;0.567510
5618.000000;0.567666
5617.000000;0.568010
5616.000000;0.568388
5615.000000;0.568616
5614.000000;0.568657
5613.000000;0.568621
5612.000000;0.568636
5611.000000;0.568749
5610.000000;0.568938
5609.000000;0.569153
5608.000000;0.569339
5607.000000;0.569442
5606.000000;0.569441
5605.000000;0.569378
5604.000000;0.569342
5603.000000;0.569408
5602.000000;0.569583
5601.000000;0.569810
5600.000000;0.570033
5599.000000;0.570243
5598.000000;0.570461
5597.000000;0.570691
5596.000000;0.570886
5595.000000;0.570997
5594.000000;0.571033
5593.000000;0.571057
5592.000000;0.571114
5591.000000;0.571187
5590.000000;0.571255
5589.000000;0.571343
5588.000000;0.571491
5587.000000;0.571691
5586.000000;0.571904
5585.000000;0.572119
5584.000000;0.572341
5583.000000;0.572528
5582.000000;0.572622
5581.000000;0.572650
5580.000000;0.572718
5579.000000;0.572872
5578.000000;0.573027
5577.000000;0.573076
5576.000000;0.573026
5575.000000;0.572964
5574.000000;0.572952
5573.000000;0.573006
5572.000000;0.573142
5571.000000;0.573340
5570.000000;0.573518
5569.000000;0.573599
5568.000000;0.573640
5567.000000;0.573783
5566.000000;0.574066
5565.000000;0.574352
5564.000000;0.574479
5563.000000;0.574434
5562.000000;0.574340
5561.000000;0.574316
5560.000000;0.574397
5559.000000;0.574572
5558.000000;0.574804
5557.000000;0.575023
5556.000000;0.575132
5555.000000;0.575098
5554.000000;0.575027
5553.000000;0.575093
5552.000000;0.575371
5551.000000;0.575739
5550.000000;0.575992
5549.000000;0.576045
5548.000000;0.575992
5547.000000;0.575983
5546.000000;0.576078
5545.000000;0.576231
5544.000000;0.576362
5543.000000;0.576408
5542.000000;0.576358
5541.000000;0.576284
5540.000000;0.576319
5539.000000;0.576539
5538.000000;0.576871
5537.000000;0.577136
5536.000000;0.577198
5535.000000;0.577068
5534.000000;0.576894
5533.000000;0.576869
5532.000000;0.577101
5531.000000;0.577508
5530.000000;0.577842
5529.000000;0.577897
5528.000000;0.577710
5527.000000;0.577531
5526.000000;0.577584
5525.000000;0.577872
5524.000000;0.578208
5523.000000;0.578398
5522.000000;0.578368
5521.000000;0.578187
5520.000000;0.578009
5519.000000;0.577968
5518.000000;0.578093
5517.000000;0.578275
5516.000000;0.578352
5515.000000;0.578256
5514.000000;0.578078
5513.000000;0.577997
5512.000000;0.578140
5511.000000;0.578494
5510.000000;0.578922
5509.000000;0.579243
5508.000000;0.579325
5507.000000;0.579178
5506.000000;0.578997
5505.000000;0.579024
5504.000000;0.579308
5503.000000;0.579622
5502.000000;0.579692
5501.000000;0.579502
5500.000000;0.579270
5499.000000;0.579138
5498.000000;0.579052
5497.000000;0.578954
5496.000000;0.578939
5495.000000;0.579075
5494.000000;0.579198
5493.000000;0.579105
5492.000000;0.578911
5491.000000;0.578976
5490.000000;0.579432
5489.000000;0.579975
5488.000000;0.580228
5487.000000;0.580175
5486.000000;0.580118
5485.000000;0.580303
5484.000000;0.580731
5483.000000;0.581269
5482.000000;0.581732
5481.000000;0.581895
5480.000000;0.581625
5479.000000;0.581078
5478.000000;0.580698
5477.000000;0.580824
5476.000000;0.581319
5475.000000;0.581678
5474.000000;0.581570
5473.000000;0.581185
5472.000000;0.580976
5471.000000;0.581139
5470.000000;0.581463
5469.000000;0.581638
5468.000000;0.581573
5467.000000;0.581371
5466.000000;0.581121
5465.000000;0.580883
5464.000000;0.580814
5463.000000;0.581120
5462.000000;0.581772
5461.000000;0.582400
5460.000000;0.582631
5459.000000;0.582474
5458.000000;0.582279
5457.000000;0.582336
5456.000000;0.582614
5455.000000;0.582868
5454.000000;0.582935
5453.000000;0.582876
5452.000000;0.582868
5451.000000;0.583002
5450.000000;0.583174
5449.000000;0.583218
5448.000000;0.583111
5447.000000;0.582950
5446.000000;0.582769
5445.000000;0.582515
5444.000000;0.582263
5443.000000;0.582292
5442.000000;0.582784
5441.000000;0.583519
5440.000000;0.584052
5439.000000;0.584178
5438.000000;0.584108
5437.000000;0.584180
5436.000000;0.584461
5435.000000;0.584659
5434.000000;0.584475
5433.000000;0.583999
5432.000000;0.583690
5431.000000;0.583915
5430.000000;0.584554
5429.000000;0.585163
5428.000000;0.585503
5427.000000;0.585774
5426.000000;0.586274
5425.000000;0.587009
5424.000000;0.587731
5423.000000;0.588254
5422.000000;0.588630
5421.000000;0.588992
5420.000000;0.589296
5419.000000;0.589311
5418.000000;0.588874
5417.000000;0.588146
5416.000000;0.587504
5415.000000;0.587135
5414.000000;0.586866
5413.000000;0.586494
5412.000000;0.586187
5411.000000;0.586344
5410.000000;0.587091
5409.000000;0.588157
5408.000000;0.589241
5407.000000;0.590283
5406.000000;0.591299
5405.000000;0.592185
5404.000000;0.592825
5403.000000;0.593240
5402.000000;0.593545
5401.000000;0.593789
5400.000000;0.593932
5399.000000;0.593987
5398.000000;0.594042
5397.000000;0.594156
5396.000000;0.594294
5395.000000;0.594386
5394.000000;0.594459
5393.000000;0.594672
5392.000000;0.595168
5391.000000;0.595907
5390.000000;0.596732
5389.000000;0.597586
5388.000000;0.598571
5387.000000;0.599675
5386.000000;0.600580
5385.000000;0.600985
5384.000000;0.601034
5383.000000;0.601113
5382.000000;0.601295
5381.000000;0.601339
5380.000000;0.601263
5379.000000;0.601537
5378.000000;0.602482
5377.000000;0.603785
5376.000000;0.604895
5375.000000;0.605711
5374.000000;0.606558
5373.000000;0.607586
5372.000000;0.608598
5371.000000;0.609434
5370.000000;0.610172
5369.000000;0.610941
5368.000000;0.611799
5367.000000;0.612846
5366.000000;0.614185
5365.000000;0.615678
5364.000000;0.616965
5363.000000;0.617875
5362.000000;0.618629
5361.000000;0.619428
5360.000000;0.620098
5359.000000;0.620428
5358.000000;0.620694
5357.000000;0.621460
5356.000000;0.622849
5355.000000;0.624337
5354.000000;0.625407
5353.000000;0.626197
5352.000000;0.627234
5351.000000;0.628656
5350.000000;0.630067
5349.000000;0.631119
5348.000000;0.631896
5347.000000;0.632695
5346.000000;0.633609
5345.000000;0.634535
5344.000000;0.635527
5343.000000;0.636860
5342.000000;0.638652
5341.000000;0.640640
5340.000000;0.642429
5339.000000;0.643907
5338.000000;0.645388
5337.000000;0.647271
5336.000000;0.649595
5335.000000;0.652034
5334.000000;0.654136
5333.000000;0.655495
5332.000000;0.656011
5331.000000;0.656199
5330.000000;0.656991
5329.000000;0.658873
5328.000000;0.661277
5327.000000;0.663166
5326.000000;0.664316
5325.000000;0.665477
5324.000000;0.667062
5323.000000;0.668410
5322.000000;0.668775
5321.000000;0.668462
5320.000000;0.668242
5319.000000;0.667973
5318.000000;0.666828
5317.000000;0.664763
5316.000000;0.662718
5315.000000;0.661069
5314.000000;0.658420
5313.000000;0.652770
5312.000000;0.643557
5311.000000;0.631628
5310.000000;0.617960
5309.000000;0.603506
5308.000000;0.589799
5307.000000;0.578060
5306.000000;0.567093
5305.000000;0.554305
5304.000000;0.539439
5303.000000;0.523980
5302.000000;0.508228
5301.000000;0.492401
5300.000000;0.478574
5299.000000;0.469155
5298.000000;0.464092
5297.000000;0.462425
5296.000000;0.466584
5295.000000;0.482600
5294.000000;0.514972
5293.000000;0.558682
5292.000000;0.599285
5291.000000;0.629627
5290.000000;0.657649
5289.000000;0.692515
5288.000000;0.735732
5287.000000;0.784432
5286.000000;0.832160
5285.000000;0.861921
5284.000000;0.857246
5283.000000;0.831919
5282.000000;0.819910
5281.000000;0.840265
5280.000000;0.883632
5279.000000;0.921732
5278.000000;0.935620
5277.000000;0.933692
5276.000000;0.933128
5275.000000;0.942748
5274.000000;0.964202
5273.000000;0.989365
5272.000000;0.994535
5271.000000;0.963873
5270.000000;0.919462
5269.000000;0.894747
5268.000000;0.902679
5267.000000;0.934096
5266.000000;0.968183
5265.000000;0.986836
5264.000000;0.986553
5263.000000;0.977392
5262.000000;0.971444
5261.000000;0.972616
5260.000000;0.975796
5259.000000;0.972312
5258.000000;0.956889
5257.000000;0.936852
5256.000000;0.927326
5255.000000;0.935028
5254.000000;0.955116
5253.000000;0.979444
5252.000000;0.999478
5251.000000;1.001604
5250.000000;0.981232
5249.000000;0.955371
5248.000000;0.942762
5247.000000;0.948812
5246.000000;0.965526
5245.000000;0.979389
5244.000000;0.984118
5243.000000;0.985048
5242.000000;0.987695
5241.000000;0.988958
5240.000000;0.988915
5239.000000;0.995380
5238.000000;1.007586
5237.000000;1.013043
5236.000000;1.005245
5235.000000;0.994063
5234.000000;0.991445
5233.000000;0.994386
5232.000000;0.992047
5231.000000;0.981846
5230.000000;0.970062
5229.000000;0.965550
5228.000000;0.972482
5227.000000;0.990651
5226.000000;1.019848
5225.000000;1.053126
5224.000000;1.072280
5223.000000;1.065186
5222.000000;1.041426
5221.000000;1.018148
5220.000000;1.003169
5219.000000;0.995999
5218.000000;0.994954
5217.000000;0.998050
5216.000000;1.000950
5215.000000;1.002028
5214.000000;1.006383
5213.000000;1.016832
5212.000000;1.025643
5211.000000;1.022573
5210.000000;1.007950
5209.000000;0.991764
5208.000000;0.982851
5207.000000;0.982266
5206.000000;0.983625
5205.000000;0.980225
5204.000000;0.976047
5203.000000;0.979565
5202.000000;0.988539
5201.000000;0.990750
5200.000000;0.980656
5199.000000;0.971795
5198.000000;0.979949
5197.000000;1.001575
5196.000000;1.013473
5195.000000;1.003161
5194.000000;0.986760
5193.000000;0.979429
5192.000000;0.978495
5191.000000;0.975085
5190.000000;0.968782
5189.000000;0.963020
5188.000000;0.957337
5187.000000;0.952204
5186.000000;0.951617
5185.000000;0.956005
5184.000000;0.958157
5183.000000;0.953580
5182.000000;0.950110
5181.000000;0.955372
5180.000000;0.961645
5179.000000;0.957154
5178.000000;0.946798
5177.000000;0.944512
5176.000000;0.951082
5175.000000;0.953857
5174.000000;0.948404
5173.000000;0.947359
5172.000000;0.961434
5171.000000;0.986208
5170.000000;1.007701
5169.000000;1.013396
5168.000000;1.003811
5167.000000;0.988619
5166.000000;0.977659
5165.000000;0.977151
5164.000000;0.982062
5163.000000;0.978876
5162.000000;0.964218
5161.000000;0.953915
5160.000000;0.963915
5159.000000;0.990874
5158.000000;1.018402
5157.000000;1.036508
5156.000000;1.043712
5155.000000;1.042283
5154.000000;1.033160
5153.000000;1.016651
5152.000000;0.999283
5151.000000;0.986052
5150.000000;0.974327
5149.000000;0.961519
5148.000000;0.951923
5147.000000;0.954503
5146.000000;0.968584
5145.000000;0.983082
5144.000000;0.992398
5143.000000;0.995155
5142.000000;0.993463
5141.000000;0.992021
5140.000000;0.990869
5139.000000;0.985447
5138.000000;0.968970
5137.000000;0.941099
5136.000000;0.915384
5135.000000;0.910663
5134.000000;0.936523
5133.000000;0.979332
5132.000000;1.007058
5131.000000;1.002102
5130.000000;0.978002
5129.000000;0.961318
5128.000000;0.965366
5127.000000;0.982154
5126.000000;0.994181
5125.000000;0.988328
5124.000000;0.967689
5123.000000;0.953033
5122.000000;0.960215
5121.000000;0.987410
5120.000000;1.019559
5119.000000;1.033428
5118.000000;1.018608
5117.000000;0.989557
5116.000000;0.965215
5115.000000;0.956709
5114.000000;0.966320
5113.000000;0.986517
5112.000000;1.000698
5111.000000;0.993995
5110.000000;0.971038
5109.000000;0.952370
5108.000000;0.954491
5107.000000;0.976599
5106.000000;0.996786
5105.000000;0.990093
5104.000000;0.961008
5103.000000;0.936010
5102.000000;0.932089
5101.000000;0.948988
5100.000000;0.978692
5099.000000;1.011494
5098.000000;1.025726
5097.000000;1.001755
5096.000000;0.956144
5095.000000;0.921563
5094.000000;0.916061
5093.000000;0.935996
5092.000000;0.964082
5091.000000;0.986400
5090.000000;1.000059
5089.000000;1.007714
5088.000000;1.012662
5087.000000;1.018160
5086.000000;1.024231
5085.000000;1.017495
5084.000000;0.981058
5083.000000;0.931779
5082.000000;0.906181
5081.000000;0.919729
5080.000000;0.959487
5079.000000;0.996305
5078.000000;1.008161
5077.000000;0.997045
5076.000000;0.979365
5075.000000;0.967613
5074.000000;0.964531
5073.000000;0.969591
5072.000000;0.982533
5071.000000;0.993645
5070.000000;0.992553
5069.000000;0.988996
5068.000000;0.993374
5067.000000;1.000875
5066.000000;1.002734
5065.000000;0.994222
5064.000000;0.977920
5063.000000;0.960336
5062.000000;0.946226
5061.000000;0.938744
5060.000000;0.941227
5059.000000;0.955312
5058.000000;0.973212
5057.000000;0.981398
5056.000000;0.982117
5055.000000;0.987345
5054.000000;0.997801
5053.000000;1.004015
5052.000000;0.996742
5051.000000;0.977747
5050.000000;0.958291
5049.000000;0.945162
5048.000000;0.936476
5047.000000;0.930886
5046.000000;0.933024
5045.000000;0.945581
5044.000000;0.960738
5043.000000;0.964816
5042.000000;0.954188
5041.000000;0.942539
5040.000000;0.943973
5039.000000;0.956937
5038.000000;0.968186
5037.000000;0.967275
5036.000000;0.955173
5035.000000;0.939763
5034.000000;0.927004
5033.000000;0.918804
5032.000000;0.915595
5031.000000;0.915725
5030.000000;0.915665
5029.000000;0.913988
5028.000000;0.913870
5027.000000;0.920454
5026.000000;0.934683
5025.000000;0.948344
5024.000000;0.945780
5023.000000;0.918868
5022.000000;0.880292
5021.000000;0.851535
5020.000000;0.844981
5019.000000;0.858058
5018.000000;0.877641
5017.000000;0.891147
5016.000000;0.894409
5015.000000;0.889478
5014.000000;0.878513
5013.000000;0.863110
5012.000000;0.852055
5011.000000;0.853759
5010.000000;0.860512
5009.000000;0.858894
5008.000000;0.849686
5007.000000;0.844301
5006.000000;0.848917
5005.000000;0.857638
5004.000000;0.860050
5003.000000;0.851931
5002.000000;0.838349
5001.000000;0.828085
5000.000000;0.824833
4999.000000;0.828941
4998.000000;0.840451
4997.000000;0.853452
4996.000000;0.855902
4995.000000;0.841292
4994.000000;0.816395
4993.000000;0.793240
4992.000000;0.778273
4991.000000;0.770571
4990.000000;0.765797
4989.000000;0.760270
4988.000000;0.752536
4987.000000;0.744468
4986.000000;0.741172
4985.000000;0.746412
4984.000000;0.757335
4983.000000;0.764654
4982.000000;0.760196
4981.000000;0.745241
4980.000000;0.728105
4979.000000;0.713761
4978.000000;0.702180
4977.000000;0.695952
4976.000000;0.699518
4975.000000;0.708887
4974.000000;0.710447
4973.000000;0.695130
4972.000000;0.670219
4971.000000;0.651563
4970.000000;0.649206
4969.000000;0.661284
4968.000000;0.676969
4967.000000;0.684917
4966.000000;0.679433
4965.000000;0.664095
4964.000000;0.648283
4963.000000;0.638691
4962.000000;0.634464
4961.000000;0.628914
4960.000000;0.617641
4959.000000;0.601961
4958.000000;0.586822
4957.000000;0.579087
4956.000000;0.584818
4955.000000;0.602993
4954.000000;0.621117
4953.000000;0.622913
4952.000000;0.605341
4951.000000;0.580407
4950.000000;0.558633
4949.000000;0.541180
4948.000000;0.526617
4947.000000;0.517052
4946.000000;0.514283
4945.000000;0.514512
4944.000000;0.512342
4943.000000;0.507358
4942.000000;0.502353
4941.000000;0.497225
4940.000000;0.488563
4939.000000;0.475076
4938.000000;0.459532
4937.000000;0.445643
4936.000000;0.436201
4935.000000;0.432420
4934.000000;0.431916
4933.000000;0.428498
4932.000000;0.417496
4931.000000;0.401961
4930.000000;0.389361
4929.000000;0.382097
4928.000000;0.376370
4927.000000;0.370162
4926.000000;0.366481
4925.000000;0.366902
4924.000000;0.367235
4923.000000;0.362805
4922.000000;0.354668
4921.000000;0.346356
4920.000000;0.337578
4919.000000;0.325785
4918.000000;0.311738
4917.000000;0.299219
4916.000000;0.290389
4915.000000;0.284727
4914.000000;0.281444
4913.000000;0.279742
4912.000000;0.277557
4911.000000;0.273315
4910.000000;0.268103
4909.000000;0.263404
4908.000000;0.256946
4907.000000;0.244596
4906.000000;0.227877
4905.000000;0.213883
4904.000000;0.206846
4903.000000;0.203894
4902.000000;0.199214
4901.000000;0.190950
4900.000000;0.182043
4899.000000;0.174882
4898.000000;0.167987
4897.000000;0.158587
4896.000000;0.146924
4895.000000;0.135564
4894.000000;0.125942
4893.000000;0.117930
4892.000000;0.111582
4891.000000;0.108196
4890.000000;0.109145
4889.000000;0.113104
4888.000000;0.115007
4887.000000;0.109862
4886.000000;0.098443
4885.000000;0.086614
4884.000000;0.078751
4883.000000;0.073906
4882.000000;0.068916
4881.000000;0.063889
4880.000000;0.061981
4879.000000;0.064010
4878.000000;0.066270
4877.000000;0.064734
4876.000000;0.059728
4875.000000;0.054494
4874.000000;0.050578
4873.000000;0.047141
4872.000000;0.043683
4871.000000;0.040865
4870.000000;0.038999
4869.000000;0.037891
4868.000000;0.037979
4867.000000;0.039627
4866.000000;0.041476
4865.000000;0.041520
4864.000000;0.040023
4863.000000;0.039629
4862.000000;0.042040
4861.000000;0.046040
4860.000000;0.049327
4859.000000;0.050749
4858.000000;0.050122
4857.000000;0.047668
4856.000000;0.045101
4855.000000;0.045741
4854.000000;0.051371
4853.000000;0.059463
4852.000000;0.065412
4851.000000;0.067709
4850.000000;0.069095
4849.000000;0.072207
4848.000000;0.076274
4847.000000;0.079121
4846.000000;0.080482
4845.000000;0.081595
4844.000000;0.082844
4843.000000;0.083942
4842.000000;0.085808
4841.000000;0.089986
4840.000000;0.095977
4839.000000;0.101071
4838.000000;0.103524
4837.000000;0.104244
4836.000000;0.104759
4835.000000;0.105599
4834.000000;0.107404
4833.000000;0.111349
4832.000000;0.116928
4831.000000;0.121145
4830.000000;0.121915
4829.000000;0.121147
4828.000000;0.122400
4827.000000;0.126659
4826.000000;0.132299
4825.000000;0.137935
4824.000000;0.142982
4823.000000;0.146260
4822.000000;0.146933
4821.000000;0.146920
4820.000000;0.149683
4819.000000;0.156015
4818.000000;0.162884
4817.000000;0.167311
4816.000000;0.169692
4815.000000;0.172182
4814.000000;0.175765
4813.000000;0.180296
4812.000000;0.185661
4811.000000;0.191164
4810.000000;0.194942
4809.000000;0.195800
4808.000000;0.195175
4807.000000;0.195945
4806.000000;0.199503
4805.000000;0.204679
4804.000000;0.209178
4803.000000;0.211716
4802.000000;0.213115
4801.000000;0.215548
4800.000000;0.220297
4799.000000;0.226076
4798.000000;0.230074
4797.000000;0.230880
4796.000000;0.229669
4795.000000;0.228451
4794.000000;0.228434
4793.000000;0.230291
4792.000000;0.234379
4791.000000;0.239682
4790.000000;0.243735
4789.000000;0.245029
4788.000000;0.244904
4787.000000;0.245990
4786.000000;0.249358
4785.000000;0.254042
4784.000000;0.258598
4783.000000;0.262077
4782.000000;0.263996
4781.000000;0.264712
4780.000000;0.265715
4779.000000;0.268333
4778.000000;0.272009
4777.000000;0.274870
4776.000000;0.276158
4775.000000;0.277102
4774.000000;0.279138
4773.000000;0.282246
4772.000000;0.285481
4771.000000;0.288393
4770.000000;0.291095
4769.000000;0.293347
4768.000000;0.294645
4767.000000;0.295329
4766.000000;0.296702
4765.000000;0.299496
4764.000000;0.302725
4763.000000;0.304729
4762.000000;0.305288
4761.000000;0.305943
4760.000000;0.308055
4759.000000;0.311257
4758.000000;0.314259
4757.000000;0.316546
4756.000000;0.318410
4755.000000;0.319809
4754.000000;0.320335
4753.000000;0.320285
4752.000000;0.320726
4751.000000;0.322224
4750.000000;0.324242
4749.000000;0.326093
4748.000000;0.327851
4747.000000;0.330000
4746.000000;0.332709
4745.000000;0.335731
4744.000000;0.338546
4743.000000;0.340431
4742.000000;0.341013
4741.000000;0.340988
4740.000000;0.341622
4739.000000;0.343259
4738.000000;0.345041
4737.000000;0.346336
4736.000000;0.347647
4735.000000;0.349639
4734.000000;0.352070
4733.000000;0.354321
4732.000000;0.356267
4731.000000;0.357897
4730.000000;0.358770
4729.000000;0.358819
4728.000000;0.359182
4727.000000;0.361113
4726.000000;0.364294
4725.000000;0.367130
4724.000000;0.368647
4723.000000;0.369234
4722.000000;0.369615
4721.000000;0.370070
4720.000000;0.370771
4719.000000;0.371972
4718.000000;0.373550
4717.000000;0.374989
4716.000000;0.376081
4715.000000;0.377210
4714.000000;0.378779
4713.000000;0.380792
4712.000000;0.383075
4711.000000;0.385408
4710.000000;0.387329
4709.000000;0.388398
4708.000000;0.388843
4707.000000;0.389437
4706.000000;0.390537
4705.000000;0.391724
4704.000000;0.392577
4703.000000;0.393290
4702.000000;0.394272
4701.000000;0.395639
4700.000000;0.397367
4699.000000;0.399470
4698.000000;0.401596
4697.000000;0.402852
4696.000000;0.402609
4695.000000;0.401392
4694.000000;0.400572
4693.000000;0.401161
4692.000000;0.403077
4691.000000;0.405394
4690.000000;0.407157
4689.000000;0.408105
4688.000000;0.408747
4687.000000;0.409667
4686.000000;0.410803
4685.000000;0.411631
4684.000000;0.412013
4683.000000;0.412408
4682.000000;0.413096
4681.000000;0.413757
4680.000000;0.414164
4679.000000;0.414798
4678.000000;0.416198
4677.000000;0.417993
4676.000000;0.419264
4675.000000;0.419802
4674.000000;0.420348
4673.000000;0.421479
4672.000000;0.422907
4671.000000;0.424144
4670.000000;0.425300
4669.000000;0.426693
4668.000000;0.428010
4667.000000;0.428512
4666.000000;0.428141
4665.000000;0.427872
4664.000000;0.428708
4663.000000;0.430565
4662.000000;0.432407
4661.000000;0.433371
4660.000000;0.433535
4659.000000;0.433600
4658.000000;0.434092
4657.000000;0.434958
4656.000000;0.435746
4655.000000;0.436016
4654.000000;0.435679
4653.000000;0.435157
4652.000000;0.435221
4651.000000;0.436438
4650.000000;0.438635
4649.000000;0.440964
4648.000000;0.442549
4647.000000;0.443089
4646.000000;0.442947
4645.000000;0.442799
4644.000000;0.443173
4643.000000;0.444069
4642.000000;0.444887
4641.000000;0.444940
4640.000000;0.444283
4639.000000;0.443916
4638.000000;0.444857
4637.000000;0.447023
4636.000000;0.449289
4635.000000;0.450661
4634.000000;0.451140
4633.000000;0.451341
4632.000000;0.451633
4631.000000;0.451941
4630.000000;0.452142
4629.000000;0.452297
4628.000000;0.452544
4627.000000;0.452988
4626.000000;0.453685
4625.000000;0.454511
4624.000000;0.455143
4623.000000;0.455511
4622.000000;0.456098
4621.000000;0.457325
4620.000000;0.458638
4619.000000;0.458877
4618.000000;0.457831
4617.000000;0.456830
4616.000000;0.457274
4615.000000;0.458968
4614.000000;0.460486
4613.000000;0.460914
4612.000000;0.460562
4611.000000;0.459999
4610.000000;0.459302
4609.000000;0.458569
4608.000000;0.458396
4607.000000;0.459189
4606.000000;0.460388
4605.000000;0.461069
4604.000000;0.461233
4603.000000;0.461816
4602.000000;0.463270
4601.000000;0.464671
4600.000000;0.464665
4599.000000;0.463114
4598.000000;0.461388
4597.000000;0.461011
4596.000000;0.462309
4595.000000;0.464381
4594.000000;0.466100
4593.000000;0.467012
4592.000000;0.467450
4591.000000;0.468026
4590.000000;0.469023
4589.000000;0.470117
4588.000000;0.470652
4587.000000;0.470262
4586.000000;0.469297
4585.000000;0.468553
4584.000000;0.468608
4583.000000;0.469481
4582.000000;0.470813
4581.000000;0.472137
4580.000000;0.473011
4579.000000;0.473240
4578.000000;0.473124
4577.000000;0.473236
4576.000000;0.473733
4575.000000;0.474111
4574.000000;0.473884
4573.000000;0.473305
4572.000000;0.473095
4571.000000;0.473628
4570.000000;0.474656
4569.000000;0.475713
4568.000000;0.476440
4567.000000;0.476580
4566.000000;0.476111
4565.000000;0.475422
4564.000000;0.475034
4563.000000;0.475119
4562.000000;0.475526
4561.000000;0.476214
4560.000000;0.477293
4559.000000;0.478583
4558.000000;0.479518
4557.000000;0.479639
4556.000000;0.479004
4555.000000;0.478023
4554.000000;0.477098
4553.000000;0.476540
4552.000000;0.476487
4551.000000;0.476783
4550.000000;0.477203
4549.000000;0.477837
4548.000000;0.478908
4547.000000;0.480163
4546.000000;0.480903
4545.000000;0.480808
4544.000000;0.480327
4543.000000;0.480011
4542.000000;0.479835
4541.000000;0.479509
4540.000000;0.479080
4539.000000;0.478764
4538.000000;0.478442
4537.000000;0.477903
4536.000000;0.477504
4535.000000;0.477980
4534.000000;0.479434
4533.000000;0.480943
4532.000000;0.481519
4531.000000;0.481209
4530.000000;0.480916
4529.000000;0.481211
4528.000000;0.481730
4527.000000;0.481822
4526.000000;0.481393
4525.000000;0.480829
4524.000000;0.480335
4523.000000;0.479811
4522.000000;0.479377
4521.000000;0.479468
4520.000000;0.480220
4519.000000;0.481167
4518.000000;0.481872
4517.000000;0.482448
4516.000000;0.483056
4515.000000;0.483291
4514.000000;0.482707
4513.000000;0.481672
4512.000000;0.480965
4511.000000;0.480721
4510.000000;0.480513
4509.000000;0.480423
4508.000000;0.481100
4507.000000;0.482608
4506.000000;0.484086
4505.000000;0.484893
4504.000000;0.485266
4503.000000;0.485425
4502.000000;0.484904
4501.000000;0.483479
4500.000000;0.481986
4499.000000;0.481352
4498.000000;0.481362
4497.000000;0.481233
4496.000000;0.480993
4495.000000;0.481335
4494.000000;0.482316
4493.000000;0.483187
4492.000000;0.483545
4491.000000;0.483705
4490.000000;0.483774
4489.000000;0.483273
4488.000000;0.482084
4487.000000;0.481125
4486.000000;0.481526
4485.000000;0.483352
4484.000000;0.485449
4483.000000;0.486404
4482.000000;0.485591
4481.000000;0.483498
4480.000000;0.481267
4479.000000;0.479894
4478.000000;0.479724
4477.000000;0.480578
4476.000000;0.482061
4475.000000;0.483575
4474.000000;0.484452
4473.000000;0.484586
4472.000000;0.484725
4471.000000;0.485558
4470.000000;0.486587
4469.000000;0.486527
4468.000000;0.484938
4467.000000;0.482863
4466.000000;0.481633
4465.000000;0.481653
4464.000000;0.482570
4463.000000;0.483912
4462.000000;0.485125
4461.000000;0.485517
4460.000000;0.484920
4459.000000;0.484209
4458.000000;0.484503
4457.000000;0.485800
4456.000000;0.486862
4455.000000;0.486590
4454.000000;0.485213
4453.000000;0.483864
4452.000000;0.483302
4451.000000;0.483324
4450.000000;0.483329
4449.000000;0.483121
4448.000000;0.483011
4447.000000;0.483314
4446.000000;0.484057
4445.000000;0.485221
4444.000000;0.486883
4443.000000;0.488811
4442.000000;0.490191
4441.000000;0.490198
4440.000000;0.488845
4439.000000;0.486925
4438.000000;0.485080
4437.000000;0.483345
4436.000000;0.481725
4435.000000;0.480785
4434.000000;0.481231
4433.000000;0.482974
4432.000000;0.484981
4431.000000;0.486189
4430.000000;0.486274
4429.000000;0.485532
4428.000000;0.484335
4427.000000;0.482871
4426.000000;0.481300
4425.000000;0.479925
4424.000000;0.479056
4423.000000;0.478719
4422.000000;0.478688
4421.000000;0.478823
4420.000000;0.479216
4419.000000;0.479905
4418.000000;0.480574
4417.000000;0.480788
4416.000000;0.480594
4415.000000;0.480622
4414.000000;0.481323
4413.000000;0.482262
4412.000000;0.482389
4411.000000;0.481067
4410.000000;0.478759
4409.000000;0.476647
4408.000000;0.475626
4407.000000;0.475673
4406.000000;0.476121
4405.000000;0.476522
4404.000000;0.477190
4403.000000;0.478667
4402.000000;0.480585
4401.000000;0.481443
4400.000000;0.480006
4399.000000;0.476843
4398.000000;0.473944
4397.000000;0.472772
4396.000000;0.473085
4395.000000;0.473732
4394.000000;0.473991
4393.000000;0.473647
4392.000000;0.472406
4391.000000;0.470293
4390.000000;0.468538
4389.000000;0.468724
4388.000000;0.470466
4387.000000;0.471004
4386.000000;0.468251
4385.000000;0.463750
4384.000000;0.461229
4383.000000;0.462492
4382.000000;0.465763
4381.000000;0.467905
4380.000000;0.467385
4379.000000;0.464786
4378.000000;0.461560
4377.000000;0.459134
4376.000000;0.458396
4375.000000;0.458985
4374.000000;0.459239
4373.000000;0.457833
4372.000000;0.455507
4371.000000;0.454346
4370.000000;0.455338
4369.000000;0.457353
4368.000000;0.458504
4367.000000;0.457854
4366.000000;0.455658
4365.000000;0.452722
4364.000000;0.450079
4363.000000;0.449041
4362.000000;0.450345
4361.000000;0.452676
4360.000000;0.453342
4359.000000;0.451225
4358.000000;0.448289
4357.000000;0.447322
4356.000000;0.448462
4355.000000;0.448724
4354.000000;0.445266
4353.000000;0.438629
4352.000000;0.432171
4351.000000;0.428766
4350.000000;0.428608
4349.000000;0.429612
4348.000000;0.429318
4347.000000;0.426785
4346.000000;0.423088
4345.000000;0.420022
4344.000000;0.418567
4343.000000;0.418650
4342.000000;0.419693
4341.000000;0.420704
4340.000000;0.420323
4339.000000;0.418060
4338.000000;0.415654
4337.000000;0.415811
4336.000000;0.418692
4335.000000;0.420626
4334.000000;0.417784
4333.000000;0.410617
4332.000000;0.403155
4331.000000;0.399023
4330.000000;0.399777
4329.000000;0.405425
4328.000000;0.413842
4327.000000;0.420045
4326.000000;0.419478
4325.000000;0.413371
4324.000000;0.407722
4323.000000;0.406364
4322.000000;0.407809
4321.000000;0.408669
4320.000000;0.407488
4319.000000;0.404240
4318.000000;0.398738
4317.000000;0.392096
4316.000000;0.387941
4315.000000;0.388948
4314.000000;0.392630
4313.000000;0.393334
4312.000000;0.389376
4311.000000;0.385378
4310.000000;0.385862
4309.000000;0.389204
4308.000000;0.389705
4307.000000;0.384855
4306.000000;0.377988
4305.000000;0.373338
4304.000000;0.371444
4303.000000;0.370320
4302.000000;0.369250
4301.000000;0.369561
4300.000000;0.371678
4299.000000;0.373979
4298.000000;0.375619
4297.000000;0.377701
4296.000000;0.380463
4295.000000;0.382449
4294.000000;0.383745
4293.000000;0.386460
4292.000000;0.389728
4291.000000;0.388172
4290.000000;0.379954
4289.000000;0.372240
4288.000000;0.372913
4287.000000;0.380132
4286.000000;0.384705
4285.000000;0.382580
4284.000000;0.378890
4283.000000;0.378584
4282.000000;0.381075
4281.000000;0.385340
4280.000000;0.393171
4279.000000;0.403476
4278.000000;0.408891
4277.000000;0.403878
4276.000000;0.392008
4275.000000;0.380425
4274.000000;0.372835
4273.000000;0.370767
4272.000000;0.375740
4271.000000;0.385818
4270.000000;0.394083
4269.000000;0.397233
4268.000000;0.402941
4267.000000;0.420674
4266.000000;0.446894
4265.000000;0.465778
4264.000000;0.468297
4263.000000;0.462409
4262.000000;0.458600
4261.000000;0.458111
4260.000000;0.459324
4259.000000;0.466094
4258.000000;0.483557
4257.000000;0.509168
4256.000000;0.533236
4255.000000;0.548937
4254.000000;0.558043
4253.000000;0.566569
4252.000000;0.576870
4251.000000;0.587055
4250.000000;0.595660
4249.000000;0.601968
4248.000000;0.605681
4247.000000;0.606943
4246.000000;0.608600
4245.000000;0.616967
4244.000000;0.633905
4243.000000;0.650625
4242.000000;0.655830
4241.000000;0.651889
4240.000000;0.653299
4239.000000;0.666904
4238.000000;0.683453
4237.000000;0.691745
4236.000000;0.694057
4235.000000;0.695031
4234.000000;0.685751
4233.000000;0.658599
4232.000000;0.629789
4231.000000;0.625977
4230.000000;0.656528
4229.000000;0.703940
4228.000000;0.738640
4227.000000;0.752082
4226.000000;0.762660
4225.000000;0.783976
4224.000000;0.806517
4223.000000;0.811688
4222.000000;0.798543
4221.000000;0.783986
4220.000000;0.783786
4219.000000;0.805028
4218.000000;0.847563
4217.000000;0.904266
4216.000000;0.961773
4215.000000;1.006997
4214.000000;1.033348
4213.000000;1.043213
4212.000000;1.042247
4211.000000;1.034416
4210.000000;1.021130
4209.000000;0.998332
4208.000000;0.970998
4207.000000;0.956433
4206.000000;0.965344
4205.000000;0.994932
4204.000000;1.037735
4203.000000;1.088236
4202.000000;1.129100
4201.000000;1.129866
4200.000000;1.089396
4199.000000;1.041761
4198.000000;1.013877
4197.000000;1.008167
4196.000000;1.013197
4195.000000;1.019069
4194.000000;1.026171
4193.000000;1.038284
4192.000000;1.055756
4191.000000;1.078457
4190.000000;1.103487
4189.000000;1.124611
4188.000000;1.133470
4187.000000;1.127611
4186.000000;1.123019
4185.000000;1.144769
4184.000000;1.201019
4183.000000;1.261664
4182.000000;1.261626
4181.000000;1.186850
4180.000000;1.107060
4179.000000;1.068970
4178.000000;1.075240
4177.000000;1.113388
4176.000000;1.168509
4175.000000;1.224986
4174.000000;1.279080
4173.000000;1.349833
4172.000000;1.447242
4171.000000;1.521985
4170.000000;1.485729
4169.000000;1.354403
4168.000000;1.217985
4167.000000;1.122457
4166.000000;1.072650
4165.000000;1.066130
4164.000000;1.105422
4163.000000;1.185755
4162.000000;1.269912
4161.000000;1.301504
4160.000000;1.278796
4159.000000;1.249260
4158.000000;1.239612
4157.000000;1.241273
4156.000000;1.244954
4155.000000;1.267264
4154.000000;1.323408
4153.000000;1.372966
4152.000000;1.369337
4151.000000;1.321406
4150.000000;1.270671
4149.000000;1.274424
4148.000000;1.356219
4147.000000;1.490506
4146.000000;1.592585
4145.000000;1.522895
4144.000000;1.385763
4143.000000;1.330171
4142.000000;1.383596
4141.000000;1.534054
4140.000000;1.700224
4139.000000;1.686463
4138.000000;1.573063
4137.000000;1.502895
4136.000000;1.527507
4135.000000;1.694589
4134.000000;2.019977
4133.000000;2.101620
4132.000000;1.738597
4131.000000;1.508121
4130.000000;1.469285
4129.000000;1.579281
4128.000000;1.737076
4127.000000;1.772607
4126.000000;1.705672
4125.000000;1.673099
4124.000000;1.716075
4123.000000;1.789959
4122.000000;1.856818
4121.000000;2.146772
4120.000000;2.388415
4119.000000;2.071028
4118.000000;1.902998
4117.000000;1.840964
4116.000000;2.006345
4115.000000;2.452691
4114.000000;2.470414
4113.000000;2.010926
4112.000000;1.732374
4111.000000;1.630778
4110.000000;1.786529
4109.000000;2.100735
4108.000000;1.773606
4107.000000;1.654024
4106.000000;1.896103
4105.000000;2.334320
4104.000000;1.814624
4103.000000;1.663208
4102.000000;1.642205
4101.000000;1.617152
4100.000000;1.510278
4099.000000;1.407426
4098.000000;1.417621
4097.000000;1.627800
4096.000000;2.053249
4095.000000;1.873817
4094.000000;1.965273
4093.000000;2.094802
4092.000000;1.721843
4091.000000;1.580558
4090.000000;1.542230
4089.000000;1.545951
4088.000000;1.574739
4087.000000;1.572537
4086.000000;1.512884
4085.000000;1.509736
4084.000000;1.648544
4083.000000;2.067974
4082.000000;2.407047
4081.000000;2.221493
4080.000000;2.646979
4079.000000;2.108443
4078.000000;1.900251
4077.000000;1.853061
4076.000000;1.873199
4075.000000;1.908108
4074.000000;2.244057
4073.000000;2.264235
4072.000000;1.843874
4071.000000;1.734448
4070.000000;1.808713
4069.000000;2.085364
4068.000000;2.185793
4067.000000;2.235850
4066.000000;3.165225
4065.000000;2.386718
4064.000000;2.402497
4063.000000;2.137257
4062.000000;1.780580
4061.000000;1.626787
4060.000000;1.594303
4059.000000;1.648349
4058.000000;1.736658
4057.000000;1.745723
4056.000000;1.740469
4055.000000;1.799689
4054.000000;1.998620
4053.000000;2.357296
4052.000000;2.008129
4051.000000;1.790428
4050.000000;1.795897
4049.000000;1.719227
4048.000000;1.637765
4047.000000;1.711598
4046.000000;2.025658
4045.000000;1.971548
4044.000000;1.718820
4043.000000;1.668111
4042.000000;1.940413
4041.000000;1.984211
4040.000000;1.619483
4039.000000;1.522945
4038.000000;1.611430
4037.000000;1.896471
4036.000000;2.777509
4035.000000;1.927975
4034.000000;1.769531
4033.000000;1.723513
4032.000000;1.749117
4031.000000;1.853444
4030.000000;2.107442
4029.000000;2.055842
4028.000000;1.726320
4027.000000;1.683744
4026.000000;1.893122
4025.000000;2.256129
4024.000000;2.297057
4023.000000;2.872881
4022.000000;2.403809
4021.000000;1.812799
4020.000000;1.623343
4019.000000;1.610983
4018.000000;1.898076
4017.000000;2.011431
4016.000000;1.770945
4015.000000;1.753679
4014.000000;2.205421
4013.000000;1.894599
4012.000000;1.590433
4011.000000;1.568717
4010.000000;1.702345
4009.000000;1.913775
4008.000000;2.195359
4007.000000;1.977504
4006.000000;1.756814
4005.000000;1.712880
4004.000000;1.769493
4003.000000;1.913211
4002.000000;1.992626
4001.000000;1.856665
4000.000000;2.076567
3999.000000;2.461082
3998.000000;1.808696
3997.000000;1.591381
3996.000000;1.537195
3995.000000;1.658560
3994.000000;1.981771
3993.000000;2.072899
3992.000000;1.940266
3991.000000;1.895062
3990.000000;1.901091
3989.000000;2.073422
3988.000000;1.866769
3987.000000;1.660222
3986.000000;1.617254
3985.000000;1.658078
3984.000000;1.751913
3983.000000;1.909475
3982.000000;1.978905
3981.000000;1.981679
3980.000000;2.170658
3979.000000;2.104353
3978.000000;1.908091
3977.000000;1.915352
3976.000000;1.982288
3975.000000;1.952167
3974.000000;2.165587
3973.000000;2.328528
3972.000000;1.827551
3971.000000;1.717130
3970.000000;1.767824
3969.000000;1.942035
3968.000000;2.127162
3967.000000;1.982758
3966.000000;1.780342
3965.000000;1.757908
3964.000000;1.887693
3963.000000;1.863184
3962.000000;1.663461
3961.000000;1.563159
3960.000000;1.564423
3959.000000;1.623408
3958.000000;1.643138
3957.000000;1.601885
3956.000000;1.564178
3955.000000;1.557222
3954.000000;1.599380
3953.000000;1.652448
3952.000000;1.614805
3951.000000;1.567392
3950.000000;1.705301
3949.000000;2.141636
3948.000000;1.931772
3947.000000;1.984027
3946.000000;2.483812
3945.000000;2.139726
3944.000000;1.807620
3943.000000;1.642200
3942.000000;1.579862
3941.000000;1.622422
3940.000000;1.631367
3939.000000;1.576004
3938.000000;1.598768
3937.000000;1.801935
3936.000000;2.333416
3935.000000;2.166294
3934.000000;1.894646
3933.000000;1.760624
3932.000000;1.734851
3931.000000;1.905332
3930.000000;2.166149
3929.000000;2.104951
3928.000000;2.107930
3927.000000;2.080997
3926.000000;1.979108
3925.000000;1.923927
3924.000000;1.940532
3923.000000;2.020996
3922.000000;2.110770
3921.000000;2.126864
3920.000000;2.114744
3919.000000;2.115298
3918.000000;2.085748
3917.000000;1.995393
3916.000000;1.865554
3915.000000;1.767342
3914.000000;1.711194
3913.000000;1.653977
3912.000000;1.621966
3911.000000;1.698639
3910.000000;1.924122
3909.000000;2.005087
3908.000000;1.865315
3907.000000;1.770627
3906.000000;1.757900
3905.000000;1.811684
3904.000000;1.901539
3903.000000;2.026686
3902.000000;2.198764
3901.000000;2.452561
3900.000000;2.487332
3899.000000;2.228197
3898.000000;2.189535
3897.000000;2.172569
3896.000000;2.212555
3895.000000;2.293585
3894.000000;2.184332
3893.000000;2.131184
3892.000000;2.265020
3891.000000;2.359949
3890.000000;2.236221
3889.000000;2.226147
3888.000000;2.214463
3887.000000;2.163213
3886.000000;2.385609
3885.000000;2.700315
3884.000000;2.424542
3883.000000;2.398732
3882.000000;2.335494
3881.000000;2.270033
3880.000000;2.234922
3879.000000;2.184204
3878.000000;2.130820
3877.000000;2.006614
3876.000000;1.848979
3875.000000;1.758965
3874.000000;1.843291
3873.000000;2.042198
3872.000000;2.115899
3871.000000;2.002876
3870.000000;1.889404
3869.000000;1.971462
3868.000000;2.204524
3867.000000;2.354329
3866.000000;2.275063
3865.000000;2.049700
3864.000000;1.901789
3863.000000;1.942129
3862.000000;2.113098
3861.000000;2.640498
3860.000000;3.000551
3859.000000;2.645175
3858.000000;2.788159
3857.000000;2.645490
3856.000000;2.635155
3855.000000;2.696820
3854.000000;2.812542
3853.000000;2.904322
3852.000000;2.841245
3851.000000;2.701157
3850.000000;2.476154
3849.000000;2.251834
3848.000000;2.106056
3847.000000;2.063670
3846.000000;2.107012
3845.000000;2.186261
3844.000000;2.503267
3843.000000;2.516196
3842.000000;2.314866
3841.000000;2.359062
3840.000000;2.415395
3839.000000;2.466202
3838.000000;2.490383
3837.000000;2.548893
3836.000000;2.687053
3835.000000;2.860864
3834.000000;2.786088
3833.000000;2.557681
3832.000000;2.397822
3831.000000;2.159546
3830.000000;1.970510
3829.000000;1.883060
3828.000000;1.871140
3827.000000;2.071005
3826.000000;2.407565
3825.000000;2.363953
3824.000000;2.688264
3823.000000;3.012547
3822.000000;2.526298
3821.000000;2.402338
3820.000000;2.567158
3819.000000;2.876763
3818.000000;3.023286
3817.000000;2.825678
3816.000000;2.604177
3815.000000;2.353887
3814.000000;2.244593
3813.000000;2.378581
3812.000000;2.467820
3811.000000;1.911764
3810.000000;1.787795
3809.000000;1.873626
3808.000000;2.125884
3807.000000;2.150744
3806.000000;2.007748
3805.000000;2.144659
3804.000000;2.294119
3803.000000;2.379156
3802.000000;2.662064
3801.000000;2.567567
3800.000000;2.495133
3799.000000;2.644584
3798.000000;2.441413
3797.000000;1.966079
3796.000000;1.625931
3795.000000;1.539606
3794.000000;1.645565
3793.000000;1.898144
3792.000000;2.525213
3791.000000;2.521415
3790.000000;2.082250
3789.000000;1.804550
3788.000000;1.706879
3787.000000;1.728800
3786.000000;1.839147
3785.000000;1.758068
3784.000000;1.629190
3783.000000;1.729388
3782.000000;2.047457
3781.000000;2.118629
3780.000000;1.852824
3779.000000;1.833705
3778.000000;2.002231
3777.000000;2.543088
3776.000000;2.051604
3775.000000;1.701566
3774.000000;1.675620
3773.000000;1.798883
3772.000000;1.968251
3771.000000;2.061349
3770.000000;2.088284
3769.000000;2.154733
3768.000000;2.308930
3767.000000;2.478676
3766.000000;2.433902
3765.000000;2.263188
3764.000000;2.252979
3763.000000;2.206125
3762.000000;2.089695
3761.000000;2.047557
3760.000000;2.151590
3759.000000;2.227960
3758.000000;2.135044
3757.000000;2.131422
3756.000000;2.264902
3755.000000;2.615879
3754.000000;2.848180
3753.000000;2.656583
3752.000000;2.672396
3751.000000;2.847417
3750.000000;2.971098
3749.000000;3.021209
3748.000000;3.189185
3747.000000;3.502721
3746.000000;3.300956
3745.000000;2.752414
3744.000000;2.659566
3743.000000;2.524697
3742.000000;2.455670
3741.000000;2.383616
3740.000000;2.378303
3739.000000;2.455911
3738.000000;2.482068
3737.000000;2.425690
3736.000000;2.354376
3735.000000;2.320848
3734.000000;2.295818
3733.000000;2.253354
3732.000000;2.233989
3731.000000;2.250566
3730.000000;2.249683
3729.000000;2.388677
3728.000000;2.596707
3727.000000;2.194404
3726.000000;1.981825
3725.000000;1.977505
3724.000000;2.003371
3723.000000;1.930425
3722.000000;1.799936
3721.000000;1.794580
3720.000000;1.945839
3719.000000;2.408430
3718.000000;2.168203
3717.000000;1.867900
3716.000000;1.873933
3715.000000;2.060878
3714.000000;2.293381
3713.000000;2.392821
3712.000000;2.750055
3711.000000;2.623205
3710.000000;2.291909
3709.000000;2.201164
3708.000000;2.269363
3707.000000;2.613308
3706.000000;2.279985
3705.000000;1.817596
3704.000000;1.602198
3703.000000;1.531299
3702.000000;1.587433
3701.000000;1.717921
3700.000000;1.803553
3699.000000;1.780532
3698.000000;1.706740
3697.000000;1.671567
3696.000000;1.762680
3695.000000;1.977790
3694.000000;2.220795
3693.000000;2.301969
3692.000000;2.375563
3691.000000;2.465575
3690.000000;2.529827
3689.000000;2.696225
3688.000000;3.059277
3687.000000;3.004570
3686.000000;2.814714
3685.000000;2.758579
3684.000000;3.060501
3683.000000;2.193887
3682.000000;2.055904
3681.000000;1.937133
3680.000000;1.822317
3679.000000;1.974735
3678.000000;2.288679
3677.000000;2.526804
3676.000000;2.659626
3675.000000;2.719496
3674.000000;2.837124
3673.000000;3.023462
3672.000000;2.902285
3671.000000;2.624713
3670.000000;2.508977
3669.000000;2.546179
3668.000000;2.290357
3667.000000;1.963246
3666.000000;1.709902
3665.000000;1.558676
3664.000000;1.486616
3663.000000;1.425071
3662.000000;1.397684
3661.000000;1.487250
3660.000000;1.714904
3659.000000;1.986166
3658.000000;2.328444
3657.000000;2.412007
3656.000000;1.985714
3655.000000;1.988979
3654.000000;2.160994
3653.000000;2.331884
3652.000000;2.448957
3651.000000;2.589491
3650.000000;2.768457
3649.000000;2.807987
3648.000000;2.631095
3647.000000;2.425117
3646.000000;2.253030
3645.000000;2.075945
3644.000000;1.873653
3643.000000;1.722361
3642.000000;1.738424
3641.000000;2.079535
3640.000000;2.083270
3639.000000;1.904287
3638.000000;1.828776
3637.000000;1.813066
3636.000000;1.939333
3635.000000;2.504754
3634.000000;2.415090
3633.000000;2.196599
3632.000000;2.195970
3631.000000;2.245849
3630.000000;2.292670
3629.000000;2.467195
3628.000000;2.632339
3627.000000;2.491116
3626.000000;2.410484
3625.000000;2.429962
3624.000000;2.669787
3623.000000;2.529064
3622.000000;2.270613
3621.000000;2.084575
3620.000000;1.957789
3619.000000;1.902118
3618.000000;1.923743
3617.000000;1.969880
3616.000000;1.992098
3615.000000;2.027740
3614.000000;2.170412
3613.000000;2.351864
3612.000000;2.476699
3611.000000;2.379501
3610.000000;2.181590
3609.000000;2.023085
3608.000000;1.949990
3607.000000;1.958857
3606.000000;1.961719
3605.000000;1.856946
3604.000000;1.678267
3603.000000;1.557495
3602.000000;1.545081
3601.000000;1.613985
3600.000000;1.701311
3599.000000;1.786761
3598.000000;1.905975
3597.000000;2.193924
3596.000000;2.767204
3595.000000;3.034658
3594.000000;2.616713
3593.000000;2.180062
3592.000000;2.246863
3591.000000;2.239542
3590.000000;2.144099
3589.000000;2.120164
3588.000000;1.840669
3587.000000;1.676923
3586.000000;1.745274
3585.000000;1.998775
3584.000000;2.297702
3583.000000;1.900801
3582.000000;1.681972
3581.000000;1.652285
3580.000000;1.720178
3579.000000;1.842371
3578.000000;1.995492
3577.000000;2.036607
3576.000000;1.872064
3575.000000;1.789097
3574.000000;1.814526
3573.000000;2.001446
3572.000000;2.315804
3571.000000;2.210490
3570.000000;2.028079
3569.000000;1.945372
3568.000000;2.089413
3567.000000;2.343849
3566.000000;2.504546
3565.000000;2.788157
3564.000000;2.268034
3563.000000;1.984174
3562.000000;1.842691
3561.000000;1.781657
3560.000000;1.864951
3559.000000;2.142890
3558.000000;1.983647
3557.000000;1.791039
3556.000000;1.763595
3555.000000;1.815935
3554.000000;1.957462
3553.000000;2.025183
3552.000000;1.915872
3551.000000;1.944615
3550.000000;2.093827
3549.000000;2.225600
3548.000000;2.140088
3547.000000;2.022088
3546.000000;2.117057
3545.000000;1.798028
3544.000000;1.518106
3543.000000;1.435417
3542.000000;1.449785
3541.000000;1.510836
3540.000000;1.576400
3539.000000;1.570214
3538.000000;1.494931
3537.000000;1.485886
3536.000000;1.674585
3535.000000;1.920645
3534.000000;1.719442
3533.000000;1.611510
3532.000000;1.623375
3531.000000;1.569140
3530.000000;1.465371
3529.000000;1.436162
3528.000000;1.535746
3527.000000;1.956770
3526.000000;2.116071
3525.000000;1.749478
3524.000000;1.741178
3523.000000;1.993489
3522.000000;1.898872
3521.000000;1.442228
3520.000000;1.298524
3519.000000;1.308109
3518.000000;1.473477
3517.000000;1.667273
3516.000000;1.572111
3515.000000;1.535443
3514.000000;1.692000
3513.000000;1.890884
3512.000000;1.812842
3511.000000;1.679729
3510.000000;1.592509
3509.000000;1.525324
3508.000000;1.543104
3507.000000;1.671493
3506.000000;2.252852
3505.000000;2.063355
3504.000000;1.701453
3503.000000;1.600536
3502.000000;1.583221
3501.000000;1.718987
3500.000000;1.890902
3499.000000;1.742180
3498.000000;1.727136
3497.000000;2.139370
3496.000000;1.711193
3495.000000;1.380550
3494.000000;1.275916
3493.000000;1.314717
3492.000000;1.517005
3491.000000;1.795711
3490.000000;1.632399
3489.000000;1.543737
3488.000000;1.686734
3487.000000;2.193537
3486.000000;1.928407
3485.000000;1.549181
3484.000000;1.426327
3483.000000;1.387773
3482.000000;1.450693
3481.000000;1.695968
3480.000000;1.707105
3479.000000;1.453919
3478.000000;1.362243
3477.000000;1.358273
3476.000000;1.385847
3475.000000;1.459289
3474.000000;1.616496
3473.000000;1.793732
3472.000000;1.807153
3471.000000;1.750306
3470.000000;1.608836
3469.000000;1.476056
3468.000000;1.370570
3467.000000;1.282109
3466.000000;1.309710
3465.000000;1.510870
3464.000000;1.870801
3463.000000;1.859721
3462.000000;1.616547
3461.000000;1.497618
3460.000000;1.458621
3459.000000;1.439433
3458.000000;1.395556
3457.000000;1.382173
3456.000000;1.439976
3455.000000;1.538308
3454.000000;1.597338
3453.000000;1.636439
3452.000000;1.736501
3451.000000;1.834777
3450.000000;1.709451
3449.000000;1.618967
3448.000000;1.716663
3447.000000;2.112027
3446.000000;1.914379
3445.000000;1.888459
3444.000000;2.125039
3443.000000;2.864654
3442.000000;2.023394
3441.000000;1.646208
3440.000000;1.498017
3439.000000;1.546468
3438.000000;1.867345
3437.000000;1.994270
3436.000000;1.945750
3435.000000;1.932055
3434.000000;1.632102
3433.000000;1.661489
3432.000000;1.793003
3431.000000;2.057012
3430.000000;2.114603
3429.000000;1.984864
3428.000000;2.128712
3427.000000;2.085080
3426.000000;1.824476
3425.000000;1.633593
3424.000000;1.547129
3423.000000;1.587631
3422.000000;1.784482
3421.000000;2.129173
3420.000000;2.344947
3419.000000;2.095526
3418.000000;1.940363
3417.000000;1.851963
3416.000000;1.726711
3415.000000;1.593444
3414.000000;1.531545
3413.000000;1.593726
3412.000000;1.759832
3411.000000;1.888971
3410.000000;1.912731
3409.000000;1.905120
3408.000000;2.002277
3407.000000;1.959237
3406.000000;1.640812
3405.000000;1.461355
3404.000000;1.404731
3403.000000;1.436039
3402.000000;1.410964
3401.000000;1.344333
3400.000000;1.376939
3399.000000;1.535655
3398.000000;1.770007
3397.000000;1.829354
3396.000000;1.748992
3395.000000;1.652477
3394.000000;1.545495
3393.000000;1.480674
3392.000000;1.486849
3391.000000;1.585656
3390.000000;1.819708
3389.000000;2.319103
3388.000000;1.974862
3387.000000;1.756291
3386.000000;1.618779
3385.000000;1.499172
3384.000000;1.453963
3383.000000;1.543122
3382.000000;1.904797
3381.000000;2.163994
3380.000000;1.952186
3379.000000;2.032984
3378.000000;1.675637
3377.000000;1.456823
3376.000000;1.387467
3375.000000;1.452818
3374.000000;1.664894
3373.000000;1.998020
3372.000000;2.024201
3371.000000;1.914457
3370.000000;1.921075
3369.000000;1.965912
3368.000000;1.953143
3367.000000;1.813479
3366.000000;1.612693
3365.000000;1.486586
3364.000000;1.483091
3363.000000;1.622471
3362.000000;1.975971
3361.000000;2.678787
3360.000000;1.901725
3359.000000;1.676779
3358.000000;1.529271
3357.000000;1.442942
3356.000000;1.407545
3355.000000;1.465410
3354.000000;1.605176
3353.000000;1.638256
3352.000000;1.586126
3351.000000;1.565067
3350.000000;1.481968
3349.000000;1.403062
3348.000000;1.413408
3347.000000;1.539377
3346.000000;1.753733
3345.000000;1.892691
3344.000000;1.831880
3343.000000;1.755961
3342.000000;1.812392
3341.000000;1.834006
3340.000000;1.760430
3339.000000;1.989644
3338.000000;2.024173
3337.000000;1.777289
3336.000000;1.871230
3335.000000;2.084288
3334.000000;1.886256
3333.000000;1.947283
3332.000000;2.404675
3331.000000;2.226618
3330.000000;1.896213
3329.000000;1.825677
3328.000000;1.873652
3327.000000;1.844673
3326.000000;1.770630
3325.000000;1.794551
3324.000000;1.664546
3323.000000;1.458774
3322.000000;1.364847
3321.000000;1.337276
3320.000000;1.357739
3319.000000;1.444899
3318.000000;1.611224
3317.000000;1.729357
3316.000000;1.746401
3315.000000;1.745280
3314.000000;1.717395
3313.000000;1.761318
3312.000000;1.958795
3311.000000;2.114603
3310.000000;1.966232
3309.000000;1.896873
3308.000000;1.708143
3307.000000;1.540727
3306.000000;1.507755
3305.000000;1.580822
3304.000000;1.680208
3303.000000;1.854212
3302.000000;2.140163
3301.000000;1.714139
3300.000000;1.473242
3299.000000;1.413785
3298.000000;1.433517
3297.000000;1.486748
3296.000000;1.526587
3295.000000;1.568745
3294.000000;1.815923
3293.000000;1.982713
3292.000000;1.796422
3291.000000;1.873733
3290.000000;1.602840
3289.000000;1.404930
3288.000000;1.454919
3287.000000;1.835262
3286.000000;2.235191
3285.000000;1.943573
3284.000000;2.034250
3283.000000;1.806143
3282.000000;1.574205
3281.000000;1.495505
3280.000000;1.537578
3279.000000;1.648887
3278.000000;1.705769
3277.000000;1.642506
3276.000000;1.660560
3275.000000;1.774516
3274.000000;1.458912
3273.000000;1.192649
3272.000000;1.134625
3271.000000;1.242110
3270.000000;1.662865
3269.000000;1.774472
3268.000000;1.470641
3267.000000;1.479752
3266.000000;1.608015
3265.000000;2.068812
3264.000000;1.520458
3263.000000;1.277931
3262.000000;1.305157
3261.000000;1.671589
3260.000000;1.804753
3259.000000;1.439059
3258.000000;1.434373
3257.000000;1.705425
3256.000000;1.787552
3255.000000;1.592325
3254.000000;1.545706
3253.000000;1.549620
3252.000000;1.592873
3251.000000;1.725786
3250.000000;1.793359
3249.000000;1.814787
3248.000000;2.126358
3247.000000;1.664110
3246.000000;1.370790
3245.000000;1.337538
3244.000000;1.438667
3243.000000;1.599132
3242.000000;1.632858
3241.000000;1.584443
3240.000000;1.585681
3239.000000;1.579889
3238.000000;1.591587
3237.000000;1.702671
3236.000000;2.029784
3235.000000;1.905026
3234.000000;1.562795
3233.000000;1.371507
3232.000000;1.345242
3231.000000;1.508889
3230.000000;2.608653
3229.000000;1.585582
3228.000000;1.474575
3227.000000;1.555617
3226.000000;1.575478
3225.000000;1.671527
3224.000000;1.978176
3223.000000;1.706226
3222.000000;1.491607
3221.000000;1.452305
3220.000000;1.641207
3219.000000;1.845242
3218.000000;2.151559
3217.000000;1.987216
3216.000000;1.432503
3215.000000;1.352022
3214.000000;1.439204
3213.000000;1.571987
3212.000000;1.458663
3211.000000;1.376195
3210.000000;1.451439
3209.000000;1.730977
3208.000000;1.920996
3207.000000;1.704771
3206.000000;1.542421
3205.000000;1.556975
3204.000000;1.741263
3203.000000;1.647274
3202.000000;1.608191
3201.000000;1.827966
3200.000000;1.779498
3199.000000;1.538182
3198.000000;1.515837
3197.000000;1.683682
3196.000000;1.773820
3195.000000;1.453721
3194.000000;1.279109
3193.000000;1.256626
3192.000000;1.461425
3191.000000;1.968512
3190.000000;1.778562
3189.000000;1.546422
3188.000000;1.577083
3187.000000;1.679104
3186.000000;2.272966
3185.000000;2.292804
3184.000000;1.818753
3183.000000;1.802396
3182.000000;1.990868
3181.000000;2.348970
3180.000000;2.040296
3179.000000;1.702580
3178.000000;1.532837
3177.000000;1.483880
3176.000000;1.486615
3175.000000;1.549384
3174.000000;1.671608
3173.000000;1.680375
3172.000000;1.523885
3171.000000;1.418519
3170.000000;1.451279
3169.000000;1.781705
3168.000000;1.993666
3167.000000;1.410860
3166.000000;1.299784
3165.000000;1.306169
3164.000000;1.405353
3163.000000;1.491629
3162.000000;1.667694
3161.000000;1.733786
3160.000000;1.510512
3159.000000;1.399540
3158.000000;1.391789
3157.000000;1.431521
3156.000000;1.467358
3155.000000;1.487662
3154.000000;1.507895
3153.000000;1.585702
3152.000000;1.718242
3151.000000;2.383406
3150.000000;1.757711
3149.000000;1.437466
3148.000000;1.206640
3147.000000;1.077533
3146.000000;1.092975
3145.000000;1.249072
3144.000000;1.516778
3143.000000;1.798044
3142.000000;1.801910
3141.000000;1.559521
3140.000000;1.357370
3139.000000;1.250661
3138.000000;1.260002
3137.000000;1.402004
3136.000000;1.648494
3135.000000;1.774363
3134.000000;1.711762
3133.000000;1.733101
3132.000000;2.061837
3131.000000;1.880529
3130.000000;1.624788
3129.000000;1.624879
3128.000000;1.704338
3127.000000;1.748640
3126.000000;1.671208
3125.000000;1.631380
3124.000000;1.673496
3123.000000;1.727200
3122.000000;1.684457
3121.000000;1.447321
3120.000000;1.297081
3119.000000;1.266564
3118.000000;1.301864
3117.000000;1.347886
3116.000000;1.409796
3115.000000;1.546935
3114.000000;1.734248
3113.000000;1.809982
3112.000000;1.916154
3111.000000;2.052737
3110.000000;1.894739
3109.000000;1.639617
3108.000000;1.507214
3107.000000;1.463590
3106.000000;1.439664
3105.000000;1.407728
3104.000000;1.410151
3103.000000;1.476139
3102.000000;1.566469
3101.000000;1.697925
3100.000000;1.880793
3099.000000;1.635652
3098.000000;1.474210
3097.000000;1.487483
3096.000000;1.615925
3095.000000;1.848329
3094.000000;2.102171
3093.000000;1.732970
3092.000000;1.586616
3091.000000;1.643492
3090.000000;1.841484
3089.000000;2.065789
3088.000000;2.022689
3087.000000;1.774072
3086.000000;1.608233
3085.000000;1.485608
3084.000000;1.434763
3083.000000;1.517651
3082.000000;1.726460
3081.000000;1.739712
3080.000000;1.830280
3079.000000;2.172449
3078.000000;1.872261
3077.000000;1.717890
3076.000000;1.702059
3075.000000;1.617916
3074.000000;1.483716
3073.000000;1.352289
3072.000000;1.283487
3071.000000;1.346061
3070.000000;1.620321
3069.000000;2.344811
3068.000000;1.660736
3067.000000;1.514710
3066.000000;1.515959
3065.000000;1.551061
3064.000000;1.528155
3063.000000;1.483256
3062.000000;1.504125
3061.000000;1.671038
3060.000000;1.916295
3059.000000;1.892981
3058.000000;1.834409
3057.000000;1.712871
3056.000000;1.566960
3055.000000;1.480175
3054.000000;1.480815
3053.000000;1.577308
3052.000000;1.609197
3051.000000;1.572826
3050.000000;1.604772
3049.000000;1.558362
3048.000000;1.490017
3047.000000;1.525052
3046.000000;1.610914
3045.000000;1.664744
3044.000000;1.933900
3043.000000;2.240822
3042.000000;1.831810
3041.000000;1.846228
3040.000000;1.970142
3039.000000;2.012386
3038.000000;2.033535
3037.000000;2.055817
3036.000000;2.148411
3035.000000;2.037870
3034.000000;1.676732
3033.000000;1.484236
3032.000000;1.429365
3031.000000;1.437218
3030.000000;1.478898
3029.000000;1.602360
3028.000000;1.714341
3027.000000;1.643277
3026.000000;1.582229
3025.000000;1.583985
3024.000000;1.510503
3023.000000;1.407456
3022.000000;1.403447
3021.000000;1.627116
3020.000000;1.732517
3019.000000;1.575999
3018.000000;1.632687
3017.000000;1.998779
3016.000000;1.519673
3015.000000;1.308796
3014.000000;1.322562
3013.000000;1.513324
3012.000000;2.009576
3011.000000;1.650123
3010.000000;1.362987
3009.000000;1.378964
3008.000000;1.521808
3007.000000;1.463052
3006.000000;1.459495
3005.000000;1.551652
3004.000000;1.580431
3003.000000;1.524905
3002.000000;1.453527
3001.000000;1.454345
3000.000000;1.433235
2999.000000;1.392094
2998.000000;1.478331
2997.000000;1.598940
2996.000000;1.572123
2995.000000;1.464444
2994.000000;1.364128
2993.000000;1.353190
2992.000000;1.465805
2991.000000;1.649889
2990.000000;1.930986
2989.000000;1.933189
2988.000000;1.647768
2987.000000;1.605420
2986.000000;1.902179
2985.000000;1.642734
2984.000000;1.355491
2983.000000;1.327043
2982.000000;1.459067
2981.000000;1.741637
2980.000000;2.251076
2979.000000;1.934683
2978.000000;1.567627
2977.000000;1.416430
2976.000000;1.365077
2975.000000;1.377713
2974.000000;1.664787
2973.000000;1.928560
2972.000000;1.446962
2971.000000;1.320082
2970.000000;1.355007
2969.000000;1.433987
2968.000000;1.489285
2967.000000;1.564236
2966.000000;1.620786
2965.000000;1.640403
2964.000000;1.604386
2963.000000;1.570332
2962.000000;1.675755
2961.000000;1.718779
2960.000000;1.715342
2959.000000;1.773356
2958.000000;1.736025
2957.000000;1.617211
2956.000000;1.557127
2955.000000;1.681945
2954.000000;1.812568
2953.000000;1.611128
2952.000000;1.676598
2951.000000;1.544713
2950.000000;1.396641
2949.000000;1.507919
2948.000000;1.906608
2947.000000;2.283099
2946.000000;1.709681
2945.000000;1.476328
2944.000000;1.479792
2943.000000;1.697694
2942.000000;2.311210
2941.000000;2.007019
2940.000000;1.707976
2939.000000;2.168667
2938.000000;1.764081
2937.000000;1.376598
2936.000000;1.308838
2935.000000;1.452656
2934.000000;1.544633
2933.000000;1.416727
2932.000000;1.487985
2931.000000;1.835981
2930.000000;1.792731
2929.000000;1.569157
2928.000000;1.513895
2927.000000;1.606851
2926.000000;1.662970
2925.000000;1.531307
2924.000000;1.552880
2923.000000;1.671382
2922.000000;2.160763
2921.000000;2.190363
2920.000000;1.592327
2919.000000;1.548813
2918.000000;1.651449
2917.000000;1.952988
2916.000000;1.854606
2915.000000;1.642375
2914.000000;1.621747
2913.000000;1.689511
2912.000000;1.798965
2911.000000;2.084623
2910.000000;2.535163
2909.000000;2.098327
2908.000000;1.820267
2907.000000;1.697397
2906.000000;1.648321
2905.000000;1.525167
2904.000000;1.433234
2903.000000;1.511628
2902.000000;1.795724
2901.000000;1.865583
2900.000000;1.725045
2899.000000;1.532318
2898.000000;1.373368
2897.000000;1.397135
2896.000000;1.611314
2895.000000;1.810973
2894.000000;1.916072
2893.000000;1.880129
2892.000000;2.217179
2891.000000;2.049938
2890.000000;1.529002
2889.000000;1.466632
2888.000000;1.569983
2887.000000;2.090432
2886.000000;1.849543
2885.000000;1.593130
2884.000000;1.728131
2883.000000;1.687369
2882.000000;1.367341
2881.000000;1.261484
2880.000000;1.311476
2879.000000;1.413738
2878.000000;1.449262
2877.000000;1.392000
2876.000000;1.354870
2875.000000;1.351592
2874.000000;1.337895
2873.000000;1.373945
2872.000000;1.549819
2871.000000;1.804710
2870.000000;1.714450
2869.000000;1.625206
2868.000000;1.733462
2867.000000;1.592590
2866.000000;1.325573
2865.000000;1.255676
2864.000000;1.324910
2863.000000;1.594734
2862.000000;1.904948
2861.000000;1.749449
2860.000000;1.839819
2859.000000;1.625041
2858.000000;1.394517
2857.000000;1.313560
2856.000000;1.224668
2855.000000;1.156398
2854.000000;1.142605
2853.000000;1.112932
2852.000000;1.039504
2851.000000;1.000831
2850.000000;1.039409
2849.000000;1.176411
2848.000000;1.538842
2847.000000;2.472007
2846.000000;1.572744
2845.000000;1.524765
2844.000000;1.401726
2843.000000;1.238491
2842.000000;1.149238
2841.000000;1.157742
2840.000000;1.421459
2839.000000;1.475616
2838.000000;1.170507
2837.000000;1.132435
2836.000000;1.516685
2835.000000;1.710674
2834.000000;1.286811
2833.000000;1.272671
2832.000000;1.481128
2831.000000;1.501615
2830.000000;1.421218
2829.000000;1.534862
2828.000000;2.543129
2827.000000;1.630705
2826.000000;1.324023
2825.000000;1.207928
2824.000000;1.193535
2823.000000;1.309859
2822.000000;1.692676
2821.000000;2.306570
2820.000000;1.882674
2819.000000;2.038611
2818.000000;1.709358
2817.000000;1.745446
2816.000000;1.747032
2815.000000;1.463822
2814.000000;1.324448
2813.000000;1.280469
2812.000000;1.284150
2811.000000;1.359239
2810.000000;1.539481
2809.000000;1.543592
2808.000000;1.423140
2807.000000;1.402724
2806.000000;1.439892
2805.000000;1.533383
2804.000000;1.695648
2803.000000;1.869500
2802.000000;1.851043
2801.000000;1.661739
2800.000000;1.587089
2799.000000;1.717456
2798.000000;1.571713
2797.000000;1.340776
2796.000000;1.316133
2795.000000;1.559390
2794.000000;2.408163
2793.000000;1.712803
2792.000000;1.657909
2791.000000;1.520935
2790.000000;1.351341
2789.000000;1.279532
2788.000000;1.307708
2787.000000;1.395441
2786.000000;1.543029
2785.000000;1.744215
2784.000000;2.130058
2783.000000;1.764970
2782.000000;1.376925
2781.000000;1.322208
2780.000000;1.433510
2779.000000;2.115399
2778.000000;1.701683
2777.000000;1.367243
2776.000000;1.352035
2775.000000;1.523744
2774.000000;1.696669
2773.000000;1.623970
2772.000000;1.769227
2771.000000;2.337361
2770.000000;2.211738
2769.000000;1.751908
2768.000000;1.606371
2767.000000;1.648580
2766.000000;1.727179
2765.000000;1.718071
2764.000000;1.768038
2763.000000;1.864108
2762.000000;1.756202
2761.000000;1.499104
2760.000000;1.330799
2759.000000;1.297961
2758.000000;1.678061
2757.000000;1.967929
2756.000000;1.445811
2755.000000;1.345977
2754.000000;1.309180
2753.000000;1.355074
2752.000000;1.493529
2751.000000;2.109964
2750.000000;1.882547
2749.000000;1.656184
2748.000000;1.682363
2747.000000;1.574702
2746.000000;1.493170
2745.000000;1.528770
2744.000000;1.680304
2743.000000;1.930901
2742.000000;2.028591
2741.000000;1.962321
2740.000000;1.952331
2739.000000;1.777252
2738.000000;1.413872
2737.000000;1.228424
2736.000000;1.190086
2735.000000;1.252577
2734.000000;1.367485
2733.000000;1.530041
2732.000000;1.491128
2731.000000;1.289844
2730.000000;1.192093
2729.000000;1.145375
2728.000000;1.078905
2727.000000;0.989917
2726.000000;0.944962
2725.000000;0.995409
2724.000000;1.167702
2723.000000;1.461944
2722.000000;1.562783
2721.000000;1.557136
2720.000000;1.693830
2719.000000;2.289342
2718.000000;1.822580
2717.000000;1.511676
2716.000000;1.417460
2715.000000;1.443917
2714.000000;1.553118
2713.000000;1.613716
2712.000000;1.504165
2711.000000;1.390467
2710.000000;1.285248
2709.000000;1.199490
2708.000000;1.196711
2707.000000;1.299900
2706.000000;1.697980
2705.000000;2.048128
2704.000000;1.650248
2703.000000;1.751015
2702.000000;1.997095
2701.000000;1.909662
2700.000000;1.461672
2699.000000;1.235737
2698.000000;1.230418
2697.000000;1.543521
2696.000000;1.740013
2695.000000;1.555856
2694.000000;1.818054
2693.000000;2.059059
2692.000000;1.618931
2691.000000;1.544687
2690.000000;1.631168
2689.000000;1.762031
2688.000000;1.659001
2687.000000;1.560525
2686.000000;1.707897
2685.000000;2.284038
2684.000000;2.498344
2683.000000;1.953224
2682.000000;1.588227
2681.000000;1.604072
2680.000000;1.761235
2679.000000;1.954190
2678.000000;2.075503
2677.000000;1.773990
2676.000000;1.580473
2675.000000;2.024845
2674.000000;1.829469
2673.000000;1.298348
2672.000000;1.194674
2671.000000;1.294850
2670.000000;1.882031
2669.000000;1.504494
2668.000000;1.293536
2667.000000;1.353270
2666.000000;1.512031
2665.000000;1.624343
2664.000000;1.474608
2663.000000;1.302087
2662.000000;1.258492
2661.000000;1.378834
2660.000000;1.567637
2659.000000;1.603876
2658.000000;1.523317
2657.000000;1.307728
2656.000000;1.260078
2655.000000;1.444448
2654.000000;1.651597
2653.000000;1.540093
2652.000000;1.992002
2651.000000;1.845244
2650.000000;1.388687
2649.000000;1.317299
2648.000000;1.241016
2647.000000;1.197764
2646.000000;1.174914
2645.000000;1.207923
2644.000000;1.339075
2643.000000;1.289664
2642.000000;1.115184
2641.000000;1.087495
2640.000000;1.208720
2639.000000;1.554992
2638.000000;1.496770
2637.000000;1.159091
2636.000000;1.057369
2635.000000;1.101306
2634.000000;1.147852
2633.000000;1.108032
2632.000000;1.139145
2631.000000;1.317222
2630.000000;1.686257
2629.000000;1.576550
2628.000000;1.309977
2627.000000;1.271767
2626.000000;1.546406
2625.000000;1.968290
2624.000000;1.432846
2623.000000;1.295637
2622.000000;1.360556
2621.000000;1.417923
2620.000000;1.294626
2619.000000;1.254759
2618.000000;1.372748
2617.000000;1.681347
2616.000000;1.761535
2615.000000;1.515981
2614.000000;1.346022
2613.000000;1.243607
2612.000000;1.202608
2611.000000;1.222152
2610.000000;1.324371
2609.000000;1.518538
2608.000000;1.389348
2607.000000;1.253748
2606.000000;1.347679
2605.000000;1.422921
2604.000000;1.162851
2603.000000;1.058588
2602.000000;1.073456
2601.000000;1.140294
2600.000000;1.192959
2599.000000;1.255769
2598.000000;1.336165
2597.000000;1.427117
2596.000000;1.485920
2595.000000;1.392434
2594.000000;1.238480
2593.000000;1.130526
2592.000000;1.100781
2591.000000;1.163931
2590.000000;1.284424
2589.000000;1.291502
2588.000000;1.248091
2587.000000;1.283236
2586.000000;1.404209
2585.000000;1.663885
2584.000000;2.306600
2583.000000;1.672879
2582.000000;1.449482
2581.000000;1.385406
2580.000000;1.438186
2579.000000;1.452972
2578.000000;1.315772
2577.000000;1.217836
2576.000000;1.236304
2575.000000;1.355357
2574.000000;1.471145
2573.000000;1.453807
2572.000000;1.856579
2571.000000;1.830219
2570.000000;1.219228
2569.000000;1.078433
2568.000000;1.056943
2567.000000;1.157246
2566.000000;1.275981
2565.000000;1.343915
2564.000000;1.453248
2563.000000;1.511173
2562.000000;1.400379
2561.000000;1.300966
2560.000000;1.225780
2559.000000;1.163831
2558.000000;1.101530
2557.000000;1.036969
2556.000000;1.004749
2555.000000;1.012141
2554.000000;1.050945
2553.000000;1.111073
2552.000000;1.169937
2551.000000;1.221916
2550.000000;1.272481
2549.000000;1.283488
2548.000000;1.277832
2547.000000;1.385462
2546.000000;1.592725
2545.000000;1.612473
2544.000000;1.455737
2543.000000;1.265419
2542.000000;1.143449
2541.000000;1.150189
2540.000000;1.387620
2539.000000;1.817338
2538.000000;1.462089
2537.000000;1.345144
2536.000000;1.522415
2535.000000;1.883614
2534.000000;1.697967
2533.000000;1.434965
2532.000000;1.281134
2531.000000;1.233220
2530.000000;1.281292
2529.000000;1.380820
2528.000000;1.519286
2527.000000;1.524037
2526.000000;1.280698
2525.000000;1.170770
2524.000000;1.224039
2523.000000;1.311639
2522.000000;1.304569
2521.000000;1.345941
2520.000000;1.442689
2519.000000;1.639335
2518.000000;1.974179
2517.000000;1.984541
2516.000000;1.775580
2515.000000;1.869073
2514.000000;1.726310
2513.000000;1.283558
2512.000000;1.062847
2511.000000;1.029575
2510.000000;1.130672
2509.000000;1.281706
2508.000000;1.363631
2507.000000;1.360976
2506.000000;1.306565
2505.000000;1.226940
2504.000000;1.179016
2503.000000;1.203106
2502.000000;1.301981
2501.000000;1.427316
2500.000000;1.489420
2499.000000;1.554435
2498.000000;1.712700
2497.000000;1.814849
2496.000000;1.633557
2495.000000;1.383706
2494.000000;1.292204
2493.000000;1.346225
2492.000000;1.537592
2491.000000;1.938445
2490.000000;1.759656
2489.000000;1.444292
2488.000000;1.443197
2487.000000;1.524022
2486.000000;1.424733
2485.000000;1.348519
2484.000000;1.475232
2483.000000;1.704668
2482.000000;2.230637
2481.000000;1.894498
2480.000000;1.456689
2479.000000;1.323610
2478.000000;1.353290
2477.000000;1.456683
2476.000000;1.723981
2475.000000;1.691594
2474.000000;1.215375
2473.000000;1.089976
2472.000000;1.170643
2471.000000;1.337599
2470.000000;1.232802
2469.000000;1.117539
2468.000000;1.105051
2467.000000;1.176755
2466.000000;1.330005
2465.000000;1.583467
2464.000000;1.870453
2463.000000;1.861944
2462.000000;1.776634
2461.000000;1.680773
2460.000000;1.339493
2459.000000;1.131159
2458.000000;1.122548
2457.000000;1.308552
2456.000000;1.743892
2455.000000;1.380311
2454.000000;1.190900
2453.000000;1.208535
2452.000000;1.233723
2451.000000;1.198802
2450.000000;1.221944
2449.000000;1.412558
2448.000000;2.398308
2447.000000;1.483436
2446.000000;1.304829
2445.000000;1.304671
2444.000000;1.437125
2443.000000;1.619764
2442.000000;1.783740
2441.000000;1.882979
2440.000000;1.724834
2439.000000;1.561227
2438.000000;1.473875
2437.000000;1.463713
2436.000000;1.859199
2435.000000;1.930864
2434.000000;1.534658
2433.000000;1.624156
2432.000000;1.517995
2431.000000;1.349242
2430.000000;1.304775
2429.000000;1.315236
2428.000000;1.291540
2427.000000;1.267356
2426.000000;1.258693
2425.000000;1.267392
2424.000000;1.342481
2423.000000;1.758209
2422.000000;1.557084
2421.000000;1.188198
2420.000000;1.103079
2419.000000;1.181609
2418.000000;1.339263
2417.000000;1.322106
2416.000000;1.224556
2415.000000;1.214608
2414.000000;1.267834
2413.000000;1.292211
2412.000000;1.260514
2411.000000;1.235593
2410.000000;1.220568
2409.000000;1.196458
2408.000000;1.178554
2407.000000;1.219518
2406.000000;1.432418
2405.000000;1.934243
2404.000000;1.631078
2403.000000;1.438183
2402.000000;1.414079
2401.000000;1.335326
2400.000000;1.291645
2399.000000;1.341287
2398.000000;1.351321
2397.000000;1.310414
2396.000000;1.379027
2395.000000;1.535512
2394.000000;1.441744
2393.000000;1.308030
2392.000000;1.346868
2391.000000;1.618374
2390.000000;1.934776
2389.000000;1.642255
2388.000000;1.638382
2387.000000;1.587669
2386.000000;1.578637
2385.000000;1.806004
2384.000000;1.778141
2383.000000;1.660151
2382.000000;1.882122
2381.000000;1.831211
2380.000000;1.538049
2379.000000;1.413172
2378.000000;1.438450
2377.000000;1.810471
2376.000000;1.902809
2375.000000;1.587828
2374.000000;1.508098
2373.000000;1.457841
2372.000000;1.386134
2371.000000;1.365622
2370.000000;1.446563
2369.000000;1.617188
2368.000000;1.814029
2367.000000;1.989475
2366.000000;1.934921
2365.000000;1.624441
2364.000000;1.448201
2363.000000;1.399324
2362.000000;1.443069
2361.000000;1.539598
2360.000000;1.643649
2359.000000;1.748283
2358.000000;1.863001
2357.000000;1.899656
2356.000000;1.905739
2355.000000;1.882205
2354.000000;1.790587
2353.000000;1.682953
2352.000000;1.583654
2351.000000;1.562106
2350.000000;1.572928
2349.000000;1.499489
2348.000000;1.396614
2347.000000;1.360418
2346.000000;1.440097
2345.000000;1.789389
2344.000000;2.047665
2343.000000;1.723070
2342.000000;1.720949
2341.000000;1.914325
2340.000000;2.042343
2339.000000;1.799673
2338.000000;1.545026
2337.000000;1.476053
2336.000000;1.524592
2335.000000;1.490598
2334.000000;1.455453
2333.000000;1.520748
2332.000000;1.630800
2331.000000;1.737054
2330.000000;1.856267
2329.000000;1.874256
2328.000000;1.753981
2327.000000;1.756542
2326.000000;1.762031
2325.000000;1.644306
2324.000000;1.601011
2323.000000;1.659694
2322.000000;1.754039
2321.000000;1.824879
2320.000000;1.842061
2319.000000;1.801384
2318.000000;1.660453
2317.000000;1.580982
2316.000000;1.712372
2315.000000;1.994818
2314.000000;1.815117
2313.000000;1.825365
2312.000000;1.829779
2311.000000;1.572415
2310.000000;1.373672
2309.000000;1.334175
2308.000000;1.459530
2307.000000;1.773200
2306.000000;2.249727
2305.000000;2.197466
2304.000000;1.856996
2303.000000;1.506176
2302.000000;1.260139
2301.000000;1.174518
2300.000000;1.253756
2299.000000;1.523157
2298.000000;1.811300
2297.000000;1.772374
2296.000000;1.619334
2295.000000;1.514201
2294.000000;1.424371
2293.000000;1.243220
2292.000000;1.136735
2291.000000;1.146111
2290.000000;1.206687
2289.000000;1.230970
2288.000000;1.174839
2287.000000;1.116854
2286.000000;1.122446
2285.000000;1.186050
2284.000000;1.294129
2283.000000;1.426636
2282.000000;1.281077
2281.000000;1.050131
2280.000000;0.961700
2279.000000;1.008376
2278.000000;1.225197
2277.000000;1.387071
2276.000000;1.218951
2275.000000;1.181417
2274.000000;1.241412
2273.000000;1.263736
2272.000000;1.247710
2271.000000;1.308316
2270.000000;1.392471
2269.000000;1.472684
2268.000000;1.608475
2267.000000;1.694179
2266.000000;1.761003
2265.000000;2.238665
2264.000000;1.551426
2263.000000;1.274095
2262.000000;1.231596
2261.000000;1.330249
2260.000000;1.418056
2259.000000;1.229929
2258.000000;1.107645
2257.000000;1.100385
2256.000000;1.131466
2255.000000;1.140897
2254.000000;1.173048
2253.000000;1.193854
2252.000000;1.119615
2251.000000;1.059618
2250.000000;1.061452
2249.000000;1.058816
2248.000000;1.055820
2247.000000;1.136115
2246.000000;1.362205
2245.000000;1.592482
2244.000000;1.471060
2243.000000;1.339957
2242.000000;1.318819
2241.000000;1.343543
2240.000000;1.270817
2239.000000;1.153490
2238.000000;1.074243
2237.000000;1.018193
2236.000000;0.990996
2235.000000;1.034812
2234.000000;1.196726
2233.000000;1.491198
2232.000000;1.686094
2231.000000;1.446118
2230.000000;1.240560
2229.000000;1.184176
2228.000000;1.252926
2227.000000;1.516244
2226.000000;2.042312
2225.000000;1.943612
2224.000000;1.874745
2223.000000;1.419679
2222.000000;1.129137
2221.000000;1.036223
2220.000000;1.089329
2219.000000;1.288924
2218.000000;1.452804
2217.000000;1.386052
2216.000000;1.378441
2215.000000;1.246297
2214.000000;1.023888
2213.000000;0.899810
2212.000000;0.877515
2211.000000;0.951285
2210.000000;1.138069
2209.000000;1.328137
2208.000000;1.274214
2207.000000;1.322302
2206.000000;1.655510
2205.000000;1.858038
2204.000000;1.684921
2203.000000;2.000670
2202.000000;1.836850
2201.000000;1.359394
2200.000000;1.201906
2199.000000;1.192084
2198.000000;1.324747
2197.000000;1.451944
2196.000000;1.331912
2195.000000;1.215529
2194.000000;1.196172
2193.000000;1.224519
2192.000000;1.200278
2191.000000;1.121077
2190.000000;1.074761
2189.000000;1.104135
2188.000000;1.215181
2187.000000;1.427798
2186.000000;1.440539
2185.000000;1.275383
2184.000000;1.260691
2183.000000;1.451598
2182.000000;1.548245
2181.000000;1.945937
2180.000000;1.578196
2179.000000;1.214900
2178.000000;1.152768
2177.000000;1.173047
2176.000000;1.129926
2175.000000;1.023855
2174.000000;0.940942
2173.000000;0.943856
2172.000000;1.076620
2171.000000;1.184879
2170.000000;1.076992
2169.000000;1.056557
2168.000000;1.280948
2167.000000;1.555949
2166.000000;1.293152
2165.000000;1.132519
2164.000000;1.064095
2163.000000;1.075573
2162.000000;1.126192
2161.000000;1.134315
2160.000000;1.146295
2159.000000;1.270796
2158.000000;1.518601
2157.000000;1.678885
2156.000000;1.499792
2155.000000;1.207118
2154.000000;1.056123
2153.000000;0.996705
2152.000000;0.960881
2151.000000;0.932985
2150.000000;0.932692
2149.000000;0.964572
2148.000000;1.023832
2147.000000;1.162525
2146.000000;1.558458
2145.000000;1.433002
2144.000000;1.068788
2143.000000;1.048198
2142.000000;1.209496
2141.000000;1.483248
2140.000000;1.307157
2139.000000;1.106728
2138.000000;1.021157
2137.000000;0.991864
2136.000000;1.008178
2135.000000;1.051332
2134.000000;1.119733
2133.000000;1.203739
2132.000000;1.140330
2131.000000;1.049185
2130.000000;1.104477
2129.000000;1.345495
2128.000000;1.745822
2127.000000;1.765633
2126.000000;1.475373
2125.000000;1.378150
2124.000000;1.449503
2123.000000;1.430286
2122.000000;1.226734
2121.000000;1.053981
2120.000000;1.007681
2119.000000;1.118216
2118.000000;1.369003
2117.000000;1.342919
2116.000000;1.105235
2115.000000;1.001713
2114.000000;0.993405
2113.000000;1.080976
2112.000000;1.172709
2111.000000;1.235648
2110.000000;1.204938
2109.000000;1.038503
2108.000000;1.010209
2107.000000;1.165280
2106.000000;2.097239
2105.000000;1.691324
2104.000000;1.457445
2103.000000;2.217841
2102.000000;1.412389
2101.000000;1.096827
2100.000000;1.063608
2099.000000;1.304072
2098.000000;2.236383
2097.000000;1.414926
2096.000000;1.521657
2095.000000;1.701541
2094.000000;1.259345
2093.000000;1.005175
2092.000000;0.952458
2091.000000;1.037969
2090.000000;1.340328
2089.000000;1.678540
2088.000000;1.142618
2087.000000;0.904251
2086.000000;0.845835
2085.000000;0.917064
2084.000000;1.010546
2083.000000;1.037241
2082.000000;1.023934
2081.000000;0.996422
2080.000000;0.992852
2079.000000;1.054834
2078.000000;1.207415
2077.000000;1.397818
2076.000000;1.301994
2075.000000;1.038882
2074.000000;0.887505
2073.000000;0.885091
2072.000000;0.998362
2071.000000;1.112546
2070.000000;1.168627
2069.000000;1.279112
2068.000000;1.420937
2067.000000;1.278535
2066.000000;1.113859
2065.000000;1.092078
2064.000000;1.119252
2063.000000;1.105697
2062.000000;1.096714
2061.000000;1.067942
2060.000000;1.063105
2059.000000;1.087605
2058.000000;1.053451
2057.000000;1.086267
2056.000000;1.178958
2055.000000;1.119141
2054.000000;1.090627
2053.000000;1.129296
2052.000000;1.147608
2051.000000;1.229814
2050.000000;1.577079
2049.000000;2.096431
2048.000000;1.936475
2047.000000;1.279104
2046.000000;0.968151
2045.000000;0.872418
2044.000000;0.895441
2043.000000;0.964735
2042.000000;1.001844
2041.000000;0.995984
2040.000000;1.011062
2039.000000;1.052865
2038.000000;1.113766
2037.000000;1.206534
2036.000000;1.209636
2035.000000;1.042195
2034.000000;0.874687
2033.000000;0.838638
2032.000000;0.919404
2031.000000;1.490969
2030.000000;1.355881
2029.000000;0.889015
2028.000000;0.883658
2027.000000;1.064031
2026.000000;1.484961
2025.000000;1.276620
2024.000000;1.082502
2023.000000;0.967293
2022.000000;0.875969
2021.000000;0.892234
2020.000000;1.055810
2019.000000;1.641334
2018.000000;1.523032
2017.000000;1.278248
2016.000000;1.330414
2015.000000;1.662927
2014.000000;1.795975
2013.000000;1.331369
2012.000000;1.365847
2011.000000;1.481100
2010.000000;1.364026
2009.000000;1.416469
2008.000000;1.506753
2007.000000;1.205501
2006.000000;1.033893
2005.000000;1.007063
2004.000000;1.037076
2003.000000;1.045890
2002.000000;1.043722
2001.000000;1.104979
2000.000000;1.246807
1999.000000;1.289246
1998.000000;1.271022
1997.000000;1.338596
1996.000000;1.495540
1995.000000;1.331895
1994.000000;1.072005
1993.000000;0.958652
1992.000000;0.975622
1991.000000;1.081582
1990.000000;1.221309
1989.000000;1.332484
1988.000000;1.334491
1987.000000;1.209062
1986.000000;1.059219
1985.000000;0.998149
1984.000000;1.088141
1983.000000;1.335729
1982.000000;1.512633
1981.000000;1.448018
1980.000000;1.319914
1979.000000;1.267124
1978.000000;1.168201
1977.000000;1.045919
1976.000000;1.047556
1975.000000;1.249999
1974.000000;1.417736
1973.000000;1.169753
1972.000000;1.034587
1971.000000;1.027946
1970.000000;1.067784
1969.000000;1.064418
1968.000000;0.985230
1967.000000;0.911998
1966.000000;0.899785
1965.000000;0.981220
1964.000000;1.185773
1963.000000;1.410132
1962.000000;1.308639
1961.000000;1.081209
1960.000000;0.938327
1959.000000;0.938302
1958.000000;1.068160
1957.000000;1.209694
1956.000000;1.200420
1955.000000;1.228656
1954.000000;1.451855
1953.000000;1.534254
1952.000000;1.306994
1951.000000;1.271853
1950.000000;1.366060
1949.000000;1.604234
1948.000000;1.744851
1947.000000;1.527937
1946.000000;1.341692
1945.000000;1.256035
1944.000000;1.222431
1943.000000;1.199858
1942.000000;1.208981
1941.000000;1.306137
1940.000000;1.434643
1939.000000;1.415172
1938.000000;1.467513
1937.000000;1.551622
1936.000000;1.370060
1935.000000;1.306582
1934.000000;1.343516
1933.000000;1.341821
1932.000000;1.326254
1931.000000;1.370464
1930.000000;1.369371
1929.000000;1.384878
1928.000000;1.290757
1927.000000;1.110367
1926.000000;1.122476
1925.000000;1.329264
1924.000000;1.349953
1923.000000;1.213304
1922.000000;1.300076
1921.000000;1.578165
1920.000000;1.483075
1919.000000;1.285537
1918.000000;1.256541
1917.000000;1.253684
1916.000000;1.248203
1915.000000;1.288297
1914.000000;1.479402
1913.000000;1.279728
1912.000000;1.047913
1911.000000;0.950457
1910.000000;0.901342
1909.000000;0.868509
1908.000000;0.875943
1907.000000;0.955968
1906.000000;1.110738
1905.000000;1.256698
1904.000000;1.345278
1903.000000;1.425626
1902.000000;1.234138
1901.000000;1.021223
1900.000000;0.931299
1899.000000;0.922775
1898.000000;0.980424
1897.000000;0.978782
1896.000000;0.887759
1895.000000;0.878186
1894.000000;1.002997
1893.000000;1.204526
1892.000000;1.291013
1891.000000;1.197775
1890.000000;1.099937
1889.000000;1.075652
1888.000000;1.090175
1887.000000;1.032810
1886.000000;0.919364
1885.000000;0.836291
1884.000000;0.813480
1883.000000;0.841748
1882.000000;0.910458
1881.000000;1.026695
1880.000000;1.103612
1879.000000;1.039329
1878.000000;0.977301
1877.000000;0.948445
1876.000000;0.926738
1875.000000;0.923770
1874.000000;0.928658
1873.000000;0.956715
1872.000000;1.040933
1871.000000;1.512422
1870.000000;1.373151
1869.000000;0.983272
1868.000000;1.029243
1867.000000;1.619805
1866.000000;1.327876
1865.000000;1.000248
1864.000000;1.078303
1863.000000;1.239359
1862.000000;1.669170
1861.000000;1.357782
1860.000000;1.170017
1859.000000;1.316132
1858.000000;1.593112
1857.000000;1.424271
1856.000000;1.406633
1855.000000;1.160086
1854.000000;1.026791
1853.000000;1.089288
1852.000000;1.327399
1851.000000;1.565672
1850.000000;1.299954
1849.000000;0.931670
1848.000000;0.763135
1847.000000;0.728859
1846.000000;0.797034
1845.000000;0.972974
1844.000000;1.278071
1843.000000;1.311190
1842.000000;1.203153
1841.000000;1.318400
1840.000000;1.679728
1839.000000;1.451581
1838.000000;1.173107
1837.000000;1.711258
1836.000000;1.182134
1835.000000;0.829533
1834.000000;0.769857
1833.000000;0.854315
1832.000000;1.063084
1831.000000;1.659504
1830.000000;1.374494
1829.000000;1.148771
1828.000000;1.241995
1827.000000;1.423628
1826.000000;1.413565
1825.000000;1.666987
1824.000000;1.463017
1823.000000;1.115353
1822.000000;1.030755
1821.000000;1.039594
1820.000000;1.221375
1819.000000;1.477248
1818.000000;1.261854
1817.000000;1.274670
1816.000000;1.695426
1815.000000;1.320886
1814.000000;1.109177
1813.000000;1.237402
1812.000000;1.302785
1811.000000;1.095420
1810.000000;0.920242
1809.000000;0.927472
1808.000000;1.164047
1807.000000;1.541531
1806.000000;1.258596
1805.000000;1.106622
1804.000000;1.078559
1803.000000;1.131556
1802.000000;1.190411
1801.000000;1.114168
1800.000000;0.931115
1799.000000;0.806624
1798.000000;0.809802
1797.000000;0.958766
1796.000000;1.232958
1795.000000;1.571673
1794.000000;1.579138
1793.000000;1.273995
1792.000000;1.178224
1791.000000;1.234091
1790.000000;1.515715
1789.000000;1.663338
1788.000000;1.410581
1787.000000;1.373601
1786.000000;1.677032
1785.000000;1.923897
1784.000000;1.496745
1783.000000;1.229826
1782.000000;1.006034
1781.000000;0.836102
1780.000000;0.744845
1779.000000;0.730542
1778.000000;0.781083
1777.000000;0.913039
1776.000000;1.228292
1775.000000;1.594398
1774.000000;1.169320
1773.000000;1.252661
1772.000000;1.330585
1771.000000;1.087721
1770.000000;1.066333
1769.000000;1.149964
1768.000000;1.329279
1767.000000;1.475376
1766.000000;1.412282
1765.000000;1.295637
1764.000000;1.226588
1763.000000;1.170533
1762.000000;1.076967
1761.000000;0.986896
1760.000000;0.933952
1759.000000;0.890554
1758.000000;0.843186
1757.000000;0.848752
1756.000000;0.969293
1755.000000;1.331289
1754.000000;1.642105
1753.000000;1.093121
1752.000000;0.866058
1751.000000;0.832772
1750.000000;0.942447
1749.000000;1.213589
1748.000000;1.308233
1747.000000;1.102869
1746.000000;1.174848
1745.000000;1.420179
1744.000000;1.045524
1743.000000;0.950803
1742.000000;1.062782
1741.000000;1.185933
1740.000000;1.137050
1739.000000;1.160407
1738.000000;1.371502
1737.000000;1.612427
1736.000000;1.540664
1735.000000;1.431865
1734.000000;1.800101
1733.000000;1.841892
1732.000000;1.263675
1731.000000;1.125078
1730.000000;1.156208
1729.000000;1.858858
1728.000000;1.343170
1727.000000;1.071267
1726.000000;1.056267
1725.000000;1.060677
1724.000000;1.064527
1723.000000;1.016341
1722.000000;1.003713
1721.000000;1.123384
1720.000000;1.270681
1719.000000;1.197628
1718.000000;1.093369
1717.000000;1.040966
1716.000000;1.156939
1715.000000;1.587872
1714.000000;1.549130
1713.000000;1.183341
1712.000000;1.172076
1711.000000;1.266225
1710.000000;1.226876
1709.000000;1.174808
1708.000000;1.143888
1707.000000;1.064608
1706.000000;1.094214
1705.000000;1.383468
1704.000000;1.380249
1703.000000;1.247964
1702.000000;1.342012
1701.000000;1.679573
1700.000000;2.056787
1699.000000;1.506719
1698.000000;1.254497
1697.000000;1.240215
1696.000000;1.396830
1695.000000;1.511458
1694.000000;1.792012
1693.000000;1.508259
1692.000000;1.732049
1691.000000;1.185944
1690.000000;0.781889
1689.000000;0.687668
1688.000000;0.737841
1687.000000;0.811142
1686.000000;0.878101
1685.000000;1.047791
1684.000000;1.208586
1683.000000;1.352903
1682.000000;1.451594
1681.000000;1.297943
1680.000000;1.053285
1679.000000;0.874031
1678.000000;0.808810
1677.000000;0.832590
1676.000000;0.899751
1675.000000;0.952659
1674.000000;0.988909
1673.000000;1.126721
1672.000000;1.218192
1671.000000;0.977438
1670.000000;0.872810
1669.000000;0.938045
1668.000000;1.134378
1667.000000;1.010520
1666.000000;0.842373
1665.000000;0.973572
1664.000000;1.475132
1663.000000;1.101976
1662.000000;1.067442
1661.000000;1.386286
1660.000000;1.700005
1659.000000;1.146786
1658.000000;1.074234
1657.000000;1.168488
1656.000000;1.660740
1655.000000;1.539274
1654.000000;1.547370
1653.000000;1.533527
1652.000000;1.053944
1651.000000;1.066528
1650.000000;1.318079
1649.000000;1.773302
1648.000000;1.791195
1647.000000;1.280354
1646.000000;1.060283
1645.000000;1.074826
1644.000000;1.440766
1643.000000;1.514652
1642.000000;1.165761
1641.000000;1.256865
1640.000000;1.681960
1639.000000;1.232878
1638.000000;1.110418
1637.000000;1.162092
1636.000000;1.219051
1635.000000;1.193854
1634.000000;1.303789
1633.000000;1.644362
1632.000000;2.051952
1631.000000;1.859903
1630.000000;1.505884
1629.000000;1.089426
1628.000000;0.981490
1627.000000;1.106617
1626.000000;1.528992
1625.000000;1.259016
1624.000000;1.018674
1623.000000;0.988243
1622.000000;1.008109
1621.000000;1.081709
1620.000000;1.095281
1619.000000;1.039151
1618.000000;1.105360
1617.000000;0.955099
1616.000000;0.715098
1615.000000;0.646730
1614.000000;0.627569
1613.000000;0.622539
1612.000000;0.680446
1611.000000;0.883790
1610.000000;1.054318
1609.000000;0.792907
1608.000000;0.694201
1607.000000;0.752315
1606.000000;0.952830
1605.000000;1.495529
1604.000000;1.887156
1603.000000;1.082465
1602.000000;0.876648
1601.000000;0.841224
1600.000000;1.037675
1599.000000;1.407564
1598.000000;1.317925
1597.000000;1.227571
1596.000000;1.227198
1595.000000;1.032683
1594.000000;0.914106
1593.000000;0.949643
1592.000000;1.186279
1591.000000;1.341923
1590.000000;1.245853
1589.000000;1.260758
1588.000000;1.212430
1587.000000;1.079143
1586.000000;1.034730
1585.000000;1.181456
1584.000000;1.504869
1583.000000;1.283175
1582.000000;1.117578
1581.000000;1.050650
1580.000000;1.048457
1579.000000;1.104915
1578.000000;1.347428
1577.000000;1.256028
1576.000000;1.122083
1575.000000;1.467742
1574.000000;1.001053
1573.000000;0.777416
1572.000000;0.722934
1571.000000;0.741309
1570.000000;0.828055
1569.000000;0.989398
1568.000000;1.194465
1567.000000;1.309304
1566.000000;1.294966
1565.000000;1.202401
1564.000000;1.125506
1563.000000;1.094582
1562.000000;1.042048
1561.000000;0.974169
1560.000000;0.968095
1559.000000;1.006553
1558.000000;1.160008
1557.000000;1.176313
1556.000000;1.048216
1555.000000;0.933700
1554.000000;0.978130
1553.000000;1.193045
1552.000000;1.098066
1551.000000;0.944935
1550.000000;1.266764
1549.000000;1.348549
1548.000000;0.871347
1547.000000;0.816951
1546.000000;0.861787
1545.000000;1.139887
1544.000000;1.509361
1543.000000;1.116901
1542.000000;0.971107
1541.000000;1.013283
1540.000000;1.379556
1539.000000;1.494634
1538.000000;1.049335
1537.000000;0.924086
1536.000000;0.926467
1535.000000;0.969133
1534.000000;1.018148
1533.000000;1.058731
1532.000000;1.081881
1531.000000;1.150512
1530.000000;1.463514
1529.000000;1.558821
1528.000000;1.140504
1527.000000;1.069061
1526.000000;1.104586
1525.000000;1.237225
1524.000000;1.294761
1523.000000;1.224517
1522.000000;1.238298
1521.000000;1.152618
1520.000000;1.080488
1519.000000;1.182279
1518.000000;1.346882
1517.000000;1.423292
1516.000000;1.561866
1515.000000;1.694051
1514.000000;1.477726
1513.000000;1.277972
1512.000000;1.128802
1511.000000;1.064042
1510.000000;1.091175
1509.000000;1.183665
1508.000000;0.938381
1507.000000;0.634297
1506.000000;0.628846
1505.000000;0.722014
1504.000000;0.905998
1503.000000;1.276983
1502.000000;0.890262
1501.000000;0.721205
1500.000000;0.738519
1499.000000;0.864714
1498.000000;0.917651
1497.000000;0.859096
1496.000000;0.898508
1495.000000;1.037770
1494.000000;1.127704
1493.000000;1.381715
1492.000000;1.728218
1491.000000;1.418886
1490.000000;1.496633
1489.000000;1.667288
1488.000000;1.159513
1487.000000;0.925260
1486.000000;0.850234
1485.000000;0.863032
1484.000000;0.936477
1483.000000;0.977880
1482.000000;0.955961
1481.000000;1.005753
1480.000000;1.185255
1479.000000;1.575928
1478.000000;1.171513
1477.000000;0.927665
1476.000000;0.902289
1475.000000;0.975876
1474.000000;1.041038
1473.000000;1.096167
1472.000000;1.072650
1471.000000;0.955671
1470.000000;0.874237
1469.000000;0.882776
1468.000000;1.016536
1467.000000;1.183207
1466.000000;1.155826
1465.000000;1.022651
1464.000000;0.924429
1463.000000;0.917067
1462.000000;1.041287
1461.000000;1.145920
1460.000000;1.117715
1459.000000;1.179388
1458.000000;1.365683
1457.000000;1.198133
1456.000000;1.125592
1455.000000;1.069214
1454.000000;0.899542
1453.000000;0.815452
1452.000000;0.875645
1451.000000;1.069645
1450.000000;1.215515
1449.000000;1.175761
1448.000000;1.259811
1447.000000;1.422482
1446.000000;1.372068
1445.000000;1.490128
1444.000000;1.647445
1443.000000;1.357400
1442.000000;1.199519
1441.000000;1.111496
1440.000000;1.110300
1439.000000;1.252272
1438.000000;1.650868
1437.000000;1.571287
1436.000000;1.324425
1435.000000;1.304406
1434.000000;1.366541
1433.000000;2.104816
1432.000000;1.704376
1431.000000;1.344432
1430.000000;1.129633
1429.000000;0.981538
1428.000000;0.983691
1427.000000;0.987244
1426.000000;0.876583
1425.000000;0.783752
1424.000000;0.709244
1423.000000;0.643475
1422.000000;0.616399
1421.000000;0.655287
1420.000000;0.776231
1419.000000;0.961108
1418.000000;0.973944
1417.000000;0.820854
1416.000000;0.792146
1415.000000;0.932226
1414.000000;0.880346
1413.000000;0.697073
1412.000000;0.742343
1411.000000;1.053390
1410.000000;1.552972
1409.000000;1.858742
1408.000000;1.932212
1407.000000;1.586525
1406.000000;1.466551
1405.000000;1.206008
1404.000000;0.945256
1403.000000;0.799625
1402.000000;0.791357
1401.000000;0.900846
1400.000000;0.950051
1399.000000;0.916023
1398.000000;0.940862
1397.000000;1.014204
1396.000000;1.049783
1395.000000;1.002986
1394.000000;0.961964
1393.000000;0.983357
1392.000000;1.034125
1391.000000;1.036813
1390.000000;0.991999
1389.000000;0.934104
1388.000000;0.862202
1387.000000;0.781446
1386.000000;0.684670
1385.000000;0.612427
1384.000000;0.592269
1383.000000;0.613162
1382.000000;0.671995
1381.000000;0.784627
1380.000000;0.946101
1379.000000;1.031053
1378.000000;0.990718
1377.000000;0.902752
1376.000000;0.826617
1375.000000;0.799408
1374.000000;0.817417
1373.000000;0.832690
1372.000000;0.857019
1371.000000;0.975830
1370.000000;1.307948
1369.000000;1.269945
1368.000000;1.056108
1367.000000;1.147926
1366.000000;1.492060
1365.000000;1.433556
1364.000000;1.081414
1363.000000;0.938258
1362.000000;0.917565
1361.000000;1.015784
1360.000000;1.129256
1359.000000;1.064510
1358.000000;0.928676
1357.000000;0.854110
1356.000000;0.794757
1355.000000;0.689749
1354.000000;0.595576
1353.000000;0.555279
1352.000000;0.558392
1351.000000;0.601150
1350.000000;0.667258
1349.000000;0.769296
1348.000000;0.984260
1347.000000;1.614283
1346.000000;1.370111
1345.000000;1.358775
1344.000000;1.688704
1343.000000;2.197039
1342.000000;1.605826
1341.000000;1.110029
1340.000000;0.817122
1339.000000;0.665661
1338.000000;0.651764
1337.000000;0.769142
1336.000000;1.086414
1335.000000;1.714963
1334.000000;1.548734
1333.000000;1.394660
1332.000000;1.382353
1331.000000;1.885646
1330.000000;1.533513
1329.000000;1.048249
1328.000000;0.913017
1327.000000;0.870301
1326.000000;0.901214
1325.000000;0.953805
1324.000000;1.033966
1323.000000;1.172805
1322.000000;1.541756
1321.000000;1.847926
1320.000000;1.403452
1319.000000;1.179143
1318.000000;1.022344
1317.000000;0.969155
1316.000000;0.981337
1315.000000;1.030019
1314.000000;1.248324
1313.000000;1.829784
1312.000000;1.282586
1311.000000;0.913304
1310.000000;0.702240
1309.000000;0.593304
1308.000000;0.539715
1307.000000;0.509653
1306.000000;0.491013
1305.000000;0.493215
1304.000000;0.538717
1303.000000;0.639669
1302.000000;0.787854
1301.000000;0.763397
1300.000000;0.608589
1299.000000;0.552737
1298.000000;0.615137
1297.000000;0.788908
1296.000000;0.924986
1295.000000;0.740414
1294.000000;0.599103
1293.000000;0.617030
1292.000000;0.870529
1291.000000;1.170842
1290.000000;0.638028
1289.000000;0.520139
1288.000000;0.597270
1287.000000;0.832413
1286.000000;0.960743
1285.000000;1.107011
1284.000000;1.204148
1283.000000;0.893811
1282.000000;0.993504
1281.000000;1.338667
1280.000000;1.208351
1279.000000;1.217954
1278.000000;0.996016
1277.000000;0.793311
1276.000000;0.847375
1275.000000;1.191664
1274.000000;1.185038
1273.000000;0.875847
1272.000000;0.816920
1271.000000;0.916821
1270.000000;1.178730
1269.000000;1.233879
1268.000000;1.298395
1267.000000;1.608171
1266.000000;1.624945
1265.000000;1.138441
1264.000000;0.838807
1263.000000;0.730669
1262.000000;0.788548
1261.000000;0.970132
1260.000000;0.862099
1259.000000;0.673070
1258.000000;0.643142
1257.000000;0.743818
1256.000000;1.056290
1255.000000;1.334206
1254.000000;1.105548
1253.000000;1.100213
1252.000000;0.973651
1251.000000;0.834528
1250.000000;0.781212
1249.000000;0.789811
1248.000000;0.851051
1247.000000;1.052062
1246.000000;1.358370
1245.000000;1.060480
1244.000000;0.919831
1243.000000;1.048383
1242.000000;0.953544
1241.000000;0.719672
1240.000000;0.657095
1239.000000;0.773337
1238.000000;1.092045
1237.000000;1.600125
1236.000000;1.614479
1235.000000;1.698071
1234.000000;1.847656
1233.000000;1.352605
1232.000000;1.502741
1231.000000;1.540876
1230.000000;0.921696
1229.000000;0.675615
1228.000000;0.553170
1227.000000;0.552431
1226.000000;0.631572
1225.000000;0.757798
1224.000000;1.226524
1223.000000;0.982728
1222.000000;0.628704
1221.000000;0.609857
1220.000000;0.668372
1219.000000;0.735416
1218.000000;0.649807
1217.000000;0.562846
1216.000000;0.574481
1215.000000;0.670851
1214.000000;0.790296
1213.000000;0.881049
1212.000000;0.972695
1211.000000;1.110357
1210.000000;1.327644
1209.000000;1.364463
1208.000000;1.208276
1207.000000;1.185610
1206.000000;1.165269
1205.000000;1.159518
1204.000000;1.180273
1203.000000;1.249403
1202.000000;1.620072
1201.000000;2.106372
1200.000000;1.345500
