Criado como novo conjunto de dados;"2706_e01_daniel.spp","93067.0 Secs"
cm-1;Abs
10000.000000;0.852207
9999.000000;0.852167
9998.000000;0.852217
9997.000000;0.852389
9996.000000;0.852618
9995.000000;0.852808
9994.000000;0.852906
9993.000000;0.852899
9992.000000;0.852741
9991.000000;0.852396
9990.000000;0.851958
9989.000000;0.851620
9988.000000;0.851503
9987.000000;0.851537
9986.000000;0.851541
9985.000000;0.851397
9984.000000;0.851164
9983.000000;0.851033
9982.000000;0.851142
9981.000000;0.851399
9980.000000;0.851522
9979.000000;0.851324
9978.000000;0.850927
9977.000000;0.850582
9976.000000;0.850319
9975.000000;0.849955
9974.000000;0.849457
9973.000000;0.849102
9972.000000;0.849158
9971.000000;0.849516
9970.000000;0.849799
9969.000000;0.849794
9968.000000;0.849634
9967.000000;0.849594
9966.000000;0.849801
9965.000000;0.850156
9964.000000;0.850406
9963.000000;0.850304
9962.000000;0.849796
9961.000000;0.849116
9960.000000;0.848645
9959.000000;0.848599
9958.000000;0.848874
9957.000000;0.849202
9956.000000;0.849455
9955.000000;0.849701
9954.000000;0.849992
9953.000000;0.850191
9952.000000;0.850128
9951.000000;0.849873
9950.000000;0.849698
9949.000000;0.849734
9948.000000;0.849783
9947.000000;0.849582
9946.000000;0.849149
9945.000000;0.848747
9944.000000;0.848566
9943.000000;0.848593
9942.000000;0.848749
9941.000000;0.848991
9940.000000;0.849255
9939.000000;0.849422
9938.000000;0.849385
9937.000000;0.849087
9936.000000;0.848512
9935.000000;0.847798
9934.000000;0.847309
9933.000000;0.847362
9932.000000;0.847820
9931.000000;0.848108
9930.000000;0.847788
9929.000000;0.846981
9928.000000;0.846137
9927.000000;0.845561
9926.000000;0.845343
9925.000000;0.845552
9924.000000;0.846188
9923.000000;0.846959
9922.000000;0.847389
9921.000000;0.847297
9920.000000;0.846990
9919.000000;0.846854
9918.000000;0.846864
9917.000000;0.846671
9916.000000;0.846137
9915.000000;0.845580
9914.000000;0.845390
9913.000000;0.845557
9912.000000;0.845738
9911.000000;0.845730
9910.000000;0.845646
9909.000000;0.845567
9908.000000;0.845306
9907.000000;0.844728
9906.000000;0.844132
9905.000000;0.843988
9904.000000;0.844325
9903.000000;0.844698
9902.000000;0.844824
9901.000000;0.844902
9900.000000;0.845137
9899.000000;0.845255
9898.000000;0.844837
9897.000000;0.843996
9896.000000;0.843369
9895.000000;0.843401
9894.000000;0.843884
9893.000000;0.844226
9892.000000;0.844027
9891.000000;0.843353
9890.000000;0.842612
9889.000000;0.842250
9888.000000;0.842445
9887.000000;0.842986
9886.000000;0.843449
9885.000000;0.843546
9884.000000;0.843309
9883.000000;0.842950
9882.000000;0.842577
9881.000000;0.842077
9880.000000;0.841318
9879.000000;0.840467
9878.000000;0.840038
9877.000000;0.840474
9876.000000;0.841648
9875.000000;0.842878
9874.000000;0.843518
9873.000000;0.843429
9872.000000;0.842865
9871.000000;0.842108
9870.000000;0.841359
9869.000000;0.840801
9868.000000;0.840513
9867.000000;0.840380
9866.000000;0.840258
9865.000000;0.840202
9864.000000;0.840360
9863.000000;0.840694
9862.000000;0.841007
9861.000000;0.841243
9860.000000;0.841552
9859.000000;0.842013
9858.000000;0.842450
9857.000000;0.842598
9856.000000;0.842368
9855.000000;0.841879
9854.000000;0.841297
9853.000000;0.840708
9852.000000;0.840122
9851.000000;0.839630
9850.000000;0.839491
9849.000000;0.839913
9848.000000;0.840661
9847.000000;0.841064
9846.000000;0.840660
9845.000000;0.839756
9844.000000;0.839142
9843.000000;0.839239
9842.000000;0.839752
9841.000000;0.840123
9840.000000;0.840115
9839.000000;0.839906
9838.000000;0.839832
9837.000000;0.840096
9836.000000;0.840573
9835.000000;0.840843
9834.000000;0.840568
9833.000000;0.839874
9832.000000;0.839169
9831.000000;0.838627
9830.000000;0.838090
9829.000000;0.837531
9828.000000;0.837265
9827.000000;0.837533
9826.000000;0.838121
9825.000000;0.838630
9824.000000;0.838929
9823.000000;0.839128
9822.000000;0.839251
9821.000000;0.839200
9820.000000;0.838962
9819.000000;0.838620
9818.000000;0.838195
9817.000000;0.837680
9816.000000;0.837201
9815.000000;0.836949
9814.000000;0.836948
9813.000000;0.837060
9812.000000;0.837218
9811.000000;0.837496
9810.000000;0.837913
9809.000000;0.838299
9808.000000;0.838429
9807.000000;0.838244
9806.000000;0.837881
9805.000000;0.837531
9804.000000;0.837264
9803.000000;0.836969
9802.000000;0.836489
9801.000000;0.835825
9800.000000;0.835166
9799.000000;0.834712
9798.000000;0.834539
9797.000000;0.834660
9796.000000;0.835057
9795.000000;0.835562
9794.000000;0.835822
9793.000000;0.835565
9792.000000;0.834886
9791.000000;0.834176
9790.000000;0.833790
9789.000000;0.833828
9788.000000;0.834151
9787.000000;0.834501
9786.000000;0.834671
9785.000000;0.834702
9784.000000;0.834866
9783.000000;0.835359
9782.000000;0.836010
9781.000000;0.836385
9780.000000;0.836152
9779.000000;0.835340
9778.000000;0.834352
9777.000000;0.833770
9776.000000;0.833956
9775.000000;0.834668
9774.000000;0.835164
9773.000000;0.834931
9772.000000;0.834237
9771.000000;0.833759
9770.000000;0.833783
9769.000000;0.834040
9768.000000;0.834254
9767.000000;0.834448
9766.000000;0.834617
9765.000000;0.834484
9764.000000;0.833843
9763.000000;0.832918
9762.000000;0.832115
9761.000000;0.831574
9760.000000;0.831207
9759.000000;0.831048
9758.000000;0.831273
9757.000000;0.831847
9756.000000;0.832410
9755.000000;0.832633
9754.000000;0.832583
9753.000000;0.832636
9752.000000;0.833033
9751.000000;0.833578
9750.000000;0.833791
9749.000000;0.833420
9748.000000;0.832769
9747.000000;0.832401
9746.000000;0.832480
9745.000000;0.832571
9744.000000;0.832195
9743.000000;0.831449
9742.000000;0.830886
9741.000000;0.830861
9740.000000;0.831221
9739.000000;0.831610
9738.000000;0.831834
9737.000000;0.831872
9736.000000;0.831753
9735.000000;0.831563
9734.000000;0.831454
9733.000000;0.831490
9732.000000;0.831547
9731.000000;0.831493
9730.000000;0.831425
9729.000000;0.831571
9728.000000;0.831975
9727.000000;0.832406
9726.000000;0.832581
9725.000000;0.832403
9724.000000;0.831950
9723.000000;0.831372
9722.000000;0.830877
9721.000000;0.830704
9720.000000;0.830973
9719.000000;0.831533
9718.000000;0.832040
9717.000000;0.832228
9716.000000;0.832047
9715.000000;0.831556
9714.000000;0.830831
9713.000000;0.830057
9712.000000;0.829581
9711.000000;0.829665
9710.000000;0.830148
9709.000000;0.830491
9708.000000;0.830296
9707.000000;0.829710
9706.000000;0.829216
9705.000000;0.829076
9704.000000;0.829109
9703.000000;0.829006
9702.000000;0.828719
9701.000000;0.828483
9700.000000;0.828526
9699.000000;0.828835
9698.000000;0.829189
9697.000000;0.829344
9696.000000;0.829229
9695.000000;0.828984
9694.000000;0.828808
9693.000000;0.828764
9692.000000;0.828774
9691.000000;0.828800
9690.000000;0.828916
9689.000000;0.829139
9688.000000;0.829277
9687.000000;0.829069
9686.000000;0.828476
9685.000000;0.827744
9684.000000;0.827193
9683.000000;0.826985
9682.000000;0.827081
9681.000000;0.827284
9680.000000;0.827362
9679.000000;0.827229
9678.000000;0.827055
9677.000000;0.827099
9676.000000;0.827413
9675.000000;0.827800
9674.000000;0.828084
9673.000000;0.828282
9672.000000;0.828443
9671.000000;0.828453
9670.000000;0.828165
9669.000000;0.827636
9668.000000;0.827082
9667.000000;0.826617
9666.000000;0.826181
9665.000000;0.825739
9664.000000;0.825392
9663.000000;0.825234
9662.000000;0.825201
9661.000000;0.825169
9660.000000;0.825135
9659.000000;0.825199
9658.000000;0.825381
9657.000000;0.825544
9656.000000;0.825531
9655.000000;0.825341
9654.000000;0.825143
9653.000000;0.825119
9652.000000;0.825297
9651.000000;0.825541
9650.000000;0.825671
9649.000000;0.825584
9648.000000;0.825299
9647.000000;0.824943
9646.000000;0.824710
9645.000000;0.824738
9644.000000;0.824935
9643.000000;0.824999
9642.000000;0.824704
9641.000000;0.824162
9640.000000;0.823710
9639.000000;0.823553
9638.000000;0.823613
9637.000000;0.823734
9636.000000;0.823893
9635.000000;0.824136
9634.000000;0.824419
9633.000000;0.824585
9632.000000;0.824510
9631.000000;0.824203
9630.000000;0.823813
9629.000000;0.823554
9628.000000;0.823571
9627.000000;0.823825
9626.000000;0.824141
9625.000000;0.824405
9624.000000;0.824632
9623.000000;0.824817
9622.000000;0.824798
9621.000000;0.824430
9620.000000;0.823832
9619.000000;0.823317
9618.000000;0.823044
9617.000000;0.822866
9616.000000;0.822574
9615.000000;0.822204
9614.000000;0.821987
9613.000000;0.822060
9612.000000;0.822301
9611.000000;0.822454
9610.000000;0.822338
9609.000000;0.821942
9608.000000;0.821421
9607.000000;0.821043
9606.000000;0.821065
9605.000000;0.821522
9604.000000;0.822117
9603.000000;0.822398
9602.000000;0.822128
9601.000000;0.821514
9600.000000;0.821032
9599.000000;0.821026
9598.000000;0.821444
9597.000000;0.821946
9596.000000;0.822237
9595.000000;0.822313
9594.000000;0.822396
9593.000000;0.822628
9592.000000;0.822860
9591.000000;0.822801
9590.000000;0.822375
9589.000000;0.821816
9588.000000;0.821357
9587.000000;0.820945
9586.000000;0.820426
9585.000000;0.819943
9584.000000;0.819927
9583.000000;0.820578
9582.000000;0.821518
9581.000000;0.822084
9580.000000;0.821952
9579.000000;0.821337
9578.000000;0.820645
9577.000000;0.820104
9576.000000;0.819789
9575.000000;0.819821
9574.000000;0.820323
9573.000000;0.821143
9572.000000;0.821793
9571.000000;0.821814
9570.000000;0.821236
9569.000000;0.820588
9568.000000;0.820398
9567.000000;0.820689
9566.000000;0.821006
9565.000000;0.820898
9564.000000;0.820332
9563.000000;0.819681
9562.000000;0.819359
9561.000000;0.819499
9560.000000;0.819873
9559.000000;0.820095
9558.000000;0.819951
9557.000000;0.819572
9556.000000;0.819276
9555.000000;0.819226
9554.000000;0.819284
9553.000000;0.819206
9552.000000;0.818889
9551.000000;0.818427
9550.000000;0.817994
9549.000000;0.817761
9548.000000;0.817860
9547.000000;0.818290
9546.000000;0.818837
9545.000000;0.819174
9544.000000;0.819088
9543.000000;0.818633
9542.000000;0.818090
9541.000000;0.817783
9540.000000;0.817881
9539.000000;0.818272
9538.000000;0.818618
9537.000000;0.818620
9536.000000;0.818257
9535.000000;0.817754
9534.000000;0.817343
9533.000000;0.817100
9532.000000;0.817009
9531.000000;0.817052
9530.000000;0.817193
9529.000000;0.817335
9528.000000;0.817411
9527.000000;0.817469
9526.000000;0.817592
9525.000000;0.817724
9524.000000;0.817676
9523.000000;0.817362
9522.000000;0.816957
9521.000000;0.816732
9520.000000;0.816721
9519.000000;0.816662
9518.000000;0.816305
9517.000000;0.815743
9516.000000;0.815351
9515.000000;0.815402
9514.000000;0.815779
9513.000000;0.816086
9512.000000;0.815999
9511.000000;0.815538
9510.000000;0.815023
9509.000000;0.814778
9508.000000;0.814845
9507.000000;0.814993
9506.000000;0.815009
9505.000000;0.814952
9504.000000;0.815023
9503.000000;0.815251
9502.000000;0.815434
9501.000000;0.815426
9500.000000;0.815327
9499.000000;0.815302
9498.000000;0.815343
9497.000000;0.815343
9496.000000;0.815318
9495.000000;0.815384
9494.000000;0.815507
9493.000000;0.815475
9492.000000;0.815185
9491.000000;0.814834
9490.000000;0.814714
9489.000000;0.814884
9488.000000;0.815105
9487.000000;0.815081
9486.000000;0.814727
9485.000000;0.814220
9484.000000;0.813805
9483.000000;0.813567
9482.000000;0.813390
9481.000000;0.813155
9480.000000;0.812917
9479.000000;0.812829
9478.000000;0.812911
9477.000000;0.813036
9476.000000;0.813137
9475.000000;0.813307
9474.000000;0.813620
9473.000000;0.813981
9472.000000;0.814210
9471.000000;0.814216
9470.000000;0.813991
9469.000000;0.813558
9468.000000;0.813060
9467.000000;0.812775
9466.000000;0.812875
9465.000000;0.813162
9464.000000;0.813228
9463.000000;0.812906
9462.000000;0.812408
9461.000000;0.812000
9460.000000;0.811728
9459.000000;0.811558
9458.000000;0.811591
9457.000000;0.811954
9456.000000;0.812524
9455.000000;0.812979
9454.000000;0.813124
9453.000000;0.813054
9452.000000;0.812982
9451.000000;0.813009
9450.000000;0.813087
9449.000000;0.813101
9448.000000;0.812942
9447.000000;0.812595
9446.000000;0.812203
9445.000000;0.811970
9444.000000;0.811953
9443.000000;0.811997
9442.000000;0.811939
9441.000000;0.811813
9440.000000;0.811808
9439.000000;0.812046
9438.000000;0.812439
9437.000000;0.812749
9436.000000;0.812725
9435.000000;0.812256
9434.000000;0.811452
9433.000000;0.810616
9432.000000;0.810059
9431.000000;0.809930
9430.000000;0.810211
9429.000000;0.810760
9428.000000;0.811318
9427.000000;0.811536
9426.000000;0.811219
9425.000000;0.810573
9424.000000;0.810082
9423.000000;0.810040
9422.000000;0.810300
9421.000000;0.810552
9420.000000;0.810729
9419.000000;0.810980
9418.000000;0.811275
9417.000000;0.811277
9416.000000;0.810713
9415.000000;0.809748
9414.000000;0.808844
9413.000000;0.808327
9412.000000;0.808200
9411.000000;0.808334
9410.000000;0.808665
9409.000000;0.809149
9408.000000;0.809643
9407.000000;0.809940
9406.000000;0.809906
9405.000000;0.809569
9404.000000;0.809120
9403.000000;0.808846
9402.000000;0.808966
9401.000000;0.809435
9400.000000;0.809902
9399.000000;0.809980
9398.000000;0.809591
9397.000000;0.809021
9396.000000;0.808625
9395.000000;0.808512
9394.000000;0.808524
9393.000000;0.808467
9392.000000;0.808325
9391.000000;0.808247
9390.000000;0.808344
9389.000000;0.808539
9388.000000;0.808625
9387.000000;0.808486
9386.000000;0.808186
9385.000000;0.807844
9384.000000;0.807492
9383.000000;0.807128
9382.000000;0.806856
9381.000000;0.806829
9380.000000;0.807046
9379.000000;0.807310
9378.000000;0.807462
9377.000000;0.807563
9376.000000;0.807767
9375.000000;0.808069
9374.000000;0.808268
9373.000000;0.808202
9372.000000;0.807938
9371.000000;0.807691
9370.000000;0.807576
9369.000000;0.807491
9368.000000;0.807270
9367.000000;0.806931
9366.000000;0.806689
9365.000000;0.806694
9364.000000;0.806819
9363.000000;0.806798
9362.000000;0.806553
9361.000000;0.806270
9360.000000;0.806145
9359.000000;0.806149
9358.000000;0.806111
9357.000000;0.805945
9356.000000;0.805721
9355.000000;0.805573
9354.000000;0.805582
9353.000000;0.805734
9352.000000;0.805960
9351.000000;0.806204
9350.000000;0.806429
9349.000000;0.806539
9348.000000;0.806343
9347.000000;0.805747
9346.000000;0.804959
9345.000000;0.804372
9344.000000;0.804189
9343.000000;0.804253
9342.000000;0.804315
9341.000000;0.804298
9340.000000;0.804253
9339.000000;0.804211
9338.000000;0.804241
9337.000000;0.804490
9336.000000;0.804970
9335.000000;0.805388
9334.000000;0.805405
9333.000000;0.805035
9332.000000;0.804576
9331.000000;0.804201
9330.000000;0.803837
9329.000000;0.803459
9328.000000;0.803217
9327.000000;0.803186
9326.000000;0.803228
9325.000000;0.803240
9324.000000;0.803363
9323.000000;0.803737
9322.000000;0.804186
9321.000000;0.804365
9320.000000;0.804178
9319.000000;0.803892
9318.000000;0.803804
9317.000000;0.803935
9316.000000;0.804060
9315.000000;0.803939
9314.000000;0.803519
9313.000000;0.802993
9312.000000;0.802675
9311.000000;0.802734
9310.000000;0.803015
9309.000000;0.803183
9308.000000;0.803079
9307.000000;0.802868
9306.000000;0.802804
9305.000000;0.802925
9304.000000;0.803041
9303.000000;0.802996
9302.000000;0.802835
9301.000000;0.802702
9300.000000;0.802653
9299.000000;0.802624
9298.000000;0.802547
9297.000000;0.802418
9296.000000;0.802278
9295.000000;0.802161
9294.000000;0.802092
9293.000000;0.802057
9292.000000;0.801969
9291.000000;0.801727
9290.000000;0.801337
9289.000000;0.800924
9288.000000;0.800627
9287.000000;0.800532
9286.000000;0.800700
9285.000000;0.801118
9284.000000;0.801591
9283.000000;0.801807
9282.000000;0.801658
9281.000000;0.801403
9280.000000;0.801376
9279.000000;0.801610
9278.000000;0.801868
9277.000000;0.801992
9276.000000;0.802021
9275.000000;0.802022
9274.000000;0.801990
9273.000000;0.801937
9272.000000;0.801876
9271.000000;0.801688
9270.000000;0.801225
9269.000000;0.800609
9268.000000;0.800213
9267.000000;0.800219
9266.000000;0.800359
9265.000000;0.800280
9264.000000;0.800025
9263.000000;0.799916
9262.000000;0.800050
9261.000000;0.800140
9260.000000;0.799906
9259.000000;0.799432
9258.000000;0.799046
9257.000000;0.798949
9256.000000;0.799065
9255.000000;0.799199
9254.000000;0.799235
9253.000000;0.799196
9252.000000;0.799170
9251.000000;0.799222
9250.000000;0.799348
9249.000000;0.799493
9248.000000;0.799597
9247.000000;0.799654
9246.000000;0.799728
9245.000000;0.799887
9244.000000;0.800074
9243.000000;0.800102
9242.000000;0.799831
9241.000000;0.799365
9240.000000;0.798977
9239.000000;0.798843
9238.000000;0.798881
9237.000000;0.798867
9236.000000;0.798646
9235.000000;0.798238
9234.000000;0.797793
9233.000000;0.797463
9232.000000;0.797291
9231.000000;0.797235
9230.000000;0.797308
9229.000000;0.797612
9228.000000;0.798127
9227.000000;0.798556
9226.000000;0.798569
9225.000000;0.798189
9224.000000;0.797765
9223.000000;0.797523
9222.000000;0.797362
9221.000000;0.797146
9220.000000;0.796977
9219.000000;0.797008
9218.000000;0.797142
9217.000000;0.797130
9216.000000;0.796911
9215.000000;0.796695
9214.000000;0.796704
9213.000000;0.796970
9212.000000;0.797320
9211.000000;0.797481
9210.000000;0.797253
9209.000000;0.796707
9208.000000;0.796177
9207.000000;0.795953
9206.000000;0.796002
9205.000000;0.796092
9204.000000;0.796111
9203.000000;0.796126
9202.000000;0.796178
9201.000000;0.796215
9200.000000;0.796232
9199.000000;0.796320
9198.000000;0.796496
9197.000000;0.796615
9196.000000;0.796518
9195.000000;0.796215
9194.000000;0.795865
9193.000000;0.795647
9192.000000;0.795653
9191.000000;0.795824
9190.000000;0.795986
9189.000000;0.796003
9188.000000;0.795924
9187.000000;0.795891
9186.000000;0.795915
9185.000000;0.795849
9184.000000;0.795607
9183.000000;0.795282
9182.000000;0.794999
9181.000000;0.794772
9180.000000;0.794579
9179.000000;0.794478
9178.000000;0.794527
9177.000000;0.794649
9176.000000;0.794701
9175.000000;0.794676
9174.000000;0.794700
9173.000000;0.794810
9172.000000;0.794850
9171.000000;0.794680
9170.000000;0.794420
9169.000000;0.794360
9168.000000;0.794611
9167.000000;0.794933
9166.000000;0.794995
9165.000000;0.794726
9164.000000;0.794317
9163.000000;0.793948
9162.000000;0.793642
9161.000000;0.793391
9160.000000;0.793266
9159.000000;0.793310
9158.000000;0.793434
9157.000000;0.793498
9156.000000;0.793434
9155.000000;0.793224
9154.000000;0.792864
9153.000000;0.792446
9152.000000;0.792187
9151.000000;0.792216
9150.000000;0.792378
9149.000000;0.792417
9148.000000;0.792337
9147.000000;0.792405
9146.000000;0.792755
9145.000000;0.793168
9144.000000;0.793330
9143.000000;0.793179
9142.000000;0.792906
9141.000000;0.792679
9140.000000;0.792506
9139.000000;0.792361
9138.000000;0.792311
9137.000000;0.792483
9136.000000;0.792915
9135.000000;0.793443
9134.000000;0.793789
9133.000000;0.793774
9132.000000;0.793466
9131.000000;0.793053
9130.000000;0.792643
9129.000000;0.792260
9128.000000;0.792029
9127.000000;0.792169
9126.000000;0.792716
9125.000000;0.793347
9124.000000;0.793629
9123.000000;0.793424
9122.000000;0.792975
9121.000000;0.792614
9120.000000;0.792464
9119.000000;0.792404
9118.000000;0.792230
9117.000000;0.791850
9116.000000;0.791385
9115.000000;0.791106
9114.000000;0.791192
9113.000000;0.791524
9112.000000;0.791777
9111.000000;0.791756
9110.000000;0.791586
9109.000000;0.791510
9108.000000;0.791565
9107.000000;0.791531
9106.000000;0.791216
9105.000000;0.790697
9104.000000;0.790236
9103.000000;0.790004
9102.000000;0.789948
9101.000000;0.789913
9100.000000;0.789814
9099.000000;0.789679
9098.000000;0.789587
9097.000000;0.789605
9096.000000;0.789742
9095.000000;0.789926
9094.000000;0.790029
9093.000000;0.789960
9092.000000;0.789756
9091.000000;0.789561
9090.000000;0.789511
9089.000000;0.789638
9088.000000;0.789870
9087.000000;0.790112
9086.000000;0.790314
9085.000000;0.790455
9084.000000;0.790475
9083.000000;0.790272
9082.000000;0.789832
9081.000000;0.789337
9080.000000;0.789061
9079.000000;0.789096
9078.000000;0.789253
9077.000000;0.789261
9076.000000;0.789044
9075.000000;0.788756
9074.000000;0.788594
9073.000000;0.788617
9072.000000;0.788712
9071.000000;0.788674
9070.000000;0.788363
9069.000000;0.787853
9068.000000;0.787420
9067.000000;0.787330
9066.000000;0.787620
9065.000000;0.788102
9064.000000;0.788552
9063.000000;0.788845
9062.000000;0.788947
9061.000000;0.788870
9060.000000;0.788647
9059.000000;0.788321
9058.000000;0.787942
9057.000000;0.787604
9056.000000;0.787434
9055.000000;0.787474
9054.000000;0.787605
9053.000000;0.787654
9052.000000;0.787568
9051.000000;0.787421
9050.000000;0.787277
9049.000000;0.787138
9048.000000;0.787044
9047.000000;0.787091
9046.000000;0.787271
9045.000000;0.787397
9044.000000;0.787290
9043.000000;0.787005
9042.000000;0.786771
9041.000000;0.786729
9040.000000;0.786799
9039.000000;0.786810
9038.000000;0.786688
9037.000000;0.786477
9036.000000;0.786260
9035.000000;0.786093
9034.000000;0.786010
9033.000000;0.786014
9032.000000;0.786074
9031.000000;0.786150
9030.000000;0.786248
9029.000000;0.786405
9028.000000;0.786609
9027.000000;0.786741
9026.000000;0.786651
9025.000000;0.786286
9024.000000;0.785761
9023.000000;0.785287
9022.000000;0.785032
9021.000000;0.785039
9020.000000;0.785214
9019.000000;0.785406
9018.000000;0.785497
9017.000000;0.785442
9016.000000;0.785224
9015.000000;0.784860
9014.000000;0.784466
9013.000000;0.784271
9012.000000;0.784435
9011.000000;0.784861
9010.000000;0.785284
9009.000000;0.785542
9008.000000;0.785661
9007.000000;0.785690
9006.000000;0.785597
9005.000000;0.785409
9004.000000;0.785298
9003.000000;0.785369
9002.000000;0.785436
9001.000000;0.785187
9000.000000;0.784564
8999.000000;0.783845
8998.000000;0.783352
8997.000000;0.783176
8996.000000;0.783211
8995.000000;0.783324
8994.000000;0.783452
8993.000000;0.783605
8992.000000;0.783805
8991.000000;0.784018
8990.000000;0.784141
8989.000000;0.784125
8988.000000;0.784085
8987.000000;0.784184
8986.000000;0.784408
8985.000000;0.784542
8984.000000;0.784404
8983.000000;0.784048
8982.000000;0.783693
8981.000000;0.783507
8980.000000;0.783471
8979.000000;0.783436
8978.000000;0.783302
8977.000000;0.783149
8976.000000;0.783151
8975.000000;0.783341
8974.000000;0.783520
8973.000000;0.783485
8972.000000;0.783291
8971.000000;0.783156
8970.000000;0.783173
8969.000000;0.783223
8968.000000;0.783183
8967.000000;0.783055
8966.000000;0.782882
8965.000000;0.782677
8964.000000;0.782508
8963.000000;0.782505
8962.000000;0.782695
8961.000000;0.782905
8960.000000;0.782950
8959.000000;0.782816
8958.000000;0.782605
8957.000000;0.782373
8956.000000;0.782105
8955.000000;0.781814
8954.000000;0.781561
8953.000000;0.781408
8952.000000;0.781404
8951.000000;0.781573
8950.000000;0.781841
8949.000000;0.782029
8948.000000;0.781998
8947.000000;0.781788
8946.000000;0.781552
8945.000000;0.781383
8944.000000;0.781260
8943.000000;0.781139
8942.000000;0.781020
8941.000000;0.780940
8940.000000;0.780952
8939.000000;0.781101
8938.000000;0.781374
8937.000000;0.781655
8936.000000;0.781793
8935.000000;0.781721
8934.000000;0.781498
8933.000000;0.781257
8932.000000;0.781117
8931.000000;0.781120
8930.000000;0.781212
8929.000000;0.781294
8928.000000;0.781312
8927.000000;0.781299
8926.000000;0.781320
8925.000000;0.781400
8924.000000;0.781495
8923.000000;0.781512
8922.000000;0.781341
8921.000000;0.780945
8920.000000;0.780441
8919.000000;0.780027
8918.000000;0.779809
8917.000000;0.779733
8916.000000;0.779708
8915.000000;0.779720
8914.000000;0.779786
8913.000000;0.779854
8912.000000;0.779847
8911.000000;0.779746
8910.000000;0.779578
8909.000000;0.779362
8908.000000;0.779138
8907.000000;0.779013
8906.000000;0.779080
8905.000000;0.779310
8904.000000;0.779566
8903.000000;0.779722
8902.000000;0.779711
8901.000000;0.779521
8900.000000;0.779210
8899.000000;0.778907
8898.000000;0.778724
8897.000000;0.778650
8896.000000;0.778604
8895.000000;0.778560
8894.000000;0.778568
8893.000000;0.778648
8892.000000;0.778747
8891.000000;0.778794
8890.000000;0.778743
8889.000000;0.778573
8888.000000;0.778315
8887.000000;0.778075
8886.000000;0.777970
8885.000000;0.778020
8884.000000;0.778143
8883.000000;0.778252
8882.000000;0.778315
8881.000000;0.778330
8880.000000;0.778306
8879.000000;0.778274
8878.000000;0.778246
8877.000000;0.778156
8876.000000;0.777933
8875.000000;0.777629
8874.000000;0.777415
8873.000000;0.777401
8872.000000;0.777527
8871.000000;0.777651
8870.000000;0.777690
8869.000000;0.777644
8868.000000;0.777540
8867.000000;0.777421
8866.000000;0.777345
8865.000000;0.777333
8864.000000;0.777334
8863.000000;0.777289
8862.000000;0.777202
8861.000000;0.777118
8860.000000;0.777051
8859.000000;0.776971
8858.000000;0.776854
8857.000000;0.776718
8856.000000;0.776608
8855.000000;0.776556
8854.000000;0.776560
8853.000000;0.776584
8852.000000;0.776589
8851.000000;0.776589
8850.000000;0.776648
8849.000000;0.776804
8848.000000;0.777025
8847.000000;0.777237
8846.000000;0.777375
8845.000000;0.777386
8844.000000;0.777218
8843.000000;0.776874
8842.000000;0.776457
8841.000000;0.776101
8840.000000;0.775853
8839.000000;0.775669
8838.000000;0.775535
8837.000000;0.775520
8836.000000;0.775662
8835.000000;0.775841
8834.000000;0.775869
8833.000000;0.775708
8832.000000;0.775549
8831.000000;0.775599
8830.000000;0.775836
8829.000000;0.776047
8828.000000;0.776065
8827.000000;0.775931
8826.000000;0.775802
8825.000000;0.775790
8824.000000;0.775922
8823.000000;0.776139
8822.000000;0.776269
8821.000000;0.776084
8820.000000;0.775519
8819.000000;0.774824
8818.000000;0.774376
8817.000000;0.774321
8816.000000;0.774491
8815.000000;0.774679
8814.000000;0.774859
8813.000000;0.775076
8812.000000;0.775240
8811.000000;0.775177
8810.000000;0.774857
8809.000000;0.774456
8808.000000;0.774169
8807.000000;0.774054
8806.000000;0.774056
8805.000000;0.774112
8804.000000;0.774181
8803.000000;0.774237
8802.000000;0.774260
8801.000000;0.774227
8800.000000;0.774100
8799.000000;0.773865
8798.000000;0.773597
8797.000000;0.773432
8796.000000;0.773460
8795.000000;0.773664
8794.000000;0.773961
8793.000000;0.774286
8792.000000;0.774583
8791.000000;0.774785
8790.000000;0.774834
8789.000000;0.774737
8788.000000;0.774568
8787.000000;0.774422
8786.000000;0.774369
8785.000000;0.774423
8784.000000;0.774500
8783.000000;0.774460
8782.000000;0.774245
8781.000000;0.773970
8780.000000;0.773813
8779.000000;0.773808
8778.000000;0.773821
8777.000000;0.773749
8776.000000;0.773666
8775.000000;0.773688
8774.000000;0.773760
8773.000000;0.773686
8772.000000;0.773406
8771.000000;0.773127
8770.000000;0.773088
8769.000000;0.773262
8768.000000;0.773388
8767.000000;0.773289
8766.000000;0.773055
8765.000000;0.772870
8764.000000;0.772769
8763.000000;0.772667
8762.000000;0.772574
8761.000000;0.772626
8760.000000;0.772891
8759.000000;0.773236
8758.000000;0.773470
8757.000000;0.773542
8756.000000;0.773521
8755.000000;0.773450
8754.000000;0.773290
8753.000000;0.773035
8752.000000;0.772770
8751.000000;0.772601
8750.000000;0.772569
8749.000000;0.772648
8748.000000;0.772774
8747.000000;0.772869
8746.000000;0.772889
8745.000000;0.772859
8744.000000;0.772833
8743.000000;0.772790
8742.000000;0.772661
8741.000000;0.772465
8740.000000;0.772338
8739.000000;0.772362
8738.000000;0.772454
8737.000000;0.772491
8736.000000;0.772497
8735.000000;0.772585
8734.000000;0.772746
8733.000000;0.772829
8732.000000;0.772748
8731.000000;0.772596
8730.000000;0.772492
8729.000000;0.772410
8728.000000;0.772258
8727.000000;0.772072
8726.000000;0.772027
8725.000000;0.772242
8724.000000;0.772632
8723.000000;0.772982
8722.000000;0.773127
8721.000000;0.773052
8720.000000;0.772840
8719.000000;0.772576
8718.000000;0.772297
8717.000000;0.772002
8716.000000;0.771692
8715.000000;0.771405
8714.000000;0.771223
8713.000000;0.771248
8712.000000;0.771503
8711.000000;0.771847
8710.000000;0.772046
8709.000000;0.771991
8708.000000;0.771824
8707.000000;0.771757
8706.000000;0.771796
8705.000000;0.771749
8704.000000;0.771518
8703.000000;0.771267
8702.000000;0.771213
8701.000000;0.771352
8700.000000;0.771489
8699.000000;0.771498
8698.000000;0.771434
8697.000000;0.771397
8696.000000;0.771396
8695.000000;0.771386
8694.000000;0.771366
8693.000000;0.771378
8692.000000;0.771428
8691.000000;0.771453
8690.000000;0.771363
8689.000000;0.771111
8688.000000;0.770738
8687.000000;0.770369
8686.000000;0.770141
8685.000000;0.770148
8684.000000;0.770419
8683.000000;0.770909
8682.000000;0.771468
8681.000000;0.771879
8680.000000;0.772010
8679.000000;0.771929
8678.000000;0.771814
8677.000000;0.771717
8676.000000;0.771512
8675.000000;0.771114
8674.000000;0.770658
8673.000000;0.770377
8672.000000;0.770325
8671.000000;0.770334
8670.000000;0.770249
8669.000000;0.770108
8668.000000;0.770035
8667.000000;0.770030
8666.000000;0.769958
8665.000000;0.769748
8664.000000;0.769512
8663.000000;0.769418
8662.000000;0.769507
8661.000000;0.769690
8660.000000;0.769890
8659.000000;0.770095
8658.000000;0.770254
8657.000000;0.770229
8656.000000;0.769936
8655.000000;0.769495
8654.000000;0.769143
8653.000000;0.769009
8652.000000;0.769030
8651.000000;0.769109
8650.000000;0.769229
8649.000000;0.769390
8648.000000;0.769505
8647.000000;0.769473
8646.000000;0.769312
8645.000000;0.769158
8644.000000;0.769095
8643.000000;0.769069
8642.000000;0.768966
8641.000000;0.768729
8640.000000;0.768392
8639.000000;0.768051
8638.000000;0.767809
8637.000000;0.767742
8636.000000;0.767841
8635.000000;0.768006
8634.000000;0.768109
8633.000000;0.768055
8632.000000;0.767821
8631.000000;0.767461
8630.000000;0.767106
8629.000000;0.766904
8628.000000;0.766902
8627.000000;0.767008
8626.000000;0.767084
8625.000000;0.767088
8624.000000;0.767068
8623.000000;0.767042
8622.000000;0.766949
8621.000000;0.766749
8620.000000;0.766524
8619.000000;0.766408
8618.000000;0.766430
8617.000000;0.766457
8616.000000;0.766326
8615.000000;0.766016
8614.000000;0.765669
8613.000000;0.765452
8612.000000;0.765400
8611.000000;0.765389
8610.000000;0.765257
8609.000000;0.764963
8608.000000;0.764620
8607.000000;0.764387
8606.000000;0.764321
8605.000000;0.764339
8604.000000;0.764324
8603.000000;0.764246
8602.000000;0.764188
8601.000000;0.764230
8600.000000;0.764339
8599.000000;0.764366
8598.000000;0.764191
8597.000000;0.763853
8596.000000;0.763521
8595.000000;0.763332
8594.000000;0.763274
8593.000000;0.763240
8592.000000;0.763164
8591.000000;0.763059
8590.000000;0.762953
8589.000000;0.762835
8588.000000;0.762699
8587.000000;0.762570
8586.000000;0.762478
8585.000000;0.762405
8584.000000;0.762321
8583.000000;0.762244
8582.000000;0.762223
8581.000000;0.762263
8580.000000;0.762293
8579.000000;0.762248
8578.000000;0.762157
8577.000000;0.762132
8576.000000;0.762245
8575.000000;0.762427
8574.000000;0.762497
8573.000000;0.762315
8572.000000;0.761928
8571.000000;0.761545
8570.000000;0.761350
8569.000000;0.761354
8568.000000;0.761423
8567.000000;0.761419
8566.000000;0.761284
8565.000000;0.761023
8564.000000;0.760690
8563.000000;0.760392
8562.000000;0.760232
8561.000000;0.760200
8560.000000;0.760176
8559.000000;0.760060
8558.000000;0.759882
8557.000000;0.759748
8556.000000;0.759701
8555.000000;0.759698
8554.000000;0.759677
8553.000000;0.759617
8552.000000;0.759517
8551.000000;0.759376
8550.000000;0.759200
8549.000000;0.759000
8548.000000;0.758783
8547.000000;0.758587
8546.000000;0.758474
8545.000000;0.758456
8544.000000;0.758434
8543.000000;0.758294
8542.000000;0.758077
8541.000000;0.757969
8540.000000;0.758066
8539.000000;0.758226
8538.000000;0.758215
8537.000000;0.757972
8536.000000;0.757656
8535.000000;0.757446
8534.000000;0.757349
8533.000000;0.757236
8532.000000;0.756995
8531.000000;0.756648
8530.000000;0.756320
8529.000000;0.756130
8528.000000;0.756113
8527.000000;0.756224
8526.000000;0.756406
8525.000000;0.756602
8524.000000;0.756719
8523.000000;0.756648
8522.000000;0.756386
8521.000000;0.756068
8520.000000;0.755834
8519.000000;0.755670
8518.000000;0.755464
8517.000000;0.755188
8516.000000;0.754944
8515.000000;0.754819
8514.000000;0.754788
8513.000000;0.754798
8512.000000;0.754844
8511.000000;0.754918
8510.000000;0.754965
8509.000000;0.754953
8508.000000;0.754947
8507.000000;0.755032
8506.000000;0.755176
8505.000000;0.755251
8504.000000;0.755157
8503.000000;0.754890
8502.000000;0.754501
8501.000000;0.754085
8500.000000;0.753775
8499.000000;0.753673
8498.000000;0.753747
8497.000000;0.753859
8496.000000;0.753898
8495.000000;0.753860
8494.000000;0.753787
8493.000000;0.753704
8492.000000;0.753632
8491.000000;0.753584
8490.000000;0.753515
8489.000000;0.753339
8488.000000;0.753044
8487.000000;0.752751
8486.000000;0.752597
8485.000000;0.752585
8484.000000;0.752603
8483.000000;0.752569
8482.000000;0.752483
8481.000000;0.752369
8480.000000;0.752236
8479.000000;0.752123
8478.000000;0.752097
8477.000000;0.752168
8476.000000;0.752232
8475.000000;0.752151
8474.000000;0.751887
8473.000000;0.751530
8472.000000;0.751225
8471.000000;0.751068
8470.000000;0.751056
8469.000000;0.751100
8468.000000;0.751099
8467.000000;0.751012
8466.000000;0.750883
8465.000000;0.750778
8464.000000;0.750723
8463.000000;0.750695
8462.000000;0.750666
8461.000000;0.750626
8460.000000;0.750580
8459.000000;0.750526
8458.000000;0.750440
8457.000000;0.750270
8456.000000;0.749981
8455.000000;0.749627
8454.000000;0.749363
8453.000000;0.749318
8452.000000;0.749450
8451.000000;0.749570
8450.000000;0.749524
8449.000000;0.749334
8448.000000;0.749130
8447.000000;0.748995
8446.000000;0.748918
8445.000000;0.748869
8444.000000;0.748855
8443.000000;0.748855
8442.000000;0.748771
8441.000000;0.748499
8440.000000;0.748063
8439.000000;0.747628
8438.000000;0.747361
8437.000000;0.747289
8436.000000;0.747315
8435.000000;0.747341
8434.000000;0.747346
8433.000000;0.747337
8432.000000;0.747296
8431.000000;0.747196
8430.000000;0.747074
8429.000000;0.747019
8428.000000;0.747081
8427.000000;0.747211
8426.000000;0.747300
8425.000000;0.747268
8424.000000;0.747111
8423.000000;0.746879
8422.000000;0.746642
8421.000000;0.746451
8420.000000;0.746333
8419.000000;0.746298
8418.000000;0.746347
8417.000000;0.746424
8416.000000;0.746407
8415.000000;0.746190
8414.000000;0.745825
8413.000000;0.745509
8412.000000;0.745399
8411.000000;0.745457
8410.000000;0.745525
8409.000000;0.745514
8408.000000;0.745455
8407.000000;0.745378
8406.000000;0.745253
8405.000000;0.745069
8404.000000;0.744912
8403.000000;0.744890
8402.000000;0.745013
8401.000000;0.745184
8400.000000;0.745297
8399.000000;0.745308
8398.000000;0.745223
8397.000000;0.745064
8396.000000;0.744857
8395.000000;0.744641
8394.000000;0.744462
8393.000000;0.744361
8392.000000;0.744341
8391.000000;0.744339
8390.000000;0.744269
8389.000000;0.744114
8388.000000;0.743950
8387.000000;0.743867
8386.000000;0.743861
8385.000000;0.743851
8384.000000;0.743762
8383.000000;0.743593
8382.000000;0.743389
8381.000000;0.743200
8380.000000;0.743063
8379.000000;0.742991
8378.000000;0.742956
8377.000000;0.742887
8376.000000;0.742710
8375.000000;0.742425
8374.000000;0.742149
8373.000000;0.742063
8372.000000;0.742252
8371.000000;0.742584
8370.000000;0.742802
8369.000000;0.742746
8368.000000;0.742487
8367.000000;0.742213
8366.000000;0.742040
8365.000000;0.741952
8364.000000;0.741880
8363.000000;0.741785
8362.000000;0.741662
8361.000000;0.741543
8360.000000;0.741463
8359.000000;0.741398
8358.000000;0.741260
8357.000000;0.741015
8356.000000;0.740779
8355.000000;0.740723
8354.000000;0.740845
8353.000000;0.740960
8352.000000;0.740927
8351.000000;0.740804
8350.000000;0.740709
8349.000000;0.740626
8348.000000;0.740453
8347.000000;0.740206
8346.000000;0.740032
8345.000000;0.740007
8344.000000;0.740046
8343.000000;0.740035
8342.000000;0.739991
8341.000000;0.739991
8340.000000;0.740025
8339.000000;0.740003
8338.000000;0.739887
8337.000000;0.739744
8336.000000;0.739631
8335.000000;0.739513
8334.000000;0.739320
8333.000000;0.739064
8332.000000;0.738846
8331.000000;0.738757
8330.000000;0.738794
8329.000000;0.738882
8328.000000;0.738949
8327.000000;0.738955
8326.000000;0.738884
8325.000000;0.738729
8324.000000;0.738508
8323.000000;0.738273
8322.000000;0.738097
8321.000000;0.738028
8320.000000;0.738063
8319.000000;0.738154
8318.000000;0.738231
8317.000000;0.738225
8316.000000;0.738092
8315.000000;0.737845
8314.000000;0.737561
8313.000000;0.737337
8312.000000;0.737221
8311.000000;0.737182
8310.000000;0.737143
8309.000000;0.737048
8308.000000;0.736897
8307.000000;0.736733
8306.000000;0.736597
8305.000000;0.736483
8304.000000;0.736353
8303.000000;0.736187
8302.000000;0.736025
8301.000000;0.735930
8300.000000;0.735921
8299.000000;0.735940
8298.000000;0.735910
8297.000000;0.735810
8296.000000;0.735697
8295.000000;0.735657
8294.000000;0.735734
8293.000000;0.735887
8292.000000;0.736003
8291.000000;0.735988
8290.000000;0.735862
8289.000000;0.735743
8288.000000;0.735708
8287.000000;0.735694
8286.000000;0.735564
8285.000000;0.735280
8284.000000;0.734956
8283.000000;0.734740
8282.000000;0.734675
8281.000000;0.734694
8280.000000;0.734708
8279.000000;0.734669
8278.000000;0.734582
8277.000000;0.734468
8276.000000;0.734340
8275.000000;0.734182
8274.000000;0.733979
8273.000000;0.733763
8272.000000;0.733612
8271.000000;0.733579
8270.000000;0.733645
8269.000000;0.733739
8268.000000;0.733801
8267.000000;0.733797
8266.000000;0.733720
8265.000000;0.733607
8264.000000;0.733533
8263.000000;0.733544
8262.000000;0.733593
8261.000000;0.733575
8260.000000;0.733433
8259.000000;0.733219
8258.000000;0.733041
8257.000000;0.732965
8256.000000;0.732975
8255.000000;0.733000
8254.000000;0.732969
8253.000000;0.732844
8252.000000;0.732631
8251.000000;0.732358
8250.000000;0.732072
8249.000000;0.731844
8248.000000;0.731749
8247.000000;0.731802
8246.000000;0.731934
8245.000000;0.732044
8244.000000;0.732098
8243.000000;0.732128
8242.000000;0.732159
8241.000000;0.732158
8240.000000;0.732076
8239.000000;0.731903
8238.000000;0.731673
8237.000000;0.731422
8236.000000;0.731159
8235.000000;0.730892
8234.000000;0.730652
8233.000000;0.730481
8232.000000;0.730405
8231.000000;0.730416
8230.000000;0.730498
8229.000000;0.730655
8228.000000;0.730871
8227.000000;0.731051
8226.000000;0.731050
8225.000000;0.730804
8224.000000;0.730424
8223.000000;0.730104
8222.000000;0.729964
8221.000000;0.729979
8220.000000;0.730061
8219.000000;0.730127
8218.000000;0.730116
8217.000000;0.730007
8216.000000;0.729844
8215.000000;0.729703
8214.000000;0.729607
8213.000000;0.729512
8212.000000;0.729390
8211.000000;0.729278
8210.000000;0.729197
8209.000000;0.729098
8208.000000;0.728930
8207.000000;0.728755
8206.000000;0.728693
8205.000000;0.728775
8204.000000;0.728888
8203.000000;0.728900
8202.000000;0.728790
8201.000000;0.728630
8200.000000;0.728495
8199.000000;0.728408
8198.000000;0.728349
8197.000000;0.728296
8196.000000;0.728228
8195.000000;0.728134
8194.000000;0.728025
8193.000000;0.727931
8192.000000;0.727866
8191.000000;0.727799
8190.000000;0.727661
8189.000000;0.727430
8188.000000;0.727190
8187.000000;0.727064
8186.000000;0.727088
8185.000000;0.727180
8184.000000;0.727252
8183.000000;0.727303
8182.000000;0.727359
8181.000000;0.727384
8180.000000;0.727328
8179.000000;0.727221
8178.000000;0.727151
8177.000000;0.727118
8176.000000;0.727017
8175.000000;0.726798
8174.000000;0.726564
8173.000000;0.726450
8172.000000;0.726454
8171.000000;0.726453
8170.000000;0.726371
8169.000000;0.726261
8168.000000;0.726213
8167.000000;0.726222
8166.000000;0.726202
8165.000000;0.726093
8164.000000;0.725929
8163.000000;0.725792
8162.000000;0.725712
8161.000000;0.725638
8160.000000;0.725537
8159.000000;0.725456
8158.000000;0.725459
8157.000000;0.725512
8156.000000;0.725509
8155.000000;0.725419
8154.000000;0.725334
8153.000000;0.725335
8152.000000;0.725383
8151.000000;0.725392
8150.000000;0.725361
8149.000000;0.725333
8148.000000;0.725272
8147.000000;0.725085
8146.000000;0.724768
8145.000000;0.724444
8144.000000;0.724232
8143.000000;0.724158
8142.000000;0.724189
8141.000000;0.724300
8140.000000;0.724421
8139.000000;0.724421
8138.000000;0.724206
8137.000000;0.723839
8136.000000;0.723512
8135.000000;0.723376
8134.000000;0.723433
8133.000000;0.723569
8132.000000;0.723658
8131.000000;0.723655
8130.000000;0.723597
8129.000000;0.723542
8128.000000;0.723502
8127.000000;0.723441
8126.000000;0.723310
8125.000000;0.723085
8124.000000;0.722794
8123.000000;0.722548
8122.000000;0.722503
8121.000000;0.722723
8120.000000;0.723057
8119.000000;0.723240
8118.000000;0.723147
8117.000000;0.722901
8116.000000;0.722715
8115.000000;0.722675
8114.000000;0.722721
8113.000000;0.722757
8112.000000;0.722719
8111.000000;0.722593
8110.000000;0.722443
8109.000000;0.722392
8108.000000;0.722497
8107.000000;0.722645
8106.000000;0.722660
8105.000000;0.722482
8104.000000;0.722202
8103.000000;0.721929
8102.000000;0.721722
8101.000000;0.721631
8100.000000;0.721696
8099.000000;0.721860
8098.000000;0.721959
8097.000000;0.721864
8096.000000;0.721598
8095.000000;0.721296
8094.000000;0.721075
8093.000000;0.720952
8092.000000;0.720866
8091.000000;0.720743
8090.000000;0.720573
8089.000000;0.720423
8088.000000;0.720364
8087.000000;0.720379
8086.000000;0.720391
8085.000000;0.720368
8084.000000;0.720353
8083.000000;0.720374
8082.000000;0.720399
8081.000000;0.720393
8080.000000;0.720357
8079.000000;0.720292
8078.000000;0.720165
8077.000000;0.719975
8076.000000;0.719779
8075.000000;0.719649
8074.000000;0.719611
8073.000000;0.719663
8072.000000;0.719788
8071.000000;0.719919
8070.000000;0.719949
8069.000000;0.719849
8068.000000;0.719708
8067.000000;0.719630
8066.000000;0.719608
8065.000000;0.719568
8064.000000;0.719486
8063.000000;0.719383
8062.000000;0.719253
8061.000000;0.719080
8060.000000;0.718909
8059.000000;0.718835
8058.000000;0.718879
8057.000000;0.718956
8056.000000;0.718976
8055.000000;0.718919
8054.000000;0.718825
8053.000000;0.718732
8052.000000;0.718659
8051.000000;0.718592
8050.000000;0.718493
8049.000000;0.718352
8048.000000;0.718224
8047.000000;0.718172
8046.000000;0.718173
8045.000000;0.718140
8044.000000;0.718029
8043.000000;0.717871
8042.000000;0.717706
8041.000000;0.717554
8040.000000;0.717463
8039.000000;0.717492
8038.000000;0.717615
8037.000000;0.717693
8036.000000;0.717626
8035.000000;0.717476
8034.000000;0.717377
8033.000000;0.717350
8032.000000;0.717292
8031.000000;0.717139
8030.000000;0.716965
8029.000000;0.716885
8028.000000;0.716913
8027.000000;0.716951
8026.000000;0.716901
8025.000000;0.716763
8024.000000;0.716610
8023.000000;0.716509
8022.000000;0.716465
8021.000000;0.716457
8020.000000;0.716486
8019.000000;0.716557
8018.000000;0.716635
8017.000000;0.716647
8016.000000;0.716557
8015.000000;0.716406
8014.000000;0.716267
8013.000000;0.716182
8012.000000;0.716150
8011.000000;0.716141
8010.000000;0.716097
8009.000000;0.715960
8008.000000;0.715720
8007.000000;0.715434
8006.000000;0.715175
8005.000000;0.714991
8004.000000;0.714921
8003.000000;0.715002
8002.000000;0.715200
8001.000000;0.715364
8000.000000;0.715330
7999.000000;0.715085
7998.000000;0.714773
7997.000000;0.714542
7996.000000;0.714435
7995.000000;0.714434
7994.000000;0.714529
7993.000000;0.714684
7992.000000;0.714802
7991.000000;0.714815
7990.000000;0.714764
7989.000000;0.714742
7988.000000;0.714772
7987.000000;0.714797
7986.000000;0.714778
7985.000000;0.714729
7984.000000;0.714652
7983.000000;0.714515
7982.000000;0.714313
7981.000000;0.714113
7980.000000;0.713992
7979.000000;0.713975
7978.000000;0.714033
7977.000000;0.714114
7976.000000;0.714141
7975.000000;0.714052
7974.000000;0.713875
7973.000000;0.713731
7972.000000;0.713710
7971.000000;0.713761
7970.000000;0.713764
7969.000000;0.713684
7968.000000;0.713587
7967.000000;0.713531
7966.000000;0.713510
7965.000000;0.713508
7964.000000;0.713529
7963.000000;0.713553
7962.000000;0.713525
7961.000000;0.713417
7960.000000;0.713267
7959.000000;0.713128
7958.000000;0.713008
7957.000000;0.712895
7956.000000;0.712785
7955.000000;0.712676
7954.000000;0.712561
7953.000000;0.712465
7952.000000;0.712450
7951.000000;0.712521
7950.000000;0.712571
7949.000000;0.712479
7948.000000;0.712254
7947.000000;0.712024
7946.000000;0.711878
7945.000000;0.711782
7944.000000;0.711661
7943.000000;0.711511
7942.000000;0.711392
7941.000000;0.711350
7940.000000;0.711377
7939.000000;0.711436
7938.000000;0.711493
7937.000000;0.711528
7936.000000;0.711527
7935.000000;0.711473
7934.000000;0.711361
7933.000000;0.711206
7932.000000;0.711051
7931.000000;0.710934
7930.000000;0.710859
7929.000000;0.710823
7928.000000;0.710849
7927.000000;0.710954
7926.000000;0.711082
7925.000000;0.711113
7924.000000;0.710988
7923.000000;0.710794
7922.000000;0.710682
7921.000000;0.710712
7920.000000;0.710788
7919.000000;0.710771
7918.000000;0.710626
7917.000000;0.710455
7916.000000;0.710380
7915.000000;0.710409
7914.000000;0.710410
7913.000000;0.710248
7912.000000;0.709944
7911.000000;0.709666
7910.000000;0.709567
7909.000000;0.709648
7908.000000;0.709791
7907.000000;0.709902
7906.000000;0.709976
7905.000000;0.710034
7904.000000;0.710065
7903.000000;0.710040
7902.000000;0.709949
7901.000000;0.709797
7900.000000;0.709581
7899.000000;0.709312
7898.000000;0.709047
7897.000000;0.708878
7896.000000;0.708875
7895.000000;0.709028
7894.000000;0.709228
7893.000000;0.709312
7892.000000;0.709167
7891.000000;0.708828
7890.000000;0.708461
7889.000000;0.708236
7888.000000;0.708207
7887.000000;0.708300
7886.000000;0.708405
7885.000000;0.708455
7884.000000;0.708438
7883.000000;0.708391
7882.000000;0.708362
7881.000000;0.708369
7880.000000;0.708373
7879.000000;0.708319
7878.000000;0.708209
7877.000000;0.708091
7876.000000;0.707998
7875.000000;0.707912
7874.000000;0.707807
7873.000000;0.707686
7872.000000;0.707576
7871.000000;0.707504
7870.000000;0.707492
7869.000000;0.707539
7868.000000;0.707598
7867.000000;0.707606
7866.000000;0.707538
7865.000000;0.707421
7864.000000;0.707275
7863.000000;0.707114
7862.000000;0.706992
7861.000000;0.706996
7860.000000;0.707137
7859.000000;0.707301
7858.000000;0.707379
7857.000000;0.707389
7856.000000;0.707413
7855.000000;0.707445
7854.000000;0.707393
7853.000000;0.707210
7852.000000;0.706955
7851.000000;0.706711
7850.000000;0.706532
7849.000000;0.706458
7848.000000;0.706506
7847.000000;0.706608
7846.000000;0.706633
7845.000000;0.706537
7844.000000;0.706421
7843.000000;0.706401
7842.000000;0.706462
7841.000000;0.706493
7840.000000;0.706427
7839.000000;0.706295
7838.000000;0.706166
7837.000000;0.706076
7836.000000;0.706025
7835.000000;0.705987
7834.000000;0.705939
7833.000000;0.705875
7832.000000;0.705802
7831.000000;0.705717
7830.000000;0.705623
7829.000000;0.705555
7828.000000;0.705558
7827.000000;0.705620
7826.000000;0.705663
7825.000000;0.705633
7824.000000;0.705549
7823.000000;0.705444
7822.000000;0.705312
7821.000000;0.705150
7820.000000;0.705007
7819.000000;0.704936
7818.000000;0.704923
7817.000000;0.704924
7816.000000;0.704925
7815.000000;0.704917
7814.000000;0.704853
7813.000000;0.704691
7812.000000;0.704485
7811.000000;0.704336
7810.000000;0.704279
7809.000000;0.704253
7808.000000;0.704195
7807.000000;0.704108
7806.000000;0.704030
7805.000000;0.703990
7804.000000;0.704000
7803.000000;0.704058
7802.000000;0.704122
7801.000000;0.704128
7800.000000;0.704036
7799.000000;0.703848
7798.000000;0.703599
7797.000000;0.703355
7796.000000;0.703202
7795.000000;0.703186
7794.000000;0.703246
7793.000000;0.703266
7792.000000;0.703191
7791.000000;0.703064
7790.000000;0.702963
7789.000000;0.702928
7788.000000;0.702966
7787.000000;0.703053
7786.000000;0.703127
7785.000000;0.703123
7784.000000;0.703031
7783.000000;0.702895
7782.000000;0.702741
7781.000000;0.702572
7780.000000;0.702412
7779.000000;0.702315
7778.000000;0.702291
7777.000000;0.702285
7776.000000;0.702250
7775.000000;0.702196
7774.000000;0.702142
7773.000000;0.702075
7772.000000;0.701990
7771.000000;0.701931
7770.000000;0.701936
7769.000000;0.701982
7768.000000;0.702009
7767.000000;0.701989
7766.000000;0.701929
7765.000000;0.701841
7764.000000;0.701744
7763.000000;0.701673
7762.000000;0.701654
7761.000000;0.701653
7760.000000;0.701610
7759.000000;0.701509
7758.000000;0.701382
7757.000000;0.701271
7756.000000;0.701190
7755.000000;0.701131
7754.000000;0.701068
7753.000000;0.700974
7752.000000;0.700846
7751.000000;0.700714
7750.000000;0.700604
7749.000000;0.700522
7748.000000;0.700475
7747.000000;0.700470
7746.000000;0.700481
7745.000000;0.700442
7744.000000;0.700333
7743.000000;0.700225
7742.000000;0.700205
7741.000000;0.700270
7740.000000;0.700344
7739.000000;0.700376
7738.000000;0.700371
7737.000000;0.700328
7736.000000;0.700234
7735.000000;0.700111
7734.000000;0.700015
7733.000000;0.699960
7732.000000;0.699892
7731.000000;0.699771
7730.000000;0.699632
7729.000000;0.699546
7728.000000;0.699542
7727.000000;0.699600
7726.000000;0.699682
7725.000000;0.699747
7724.000000;0.699757
7723.000000;0.699699
7722.000000;0.699594
7721.000000;0.699470
7720.000000;0.699339
7719.000000;0.699216
7718.000000;0.699123
7717.000000;0.699071
7716.000000;0.699042
7715.000000;0.699002
7714.000000;0.698928
7713.000000;0.698815
7712.000000;0.698674
7711.000000;0.698535
7710.000000;0.698409
7709.000000;0.698271
7708.000000;0.698083
7707.000000;0.697879
7706.000000;0.697762
7705.000000;0.697793
7704.000000;0.697912
7703.000000;0.697994
7702.000000;0.697987
7701.000000;0.697941
7700.000000;0.697923
7699.000000;0.697950
7698.000000;0.697997
7697.000000;0.698025
7696.000000;0.697995
7695.000000;0.697885
7694.000000;0.697724
7693.000000;0.697588
7692.000000;0.697526
7691.000000;0.697508
7690.000000;0.697470
7689.000000;0.697384
7688.000000;0.697284
7687.000000;0.697222
7686.000000;0.697214
7685.000000;0.697235
7684.000000;0.697237
7683.000000;0.697188
7682.000000;0.697095
7681.000000;0.696991
7680.000000;0.696901
7679.000000;0.696821
7678.000000;0.696730
7677.000000;0.696625
7676.000000;0.696520
7675.000000;0.696426
7674.000000;0.696341
7673.000000;0.696269
7672.000000;0.696232
7671.000000;0.696248
7670.000000;0.696307
7669.000000;0.696371
7668.000000;0.696400
7667.000000;0.696381
7666.000000;0.696309
7665.000000;0.696177
7664.000000;0.695988
7663.000000;0.695786
7662.000000;0.695645
7661.000000;0.695608
7660.000000;0.695634
7659.000000;0.695644
7658.000000;0.695590
7657.000000;0.695491
7656.000000;0.695390
7655.000000;0.695320
7654.000000;0.695296
7653.000000;0.695312
7652.000000;0.695319
7651.000000;0.695257
7650.000000;0.695125
7649.000000;0.694996
7648.000000;0.694944
7647.000000;0.694972
7646.000000;0.695032
7645.000000;0.695103
7644.000000;0.695191
7643.000000;0.695273
7642.000000;0.695279
7641.000000;0.695178
7640.000000;0.695027
7639.000000;0.694915
7638.000000;0.694864
7637.000000;0.694812
7636.000000;0.694702
7635.000000;0.694540
7634.000000;0.694381
7633.000000;0.694265
7632.000000;0.694187
7631.000000;0.694121
7630.000000;0.694048
7629.000000;0.693962
7628.000000;0.693872
7627.000000;0.693797
7626.000000;0.693766
7625.000000;0.693802
7624.000000;0.693892
7623.000000;0.693975
7622.000000;0.693972
7621.000000;0.693857
7620.000000;0.693691
7619.000000;0.693566
7618.000000;0.693513
7617.000000;0.693476
7616.000000;0.693392
7615.000000;0.693270
7614.000000;0.693179
7613.000000;0.693152
7612.000000;0.693156
7611.000000;0.693158
7610.000000;0.693171
7609.000000;0.693215
7608.000000;0.693248
7607.000000;0.693205
7606.000000;0.693081
7605.000000;0.692941
7604.000000;0.692842
7603.000000;0.692786
7602.000000;0.692752
7601.000000;0.692720
7600.000000;0.692662
7599.000000;0.692541
7598.000000;0.692364
7597.000000;0.692195
7596.000000;0.692090
7595.000000;0.692033
7594.000000;0.691975
7593.000000;0.691909
7592.000000;0.691862
7591.000000;0.691845
7590.000000;0.691844
7589.000000;0.691859
7588.000000;0.691903
7587.000000;0.691966
7586.000000;0.692014
7585.000000;0.692026
7584.000000;0.691992
7583.000000;0.691895
7582.000000;0.691726
7581.000000;0.691527
7580.000000;0.691393
7579.000000;0.691386
7578.000000;0.691470
7577.000000;0.691545
7576.000000;0.691531
7575.000000;0.691425
7574.000000;0.691297
7573.000000;0.691224
7572.000000;0.691219
7571.000000;0.691225
7570.000000;0.691192
7569.000000;0.691149
7568.000000;0.691159
7567.000000;0.691213
7566.000000;0.691223
7565.000000;0.691144
7564.000000;0.691032
7563.000000;0.690970
7562.000000;0.690965
7561.000000;0.690962
7560.000000;0.690922
7559.000000;0.690851
7558.000000;0.690764
7557.000000;0.690671
7556.000000;0.690597
7555.000000;0.690571
7554.000000;0.690587
7553.000000;0.690604
7552.000000;0.690578
7551.000000;0.690504
7550.000000;0.690415
7549.000000;0.690343
7548.000000;0.690297
7547.000000;0.690280
7546.000000;0.690320
7545.000000;0.690450
7544.000000;0.690637
7543.000000;0.690768
7542.000000;0.690741
7541.000000;0.690576
7540.000000;0.690400
7539.000000;0.690312
7538.000000;0.690305
7537.000000;0.690307
7536.000000;0.690262
7535.000000;0.690164
7534.000000;0.690047
7533.000000;0.689967
7532.000000;0.689956
7531.000000;0.689971
7530.000000;0.689937
7529.000000;0.689848
7528.000000;0.689782
7527.000000;0.689787
7526.000000;0.689821
7525.000000;0.689822
7524.000000;0.689808
7523.000000;0.689828
7522.000000;0.689861
7521.000000;0.689827
7520.000000;0.689705
7519.000000;0.689568
7518.000000;0.689504
7517.000000;0.689533
7516.000000;0.689616
7515.000000;0.689707
7514.000000;0.689775
7513.000000;0.689814
7512.000000;0.689826
7511.000000;0.689800
7510.000000;0.689704
7509.000000;0.689533
7508.000000;0.689342
7507.000000;0.689210
7506.000000;0.689155
7505.000000;0.689136
7504.000000;0.689109
7503.000000;0.689078
7502.000000;0.689061
7501.000000;0.689067
7500.000000;0.689098
7499.000000;0.689151
7498.000000;0.689209
7497.000000;0.689247
7496.000000;0.689247
7495.000000;0.689200
7494.000000;0.689098
7493.000000;0.688950
7492.000000;0.688793
7491.000000;0.688687
7490.000000;0.688672
7489.000000;0.688749
7488.000000;0.688881
7487.000000;0.689005
7486.000000;0.689055
7485.000000;0.689009
7484.000000;0.688901
7483.000000;0.688779
7482.000000;0.688654
7481.000000;0.688533
7480.000000;0.688460
7479.000000;0.688494
7478.000000;0.688616
7477.000000;0.688732
7476.000000;0.688759
7475.000000;0.688717
7474.000000;0.688686
7473.000000;0.688718
7472.000000;0.688783
7471.000000;0.688805
7470.000000;0.688737
7469.000000;0.688616
7468.000000;0.688532
7467.000000;0.688531
7466.000000;0.688552
7465.000000;0.688500
7464.000000;0.688365
7463.000000;0.688228
7462.000000;0.688159
7461.000000;0.688150
7460.000000;0.688163
7459.000000;0.688196
7458.000000;0.688277
7457.000000;0.688404
7456.000000;0.688529
7455.000000;0.688591
7454.000000;0.688570
7453.000000;0.688500
7452.000000;0.688447
7451.000000;0.688439
7450.000000;0.688425
7449.000000;0.688335
7448.000000;0.688191
7447.000000;0.688119
7446.000000;0.688220
7445.000000;0.688447
7444.000000;0.688653
7443.000000;0.688729
7442.000000;0.688691
7441.000000;0.688610
7440.000000;0.688529
7439.000000;0.688443
7438.000000;0.688361
7437.000000;0.688333
7436.000000;0.688400
7435.000000;0.688535
7434.000000;0.688652
7433.000000;0.688692
7432.000000;0.688658
7431.000000;0.688581
7430.000000;0.688472
7429.000000;0.688349
7428.000000;0.688263
7427.000000;0.688260
7426.000000;0.688317
7425.000000;0.688354
7424.000000;0.688332
7423.000000;0.688293
7422.000000;0.688298
7421.000000;0.688337
7420.000000;0.688346
7419.000000;0.688294
7418.000000;0.688233
7417.000000;0.688237
7416.000000;0.688314
7415.000000;0.688397
7414.000000;0.688414
7413.000000;0.688357
7412.000000;0.688273
7411.000000;0.688195
7410.000000;0.688137
7409.000000;0.688126
7408.000000;0.688210
7407.000000;0.688386
7406.000000;0.688554
7405.000000;0.688600
7404.000000;0.688520
7403.000000;0.688421
7402.000000;0.688380
7401.000000;0.688368
7400.000000;0.688308
7399.000000;0.688189
7398.000000;0.688079
7397.000000;0.688049
7396.000000;0.688107
7395.000000;0.688215
7394.000000;0.688334
7393.000000;0.688439
7392.000000;0.688489
7391.000000;0.688430
7390.000000;0.688254
7389.000000;0.688067
7388.000000;0.688026
7387.000000;0.688180
7386.000000;0.688391
7385.000000;0.688448
7384.000000;0.688274
7383.000000;0.687988
7382.000000;0.687801
7381.000000;0.687849
7380.000000;0.688108
7379.000000;0.688412
7378.000000;0.688563
7377.000000;0.688468
7376.000000;0.688216
7375.000000;0.688002
7374.000000;0.687972
7373.000000;0.688134
7372.000000;0.688384
7371.000000;0.688592
7370.000000;0.688681
7369.000000;0.688666
7368.000000;0.688645
7367.000000;0.688697
7366.000000;0.688796
7365.000000;0.688840
7364.000000;0.688749
7363.000000;0.688546
7362.000000;0.688340
7361.000000;0.688262
7360.000000;0.688372
7359.000000;0.688584
7358.000000;0.688728
7357.000000;0.688711
7356.000000;0.688621
7355.000000;0.688625
7354.000000;0.688794
7353.000000;0.689042
7352.000000;0.689220
7351.000000;0.689228
7350.000000;0.689064
7349.000000;0.688827
7348.000000;0.688653
7347.000000;0.688604
7346.000000;0.688637
7345.000000;0.688698
7344.000000;0.688801
7343.000000;0.688960
7342.000000;0.689122
7341.000000;0.689236
7340.000000;0.689348
7339.000000;0.689527
7338.000000;0.689742
7337.000000;0.689901
7336.000000;0.689971
7335.000000;0.689985
7334.000000;0.689951
7333.000000;0.689873
7332.000000;0.689798
7331.000000;0.689778
7330.000000;0.689788
7329.000000;0.689790
7328.000000;0.689841
7327.000000;0.690026
7326.000000;0.690294
7325.000000;0.690496
7324.000000;0.690605
7323.000000;0.690739
7322.000000;0.690959
7321.000000;0.691182
7320.000000;0.691329
7319.000000;0.691434
7318.000000;0.691528
7317.000000;0.691541
7316.000000;0.691407
7315.000000;0.691174
7314.000000;0.690946
7313.000000;0.690788
7312.000000;0.690753
7311.000000;0.690910
7310.000000;0.691228
7309.000000;0.691522
7308.000000;0.691647
7307.000000;0.691680
7306.000000;0.691815
7305.000000;0.692102
7304.000000;0.692404
7303.000000;0.692585
7302.000000;0.692619
7301.000000;0.692557
7300.000000;0.692491
7299.000000;0.692535
7298.000000;0.692713
7297.000000;0.692892
7296.000000;0.692925
7295.000000;0.692864
7294.000000;0.692925
7293.000000;0.693229
7292.000000;0.693642
7291.000000;0.693951
7290.000000;0.694090
7289.000000;0.694155
7288.000000;0.694278
7287.000000;0.694520
7286.000000;0.694851
7285.000000;0.695190
7284.000000;0.695469
7283.000000;0.695691
7282.000000;0.695902
7281.000000;0.696114
7280.000000;0.696279
7279.000000;0.696367
7278.000000;0.696412
7277.000000;0.696468
7276.000000;0.696546
7275.000000;0.696623
7274.000000;0.696687
7273.000000;0.696756
7272.000000;0.696851
7271.000000;0.696989
7270.000000;0.697183
7269.000000;0.697438
7268.000000;0.697759
7267.000000;0.698129
7266.000000;0.698488
7265.000000;0.698749
7264.000000;0.698881
7263.000000;0.698980
7262.000000;0.699187
7261.000000;0.699536
7260.000000;0.699910
7259.000000;0.700195
7258.000000;0.700402
7257.000000;0.700616
7256.000000;0.700876
7255.000000;0.701131
7254.000000;0.701305
7253.000000;0.701376
7252.000000;0.701387
7251.000000;0.701421
7250.000000;0.701563
7249.000000;0.701863
7248.000000;0.702291
7247.000000;0.702718
7246.000000;0.702977
7245.000000;0.702985
7244.000000;0.702834
7243.000000;0.702748
7242.000000;0.702924
7241.000000;0.703364
7240.000000;0.703897
7239.000000;0.704357
7238.000000;0.704694
7237.000000;0.704945
7236.000000;0.705149
7235.000000;0.705309
7234.000000;0.705421
7233.000000;0.705541
7232.000000;0.705792
7231.000000;0.706265
7230.000000;0.706909
7229.000000;0.707567
7228.000000;0.708111
7227.000000;0.708522
7226.000000;0.708841
7225.000000;0.709111
7224.000000;0.709359
7223.000000;0.709599
7222.000000;0.709829
7221.000000;0.710033
7220.000000;0.710227
7219.000000;0.710486
7218.000000;0.710882
7217.000000;0.711395
7216.000000;0.711925
7215.000000;0.712387
7214.000000;0.712783
7213.000000;0.713169
7212.000000;0.713574
7211.000000;0.713964
7210.000000;0.714288
7209.000000;0.714549
7208.000000;0.714821
7207.000000;0.715181
7206.000000;0.715636
7205.000000;0.716132
7204.000000;0.716636
7203.000000;0.717180
7202.000000;0.717806
7201.000000;0.718495
7200.000000;0.719182
7199.000000;0.719797
7198.000000;0.720289
7197.000000;0.720635
7196.000000;0.720876
7195.000000;0.721119
7194.000000;0.721450
7193.000000;0.721843
7192.000000;0.722191
7191.000000;0.722444
7190.000000;0.722644
7189.000000;0.722859
7188.000000;0.723131
7187.000000;0.723502
7186.000000;0.723998
7185.000000;0.724547
7184.000000;0.724984
7183.000000;0.725217
7182.000000;0.725388
7181.000000;0.725753
7180.000000;0.726404
7179.000000;0.727159
7178.000000;0.727789
7177.000000;0.728251
7176.000000;0.728666
7175.000000;0.729140
7174.000000;0.729669
7173.000000;0.730176
7172.000000;0.730583
7171.000000;0.730844
7170.000000;0.730979
7169.000000;0.731105
7168.000000;0.731395
7167.000000;0.731947
7166.000000;0.732701
7165.000000;0.733524
7164.000000;0.734323
7163.000000;0.735064
7162.000000;0.735734
7161.000000;0.736339
7160.000000;0.736953
7159.000000;0.737648
7158.000000;0.738381
7157.000000;0.738998
7156.000000;0.739402
7155.000000;0.739667
7154.000000;0.739962
7153.000000;0.740414
7152.000000;0.741077
7151.000000;0.741929
7150.000000;0.742809
7149.000000;0.743426
7148.000000;0.743582
7147.000000;0.743394
7146.000000;0.743225
7145.000000;0.743389
7144.000000;0.743946
7143.000000;0.744714
7142.000000;0.745420
7141.000000;0.745885
7140.000000;0.746146
7139.000000;0.746401
7138.000000;0.746774
7137.000000;0.747181
7136.000000;0.747513
7135.000000;0.747860
7134.000000;0.748405
7133.000000;0.749115
7132.000000;0.749715
7131.000000;0.749978
7130.000000;0.749915
7129.000000;0.749689
7128.000000;0.749476
7127.000000;0.749427
7126.000000;0.749590
7125.000000;0.749838
7124.000000;0.749998
7123.000000;0.750101
7122.000000;0.750341
7121.000000;0.750717
7120.000000;0.750927
7119.000000;0.750762
7118.000000;0.750454
7117.000000;0.750451
7116.000000;0.750919
7115.000000;0.751627
7114.000000;0.752241
7113.000000;0.752525
7112.000000;0.752337
7111.000000;0.751721
7110.000000;0.751031
7109.000000;0.750761
7108.000000;0.751091
7107.000000;0.751677
7106.000000;0.751946
7105.000000;0.751620
7104.000000;0.750935
7103.000000;0.750389
7102.000000;0.750275
7101.000000;0.750440
7100.000000;0.750481
7099.000000;0.750167
7098.000000;0.749612
7097.000000;0.749007
7096.000000;0.748344
7095.000000;0.747501
7094.000000;0.746487
7093.000000;0.745436
7092.000000;0.744423
7091.000000;0.743453
7090.000000;0.742575
7089.000000;0.741809
7088.000000;0.740995
7087.000000;0.739971
7086.000000;0.738933
7085.000000;0.738359
7084.000000;0.738415
7083.000000;0.738607
7082.000000;0.738212
7081.000000;0.736996
7080.000000;0.735403
7079.000000;0.734085
7078.000000;0.733340
7077.000000;0.732925
7076.000000;0.732308
7075.000000;0.731125
7074.000000;0.729494
7073.000000;0.727810
7072.000000;0.726217
7071.000000;0.724424
7070.000000;0.722226
7069.000000;0.720040
7068.000000;0.718636
7067.000000;0.718300
7066.000000;0.718478
7065.000000;0.718285
7064.000000;0.717212
7063.000000;0.715299
7062.000000;0.712876
7061.000000;0.710387
7060.000000;0.708335
7059.000000;0.707057
7058.000000;0.706417
7057.000000;0.705822
7056.000000;0.704669
7055.000000;0.702760
7054.000000;0.700352
7053.000000;0.697898
7052.000000;0.695767
7051.000000;0.694100
7050.000000;0.692819
7049.000000;0.691740
7048.000000;0.690625
7047.000000;0.689135
7046.000000;0.686909
7045.000000;0.683903
7044.000000;0.680642
7043.000000;0.677881
7042.000000;0.675904
7041.000000;0.674257
7040.000000;0.672249
7039.000000;0.669602
7038.000000;0.666547
7037.000000;0.663495
7036.000000;0.660820
7035.000000;0.658738
7034.000000;0.657090
7033.000000;0.655337
7032.000000;0.653086
7031.000000;0.650574
7030.000000;0.648322
7029.000000;0.646367
7028.000000;0.644243
7027.000000;0.641762
7026.000000;0.639400
7025.000000;0.637660
7024.000000;0.636353
7023.000000;0.634749
7022.000000;0.632317
7021.000000;0.629201
7020.000000;0.626119
7019.000000;0.623818
7018.000000;0.622384
7017.000000;0.620985
7016.000000;0.618632
7015.000000;0.615409
7014.000000;0.612582
7013.000000;0.611182
7012.000000;0.610798
7011.000000;0.610109
7010.000000;0.608281
7009.000000;0.605451
7008.000000;0.602114
7007.000000;0.598652
7006.000000;0.595441
7005.000000;0.592822
7004.000000;0.590699
7003.000000;0.588513
7002.000000;0.585807
7001.000000;0.582630
7000.000000;0.579318
6999.000000;0.576178
6998.000000;0.573443
6997.000000;0.571232
6996.000000;0.569422
6995.000000;0.567720
6994.000000;0.565925
6993.000000;0.564002
6992.000000;0.561874
6991.000000;0.559318
6990.000000;0.556168
6989.000000;0.552508
6988.000000;0.548600
6987.000000;0.544754
6986.000000;0.541305
6985.000000;0.538484
6984.000000;0.536167
6983.000000;0.533814
6982.000000;0.530855
6981.000000;0.527236
6980.000000;0.523565
6979.000000;0.520671
6978.000000;0.518950
6977.000000;0.518112
6976.000000;0.517475
6975.000000;0.516405
6974.000000;0.514463
6973.000000;0.511397
6972.000000;0.507314
6971.000000;0.502855
6970.000000;0.498883
6969.000000;0.495875
6968.000000;0.493680
6967.000000;0.491770
6966.000000;0.489580
6965.000000;0.486832
6964.000000;0.483892
6963.000000;0.481657
6962.000000;0.480600
6961.000000;0.479926
6960.000000;0.478253
6959.000000;0.475210
6958.000000;0.471788
6957.000000;0.468967
6956.000000;0.466692
6955.000000;0.464444
6954.000000;0.462059
6953.000000;0.459487
6952.000000;0.456441
6951.000000;0.453010
6950.000000;0.450156
6949.000000;0.448774
6948.000000;0.448489
6947.000000;0.448010
6946.000000;0.446483
6945.000000;0.443899
6944.000000;0.440451
6943.000000;0.436335
6942.000000;0.432183
6941.000000;0.428893
6940.000000;0.426794
6939.000000;0.425440
6938.000000;0.424271
6937.000000;0.423013
6936.000000;0.421416
6935.000000;0.419173
6934.000000;0.416358
6933.000000;0.413558
6932.000000;0.411297
6931.000000;0.409606
6930.000000;0.408234
6929.000000;0.407002
6928.000000;0.405763
6927.000000;0.404242
6926.000000;0.402161
6925.000000;0.399519
6924.000000;0.396730
6923.000000;0.394426
6922.000000;0.392950
6921.000000;0.391879
6920.000000;0.390190
6919.000000;0.387178
6918.000000;0.383237
6917.000000;0.379634
6916.000000;0.377531
6915.000000;0.377170
6914.000000;0.377730
6913.000000;0.377864
6912.000000;0.376769
6911.000000;0.374969
6910.000000;0.373697
6909.000000;0.373276
6908.000000;0.372474
6907.000000;0.369958
6906.000000;0.366076
6905.000000;0.362630
6904.000000;0.361016
6903.000000;0.361086
6902.000000;0.361713
6901.000000;0.361868
6900.000000;0.361045
6899.000000;0.359102
6898.000000;0.356127
6897.000000;0.352474
6896.000000;0.348766
6895.000000;0.345769
6894.000000;0.344053
6893.000000;0.343611
6892.000000;0.343841
6891.000000;0.343976
6890.000000;0.343423
6889.000000;0.341831
6888.000000;0.339276
6887.000000;0.336553
6886.000000;0.334865
6885.000000;0.334818
6884.000000;0.335838
6883.000000;0.336745
6882.000000;0.336632
6881.000000;0.335148
6880.000000;0.332534
6879.000000;0.329770
6878.000000;0.328230
6877.000000;0.328520
6876.000000;0.329762
6875.000000;0.330458
6874.000000;0.329970
6873.000000;0.328845
6872.000000;0.327865
6871.000000;0.327182
6870.000000;0.326324
6869.000000;0.324745
6868.000000;0.322449
6867.000000;0.320268
6866.000000;0.319272
6865.000000;0.319643
6864.000000;0.320402
6863.000000;0.320538
6862.000000;0.320066
6861.000000;0.319620
6860.000000;0.319418
6859.000000;0.319106
6858.000000;0.318307
6857.000000;0.316904
6856.000000;0.315031
6855.000000;0.313234
6854.000000;0.312293
6853.000000;0.312371
6852.000000;0.312617
6851.000000;0.312161
6850.000000;0.311248
6849.000000;0.310844
6848.000000;0.311314
6847.000000;0.312183
6846.000000;0.313046
6845.000000;0.313901
6844.000000;0.314567
6843.000000;0.314546
6842.000000;0.313769
6841.000000;0.312922
6840.000000;0.312719
6839.000000;0.313181
6838.000000;0.313815
6837.000000;0.314144
6836.000000;0.313965
6835.000000;0.313431
6834.000000;0.313020
6833.000000;0.313165
6832.000000;0.313845
6831.000000;0.314714
6830.000000;0.315530
6829.000000;0.316136
6828.000000;0.316172
6827.000000;0.315339
6826.000000;0.314006
6825.000000;0.313045
6824.000000;0.312875
6823.000000;0.313057
6822.000000;0.312993
6821.000000;0.312685
6820.000000;0.312642
6819.000000;0.313287
6818.000000;0.314612
6817.000000;0.316186
6816.000000;0.317427
6815.000000;0.318138
6814.000000;0.318784
6813.000000;0.319945
6812.000000;0.321467
6811.000000;0.322545
6810.000000;0.322798
6809.000000;0.322778
6808.000000;0.323147
6807.000000;0.323740
6806.000000;0.323867
6805.000000;0.323327
6804.000000;0.322668
6803.000000;0.322488
6802.000000;0.322842
6801.000000;0.323380
6800.000000;0.323828
6799.000000;0.324259
6798.000000;0.324982
6797.000000;0.326173
6796.000000;0.327576
6795.000000;0.328700
6794.000000;0.329377
6793.000000;0.329973
6792.000000;0.330918
6791.000000;0.332205
6790.000000;0.333550
6789.000000;0.334822
6788.000000;0.335960
6787.000000;0.336616
6786.000000;0.336418
6785.000000;0.335692
6784.000000;0.335438
6783.000000;0.336280
6782.000000;0.337724
6781.000000;0.338817
6780.000000;0.339299
6779.000000;0.339670
6778.000000;0.340280
6777.000000;0.340854
6776.000000;0.341029
6775.000000;0.340935
6774.000000;0.340997
6773.000000;0.341386
6772.000000;0.341946
6771.000000;0.342501
6770.000000;0.343035
6769.000000;0.343665
6768.000000;0.344570
6767.000000;0.345841
6766.000000;0.347230
6765.000000;0.348241
6764.000000;0.348678
6763.000000;0.348992
6762.000000;0.349794
6761.000000;0.351093
6760.000000;0.352327
6759.000000;0.353158
6758.000000;0.353860
6757.000000;0.354776
6756.000000;0.355737
6755.000000;0.356338
6754.000000;0.356615
6753.000000;0.357073
6752.000000;0.358009
6751.000000;0.359059
6750.000000;0.359596
6749.000000;0.359469
6748.000000;0.359190
6747.000000;0.359405
6746.000000;0.360278
6745.000000;0.361431
6744.000000;0.362430
6743.000000;0.363207
6742.000000;0.363988
6741.000000;0.364918
6740.000000;0.365868
6739.000000;0.366621
6738.000000;0.367184
6737.000000;0.367845
6736.000000;0.368888
6735.000000;0.370229
6734.000000;0.371395
6733.000000;0.371934
6732.000000;0.371913
6731.000000;0.371918
6730.000000;0.372532
6729.000000;0.373843
6728.000000;0.375436
6727.000000;0.376770
6726.000000;0.377520
6725.000000;0.377710
6724.000000;0.377659
6723.000000;0.377757
6722.000000;0.378176
6721.000000;0.378804
6720.000000;0.379501
6719.000000;0.380304
6718.000000;0.381288
6717.000000;0.382333
6716.000000;0.383214
6715.000000;0.383893
6714.000000;0.384583
6713.000000;0.385497
6712.000000;0.386626
6711.000000;0.387753
6710.000000;0.388599
6709.000000;0.388975
6708.000000;0.388969
6707.000000;0.389004
6706.000000;0.389473
6705.000000;0.390401
6704.000000;0.391457
6703.000000;0.392340
6702.000000;0.393016
6701.000000;0.393610
6700.000000;0.394221
6699.000000;0.394869
6698.000000;0.395492
6697.000000;0.395965
6696.000000;0.396267
6695.000000;0.396617
6694.000000;0.397300
6693.000000;0.398297
6692.000000;0.399248
6691.000000;0.399861
6690.000000;0.400238
6689.000000;0.400686
6688.000000;0.401335
6687.000000;0.402058
6686.000000;0.402682
6685.000000;0.403162
6684.000000;0.403586
6683.000000;0.404130
6682.000000;0.404958
6681.000000;0.406077
6680.000000;0.407283
6679.000000;0.408334
6678.000000;0.409161
6677.000000;0.409856
6676.000000;0.410494
6675.000000;0.411046
6674.000000;0.411470
6673.000000;0.411789
6672.000000;0.412069
6671.000000;0.412365
6670.000000;0.412736
6669.000000;0.413294
6668.000000;0.414148
6667.000000;0.415261
6666.000000;0.416392
6665.000000;0.417232
6664.000000;0.417668
6663.000000;0.417873
6662.000000;0.418127
6661.000000;0.418578
6660.000000;0.419193
6659.000000;0.419882
6658.000000;0.420565
6657.000000;0.421174
6656.000000;0.421689
6655.000000;0.422191
6654.000000;0.422794
6653.000000;0.423517
6652.000000;0.424275
6651.000000;0.424986
6650.000000;0.425625
6649.000000;0.426202
6648.000000;0.426779
6647.000000;0.427474
6646.000000;0.428331
6645.000000;0.429172
6644.000000;0.429732
6643.000000;0.429980
6642.000000;0.430187
6641.000000;0.430604
6640.000000;0.431201
6639.000000;0.431804
6638.000000;0.432354
6637.000000;0.432911
6636.000000;0.433479
6635.000000;0.433999
6634.000000;0.434479
6633.000000;0.434989
6632.000000;0.435520
6631.000000;0.435976
6630.000000;0.436338
6629.000000;0.436739
6628.000000;0.437304
6627.000000;0.437987
6626.000000;0.438636
6625.000000;0.439156
6624.000000;0.439581
6623.000000;0.439991
6622.000000;0.440440
6621.000000;0.440965
6620.000000;0.441599
6619.000000;0.442334
6618.000000;0.443084
6617.000000;0.443739
6616.000000;0.444275
6615.000000;0.444761
6614.000000;0.445250
6613.000000;0.445705
6612.000000;0.446079
6611.000000;0.446419
6610.000000;0.446832
6609.000000;0.447353
6608.000000;0.447930
6607.000000;0.448533
6606.000000;0.449180
6605.000000;0.449839
6604.000000;0.450395
6603.000000;0.450771
6602.000000;0.451051
6601.000000;0.451389
6600.000000;0.451866
6599.000000;0.452464
6598.000000;0.453155
6597.000000;0.453897
6596.000000;0.454576
6595.000000;0.455040
6594.000000;0.455259
6593.000000;0.455396
6592.000000;0.455665
6591.000000;0.456151
6590.000000;0.456772
6589.000000;0.457401
6588.000000;0.457966
6587.000000;0.458441
6586.000000;0.458811
6585.000000;0.459088
6584.000000;0.459366
6583.000000;0.459776
6582.000000;0.460367
6581.000000;0.461051
6580.000000;0.461703
6579.000000;0.462285
6578.000000;0.462841
6577.000000;0.463405
6576.000000;0.463961
6575.000000;0.464470
6574.000000;0.464896
6573.000000;0.465204
6572.000000;0.465406
6571.000000;0.465608
6570.000000;0.465932
6569.000000;0.466369
6568.000000;0.466791
6567.000000;0.467135
6566.000000;0.467508
6565.000000;0.468039
6564.000000;0.468699
6563.000000;0.469334
6562.000000;0.469861
6561.000000;0.470323
6560.000000;0.470792
6559.000000;0.471276
6558.000000;0.471744
6557.000000;0.472170
6556.000000;0.472530
6555.000000;0.472825
6554.000000;0.473129
6553.000000;0.473547
6552.000000;0.474101
6551.000000;0.474680
6550.000000;0.475150
6549.000000;0.475476
6548.000000;0.475738
6547.000000;0.476034
6546.000000;0.476415
6545.000000;0.476875
6544.000000;0.477370
6543.000000;0.477844
6542.000000;0.478268
6541.000000;0.478659
6540.000000;0.479060
6539.000000;0.479497
6538.000000;0.479961
6537.000000;0.480425
6536.000000;0.480843
6535.000000;0.481177
6534.000000;0.481434
6533.000000;0.481687
6532.000000;0.482005
6531.000000;0.482383
6530.000000;0.482756
6529.000000;0.483108
6528.000000;0.483501
6527.000000;0.483994
6526.000000;0.484549
6525.000000;0.485055
6524.000000;0.485435
6523.000000;0.485701
6522.000000;0.485930
6521.000000;0.486217
6520.000000;0.486621
6519.000000;0.487114
6518.000000;0.487585
6517.000000;0.487944
6516.000000;0.488231
6515.000000;0.488572
6514.000000;0.489022
6513.000000;0.489487
6512.000000;0.489840
6511.000000;0.490065
6510.000000;0.490257
6509.000000;0.490501
6508.000000;0.490803
6507.000000;0.491122
6506.000000;0.491437
6505.000000;0.491766
6504.000000;0.492150
6503.000000;0.492603
6502.000000;0.493075
6501.000000;0.493483
6500.000000;0.493794
6499.000000;0.494067
6498.000000;0.494380
6497.000000;0.494756
6496.000000;0.495167
6495.000000;0.495591
6494.000000;0.496008
6493.000000;0.496372
6492.000000;0.496644
6491.000000;0.496856
6490.000000;0.497093
6489.000000;0.497396
6488.000000;0.497745
6487.000000;0.498117
6486.000000;0.498515
6485.000000;0.498921
6484.000000;0.499278
6483.000000;0.499540
6482.000000;0.499732
6481.000000;0.499914
6480.000000;0.500136
6479.000000;0.500429
6478.000000;0.500808
6477.000000;0.501247
6476.000000;0.501675
6475.000000;0.502038
6474.000000;0.502333
6473.000000;0.502578
6472.000000;0.502776
6471.000000;0.502939
6470.000000;0.503133
6469.000000;0.503428
6468.000000;0.503826
6467.000000;0.504269
6466.000000;0.504703
6465.000000;0.505112
6464.000000;0.505483
6463.000000;0.505783
6462.000000;0.506006
6461.000000;0.506203
6460.000000;0.506442
6459.000000;0.506736
6458.000000;0.507033
6457.000000;0.507278
6456.000000;0.507463
6455.000000;0.507643
6454.000000;0.507885
6453.000000;0.508213
6452.000000;0.508589
6451.000000;0.508955
6450.000000;0.509280
6449.000000;0.509570
6448.000000;0.509834
6447.000000;0.510072
6446.000000;0.510293
6445.000000;0.510537
6444.000000;0.510846
6443.000000;0.511214
6442.000000;0.511575
6441.000000;0.511866
6440.000000;0.512075
6439.000000;0.512242
6438.000000;0.512400
6437.000000;0.512553
6436.000000;0.512709
6435.000000;0.512904
6434.000000;0.513169
6433.000000;0.513474
6432.000000;0.513748
6431.000000;0.513955
6430.000000;0.514142
6429.000000;0.514381
6428.000000;0.514696
6427.000000;0.515038
6426.000000;0.515337
6425.000000;0.515558
6424.000000;0.515725
6423.000000;0.515892
6422.000000;0.516093
6421.000000;0.516312
6420.000000;0.516523
6419.000000;0.516729
6418.000000;0.516970
6417.000000;0.517268
6416.000000;0.517592
6415.000000;0.517894
6414.000000;0.518158
6413.000000;0.518400
6412.000000;0.518641
6411.000000;0.518878
6410.000000;0.519107
6409.000000;0.519325
6408.000000;0.519521
6407.000000;0.519674
6406.000000;0.519774
6405.000000;0.519847
6404.000000;0.519944
6403.000000;0.520097
6402.000000;0.520309
6401.000000;0.520559
6400.000000;0.520824
6399.000000;0.521081
6398.000000;0.521317
6397.000000;0.521545
6396.000000;0.521800
6395.000000;0.522090
6394.000000;0.522350
6393.000000;0.522492
6392.000000;0.522509
6391.000000;0.522498
6390.000000;0.522571
6389.000000;0.522746
6388.000000;0.522968
6387.000000;0.523194
6386.000000;0.523431
6385.000000;0.523676
6384.000000;0.523897
6383.000000;0.524068
6382.000000;0.524201
6381.000000;0.524329
6380.000000;0.524477
6379.000000;0.524662
6378.000000;0.524896
6377.000000;0.525162
6376.000000;0.525416
6375.000000;0.525622
6374.000000;0.525779
6373.000000;0.525897
6372.000000;0.525983
6371.000000;0.526060
6370.000000;0.526170
6369.000000;0.526329
6368.000000;0.526494
6367.000000;0.526620
6366.000000;0.526713
6365.000000;0.526819
6364.000000;0.526961
6363.000000;0.527125
6362.000000;0.527290
6361.000000;0.527445
6360.000000;0.527576
6359.000000;0.527680
6358.000000;0.527790
6357.000000;0.527958
6356.000000;0.528181
6355.000000;0.528393
6354.000000;0.528538
6353.000000;0.528638
6352.000000;0.528770
6351.000000;0.528978
6350.000000;0.529230
6349.000000;0.529454
6348.000000;0.529600
6347.000000;0.529672
6346.000000;0.529711
6345.000000;0.529759
6344.000000;0.529833
6343.000000;0.529926
6342.000000;0.530026
6341.000000;0.530137
6340.000000;0.530276
6339.000000;0.530449
6338.000000;0.530639
6337.000000;0.530805
6336.000000;0.530929
6335.000000;0.531042
6334.000000;0.531201
6333.000000;0.531422
6332.000000;0.531644
6331.000000;0.531779
6330.000000;0.531799
6329.000000;0.531754
6328.000000;0.531719
6327.000000;0.531738
6326.000000;0.531817
6325.000000;0.531943
6324.000000;0.532098
6323.000000;0.532267
6322.000000;0.532440
6321.000000;0.532593
6320.000000;0.532686
6319.000000;0.532698
6318.000000;0.532677
6317.000000;0.532700
6316.000000;0.532798
6315.000000;0.532928
6314.000000;0.533049
6313.000000;0.533175
6312.000000;0.533328
6311.000000;0.533473
6310.000000;0.533543
6309.000000;0.533525
6308.000000;0.533490
6307.000000;0.533517
6306.000000;0.533631
6305.000000;0.533807
6304.000000;0.533991
6303.000000;0.534134
6302.000000;0.534225
6301.000000;0.534297
6300.000000;0.534389
6299.000000;0.534485
6298.000000;0.534529
6297.000000;0.534508
6296.000000;0.534486
6295.000000;0.534538
6294.000000;0.534665
6293.000000;0.534805
6292.000000;0.534907
6291.000000;0.534974
6290.000000;0.535046
6289.000000;0.535158
6288.000000;0.535303
6287.000000;0.535426
6286.000000;0.535472
6285.000000;0.535443
6284.000000;0.535411
6283.000000;0.535447
6282.000000;0.535544
6281.000000;0.535640
6280.000000;0.535693
6279.000000;0.535718
6278.000000;0.535762
6277.000000;0.535857
6276.000000;0.536004
6275.000000;0.536159
6274.000000;0.536256
6273.000000;0.536270
6272.000000;0.536262
6271.000000;0.536317
6270.000000;0.536436
6269.000000;0.536536
6268.000000;0.536557
6267.000000;0.536543
6266.000000;0.536576
6265.000000;0.536681
6264.000000;0.536810
6263.000000;0.536919
6262.000000;0.536995
6261.000000;0.537033
6260.000000;0.537012
6259.000000;0.536927
6258.000000;0.536813
6257.000000;0.536735
6256.000000;0.536741
6255.000000;0.536832
6254.000000;0.536962
6253.000000;0.537084
6252.000000;0.537174
6251.000000;0.537240
6250.000000;0.537287
6249.000000;0.537307
6248.000000;0.537295
6247.000000;0.537263
6246.000000;0.537233
6245.000000;0.537227
6244.000000;0.537266
6243.000000;0.537367
6242.000000;0.537511
6241.000000;0.537646
6240.000000;0.537731
6239.000000;0.537765
6238.000000;0.537770
6237.000000;0.537755
6236.000000;0.537723
6235.000000;0.537695
6234.000000;0.537701
6233.000000;0.537748
6232.000000;0.537811
6231.000000;0.537864
6230.000000;0.537905
6229.000000;0.537945
6228.000000;0.537995
6227.000000;0.538055
6226.000000;0.538105
6225.000000;0.538110
6224.000000;0.538053
6223.000000;0.537958
6222.000000;0.537882
6221.000000;0.537867
6220.000000;0.537917
6219.000000;0.538005
6218.000000;0.538097
6217.000000;0.538171
6216.000000;0.538226
6215.000000;0.538271
6214.000000;0.538303
6213.000000;0.538298
6212.000000;0.538249
6211.000000;0.538193
6210.000000;0.538188
6209.000000;0.538251
6208.000000;0.538340
6207.000000;0.538400
6206.000000;0.538417
6205.000000;0.538414
6204.000000;0.538420
6203.000000;0.538438
6202.000000;0.538452
6201.000000;0.538455
6200.000000;0.538457
6199.000000;0.538472
6198.000000;0.538498
6197.000000;0.538515
6196.000000;0.538518
6195.000000;0.538533
6194.000000;0.538577
6193.000000;0.538632
6192.000000;0.538656
6191.000000;0.538632
6190.000000;0.538574
6189.000000;0.538514
6188.000000;0.538479
6187.000000;0.538482
6186.000000;0.538511
6185.000000;0.538525
6184.000000;0.538497
6183.000000;0.538452
6182.000000;0.538443
6181.000000;0.538488
6180.000000;0.538548
6179.000000;0.538574
6178.000000;0.538551
6177.000000;0.538489
6176.000000;0.538407
6175.000000;0.538331
6174.000000;0.538294
6173.000000;0.538311
6172.000000;0.538367
6171.000000;0.538428
6170.000000;0.538467
6169.000000;0.538470
6168.000000;0.538447
6167.000000;0.538438
6166.000000;0.538474
6165.000000;0.538540
6164.000000;0.538579
6163.000000;0.538557
6162.000000;0.538496
6161.000000;0.538436
6160.000000;0.538389
6159.000000;0.538349
6158.000000;0.538328
6157.000000;0.538341
6156.000000;0.538382
6155.000000;0.538428
6154.000000;0.538471
6153.000000;0.538505
6152.000000;0.538507
6151.000000;0.538458
6150.000000;0.538376
6149.000000;0.538314
6148.000000;0.538308
6147.000000;0.538348
6146.000000;0.538403
6145.000000;0.538461
6144.000000;0.538521
6143.000000;0.538575
6142.000000;0.538602
6141.000000;0.538583
6140.000000;0.538522
6139.000000;0.538446
6138.000000;0.538383
6137.000000;0.538340
6136.000000;0.538295
6135.000000;0.538226
6134.000000;0.538145
6133.000000;0.538088
6132.000000;0.538085
6131.000000;0.538129
6130.000000;0.538193
6129.000000;0.538248
6128.000000;0.538275
6127.000000;0.538259
6126.000000;0.538196
6125.000000;0.538097
6124.000000;0.537994
6123.000000;0.537921
6122.000000;0.537902
6121.000000;0.537941
6120.000000;0.538027
6119.000000;0.538129
6118.000000;0.538202
6117.000000;0.538211
6116.000000;0.538150
6115.000000;0.538053
6114.000000;0.537976
6113.000000;0.537954
6112.000000;0.537977
6111.000000;0.538004
6110.000000;0.538005
6109.000000;0.537981
6108.000000;0.537955
6107.000000;0.537936
6106.000000;0.537914
6105.000000;0.537883
6104.000000;0.537850
6103.000000;0.537827
6102.000000;0.537809
6101.000000;0.537790
6100.000000;0.537781
6099.000000;0.537805
6098.000000;0.537866
6097.000000;0.537938
6096.000000;0.537982
6095.000000;0.537985
6094.000000;0.537969
6093.000000;0.537961
6092.000000;0.537970
6091.000000;0.537977
6090.000000;0.537956
6089.000000;0.537900
6088.000000;0.537837
6087.000000;0.537806
6086.000000;0.537813
6085.000000;0.537821
6084.000000;0.537795
6083.000000;0.537736
6082.000000;0.537668
6081.000000;0.537610
6080.000000;0.537570
6079.000000;0.537560
6078.000000;0.537588
6077.000000;0.537638
6076.000000;0.537685
6075.000000;0.537725
6074.000000;0.537766
6073.000000;0.537791
6072.000000;0.537768
6071.000000;0.537692
6070.000000;0.537599
6069.000000;0.537523
6068.000000;0.537456
6067.000000;0.537381
6066.000000;0.537306
6065.000000;0.537261
6064.000000;0.537251
6063.000000;0.537255
6062.000000;0.537248
6061.000000;0.537233
6060.000000;0.537229
6059.000000;0.537255
6058.000000;0.537307
6057.000000;0.537352
6056.000000;0.537352
6055.000000;0.537302
6054.000000;0.537228
6053.000000;0.537170
6052.000000;0.537147
6051.000000;0.537167
6050.000000;0.537227
6049.000000;0.537313
6048.000000;0.537392
6047.000000;0.537430
6046.000000;0.537410
6045.000000;0.537345
6044.000000;0.537262
6043.000000;0.537196
6042.000000;0.537171
6041.000000;0.537186
6040.000000;0.537224
6039.000000;0.537268
6038.000000;0.537309
6037.000000;0.537334
6036.000000;0.537331
6035.000000;0.537299
6034.000000;0.537250
6033.000000;0.537195
6032.000000;0.537135
6031.000000;0.537073
6030.000000;0.537031
6029.000000;0.537029
6028.000000;0.537068
6027.000000;0.537121
6026.000000;0.537156
6025.000000;0.537150
6024.000000;0.537112
6023.000000;0.537070
6022.000000;0.537057
6021.000000;0.537073
6020.000000;0.537093
6019.000000;0.537104
6018.000000;0.537116
6017.000000;0.537148
6016.000000;0.537194
6015.000000;0.537233
6014.000000;0.537251
6013.000000;0.537242
6012.000000;0.537208
6011.000000;0.537157
6010.000000;0.537113
6009.000000;0.537096
6008.000000;0.537109
6007.000000;0.537135
6006.000000;0.537151
6005.000000;0.537144
6004.000000;0.537115
6003.000000;0.537087
6002.000000;0.537083
6001.000000;0.537108
6000.000000;0.537145
5999.000000;0.537170
5998.000000;0.537172
5997.000000;0.537149
5996.000000;0.537101
5995.000000;0.537042
5994.000000;0.537000
5993.000000;0.537002
5992.000000;0.537040
5991.000000;0.537077
5990.000000;0.537073
5989.000000;0.537016
5988.000000;0.536935
5987.000000;0.536880
5986.000000;0.536883
5985.000000;0.536931
5984.000000;0.536979
5983.000000;0.537003
5982.000000;0.537021
5981.000000;0.537054
5980.000000;0.537094
5979.000000;0.537118
5978.000000;0.537131
5977.000000;0.537149
5976.000000;0.537177
5975.000000;0.537198
5974.000000;0.537205
5973.000000;0.537201
5972.000000;0.537194
5971.000000;0.537199
5970.000000;0.537240
5969.000000;0.537331
5968.000000;0.537444
5967.000000;0.537525
5966.000000;0.537550
5965.000000;0.537533
5964.000000;0.537495
5963.000000;0.537444
5962.000000;0.537385
5961.000000;0.537340
5960.000000;0.537321
5959.000000;0.537317
5958.000000;0.537309
5957.000000;0.537286
5956.000000;0.537250
5955.000000;0.537202
5954.000000;0.537153
5953.000000;0.537135
5952.000000;0.537166
5951.000000;0.537225
5950.000000;0.537268
5949.000000;0.537276
5948.000000;0.537269
5947.000000;0.537282
5946.000000;0.537332
5945.000000;0.537414
5944.000000;0.537509
5943.000000;0.537594
5942.000000;0.537642
5941.000000;0.537638
5940.000000;0.537590
5939.000000;0.537536
5938.000000;0.537516
5937.000000;0.537545
5936.000000;0.537606
5935.000000;0.537662
5934.000000;0.537682
5933.000000;0.537666
5932.000000;0.537640
5931.000000;0.537633
5930.000000;0.537650
5929.000000;0.537674
5928.000000;0.537689
5927.000000;0.537700
5926.000000;0.537719
5925.000000;0.537744
5924.000000;0.537765
5923.000000;0.537771
5922.000000;0.537764
5921.000000;0.537743
5920.000000;0.537711
5919.000000;0.537690
5918.000000;0.537702
5917.000000;0.537736
5916.000000;0.537743
5915.000000;0.537692
5914.000000;0.537614
5913.000000;0.537574
5912.000000;0.537595
5911.000000;0.537634
5910.000000;0.537644
5909.000000;0.537625
5908.000000;0.537610
5907.000000;0.537615
5906.000000;0.537631
5905.000000;0.537651
5904.000000;0.537695
5903.000000;0.537781
5902.000000;0.537881
5901.000000;0.537933
5900.000000;0.537891
5899.000000;0.537770
5898.000000;0.537638
5897.000000;0.537568
5896.000000;0.537582
5895.000000;0.537639
5894.000000;0.537679
5893.000000;0.537672
5892.000000;0.537639
5891.000000;0.537617
5890.000000;0.537615
5889.000000;0.537607
5888.000000;0.537580
5887.000000;0.537559
5886.000000;0.537572
5885.000000;0.537594
5884.000000;0.537579
5883.000000;0.537527
5882.000000;0.537497
5881.000000;0.537539
5880.000000;0.537634
5879.000000;0.537713
5878.000000;0.537727
5877.000000;0.537675
5876.000000;0.537595
5875.000000;0.537540
5874.000000;0.537553
5873.000000;0.537630
5872.000000;0.537709
5871.000000;0.537729
5870.000000;0.537682
5869.000000;0.537614
5868.000000;0.537562
5867.000000;0.537537
5866.000000;0.537543
5865.000000;0.537584
5864.000000;0.537635
5863.000000;0.537652
5862.000000;0.537618
5861.000000;0.537568
5860.000000;0.537548
5859.000000;0.537569
5858.000000;0.537602
5857.000000;0.537620
5856.000000;0.537617
5855.000000;0.537596
5854.000000;0.537563
5853.000000;0.537529
5852.000000;0.537512
5851.000000;0.537532
5850.000000;0.537591
5849.000000;0.537672
5848.000000;0.537748
5847.000000;0.537802
5846.000000;0.537823
5845.000000;0.537807
5844.000000;0.537764
5843.000000;0.537724
5842.000000;0.537720
5841.000000;0.537756
5840.000000;0.537789
5839.000000;0.537780
5838.000000;0.537737
5837.000000;0.537708
5836.000000;0.537732
5835.000000;0.537796
5834.000000;0.537856
5833.000000;0.537874
5832.000000;0.537846
5831.000000;0.537800
5830.000000;0.537776
5829.000000;0.537795
5828.000000;0.537836
5827.000000;0.537870
5826.000000;0.537897
5825.000000;0.537940
5824.000000;0.538006
5823.000000;0.538068
5822.000000;0.538101
5821.000000;0.538112
5820.000000;0.538120
5819.000000;0.538131
5818.000000;0.538137
5817.000000;0.538136
5816.000000;0.538136
5815.000000;0.538145
5814.000000;0.538159
5813.000000;0.538173
5812.000000;0.538182
5811.000000;0.538184
5810.000000;0.538172
5809.000000;0.538140
5808.000000;0.538096
5807.000000;0.538058
5806.000000;0.538053
5805.000000;0.538091
5804.000000;0.538155
5803.000000;0.538207
5802.000000;0.538222
5801.000000;0.538209
5800.000000;0.538189
5799.000000;0.538170
5798.000000;0.538147
5797.000000;0.538118
5796.000000;0.538103
5795.000000;0.538125
5794.000000;0.538188
5793.000000;0.538265
5792.000000;0.538330
5791.000000;0.538373
5790.000000;0.538406
5789.000000;0.538432
5788.000000;0.538447
5787.000000;0.538450
5786.000000;0.538466
5785.000000;0.538523
5784.000000;0.538613
5783.000000;0.538687
5782.000000;0.538694
5781.000000;0.538621
5780.000000;0.538499
5779.000000;0.538379
5778.000000;0.538302
5777.000000;0.538275
5776.000000;0.538277
5775.000000;0.538277
5774.000000;0.538264
5773.000000;0.538242
5772.000000;0.538212
5771.000000;0.538170
5770.000000;0.538127
5769.000000;0.538112
5768.000000;0.538141
5767.000000;0.538190
5766.000000;0.538218
5765.000000;0.538207
5764.000000;0.538166
5763.000000;0.538103
5762.000000;0.538025
5761.000000;0.537958
5760.000000;0.537941
5759.000000;0.537984
5758.000000;0.538041
5757.000000;0.538047
5756.000000;0.537982
5755.000000;0.537881
5754.000000;0.537797
5753.000000;0.537755
5752.000000;0.537746
5751.000000;0.537755
5750.000000;0.537765
5749.000000;0.537765
5748.000000;0.537752
5747.000000;0.537737
5746.000000;0.537726
5745.000000;0.537706
5744.000000;0.537651
5743.000000;0.537563
5742.000000;0.537483
5741.000000;0.537459
5740.000000;0.537501
5739.000000;0.537563
5738.000000;0.537590
5737.000000;0.537562
5736.000000;0.537506
5735.000000;0.537459
5734.000000;0.537433
5733.000000;0.537418
5732.000000;0.537408
5731.000000;0.537407
5730.000000;0.537410
5729.000000;0.537392
5728.000000;0.537336
5727.000000;0.537261
5726.000000;0.537206
5725.000000;0.537190
5724.000000;0.537191
5723.000000;0.537179
5722.000000;0.537156
5721.000000;0.537145
5720.000000;0.537148
5719.000000;0.537134
5718.000000;0.537075
5717.000000;0.536983
5716.000000;0.536900
5715.000000;0.536860
5714.000000;0.536859
5713.000000;0.536871
5712.000000;0.536865
5711.000000;0.536822
5710.000000;0.536735
5709.000000;0.536616
5708.000000;0.536497
5707.000000;0.536407
5706.000000;0.536353
5705.000000;0.536318
5704.000000;0.536285
5703.000000;0.536276
5702.000000;0.536333
5701.000000;0.536451
5700.000000;0.536577
5699.000000;0.536643
5698.000000;0.536635
5697.000000;0.536592
5696.000000;0.536557
5695.000000;0.536529
5694.000000;0.536480
5693.000000;0.536393
5692.000000;0.536295
5691.000000;0.536223
5690.000000;0.536190
5689.000000;0.536177
5688.000000;0.536161
5687.000000;0.536135
5686.000000;0.536103
5685.000000;0.536069
5684.000000;0.536037
5683.000000;0.536027
5682.000000;0.536051
5681.000000;0.536092
5680.000000;0.536112
5679.000000;0.536090
5678.000000;0.536043
5677.000000;0.536002
5676.000000;0.535992
5675.000000;0.536021
5674.000000;0.536083
5673.000000;0.536144
5672.000000;0.536161
5671.000000;0.536123
5670.000000;0.536067
5669.000000;0.536042
5668.000000;0.536059
5667.000000;0.536093
5666.000000;0.536124
5665.000000;0.536154
5664.000000;0.536186
5663.000000;0.536215
5662.000000;0.536228
5661.000000;0.536221
5660.000000;0.536206
5659.000000;0.536198
5658.000000;0.536203
5657.000000;0.536206
5656.000000;0.536191
5655.000000;0.536172
5654.000000;0.536178
5653.000000;0.536220
5652.000000;0.536258
5651.000000;0.536250
5650.000000;0.536200
5649.000000;0.536154
5648.000000;0.536153
5647.000000;0.536202
5646.000000;0.536282
5645.000000;0.536354
5644.000000;0.536387
5643.000000;0.536390
5642.000000;0.536419
5641.000000;0.536527
5640.000000;0.536710
5639.000000;0.536916
5638.000000;0.537101
5637.000000;0.537242
5636.000000;0.537320
5635.000000;0.537318
5634.000000;0.537265
5633.000000;0.537227
5632.000000;0.537244
5631.000000;0.537300
5630.000000;0.537364
5629.000000;0.537436
5628.000000;0.537528
5627.000000;0.537622
5626.000000;0.537686
5625.000000;0.537717
5624.000000;0.537755
5623.000000;0.537838
5622.000000;0.537967
5621.000000;0.538111
5620.000000;0.538239
5619.000000;0.538342
5618.000000;0.538437
5617.000000;0.538544
5616.000000;0.538657
5615.000000;0.538750
5614.000000;0.538809
5613.000000;0.538855
5612.000000;0.538920
5611.000000;0.539022
5610.000000;0.539164
5609.000000;0.539349
5608.000000;0.539565
5607.000000;0.539771
5606.000000;0.539920
5605.000000;0.540002
5604.000000;0.540050
5603.000000;0.540098
5602.000000;0.540158
5601.000000;0.540233
5600.000000;0.540335
5599.000000;0.540476
5598.000000;0.540646
5597.000000;0.540818
5596.000000;0.540974
5595.000000;0.541113
5594.000000;0.541244
5593.000000;0.541365
5592.000000;0.541471
5591.000000;0.541568
5590.000000;0.541670
5589.000000;0.541776
5588.000000;0.541867
5587.000000;0.541937
5586.000000;0.542011
5585.000000;0.542131
5584.000000;0.542305
5583.000000;0.542497
5582.000000;0.542663
5581.000000;0.542789
5580.000000;0.542895
5579.000000;0.543000
5578.000000;0.543103
5577.000000;0.543191
5576.000000;0.543264
5575.000000;0.543345
5574.000000;0.543455
5573.000000;0.543583
5572.000000;0.543688
5571.000000;0.543749
5570.000000;0.543793
5569.000000;0.543862
5568.000000;0.543966
5567.000000;0.544082
5566.000000;0.544198
5565.000000;0.544335
5564.000000;0.544506
5563.000000;0.544690
5562.000000;0.544855
5561.000000;0.544986
5560.000000;0.545092
5559.000000;0.545175
5558.000000;0.545235
5557.000000;0.545274
5556.000000;0.545300
5555.000000;0.545323
5554.000000;0.545351
5553.000000;0.545398
5552.000000;0.545471
5551.000000;0.545570
5550.000000;0.545679
5549.000000;0.545789
5548.000000;0.545896
5547.000000;0.546008
5546.000000;0.546133
5545.000000;0.546271
5544.000000;0.546406
5543.000000;0.546520
5542.000000;0.546613
5541.000000;0.546702
5540.000000;0.546795
5539.000000;0.546879
5538.000000;0.546945
5537.000000;0.547007
5536.000000;0.547077
5535.000000;0.547148
5534.000000;0.547206
5533.000000;0.547262
5532.000000;0.547335
5531.000000;0.547415
5530.000000;0.547473
5529.000000;0.547507
5528.000000;0.547559
5527.000000;0.547665
5526.000000;0.547807
5525.000000;0.547932
5524.000000;0.548011
5523.000000;0.548053
5522.000000;0.548082
5521.000000;0.548114
5520.000000;0.548169
5519.000000;0.548262
5518.000000;0.548393
5517.000000;0.548528
5516.000000;0.548623
5515.000000;0.548664
5514.000000;0.548671
5513.000000;0.548677
5512.000000;0.548702
5511.000000;0.548747
5510.000000;0.548810
5509.000000;0.548891
5508.000000;0.548985
5507.000000;0.549084
5506.000000;0.549180
5505.000000;0.549285
5504.000000;0.549415
5503.000000;0.549561
5502.000000;0.549686
5501.000000;0.549747
5500.000000;0.549735
5499.000000;0.549679
5498.000000;0.549616
5497.000000;0.549570
5496.000000;0.549542
5495.000000;0.549525
5494.000000;0.549532
5493.000000;0.549607
5492.000000;0.549786
5491.000000;0.550045
5490.000000;0.550308
5489.000000;0.550512
5488.000000;0.550655
5487.000000;0.550787
5486.000000;0.550939
5485.000000;0.551077
5484.000000;0.551115
5483.000000;0.550985
5482.000000;0.550705
5481.000000;0.550408
5480.000000;0.550270
5479.000000;0.550373
5478.000000;0.550634
5477.000000;0.550881
5476.000000;0.551028
5475.000000;0.551137
5474.000000;0.551304
5473.000000;0.551525
5472.000000;0.551713
5471.000000;0.551799
5470.000000;0.551783
5469.000000;0.551703
5468.000000;0.551615
5467.000000;0.551587
5466.000000;0.551664
5465.000000;0.551818
5464.000000;0.551973
5463.000000;0.552089
5462.000000;0.552194
5461.000000;0.552352
5460.000000;0.552602
5459.000000;0.552912
5458.000000;0.553188
5457.000000;0.553340
5456.000000;0.553363
5455.000000;0.553335
5454.000000;0.553306
5453.000000;0.553240
5452.000000;0.553118
5451.000000;0.553021
5450.000000;0.553055
5449.000000;0.553190
5448.000000;0.553267
5447.000000;0.553215
5446.000000;0.553180
5445.000000;0.553368
5444.000000;0.553780
5443.000000;0.554191
5442.000000;0.554394
5441.000000;0.554419
5440.000000;0.554488
5439.000000;0.554742
5438.000000;0.555063
5437.000000;0.555204
5436.000000;0.555070
5435.000000;0.554846
5434.000000;0.554813
5433.000000;0.555060
5432.000000;0.555421
5431.000000;0.555695
5430.000000;0.555847
5429.000000;0.556024
5428.000000;0.556389
5427.000000;0.556944
5426.000000;0.557553
5425.000000;0.558075
5424.000000;0.558446
5423.000000;0.558662
5422.000000;0.558722
5421.000000;0.558638
5420.000000;0.558480
5419.000000;0.558372
5418.000000;0.558378
5417.000000;0.558418
5416.000000;0.558376
5415.000000;0.558285
5414.000000;0.558342
5413.000000;0.558694
5412.000000;0.559268
5411.000000;0.559885
5410.000000;0.560459
5409.000000;0.561018
5408.000000;0.561579
5407.000000;0.562081
5406.000000;0.562464
5405.000000;0.562746
5404.000000;0.562995
5403.000000;0.563252
5402.000000;0.563495
5401.000000;0.563669
5400.000000;0.563741
5399.000000;0.563773
5398.000000;0.563900
5397.000000;0.564221
5396.000000;0.564682
5395.000000;0.565134
5394.000000;0.565493
5393.000000;0.565807
5392.000000;0.566168
5391.000000;0.566624
5390.000000;0.567167
5389.000000;0.567754
5388.000000;0.568325
5387.000000;0.568832
5386.000000;0.569278
5385.000000;0.569710
5384.000000;0.570141
5383.000000;0.570537
5382.000000;0.570897
5381.000000;0.571276
5380.000000;0.571725
5379.000000;0.572229
5378.000000;0.572768
5377.000000;0.573384
5376.000000;0.574127
5375.000000;0.574971
5374.000000;0.575828
5373.000000;0.576636
5372.000000;0.577383
5371.000000;0.578067
5370.000000;0.578687
5369.000000;0.579291
5368.000000;0.579957
5367.000000;0.580715
5366.000000;0.581522
5365.000000;0.582338
5364.000000;0.583175
5363.000000;0.584039
5362.000000;0.584878
5361.000000;0.585626
5360.000000;0.586306
5359.000000;0.587030
5358.000000;0.587871
5357.000000;0.588776
5356.000000;0.589650
5355.000000;0.590511
5354.000000;0.591497
5353.000000;0.592696
5352.000000;0.593984
5351.000000;0.595138
5350.000000;0.596128
5349.000000;0.597148
5348.000000;0.598330
5347.000000;0.599532
5346.000000;0.600518
5345.000000;0.601333
5344.000000;0.602350
5343.000000;0.603856
5342.000000;0.605667
5341.000000;0.607301
5340.000000;0.608446
5339.000000;0.609241
5338.000000;0.610139
5337.000000;0.611475
5336.000000;0.613179
5335.000000;0.614907
5334.000000;0.616390
5333.000000;0.617621
5332.000000;0.618754
5331.000000;0.619852
5330.000000;0.620808
5329.000000;0.621510
5328.000000;0.622039
5327.000000;0.622602
5326.000000;0.623220
5325.000000;0.623562
5324.000000;0.623256
5323.000000;0.622299
5322.000000;0.621069
5321.000000;0.619911
5320.000000;0.618835
5319.000000;0.617581
5318.000000;0.615817
5317.000000;0.613249
5316.000000;0.609734
5315.000000;0.605412
5314.000000;0.600555
5313.000000;0.595195
5312.000000;0.588982
5311.000000;0.581347
5310.000000;0.571640
5309.000000;0.559322
5308.000000;0.544541
5307.000000;0.528487
5306.000000;0.512420
5305.000000;0.496322
5304.000000;0.479236
5303.000000;0.460803
5302.000000;0.441852
5301.000000;0.423870
5300.000000;0.408784
5299.000000;0.399133
5298.000000;0.397912
5297.000000;0.407368
5296.000000;0.426426
5295.000000;0.451511
5294.000000;0.482266
5293.000000;0.521099
5292.000000;0.565704
5291.000000;0.609127
5290.000000;0.647750
5289.000000;0.682369
5288.000000;0.712803
5287.000000;0.738015
5286.000000;0.759327
5285.000000;0.777857
5284.000000;0.791871
5283.000000;0.801894
5282.000000;0.813863
5281.000000;0.831696
5280.000000;0.851274
5279.000000;0.866803
5278.000000;0.879123
5277.000000;0.891346
5276.000000;0.901097
5275.000000;0.905210
5274.000000;0.906838
5273.000000;0.910984
5272.000000;0.918177
5271.000000;0.927269
5270.000000;0.938801
5269.000000;0.950407
5268.000000;0.955200
5267.000000;0.951734
5266.000000;0.948807
5265.000000;0.953661
5264.000000;0.962227
5263.000000;0.966349
5262.000000;0.964955
5261.000000;0.961169
5260.000000;0.954951
5259.000000;0.946791
5258.000000;0.942481
5257.000000;0.946235
5256.000000;0.953493
5255.000000;0.957039
5254.000000;0.956845
5253.000000;0.957500
5252.000000;0.959903
5251.000000;0.961576
5250.000000;0.961767
5249.000000;0.961018
5248.000000;0.958895
5247.000000;0.957063
5246.000000;0.960084
5245.000000;0.967980
5244.000000;0.972881
5243.000000;0.969217
5242.000000;0.961782
5241.000000;0.957264
5240.000000;0.954952
5239.000000;0.951713
5238.000000;0.949962
5237.000000;0.953667
5236.000000;0.960693
5235.000000;0.965806
5234.000000;0.968747
5233.000000;0.972297
5232.000000;0.974563
5231.000000;0.971729
5230.000000;0.965567
5229.000000;0.960452
5228.000000;0.956987
5227.000000;0.954701
5226.000000;0.956721
5225.000000;0.965207
5224.000000;0.974571
5223.000000;0.976229
5222.000000;0.970127
5221.000000;0.964068
5220.000000;0.962844
5219.000000;0.964822
5218.000000;0.966653
5217.000000;0.965818
5216.000000;0.960472
5215.000000;0.951573
5214.000000;0.943868
5213.000000;0.941039
5212.000000;0.941755
5211.000000;0.942986
5210.000000;0.944708
5209.000000;0.948491
5208.000000;0.953858
5207.000000;0.959081
5206.000000;0.963278
5205.000000;0.965182
5204.000000;0.963025
5203.000000;0.958369
5202.000000;0.956021
5201.000000;0.957656
5200.000000;0.959825
5199.000000;0.960470
5198.000000;0.962234
5197.000000;0.965792
5196.000000;0.965908
5195.000000;0.959544
5194.000000;0.953032
5193.000000;0.954420
5192.000000;0.962781
5191.000000;0.970831
5190.000000;0.975178
5189.000000;0.977575
5188.000000;0.977800
5187.000000;0.972955
5186.000000;0.963752
5185.000000;0.955207
5184.000000;0.950819
5183.000000;0.950488
5182.000000;0.953227
5181.000000;0.957990
5180.000000;0.962347
5179.000000;0.963831
5178.000000;0.962635
5177.000000;0.960664
5176.000000;0.959044
5175.000000;0.958647
5174.000000;0.960989
5173.000000;0.965792
5172.000000;0.969435
5171.000000;0.968934
5170.000000;0.965845
5169.000000;0.963543
5168.000000;0.963056
5167.000000;0.964046
5166.000000;0.966960
5165.000000;0.971069
5164.000000;0.972985
5163.000000;0.970647
5162.000000;0.966701
5161.000000;0.964939
5160.000000;0.965952
5159.000000;0.968469
5158.000000;0.971828
5157.000000;0.974349
5156.000000;0.972263
5155.000000;0.964446
5154.000000;0.956098
5153.000000;0.953589
5152.000000;0.957344
5151.000000;0.962448
5150.000000;0.964817
5149.000000;0.964283
5148.000000;0.962277
5147.000000;0.959789
5146.000000;0.957719
5145.000000;0.956800
5144.000000;0.957032
5143.000000;0.958126
5142.000000;0.959855
5141.000000;0.961351
5140.000000;0.961330
5139.000000;0.960161
5138.000000;0.959772
5137.000000;0.960578
5136.000000;0.961377
5135.000000;0.962812
5134.000000;0.967302
5133.000000;0.974099
5132.000000;0.977831
5131.000000;0.974838
5130.000000;0.968455
5129.000000;0.964843
5128.000000;0.966346
5127.000000;0.971345
5126.000000;0.977082
5125.000000;0.980179
5124.000000;0.977917
5123.000000;0.971936
5122.000000;0.967822
5121.000000;0.968815
5120.000000;0.972098
5119.000000;0.973071
5118.000000;0.971568
5117.000000;0.971332
5116.000000;0.975072
5115.000000;0.982265
5114.000000;0.989772
5113.000000;0.993116
5112.000000;0.989424
5111.000000;0.980502
5110.000000;0.971372
5109.000000;0.965324
5108.000000;0.962269
5107.000000;0.961855
5106.000000;0.964939
5105.000000;0.970397
5104.000000;0.973522
5103.000000;0.971072
5102.000000;0.965995
5101.000000;0.963742
5100.000000;0.966149
5099.000000;0.970924
5098.000000;0.974791
5097.000000;0.975755
5096.000000;0.973969
5095.000000;0.971840
5094.000000;0.971918
5093.000000;0.973659
5092.000000;0.973898
5091.000000;0.971138
5090.000000;0.967176
5089.000000;0.964057
5088.000000;0.962177
5087.000000;0.961683
5086.000000;0.962516
5085.000000;0.962503
5084.000000;0.959151
5083.000000;0.954353
5082.000000;0.953372
5081.000000;0.958151
5080.000000;0.964946
5079.000000;0.969312
5078.000000;0.970034
5077.000000;0.967121
5076.000000;0.960499
5075.000000;0.952281
5074.000000;0.946381
5073.000000;0.944197
5072.000000;0.943456
5071.000000;0.942741
5070.000000;0.943977
5069.000000;0.948380
5068.000000;0.953346
5067.000000;0.955764
5066.000000;0.955590
5065.000000;0.954119
5064.000000;0.951963
5063.000000;0.950670
5062.000000;0.952673
5061.000000;0.957007
5060.000000;0.958388
5059.000000;0.953870
5058.000000;0.947253
5057.000000;0.943563
5056.000000;0.942861
5055.000000;0.942138
5054.000000;0.940415
5053.000000;0.938871
5052.000000;0.937772
5051.000000;0.936333
5050.000000;0.934449
5049.000000;0.932433
5048.000000;0.930290
5047.000000;0.928816
5046.000000;0.929743
5045.000000;0.933337
5044.000000;0.937463
5043.000000;0.939854
5042.000000;0.939122
5041.000000;0.933470
5040.000000;0.922457
5039.000000;0.910397
5038.000000;0.903962
5037.000000;0.905473
5036.000000;0.910819
5035.000000;0.915150
5034.000000;0.917942
5033.000000;0.920197
5032.000000;0.920448
5031.000000;0.916907
5030.000000;0.910854
5029.000000;0.904848
5028.000000;0.899789
5027.000000;0.896099
5026.000000;0.895154
5025.000000;0.896835
5024.000000;0.897871
5023.000000;0.895260
5022.000000;0.889577
5021.000000;0.883001
5020.000000;0.876675
5019.000000;0.871791
5018.000000;0.870258
5017.000000;0.871892
5016.000000;0.873094
5015.000000;0.870647
5014.000000;0.865226
5013.000000;0.859010
5012.000000;0.852374
5011.000000;0.845278
5010.000000;0.839299
5009.000000;0.835825
5008.000000;0.834202
5007.000000;0.833152
5006.000000;0.831819
5005.000000;0.828616
5004.000000;0.821788
5003.000000;0.812738
5002.000000;0.805822
5001.000000;0.802753
5000.000000;0.800246
4999.000000;0.795583
4998.000000;0.791429
4997.000000;0.791473
4996.000000;0.793905
4995.000000;0.793182
4994.000000;0.787134
4993.000000;0.778704
4992.000000;0.771489
4991.000000;0.767182
4990.000000;0.766259
4989.000000;0.767683
4988.000000;0.768318
4987.000000;0.765436
4986.000000;0.759796
4985.000000;0.754026
4984.000000;0.748734
4983.000000;0.742586
4982.000000;0.735315
4981.000000;0.728040
4980.000000;0.720980
4979.000000;0.713199
4978.000000;0.704620
4977.000000;0.696373
4976.000000;0.689109
4975.000000;0.682492
4974.000000;0.676256
4973.000000;0.670596
4972.000000;0.665633
4971.000000;0.661387
4970.000000;0.657880
4969.000000;0.654571
4968.000000;0.650374
4967.000000;0.644817
4966.000000;0.638294
4965.000000;0.630721
4964.000000;0.621254
4963.000000;0.610312
4962.000000;0.600273
4961.000000;0.592745
4960.000000;0.586612
4959.000000;0.580131
4958.000000;0.573488
4957.000000;0.567657
4956.000000;0.562121
4955.000000;0.555662
4954.000000;0.548430
4953.000000;0.541377
4952.000000;0.534343
4951.000000;0.526667
4950.000000;0.519159
4949.000000;0.513478
4948.000000;0.509635
4947.000000;0.505649
4946.000000;0.499800
4945.000000;0.492002
4944.000000;0.482892
4943.000000;0.472994
4942.000000;0.463159
4941.000000;0.454637
4940.000000;0.448088
4939.000000;0.442969
4938.000000;0.438037
4937.000000;0.432136
4936.000000;0.424818
4935.000000;0.416787
4934.000000;0.409379
4933.000000;0.403071
4932.000000;0.396728
4931.000000;0.388748
4930.000000;0.378936
4929.000000;0.368925
4928.000000;0.360720
4927.000000;0.354861
4926.000000;0.349709
4925.000000;0.342699
4924.000000;0.333048
4923.000000;0.323229
4922.000000;0.316720
4921.000000;0.314083
4920.000000;0.312296
4919.000000;0.308081
4918.000000;0.300702
4917.000000;0.291335
4916.000000;0.281157
4915.000000;0.270896
4914.000000;0.261073
4913.000000;0.251609
4912.000000;0.241839
4911.000000;0.231710
4910.000000;0.222416
4909.000000;0.215119
4908.000000;0.209569
4907.000000;0.204588
4906.000000;0.199267
4905.000000;0.193019
4904.000000;0.185361
4903.000000;0.176566
4902.000000;0.167878
4901.000000;0.160212
4900.000000;0.153061
4899.000000;0.145399
4898.000000;0.137329
4897.000000;0.130015
4896.000000;0.124118
4895.000000;0.119009
4894.000000;0.113558
4893.000000;0.107168
4892.000000;0.100068
4891.000000;0.093031
4890.000000;0.086824
4889.000000;0.081732
4888.000000;0.077557
4887.000000;0.074039
4886.000000;0.071001
4885.000000;0.068032
4884.000000;0.064500
4883.000000;0.060194
4882.000000;0.055669
4881.000000;0.051641
4880.000000;0.048198
4879.000000;0.044869
4878.000000;0.041266
4877.000000;0.037338
4876.000000;0.033071
4875.000000;0.028406
4874.000000;0.023668
4873.000000;0.019748
4872.000000;0.017403
4871.000000;0.016493
4870.000000;0.016332
4869.000000;0.016734
4868.000000;0.018043
4867.000000;0.019931
4866.000000;0.021011
4865.000000;0.020260
4864.000000;0.018290
4863.000000;0.016657
4862.000000;0.016169
4861.000000;0.016474
4860.000000;0.017077
4859.000000;0.017934
4858.000000;0.019049
4857.000000;0.020253
4856.000000;0.021630
4855.000000;0.023656
4854.000000;0.026551
4853.000000;0.029791
4852.000000;0.032617
4851.000000;0.034885
4850.000000;0.037145
4849.000000;0.039895
4848.000000;0.043006
4847.000000;0.046014
4846.000000;0.048764
4845.000000;0.051437
4844.000000;0.054001
4843.000000;0.056125
4842.000000;0.057849
4841.000000;0.059936
4840.000000;0.063166
4839.000000;0.067492
4838.000000;0.072228
4837.000000;0.076793
4836.000000;0.080849
4835.000000;0.084059
4834.000000;0.086343
4833.000000;0.088287
4832.000000;0.090678
4831.000000;0.093587
4830.000000;0.096441
4829.000000;0.098990
4828.000000;0.101604
4827.000000;0.104561
4826.000000;0.107661
4825.000000;0.110705
4824.000000;0.113761
4823.000000;0.116772
4822.000000;0.119540
4821.000000;0.122373
4820.000000;0.126089
4819.000000;0.130904
4818.000000;0.135802
4817.000000;0.139613
4816.000000;0.142339
4815.000000;0.144922
4814.000000;0.147945
4813.000000;0.151121
4812.000000;0.153962
4811.000000;0.156465
4810.000000;0.159014
4809.000000;0.161907
4808.000000;0.165138
4807.000000;0.168486
4806.000000;0.171741
4805.000000;0.174873
4804.000000;0.177967
4803.000000;0.180994
4802.000000;0.183774
4801.000000;0.186238
4800.000000;0.188561
4799.000000;0.190959
4798.000000;0.193460
4797.000000;0.196005
4796.000000;0.198650
4795.000000;0.201548
4794.000000;0.204782
4793.000000;0.208242
4792.000000;0.211614
4791.000000;0.214517
4790.000000;0.216803
4789.000000;0.218739
4788.000000;0.220743
4787.000000;0.222943
4786.000000;0.225167
4785.000000;0.227364
4784.000000;0.229765
4783.000000;0.232526
4782.000000;0.235427
4781.000000;0.238104
4780.000000;0.240438
4779.000000;0.242561
4778.000000;0.244634
4777.000000;0.246771
4776.000000;0.249052
4775.000000;0.251438
4774.000000;0.253724
4773.000000;0.255756
4772.000000;0.257648
4771.000000;0.259675
4770.000000;0.261969
4769.000000;0.264397
4768.000000;0.266721
4767.000000;0.268781
4766.000000;0.270548
4765.000000;0.272098
4764.000000;0.273527
4763.000000;0.274907
4762.000000;0.276330
4761.000000;0.277971
4760.000000;0.280012
4759.000000;0.282429
4758.000000;0.284945
4757.000000;0.287240
4756.000000;0.289188
4755.000000;0.290874
4754.000000;0.292471
4753.000000;0.294133
4752.000000;0.295919
4751.000000;0.297760
4750.000000;0.299543
4749.000000;0.301257
4748.000000;0.302995
4747.000000;0.304809
4746.000000;0.306632
4745.000000;0.308369
4744.000000;0.310000
4743.000000;0.311578
4742.000000;0.313185
4741.000000;0.314875
4740.000000;0.316595
4739.000000;0.318166
4738.000000;0.319465
4737.000000;0.320619
4736.000000;0.321887
4735.000000;0.323344
4734.000000;0.324839
4733.000000;0.326287
4732.000000;0.327809
4731.000000;0.329487
4730.000000;0.331178
4729.000000;0.332703
4728.000000;0.334110
4727.000000;0.335575
4726.000000;0.337142
4725.000000;0.338694
4724.000000;0.340118
4723.000000;0.341342
4722.000000;0.342281
4721.000000;0.342925
4720.000000;0.343482
4719.000000;0.344290
4718.000000;0.345537
4717.000000;0.347134
4716.000000;0.348872
4715.000000;0.350604
4714.000000;0.352275
4713.000000;0.353841
4712.000000;0.355223
4711.000000;0.356318
4710.000000;0.357087
4709.000000;0.357656
4708.000000;0.358284
4707.000000;0.359161
4706.000000;0.360243
4705.000000;0.361340
4704.000000;0.362345
4703.000000;0.363311
4702.000000;0.364342
4701.000000;0.365481
4700.000000;0.366716
4699.000000;0.367983
4698.000000;0.369182
4697.000000;0.370246
4696.000000;0.371212
4695.000000;0.372169
4694.000000;0.373141
4693.000000;0.374101
4692.000000;0.375098
4691.000000;0.376241
4690.000000;0.377503
4689.000000;0.378642
4688.000000;0.379432
4687.000000;0.379943
4686.000000;0.380503
4685.000000;0.381355
4684.000000;0.382428
4683.000000;0.383469
4682.000000;0.384324
4681.000000;0.385034
4680.000000;0.385708
4679.000000;0.386390
4678.000000;0.387082
4677.000000;0.387808
4676.000000;0.388625
4675.000000;0.389584
4674.000000;0.390698
4673.000000;0.391905
4672.000000;0.393037
4671.000000;0.393915
4670.000000;0.394538
4669.000000;0.395141
4668.000000;0.395953
4667.000000;0.396935
4666.000000;0.397840
4665.000000;0.398520
4664.000000;0.399076
4663.000000;0.399692
4662.000000;0.400434
4661.000000;0.401243
4660.000000;0.402027
4659.000000;0.402716
4658.000000;0.403289
4657.000000;0.403798
4656.000000;0.404325
4655.000000;0.404870
4654.000000;0.405382
4653.000000;0.405915
4652.000000;0.406653
4651.000000;0.407695
4650.000000;0.408888
4649.000000;0.409946
4648.000000;0.410701
4647.000000;0.411157
4646.000000;0.411417
4645.000000;0.411639
4644.000000;0.412015
4643.000000;0.412634
4642.000000;0.413385
4641.000000;0.414081
4640.000000;0.414682
4639.000000;0.415278
4638.000000;0.415896
4637.000000;0.416437
4636.000000;0.416837
4635.000000;0.417187
4634.000000;0.417634
4633.000000;0.418241
4632.000000;0.418969
4631.000000;0.419726
4630.000000;0.420405
4629.000000;0.420940
4628.000000;0.421357
4627.000000;0.421732
4626.000000;0.422093
4625.000000;0.422408
4624.000000;0.422695
4623.000000;0.423086
4622.000000;0.423706
4621.000000;0.424528
4620.000000;0.425369
4619.000000;0.426033
4618.000000;0.426446
4617.000000;0.426688
4616.000000;0.426921
4615.000000;0.427281
4614.000000;0.427810
4613.000000;0.428458
4612.000000;0.429114
4611.000000;0.429626
4610.000000;0.429858
4609.000000;0.429806
4608.000000;0.429652
4607.000000;0.429648
4606.000000;0.429924
4605.000000;0.430418
4604.000000;0.430977
4603.000000;0.431470
4602.000000;0.431847
4601.000000;0.432164
4600.000000;0.432570
4599.000000;0.433186
4598.000000;0.433963
4597.000000;0.434696
4596.000000;0.435223
4595.000000;0.435568
4594.000000;0.435886
4593.000000;0.436282
4592.000000;0.436713
4591.000000;0.437033
4590.000000;0.437130
4589.000000;0.437053
4588.000000;0.437003
4587.000000;0.437182
4586.000000;0.437626
4585.000000;0.438193
4584.000000;0.438721
4583.000000;0.439137
4582.000000;0.439470
4581.000000;0.439785
4580.000000;0.440135
4579.000000;0.440492
4578.000000;0.440736
4577.000000;0.440762
4576.000000;0.440624
4575.000000;0.440528
4574.000000;0.440638
4573.000000;0.440937
4572.000000;0.441284
4571.000000;0.441571
4570.000000;0.441790
4569.000000;0.442013
4568.000000;0.442317
4567.000000;0.442706
4566.000000;0.443088
4565.000000;0.443336
4564.000000;0.443419
4563.000000;0.443432
4562.000000;0.443515
4561.000000;0.443747
4560.000000;0.444115
4559.000000;0.444524
4558.000000;0.444846
4557.000000;0.445024
4556.000000;0.445129
4555.000000;0.445261
4554.000000;0.445402
4553.000000;0.445447
4552.000000;0.445389
4551.000000;0.445360
4550.000000;0.445460
4549.000000;0.445636
4548.000000;0.445784
4547.000000;0.445897
4546.000000;0.446025
4545.000000;0.446165
4544.000000;0.446287
4543.000000;0.446429
4542.000000;0.446661
4541.000000;0.446962
4540.000000;0.447207
4539.000000;0.447293
4538.000000;0.447240
4537.000000;0.447177
4536.000000;0.447244
4535.000000;0.447490
4534.000000;0.447826
4533.000000;0.448104
4532.000000;0.448248
4531.000000;0.448288
4530.000000;0.448273
4529.000000;0.448232
4528.000000;0.448219
4527.000000;0.448315
4526.000000;0.448520
4525.000000;0.448718
4524.000000;0.448807
4523.000000;0.448798
4522.000000;0.448749
4521.000000;0.448682
4520.000000;0.448634
4519.000000;0.448698
4518.000000;0.448905
4517.000000;0.449163
4516.000000;0.449385
4515.000000;0.449615
4514.000000;0.449884
4513.000000;0.450057
4512.000000;0.449981
4511.000000;0.449745
4510.000000;0.449609
4509.000000;0.449692
4508.000000;0.449882
4507.000000;0.450047
4506.000000;0.450159
4505.000000;0.450202
4504.000000;0.450137
4503.000000;0.450027
4502.000000;0.450009
4501.000000;0.450070
4500.000000;0.450012
4499.000000;0.449748
4498.000000;0.449515
4497.000000;0.449618
4496.000000;0.450058
4495.000000;0.450535
4494.000000;0.450777
4493.000000;0.450768
4492.000000;0.450662
4491.000000;0.450607
4490.000000;0.450629
4489.000000;0.450635
4488.000000;0.450506
4487.000000;0.450246
4486.000000;0.450020
4485.000000;0.450004
4484.000000;0.450209
4483.000000;0.450474
4482.000000;0.450598
4481.000000;0.450488
4480.000000;0.450229
4479.000000;0.450074
4478.000000;0.450263
4477.000000;0.450760
4476.000000;0.451208
4475.000000;0.451251
4474.000000;0.450908
4473.000000;0.450534
4472.000000;0.450421
4471.000000;0.450532
4470.000000;0.450633
4469.000000;0.450584
4468.000000;0.450441
4467.000000;0.450314
4466.000000;0.450216
4465.000000;0.450073
4464.000000;0.449843
4463.000000;0.449616
4462.000000;0.449549
4461.000000;0.449703
4460.000000;0.449946
4459.000000;0.450067
4458.000000;0.449996
4457.000000;0.449883
4456.000000;0.449920
4455.000000;0.450100
4454.000000;0.450200
4453.000000;0.450038
4452.000000;0.449709
4451.000000;0.449503
4450.000000;0.449595
4449.000000;0.449883
4448.000000;0.450162
4447.000000;0.450366
4446.000000;0.450563
4445.000000;0.450779
4444.000000;0.450964
4443.000000;0.451123
4442.000000;0.451320
4441.000000;0.451505
4440.000000;0.451474
4439.000000;0.451094
4438.000000;0.450507
4437.000000;0.450019
4436.000000;0.449818
4435.000000;0.449847
4434.000000;0.449914
4433.000000;0.449862
4432.000000;0.449683
4431.000000;0.449547
4430.000000;0.449665
4429.000000;0.450056
4428.000000;0.450473
4427.000000;0.450647
4426.000000;0.450563
4425.000000;0.450418
4424.000000;0.450331
4423.000000;0.450202
4422.000000;0.449886
4421.000000;0.449410
4420.000000;0.448931
4419.000000;0.448550
4418.000000;0.448245
4417.000000;0.447991
4416.000000;0.447876
4415.000000;0.448006
4414.000000;0.448294
4413.000000;0.448426
4412.000000;0.448129
4411.000000;0.447466
4410.000000;0.446759
4409.000000;0.446224
4408.000000;0.445784
4407.000000;0.445289
4406.000000;0.444806
4405.000000;0.444569
4404.000000;0.444682
4403.000000;0.444991
4402.000000;0.445225
4401.000000;0.445182
4400.000000;0.444791
4399.000000;0.444086
4398.000000;0.443194
4397.000000;0.442289
4396.000000;0.441516
4395.000000;0.440917
4394.000000;0.440414
4393.000000;0.439882
4392.000000;0.439315
4391.000000;0.438894
4390.000000;0.438762
4389.000000;0.438719
4388.000000;0.438320
4387.000000;0.437370
4386.000000;0.436197
4385.000000;0.435282
4384.000000;0.434754
4383.000000;0.434403
4382.000000;0.434061
4381.000000;0.433700
4380.000000;0.433191
4379.000000;0.432278
4378.000000;0.430907
4377.000000;0.429400
4376.000000;0.428186
4375.000000;0.427451
4374.000000;0.427109
4373.000000;0.426924
4372.000000;0.426548
4371.000000;0.425621
4370.000000;0.424050
4369.000000;0.422162
4368.000000;0.420479
4367.000000;0.419323
4366.000000;0.418662
4365.000000;0.418230
4364.000000;0.417719
4363.000000;0.416928
4362.000000;0.415891
4361.000000;0.414867
4360.000000;0.414135
4359.000000;0.413705
4358.000000;0.413224
4357.000000;0.412193
4356.000000;0.410381
4355.000000;0.408139
4354.000000;0.406222
4353.000000;0.405106
4352.000000;0.404443
4351.000000;0.403390
4350.000000;0.401548
4349.000000;0.399396
4348.000000;0.397686
4347.000000;0.396637
4346.000000;0.395876
4345.000000;0.394977
4344.000000;0.393787
4343.000000;0.392357
4342.000000;0.390884
4341.000000;0.389684
4340.000000;0.388926
4339.000000;0.388341
4338.000000;0.387436
4337.000000;0.386058
4336.000000;0.384507
4335.000000;0.382998
4334.000000;0.381298
4333.000000;0.379095
4332.000000;0.376489
4331.000000;0.373905
4330.000000;0.371727
4329.000000;0.370254
4328.000000;0.369801
4327.000000;0.370423
4326.000000;0.371495
4325.000000;0.371963
4324.000000;0.371226
4323.000000;0.369621
4322.000000;0.367872
4321.000000;0.366255
4320.000000;0.364526
4319.000000;0.362515
4318.000000;0.360519
4317.000000;0.358984
4316.000000;0.357968
4315.000000;0.357021
4314.000000;0.355614
4313.000000;0.353626
4312.000000;0.351447
4311.000000;0.349556
4310.000000;0.348026
4309.000000;0.346547
4308.000000;0.344997
4307.000000;0.343833
4306.000000;0.343713
4305.000000;0.344746
4304.000000;0.346270
4303.000000;0.347336
4302.000000;0.347220
4301.000000;0.345554
4300.000000;0.342460
4299.000000;0.338812
4298.000000;0.335935
4297.000000;0.334501
4296.000000;0.333789
4295.000000;0.332551
4294.000000;0.330718
4293.000000;0.329709
4292.000000;0.330780
4291.000000;0.333381
4290.000000;0.335589
4289.000000;0.336111
4288.000000;0.335501
4287.000000;0.335438
4286.000000;0.337053
4285.000000;0.340067
4284.000000;0.343322
4283.000000;0.345929
4282.000000;0.347942
4281.000000;0.350080
4280.000000;0.352808
4279.000000;0.355619
4278.000000;0.357296
4277.000000;0.357187
4276.000000;0.356335
4275.000000;0.357080
4274.000000;0.361057
4273.000000;0.367603
4272.000000;0.374543
4271.000000;0.380419
4270.000000;0.385361
4269.000000;0.389869
4268.000000;0.393878
4267.000000;0.397467
4266.000000;0.401514
4265.000000;0.406746
4264.000000;0.412722
4263.000000;0.418582
4262.000000;0.424313
4261.000000;0.430402
4260.000000;0.436754
4259.000000;0.443182
4258.000000;0.450452
4257.000000;0.459487
4256.000000;0.469611
4255.000000;0.478726
4254.000000;0.485545
4253.000000;0.490867
4252.000000;0.496359
4251.000000;0.502919
4250.000000;0.510831
4249.000000;0.520306
4248.000000;0.531203
4247.000000;0.542730
4246.000000;0.553897
4245.000000;0.564022
4244.000000;0.572788
4243.000000;0.580470
4242.000000;0.588102
4241.000000;0.596674
4240.000000;0.605954
4239.000000;0.614846
4238.000000;0.623166
4237.000000;0.632256
4236.000000;0.643303
4235.000000;0.655701
4234.000000;0.667735
4233.000000;0.678285
4232.000000;0.687302
4231.000000;0.695334
4230.000000;0.703185
4229.000000;0.711777
4228.000000;0.721879
4227.000000;0.733721
4226.000000;0.746634
4225.000000;0.759095
4224.000000;0.769746
4223.000000;0.778818
4222.000000;0.787945
4221.000000;0.797987
4220.000000;0.807899
4219.000000;0.816831
4218.000000;0.826402
4217.000000;0.838906
4216.000000;0.853495
4215.000000;0.866319
4214.000000;0.875188
4213.000000;0.882478
4212.000000;0.892323
4211.000000;0.905980
4210.000000;0.920813
4209.000000;0.933090
4208.000000;0.940934
4207.000000;0.945571
4206.000000;0.951001
4205.000000;0.961206
4204.000000;0.976146
4203.000000;0.990990
4202.000000;1.001344
4201.000000;1.008892
4200.000000;1.019077
4199.000000;1.033995
4198.000000;1.050248
4197.000000;1.063886
4196.000000;1.075042
4195.000000;1.086019
4194.000000;1.097271
4193.000000;1.107955
4192.000000;1.119244
4191.000000;1.133788
4190.000000;1.150747
4189.000000;1.164062
4188.000000;1.168569
4187.000000;1.166695
4186.000000;1.165816
4185.000000;1.170119
4184.000000;1.177508
4183.000000;1.183614
4182.000000;1.187050
4181.000000;1.190333
4180.000000;1.196507
4179.000000;1.206080
4178.000000;1.218221
4177.000000;1.233763
4176.000000;1.254932
4175.000000;1.281969
4174.000000;1.310578
4173.000000;1.334017
4172.000000;1.349982
4171.000000;1.361059
4170.000000;1.365572
4169.000000;1.357557
4168.000000;1.337730
4167.000000;1.318423
4166.000000;1.315104
4165.000000;1.333562
4164.000000;1.364143
4163.000000;1.388285
4162.000000;1.396105
4161.000000;1.394670
4160.000000;1.395298
4159.000000;1.402288
4158.000000;1.415055
4157.000000;1.433539
4156.000000;1.458172
4155.000000;1.485612
4154.000000;1.506270
4153.000000;1.512295
4152.000000;1.509473
4151.000000;1.512016
4150.000000;1.528805
4149.000000;1.557484
4148.000000;1.587576
4147.000000;1.606654
4146.000000;1.605086
4145.000000;1.584597
4144.000000;1.560268
4143.000000;1.548040
4142.000000;1.553878
4141.000000;1.572908
4140.000000;1.595815
4139.000000;1.616314
4138.000000;1.629980
4137.000000;1.631099
4136.000000;1.620621
4135.000000;1.608430
4134.000000;1.602770
4133.000000;1.604601
4132.000000;1.611882
4131.000000;1.625836
4130.000000;1.650387
4129.000000;1.683582
4128.000000;1.712873
4127.000000;1.727225
4126.000000;1.729068
4125.000000;1.726027
4124.000000;1.722605
4123.000000;1.724789
4122.000000;1.739243
4121.000000;1.760620
4120.000000;1.772751
4119.000000;1.773901
4118.000000;1.784194
4117.000000;1.823297
4116.000000;1.891754
4115.000000;1.961555
4114.000000;1.982313
4113.000000;1.933118
4112.000000;1.858886
4111.000000;1.806302
4110.000000;1.782866
4109.000000;1.772493
4108.000000;1.763645
4107.000000;1.764819
4106.000000;1.796694
4105.000000;1.869866
4104.000000;1.960348
4103.000000;2.011977
4102.000000;2.002828
4101.000000;1.971826
4100.000000;1.943655
4099.000000;1.919106
4098.000000;1.903916
4097.000000;1.897796
4096.000000;1.886316
4095.000000;1.858044
4094.000000;1.823071
4093.000000;1.805290
4092.000000;1.819759
4091.000000;1.861343
4090.000000;1.906098
4089.000000;1.927758
4088.000000;1.926638
4087.000000;1.931890
4086.000000;1.970628
4085.000000;2.044486
4084.000000;2.119311
4083.000000;2.133806
4082.000000;2.066075
4081.000000;1.969646
4080.000000;1.893057
4079.000000;1.848404
4078.000000;1.833380
4077.000000;1.843608
4076.000000;1.873270
4075.000000;1.913168
4074.000000;1.955381
4073.000000;2.001172
4072.000000;2.052614
4071.000000;2.104149
4070.000000;2.151700
4069.000000;2.193839
4068.000000;2.222510
4067.000000;2.221292
4066.000000;2.198339
4065.000000;2.198275
4064.000000;2.242467
4063.000000;2.286777
4062.000000;2.259127
4061.000000;2.182247
4060.000000;2.126579
4059.000000;2.114844
4058.000000;2.131525
4057.000000;2.158374
4056.000000;2.202784
4055.000000;2.279533
4054.000000;2.344868
4053.000000;2.298180
4052.000000;2.176687
4051.000000;2.103673
4050.000000;2.113959
4049.000000;2.147013
4048.000000;2.150454
4047.000000;2.160768
4046.000000;2.194695
4045.000000;2.214740
4044.000000;2.180409
4043.000000;2.121912
4042.000000;2.107777
4041.000000;2.164818
4040.000000;2.198077
4039.000000;2.113906
4038.000000;2.043287
4037.000000;2.057660
4036.000000;2.147749
4035.000000;2.261772
4034.000000;2.299006
4033.000000;2.247990
4032.000000;2.155870
4031.000000;2.042440
4030.000000;1.955264
4029.000000;1.934057
4028.000000;1.986402
4027.000000;2.100759
4026.000000;2.229566
4025.000000;2.242324
4024.000000;2.154527
4023.000000;2.105263
4022.000000;2.124826
4021.000000;2.190997
4020.000000;2.252581
4019.000000;2.289940
4018.000000;2.298129
4017.000000;2.277017
4016.000000;2.291253
4015.000000;2.378018
4014.000000;2.497314
4013.000000;2.550573
4012.000000;2.509906
4011.000000;2.459669
4010.000000;2.454701
4009.000000;2.417730
4008.000000;2.309507
4007.000000;2.247647
4006.000000;2.261627
4005.000000;2.301634
4004.000000;2.302243
4003.000000;2.257430
4002.000000;2.213772
4001.000000;2.198915
4000.000000;2.210164
3999.000000;2.240231
3998.000000;2.302000
3997.000000;2.410085
3996.000000;2.521703
3995.000000;2.544037
3994.000000;2.489688
3993.000000;2.450820
3992.000000;2.426587
3991.000000;2.427905
3990.000000;2.504223
3989.000000;2.745181
3988.000000;3.261829
3987.000000;2.821956
3986.000000;2.573566
3985.000000;2.559073
3984.000000;2.617502
3983.000000;2.729740
3982.000000;2.839240
3981.000000;2.685476
3980.000000;2.437244
3979.000000;2.302859
3978.000000;2.281079
3977.000000;2.355743
3976.000000;2.486225
3975.000000;2.543695
3974.000000;2.486731
3973.000000;2.443689
3972.000000;2.500589
3971.000000;2.681924
3970.000000;2.649247
3969.000000;2.426566
3968.000000;2.350952
3967.000000;2.404895
3966.000000;2.548843
3965.000000;2.900354
3964.000000;3.192197
3963.000000;2.709630
3962.000000;2.491376
3961.000000;2.388322
3960.000000;2.276178
3959.000000;2.179304
3958.000000;2.123958
3957.000000;2.118270
3956.000000;2.149062
3955.000000;2.201510
3954.000000;2.273751
3953.000000;2.363762
3952.000000;2.445181
3951.000000;2.460355
3950.000000;2.459025
3949.000000;2.499348
3948.000000;2.443288
3947.000000;2.392507
3946.000000;2.494243
3945.000000;2.625959
3944.000000;2.536103
3943.000000;2.414051
3942.000000;2.389334
3941.000000;2.452773
3940.000000;2.552546
3939.000000;2.555650
3938.000000;2.529264
3937.000000;2.584998
3936.000000;2.706464
3935.000000;2.842580
3934.000000;2.858516
3933.000000;2.717470
3932.000000;2.588742
3931.000000;2.565415
3930.000000;2.663532
3929.000000;2.840779
3928.000000;2.986144
3927.000000;2.992611
3926.000000;3.000119
3925.000000;3.068636
3924.000000;2.973641
3923.000000;2.814964
3922.000000;2.985168
3921.000000;3.474247
3920.000000;2.975057
3919.000000;2.770563
3918.000000;2.736724
3917.000000;2.839470
3916.000000;3.072462
3915.000000;2.808179
3914.000000;2.542967
3913.000000;2.476814
3912.000000;2.517094
3911.000000;2.716578
3910.000000;3.020225
3909.000000;2.764504
3908.000000;2.569524
3907.000000;2.488929
3906.000000;2.421065
3905.000000;2.470043
3904.000000;2.768292
3903.000000;3.138622
3902.000000;2.795474
3901.000000;2.628280
3900.000000;2.622851
3899.000000;2.710499
3898.000000;3.089571
3897.000000;3.372209
3896.000000;2.830794
3895.000000;2.660656
3894.000000;2.507724
3893.000000;2.359254
3892.000000;2.314976
3891.000000;2.397443
3890.000000;2.647602
3889.000000;3.007795
3888.000000;2.761578
3887.000000;2.433956
3886.000000;2.329874
3885.000000;2.353821
3884.000000;2.457324
3883.000000;2.593089
3882.000000;2.813582
3881.000000;3.261322
3880.000000;3.283170
3879.000000;3.326590
3878.000000;3.506106
3877.000000;2.989126
3876.000000;2.657842
3875.000000;2.514650
3874.000000;2.619844
3873.000000;2.832528
3872.000000;2.586888
3871.000000;2.422453
3870.000000;2.468450
3869.000000;2.597333
3868.000000;2.687299
3867.000000;3.070639
3866.000000;3.213778
3865.000000;2.713495
3864.000000;2.739030
3863.000000;2.677703
3862.000000;2.494116
3861.000000;2.393549
3860.000000;2.294087
3859.000000;2.086472
3858.000000;1.923023
3857.000000;1.955353
3856.000000;2.086674
3855.000000;2.112392
3854.000000;2.125455
3853.000000;2.214368
3852.000000;2.324350
3851.000000;2.434295
3850.000000;2.558927
3849.000000;2.708151
3848.000000;2.749383
3847.000000;2.595458
3846.000000;2.506658
3845.000000;2.567573
3844.000000;2.877398
3843.000000;2.981307
3842.000000;2.460049
3841.000000;2.223841
3840.000000;2.198072
3839.000000;2.357109
3838.000000;2.761361
3837.000000;3.239790
3836.000000;2.948819
3835.000000;2.855310
3834.000000;2.959424
3833.000000;2.873020
3832.000000;2.744111
3831.000000;2.747490
3830.000000;2.769759
3829.000000;2.853569
3828.000000;3.364306
3827.000000;2.659757
3826.000000;2.306587
3825.000000;2.271915
3824.000000;2.372165
3823.000000;2.510080
3822.000000;2.364752
3821.000000;2.202166
3820.000000;2.173448
3819.000000;2.257253
3818.000000;2.415651
3817.000000;2.563864
3816.000000;2.651858
3815.000000;2.618305
3814.000000;2.589385
3813.000000;2.635872
3812.000000;2.905001
3811.000000;3.084344
3810.000000;2.674776
3809.000000;2.691062
3808.000000;2.890650
3807.000000;2.434512
3806.000000;2.224174
3805.000000;2.249971
3804.000000;2.321894
3803.000000;2.368330
3802.000000;2.370063
3801.000000;2.420422
3800.000000;2.572220
3799.000000;2.669281
3798.000000;2.608472
3797.000000;2.636759
3796.000000;2.725067
3795.000000;2.783398
3794.000000;2.916454
3793.000000;2.830393
3792.000000;2.693677
3791.000000;2.759567
3790.000000;2.863068
3789.000000;2.737809
3788.000000;2.579056
3787.000000;2.502313
3786.000000;2.489790
3785.000000;2.652289
3784.000000;2.885586
3783.000000;2.694138
3782.000000;2.600003
3781.000000;2.728231
3780.000000;3.098164
3779.000000;3.211281
3778.000000;2.876215
3777.000000;2.736467
3776.000000;2.826150
3775.000000;3.584067
3774.000000;3.207326
3773.000000;2.674950
3772.000000;2.513544
3771.000000;2.502885
3770.000000;2.631938
3769.000000;2.752093
3768.000000;2.789013
3767.000000;3.023158
3766.000000;2.871128
3765.000000;2.408875
3764.000000;2.252263
3763.000000;2.262674
3762.000000;2.364276
3761.000000;2.607757
3760.000000;2.946074
3759.000000;2.829158
3758.000000;2.832638
3757.000000;2.722418
3756.000000;2.372509
3755.000000;2.433254
3754.000000;2.484057
3753.000000;2.585663
3752.000000;2.642647
3751.000000;2.407608
3750.000000;2.335474
3749.000000;2.282678
3748.000000;2.310607
3747.000000;2.378485
3746.000000;2.430305
3745.000000;2.444536
3744.000000;2.448903
3743.000000;2.497108
3742.000000;2.476391
3741.000000;2.497125
3740.000000;2.581935
3739.000000;2.573265
3738.000000;2.581368
3737.000000;2.545356
3736.000000;2.515202
3735.000000;2.619152
3734.000000;2.841432
3733.000000;3.073816
3732.000000;3.197213
3731.000000;3.067577
3730.000000;2.923365
3729.000000;2.773847
3728.000000;2.627888
3727.000000;2.544081
3726.000000;2.534444
3725.000000;2.597251
3724.000000;2.912729
3723.000000;3.130105
3722.000000;2.709571
3721.000000;2.556168
3720.000000;2.525705
3719.000000;2.517682
3718.000000;2.529552
3717.000000;2.588425
3716.000000;2.600320
3715.000000;2.515049
3714.000000;2.506523
3713.000000;2.590452
3712.000000;2.684359
3711.000000;2.774922
3710.000000;2.859570
3709.000000;2.790692
3708.000000;2.692170
3707.000000;2.786144
3706.000000;3.178978
3705.000000;3.281282
3704.000000;2.915853
3703.000000;2.758787
3702.000000;2.677676
3701.000000;2.557308
3700.000000;2.376818
3699.000000;2.212039
3698.000000;2.094947
3697.000000;2.038221
3696.000000;2.043343
3695.000000;2.105368
3694.000000;2.210276
3693.000000;2.362800
3692.000000;2.535527
3691.000000;2.771480
3690.000000;3.029969
3689.000000;2.799701
3688.000000;2.664979
3687.000000;2.771590
3686.000000;3.048106
3685.000000;3.002309
3684.000000;2.825356
3683.000000;2.689182
3682.000000;2.383056
3681.000000;2.126786
3680.000000;2.007890
3679.000000;2.021820
3678.000000;2.054591
3677.000000;2.188409
3676.000000;2.600524
3675.000000;2.345770
3674.000000;2.087054
3673.000000;2.186116
3672.000000;2.577229
3671.000000;2.532032
3670.000000;2.274196
3669.000000;2.350478
3668.000000;2.522225
3667.000000;2.644097
3666.000000;2.646824
3665.000000;2.678673
3664.000000;2.815360
3663.000000;3.094134
3662.000000;3.580434
3661.000000;3.044419
3660.000000;2.686899
3659.000000;2.482477
3658.000000;2.353351
3657.000000;2.274427
3656.000000;2.194890
3655.000000;2.118932
3654.000000;2.078248
3653.000000;2.103429
3652.000000;2.198593
3651.000000;2.373112
3650.000000;2.682445
3649.000000;2.847638
3648.000000;2.674484
3647.000000;2.651982
3646.000000;2.734949
3645.000000;2.662871
3644.000000;2.482410
3643.000000;2.390462
3642.000000;2.404488
3641.000000;2.458359
3640.000000;2.444656
3639.000000;2.389694
3638.000000;2.409387
3637.000000;2.489165
3636.000000;2.606979
3635.000000;2.882901
3634.000000;2.618771
3633.000000;2.370909
3632.000000;2.361892
3631.000000;2.638510
3630.000000;3.129791
3629.000000;2.574301
3628.000000;2.439207
3627.000000;2.400903
3626.000000;2.375011
3625.000000;2.453301
3624.000000;2.750209
3623.000000;3.379460
3622.000000;3.042296
3621.000000;2.736939
3620.000000;2.556539
3619.000000;2.526238
3618.000000;2.696504
3617.000000;3.140335
3616.000000;3.318059
3615.000000;2.949919
3614.000000;2.590654
3613.000000;2.380456
3612.000000;2.385745
3611.000000;2.537074
3610.000000;2.771679
3609.000000;2.910286
3608.000000;2.779493
3607.000000;2.682532
3606.000000;2.654307
3605.000000;2.651282
3604.000000;2.616927
3603.000000;2.463249
3602.000000;2.333754
3601.000000;2.306148
3600.000000;2.372151
3599.000000;2.497300
3598.000000;2.614942
3597.000000;2.885021
3596.000000;2.979869
3595.000000;2.604877
3594.000000;2.530626
3593.000000;2.646064
3592.000000;2.775928
3591.000000;2.746881
3590.000000;2.596085
3589.000000;2.514776
3588.000000;2.557406
3587.000000;2.838851
3586.000000;3.309139
3585.000000;3.098989
3584.000000;2.883975
3583.000000;2.791928
3582.000000;2.689430
3581.000000;2.547335
3580.000000;2.420617
3579.000000;2.403142
3578.000000;2.496210
3577.000000;2.797923
3576.000000;3.250560
3575.000000;2.803399
3574.000000;2.576727
3573.000000;2.507887
3572.000000;2.548369
3571.000000;2.696333
3570.000000;2.757742
3569.000000;2.628892
3568.000000;2.483889
3567.000000;2.440464
3566.000000;2.506908
3565.000000;2.654891
3564.000000;2.782560
3563.000000;2.765515
3562.000000;2.664298
3561.000000;2.578867
3560.000000;2.546258
3559.000000;2.543853
3558.000000;2.491772
3557.000000;2.451045
3556.000000;2.494299
3555.000000;2.592993
3554.000000;2.651609
3553.000000;2.851294
3552.000000;2.985463
3551.000000;2.579264
3550.000000;2.417831
3549.000000;2.403197
3548.000000;2.475637
3547.000000;2.664431
3546.000000;3.011564
3545.000000;3.200447
3544.000000;3.206353
3543.000000;3.326989
3542.000000;3.032106
3541.000000;2.822016
3540.000000;2.691258
3539.000000;2.585632
3538.000000;2.565073
3537.000000;2.755045
3536.000000;2.688687
3535.000000;2.382397
3534.000000;2.299074
3533.000000;2.373588
3532.000000;2.572960
3531.000000;2.743574
3530.000000;2.706658
3529.000000;2.695150
3528.000000;2.838063
3527.000000;3.171696
3526.000000;3.213879
3525.000000;3.172928
3524.000000;2.999079
3523.000000;2.577762
3522.000000;2.355377
3521.000000;2.283582
3520.000000;2.328059
3519.000000;2.490113
3518.000000;2.884197
3517.000000;3.367048
3516.000000;2.961069
3515.000000;2.931790
3514.000000;3.120697
3513.000000;3.072845
3512.000000;2.869046
3511.000000;2.765375
3510.000000;2.720183
3509.000000;2.708081
3508.000000;2.799467
3507.000000;3.260433
3506.000000;3.342957
3505.000000;2.932879
3504.000000;2.812528
3503.000000;2.772042
3502.000000;2.892474
3501.000000;2.998271
3500.000000;2.771076
3499.000000;2.645160
3498.000000;2.605121
3497.000000;2.547983
3496.000000;2.476496
3495.000000;2.432492
3494.000000;2.437944
3493.000000;2.468734
3492.000000;2.513373
3491.000000;2.608378
3490.000000;2.811259
3489.000000;3.058127
3488.000000;2.986658
3487.000000;2.801673
3486.000000;2.746878
3485.000000;2.767968
3484.000000;2.724501
3483.000000;2.655319
3482.000000;2.658401
3481.000000;2.689370
3480.000000;2.675243
3479.000000;2.699368
3478.000000;2.791690
3477.000000;2.739160
3476.000000;2.586483
3475.000000;2.505569
3474.000000;2.512176
3473.000000;2.686748
3472.000000;2.960222
3471.000000;2.740294
3470.000000;2.626424
3469.000000;2.697940
3468.000000;2.736133
3467.000000;2.578035
3466.000000;2.467583
3465.000000;2.453289
3464.000000;2.460943
3463.000000;2.478537
3462.000000;2.564428
3461.000000;2.702875
3460.000000;2.852753
3459.000000;3.276786
3458.000000;2.963447
3457.000000;2.560151
3456.000000;2.456712
3455.000000;2.423581
3454.000000;2.432675
3453.000000;2.484900
3452.000000;2.611064
3451.000000;2.740923
3450.000000;2.753131
3449.000000;2.800554
3448.000000;2.963094
3447.000000;3.135182
3446.000000;2.983423
3445.000000;2.736091
3444.000000;2.636113
3443.000000;2.743008
3442.000000;3.196484
3441.000000;3.490820
3440.000000;2.877728
3439.000000;2.602869
3438.000000;2.455210
3437.000000;2.388978
3436.000000;2.416902
3435.000000;2.637531
3434.000000;3.070025
3433.000000;2.917324
3432.000000;2.773101
3431.000000;2.867619
3430.000000;3.013015
3429.000000;3.228770
3428.000000;3.505562
3427.000000;3.278515
3426.000000;3.031206
3425.000000;2.862023
3424.000000;2.765084
3423.000000;2.865881
3422.000000;3.427172
3421.000000;3.389596
3420.000000;3.198312
3419.000000;3.511643
3418.000000;3.205576
3417.000000;2.792401
3416.000000;2.615433
3415.000000;2.596193
3414.000000;2.720034
3413.000000;2.847994
3412.000000;2.699402
3411.000000;2.536940
3410.000000;2.504289
3409.000000;2.677605
3408.000000;3.028993
3407.000000;2.945501
3406.000000;2.815342
3405.000000;2.916061
3404.000000;2.970751
3403.000000;2.732620
3402.000000;2.581655
3401.000000;2.596040
3400.000000;2.696727
3399.000000;2.825205
3398.000000;2.862082
3397.000000;2.692129
3396.000000;2.614374
3395.000000;2.705129
3394.000000;2.925683
3393.000000;2.994256
3392.000000;3.022239
3391.000000;3.611075
3390.000000;2.778615
3389.000000;2.531096
3388.000000;2.601335
3387.000000;2.874463
3386.000000;2.848032
3385.000000;2.713433
3384.000000;2.613665
3383.000000;2.638691
3382.000000;2.720764
3381.000000;2.541099
3380.000000;2.395315
3379.000000;2.371244
3378.000000;2.413034
3377.000000;2.524632
3376.000000;2.622101
3375.000000;2.537518
3374.000000;2.413460
3373.000000;2.335038
3372.000000;2.338688
3371.000000;2.481561
3370.000000;2.868689
3369.000000;2.942746
3368.000000;2.607439
3367.000000;2.462049
3366.000000;2.480595
3365.000000;2.712504
3364.000000;3.299672
3363.000000;2.720689
3362.000000;2.532061
3361.000000;2.565238
3360.000000;2.733780
3359.000000;2.709746
3358.000000;2.525909
3357.000000;2.428128
3356.000000;2.346123
3355.000000;2.285626
3354.000000;2.292486
3353.000000;2.397897
3352.000000;2.609570
3351.000000;2.679800
3350.000000;2.573977
3349.000000;2.731020
3348.000000;2.756457
3347.000000;2.451604
3346.000000;2.337484
3345.000000;2.370517
3344.000000;2.483763
3343.000000;2.505503
3342.000000;2.408368
3341.000000;2.337036
3340.000000;2.299452
3339.000000;2.274198
3338.000000;2.272169
3337.000000;2.319405
3336.000000;2.432445
3335.000000;2.613012
3334.000000;2.832408
3333.000000;2.945496
3332.000000;3.192578
3331.000000;3.943139
3330.000000;2.921296
3329.000000;2.665568
3328.000000;2.493744
3327.000000;2.398348
3326.000000;2.388193
3325.000000;2.474506
3324.000000;2.621660
3323.000000;2.725642
3322.000000;2.744426
3321.000000;2.738061
3320.000000;2.750133
3319.000000;2.724928
3318.000000;2.668620
3317.000000;2.609605
3316.000000;2.568563
3315.000000;2.642200
3314.000000;2.989935
3313.000000;2.837931
3312.000000;2.608271
3311.000000;2.525893
3310.000000;2.486058
3309.000000;2.489995
3308.000000;2.526208
3307.000000;2.555749
3306.000000;2.607782
3305.000000;2.703964
3304.000000;2.571718
3303.000000;2.402404
3302.000000;2.391698
3301.000000;2.475275
3300.000000;2.573886
3299.000000;2.665068
3298.000000;2.744104
3297.000000;2.815956
3296.000000;3.013355
3295.000000;3.033520
3294.000000;2.780131
3293.000000;2.629784
3292.000000;2.560926
3291.000000;2.563129
3290.000000;2.554075
3289.000000;2.514910
3288.000000;2.545360
3287.000000;2.716285
3286.000000;3.033986
3285.000000;3.183550
3284.000000;2.875988
3283.000000;2.586272
3282.000000;2.447862
3281.000000;2.417623
3280.000000;2.475525
3279.000000;2.629647
3278.000000;2.735552
3277.000000;2.578887
3276.000000;2.491273
3275.000000;2.503880
3274.000000;2.557681
3273.000000;2.632776
3272.000000;3.076049
3271.000000;3.529348
3270.000000;2.928710
3269.000000;3.006103
3268.000000;2.759468
3267.000000;2.551171
3266.000000;2.521853
3265.000000;2.652355
3264.000000;3.004516
3263.000000;2.901401
3262.000000;2.610689
3261.000000;2.481831
3260.000000;2.454052
3259.000000;2.532837
3258.000000;2.752605
3257.000000;3.049762
3256.000000;2.973369
3255.000000;2.768772
3254.000000;2.648699
3253.000000;2.657989
3252.000000;2.779536
3251.000000;2.639634
3250.000000;2.402014
3249.000000;2.378203
3248.000000;2.538226
3247.000000;2.576596
3246.000000;2.429303
3245.000000;2.456233
3244.000000;2.634027
3243.000000;2.825247
3242.000000;2.744436
3241.000000;2.598429
3240.000000;2.500629
3239.000000;2.405413
3238.000000;2.335663
3237.000000;2.369646
3236.000000;2.616865
3235.000000;2.864090
3234.000000;2.584750
3233.000000;2.515320
3232.000000;2.832855
3231.000000;2.942061
3230.000000;2.508229
3229.000000;2.426873
3228.000000;2.566920
3227.000000;3.088001
3226.000000;2.661946
3225.000000;2.421647
3224.000000;2.393405
3223.000000;2.496711
3222.000000;2.681438
3221.000000;2.871211
3220.000000;3.221483
3219.000000;3.378940
3218.000000;2.790693
3217.000000;2.622633
3216.000000;2.564361
3215.000000;2.457406
3214.000000;2.317517
3213.000000;2.252218
3212.000000;2.280178
3211.000000;2.436600
3210.000000;2.713337
3209.000000;2.699225
3208.000000;2.564400
3207.000000;2.522281
3206.000000;2.583586
3205.000000;2.798727
3204.000000;3.005872
3203.000000;2.730120
3202.000000;2.597156
3201.000000;2.607339
3200.000000;2.752265
3199.000000;3.103319
3198.000000;3.668287
3197.000000;3.723217
3196.000000;3.348274
3195.000000;3.027320
3194.000000;2.899341
3193.000000;2.814153
3192.000000;2.716829
3191.000000;2.797136
3190.000000;2.908732
3189.000000;2.711828
3188.000000;2.627692
3187.000000;2.973747
3186.000000;2.977251
3185.000000;2.578958
3184.000000;2.451470
3183.000000;2.396667
3182.000000;2.362021
3181.000000;2.290766
3180.000000;2.225745
3179.000000;2.206994
3178.000000;2.261160
3177.000000;2.419802
3176.000000;2.750039
3175.000000;2.809279
3174.000000;2.681574
3173.000000;2.743938
3172.000000;2.950655
3171.000000;2.966902
3170.000000;2.696613
3169.000000;2.596583
3168.000000;2.626552
3167.000000;2.779827
3166.000000;2.991564
3165.000000;3.029387
3164.000000;2.819050
3163.000000;2.538481
3162.000000;2.340377
3161.000000;2.265420
3160.000000;2.306430
3159.000000;2.418288
3158.000000;2.535899
3157.000000;2.753454
3156.000000;3.320001
3155.000000;2.836838
3154.000000;2.653114
3153.000000;2.741911
3152.000000;3.158189
3151.000000;3.266042
3150.000000;2.865278
3149.000000;2.735949
3148.000000;2.671253
3147.000000;2.633473
3146.000000;2.630111
3145.000000;2.728511
3144.000000;2.885069
3143.000000;2.851713
3142.000000;2.821368
3141.000000;2.774314
3140.000000;2.588173
3139.000000;2.424394
3138.000000;2.367690
3137.000000;2.447192
3136.000000;2.724249
3135.000000;2.703367
3134.000000;2.517759
3133.000000;2.590642
3132.000000;3.143919
3131.000000;2.897471
3130.000000;2.597989
3129.000000;2.683526
3128.000000;2.597898
3127.000000;2.479459
3126.000000;2.486632
3125.000000;2.577190
3124.000000;2.732287
3123.000000;2.852276
3122.000000;2.538897
3121.000000;2.368057
3120.000000;2.342758
3119.000000;2.422994
3118.000000;2.619328
3117.000000;3.069084
3116.000000;3.260820
3115.000000;2.832666
3114.000000;2.751289
3113.000000;2.659022
3112.000000;2.567807
3111.000000;2.514194
3110.000000;2.511191
3109.000000;2.535858
3108.000000;2.570813
3107.000000;2.581085
3106.000000;2.542499
3105.000000;2.511961
3104.000000;2.532169
3103.000000;2.526983
3102.000000;2.494575
3101.000000;2.540007
3100.000000;2.669875
3099.000000;2.756564
3098.000000;2.697304
3097.000000;2.615001
3096.000000;2.585095
3095.000000;2.568779
3094.000000;2.513146
3093.000000;2.457254
3092.000000;2.483392
3091.000000;2.582561
3090.000000;2.558975
3089.000000;2.465510
3088.000000;2.436175
3087.000000;2.440671
3086.000000;2.470024
3085.000000;2.542767
3084.000000;2.640579
3083.000000;2.656554
3082.000000;2.547615
3081.000000;2.397232
3080.000000;2.279844
3079.000000;2.234473
3078.000000;2.263750
3077.000000;2.364654
3076.000000;2.563943
3075.000000;2.842709
3074.000000;2.912044
3073.000000;2.653682
3072.000000;2.473235
3071.000000;2.481024
3070.000000;2.565049
3069.000000;2.460883
3068.000000;2.400653
3067.000000;2.491581
3066.000000;2.716916
3065.000000;3.009978
3064.000000;3.398045
3063.000000;3.257046
3062.000000;2.735223
3061.000000;2.539716
3060.000000;2.480296
3059.000000;2.517271
3058.000000;2.551784
3057.000000;2.499415
3056.000000;2.425027
3055.000000;2.417608
3054.000000;2.546615
3053.000000;2.647336
3052.000000;2.527532
3051.000000;2.454384
3050.000000;2.446738
3049.000000;2.442851
3048.000000;2.455378
3047.000000;2.533257
3046.000000;2.757285
3045.000000;3.166604
3044.000000;3.443023
3043.000000;3.042937
3042.000000;2.747604
3041.000000;2.613998
3040.000000;2.512220
3039.000000;2.427045
3038.000000;2.416906
3037.000000;2.596044
3036.000000;3.148529
3035.000000;2.844188
3034.000000;2.666805
3033.000000;2.922957
3032.000000;2.969843
3031.000000;2.550198
3030.000000;2.493446
3029.000000;2.628689
3028.000000;2.716079
3027.000000;2.543135
3026.000000;2.420414
3025.000000;2.359302
3024.000000;2.418204
3023.000000;2.712603
3022.000000;3.153329
3021.000000;3.579567
3020.000000;2.964390
3019.000000;2.712033
3018.000000;2.759210
3017.000000;2.876741
3016.000000;2.821996
3015.000000;2.579187
3014.000000;2.357115
3013.000000;2.237209
3012.000000;2.238584
3011.000000;2.406924
3010.000000;2.862474
3009.000000;2.794101
3008.000000;2.447816
3007.000000;2.356213
3006.000000;2.386576
3005.000000;2.524621
3004.000000;2.731931
3003.000000;2.789088
3002.000000;3.231080
3001.000000;3.098796
3000.000000;2.403551
2999.000000;2.234201
2998.000000;2.247686
2997.000000;2.422035
2996.000000;2.665927
2995.000000;2.683614
2994.000000;2.591291
2993.000000;2.627492
2992.000000;2.762842
2991.000000;2.765365
2990.000000;2.715013
2989.000000;2.746209
2988.000000;2.835758
2987.000000;2.926765
2986.000000;2.883741
2985.000000;2.682809
2984.000000;2.486828
2983.000000;2.387208
2982.000000;2.390831
2981.000000;2.443707
2980.000000;2.452588
2979.000000;2.422735
2978.000000;2.425390
2977.000000;2.493018
2976.000000;2.611788
2975.000000;2.656012
2974.000000;2.746302
2973.000000;3.024667
2972.000000;2.678550
2971.000000;2.416047
2970.000000;2.399586
2969.000000;2.464609
2968.000000;2.486130
2967.000000;2.383596
2966.000000;2.275709
2965.000000;2.241649
2964.000000;2.291270
2963.000000;2.414115
2962.000000;2.500941
2961.000000;2.466250
2960.000000;2.437771
2959.000000;2.453983
2958.000000;2.465841
2957.000000;2.404024
2956.000000;2.294477
2955.000000;2.235270
2954.000000;2.272915
2953.000000;2.364136
2952.000000;2.387972
2951.000000;2.333725
2950.000000;2.299100
2949.000000;2.348275
2948.000000;2.533992
2947.000000;2.861654
2946.000000;3.095308
2945.000000;3.256492
2944.000000;3.021092
2943.000000;2.746025
2942.000000;2.741732
2941.000000;2.990805
2940.000000;3.247823
2939.000000;3.154441
2938.000000;2.860893
2937.000000;2.577005
2936.000000;2.463759
2935.000000;2.564204
2934.000000;3.043180
2933.000000;3.030750
2932.000000;2.744855
2931.000000;2.778262
2930.000000;2.958887
2929.000000;2.861104
2928.000000;2.558739
2927.000000;2.399429
2926.000000;2.344708
2925.000000;2.391927
2924.000000;2.551518
2923.000000;2.716780
2922.000000;2.681869
2921.000000;2.616445
2920.000000;2.658665
2919.000000;2.805761
2918.000000;2.913225
2917.000000;2.788789
2916.000000;2.634614
2915.000000;2.631757
2914.000000;2.864689
2913.000000;3.342497
2912.000000;3.765000
2911.000000;2.946813
2910.000000;2.543609
2909.000000;2.400687
2908.000000;2.411305
2907.000000;2.499653
2906.000000;2.534920
2905.000000;2.439415
2904.000000;2.258199
2903.000000;2.125987
2902.000000;2.095200
2901.000000;2.157217
2900.000000;2.278408
2899.000000;2.395851
2898.000000;2.444353
2897.000000;2.407714
2896.000000;2.330869
2895.000000;2.267398
2894.000000;2.258847
2893.000000;2.333446
2892.000000;2.586377
2891.000000;3.028834
2890.000000;2.764431
2889.000000;2.594497
2888.000000;2.834393
2887.000000;3.008884
2886.000000;2.729954
2885.000000;2.693272
2884.000000;2.951663
2883.000000;3.483430
2882.000000;3.238887
2881.000000;2.886627
2880.000000;2.821723
2879.000000;2.932131
2878.000000;2.825906
2877.000000;2.617887
2876.000000;2.518735
2875.000000;2.495858
2874.000000;2.489678
2873.000000;2.476372
2872.000000;2.520555
2871.000000;2.605184
2870.000000;2.795775
2869.000000;3.185738
2868.000000;2.918594
2867.000000;2.684049
2866.000000;2.785151
2865.000000;3.190300
2864.000000;3.421905
2863.000000;3.320139
2862.000000;3.392250
2861.000000;3.249488
2860.000000;2.888892
2859.000000;2.527345
2858.000000;2.323049
2857.000000;2.275239
2856.000000;2.373098
2855.000000;2.521115
2854.000000;2.537496
2853.000000;2.542366
2852.000000;2.618304
2851.000000;2.748140
2850.000000;2.951856
2849.000000;2.846317
2848.000000;2.530939
2847.000000;2.408749
2846.000000;2.476145
2845.000000;2.693442
2844.000000;3.165989
2843.000000;3.223984
2842.000000;2.682628
2841.000000;2.585285
2840.000000;2.701948
2839.000000;2.731861
2838.000000;2.633944
2837.000000;2.655131
2836.000000;3.057507
2835.000000;2.992982
2834.000000;2.682310
2833.000000;3.017448
2832.000000;2.859283
2831.000000;2.432712
2830.000000;2.335708
2829.000000;2.393708
2828.000000;2.578853
2827.000000;2.731995
2826.000000;2.787980
2825.000000;2.911422
2824.000000;3.220841
2823.000000;3.746802
2822.000000;2.912412
2821.000000;2.541108
2820.000000;2.406631
2819.000000;2.414331
2818.000000;2.383810
2817.000000;2.249355
2816.000000;2.198665
2815.000000;2.267804
2814.000000;2.446172
2813.000000;2.605311
2812.000000;2.557179
2811.000000;2.455489
2810.000000;2.386561
2809.000000;2.366557
2808.000000;2.414927
2807.000000;2.545420
2806.000000;2.792145
2805.000000;2.853778
2804.000000;2.546063
2803.000000;2.336642
2802.000000;2.267887
2801.000000;2.315119
2800.000000;2.423364
2799.000000;2.456279
2798.000000;2.420603
2797.000000;2.438577
2796.000000;2.442067
2795.000000;2.304860
2794.000000;2.142786
2793.000000;2.052996
2792.000000;2.065237
2791.000000;2.180195
2790.000000;2.389174
2789.000000;2.674804
2788.000000;2.699736
2787.000000;2.532758
2786.000000;2.531941
2785.000000;2.675081
2784.000000;2.871105
2783.000000;2.896030
2782.000000;2.878054
2781.000000;3.073033
2780.000000;3.148015
2779.000000;2.740938
2778.000000;2.445103
2777.000000;2.312989
2776.000000;2.329318
2775.000000;2.493427
2774.000000;2.634548
2773.000000;2.507924
2772.000000;2.579354
2771.000000;2.857746
2770.000000;2.507014
2769.000000;2.290075
2768.000000;2.275118
2767.000000;2.388508
2766.000000;2.673793
2765.000000;2.838564
2764.000000;2.668958
2763.000000;2.747601
2762.000000;2.927579
2761.000000;2.959911
2760.000000;2.947670
2759.000000;2.679149
2758.000000;2.560322
2757.000000;2.617056
2756.000000;2.905511
2755.000000;2.978495
2754.000000;2.945856
2753.000000;3.189551
2752.000000;2.644477
2751.000000;2.406596
2750.000000;2.459737
2749.000000;2.695510
2748.000000;2.788562
2747.000000;2.586596
2746.000000;2.463981
2745.000000;2.401951
2744.000000;2.425630
2743.000000;2.523762
2742.000000;2.476732
2741.000000;2.330843
2740.000000;2.291774
2739.000000;2.399706
2738.000000;2.569850
2737.000000;2.535514
2736.000000;2.458965
2735.000000;2.522760
2734.000000;2.633231
2733.000000;2.619378
2732.000000;2.575727
2731.000000;2.609896
2730.000000;2.675732
2729.000000;2.745212
2728.000000;2.752387
2727.000000;2.673287
2726.000000;2.593888
2725.000000;2.560112
2724.000000;2.534191
2723.000000;2.453938
2722.000000;2.372873
2721.000000;2.367537
2720.000000;2.479995
2719.000000;2.785317
2718.000000;2.982407
2717.000000;2.715536
2716.000000;2.567719
2715.000000;2.495893
2714.000000;2.468167
2713.000000;2.508508
2712.000000;2.636430
2711.000000;2.914585
2710.000000;3.025248
2709.000000;2.810244
2708.000000;2.803383
2707.000000;3.116020
2706.000000;3.432521
2705.000000;3.329094
2704.000000;3.461999
2703.000000;3.720695
2702.000000;3.709066
2701.000000;3.199274
2700.000000;2.846951
2699.000000;2.639451
2698.000000;2.519573
2697.000000;2.537300
2696.000000;2.643637
2695.000000;2.662112
2694.000000;2.604624
2693.000000;2.492307
2692.000000;2.383946
2691.000000;2.416594
2690.000000;2.699031
2689.000000;2.852114
2688.000000;2.564191
2687.000000;2.467138
2686.000000;2.456521
2685.000000;2.483359
2684.000000;2.765488
2683.000000;3.122204
2682.000000;3.069359
2681.000000;3.081595
2680.000000;2.628651
2679.000000;2.373550
2678.000000;2.300586
2677.000000;2.218785
2676.000000;2.179709
2675.000000;2.195421
2674.000000;2.383435
2673.000000;3.089951
2672.000000;3.067344
2671.000000;3.062931
2670.000000;2.917251
2669.000000;2.543441
2668.000000;2.514758
2667.000000;2.508653
2666.000000;2.526581
2665.000000;2.739720
2664.000000;3.054957
2663.000000;2.726039
2662.000000;2.568424
2661.000000;2.583446
2660.000000;2.651793
2659.000000;2.791221
2658.000000;3.181532
2657.000000;3.422085
2656.000000;3.033509
2655.000000;3.054824
2654.000000;3.085764
2653.000000;2.827650
2652.000000;2.538456
2651.000000;2.459236
2650.000000;2.567575
2649.000000;2.735481
2648.000000;2.759292
2647.000000;2.682295
2646.000000;2.683898
2645.000000;2.722040
2644.000000;2.683283
2643.000000;2.500530
2642.000000;2.377336
2641.000000;2.377200
2640.000000;2.592370
2639.000000;3.069719
2638.000000;3.110281
2637.000000;3.348066
2636.000000;3.102097
2635.000000;2.726878
2634.000000;2.610508
2633.000000;2.544667
2632.000000;2.468131
2631.000000;2.357693
2630.000000;2.318334
2629.000000;2.369920
2628.000000;2.748749
2627.000000;2.989150
2626.000000;2.409169
2625.000000;2.240420
2624.000000;2.208900
2623.000000;2.286002
2622.000000;2.527865
2621.000000;2.695294
2620.000000;2.522096
2619.000000;2.391463
2618.000000;2.370437
2617.000000;2.400392
2616.000000;2.506652
2615.000000;2.757429
2614.000000;2.970742
2613.000000;2.685126
2612.000000;2.626536
2611.000000;2.774074
2610.000000;2.778332
2609.000000;2.677026
2608.000000;2.508507
2607.000000;2.408050
2606.000000;2.456329
2605.000000;2.611618
2604.000000;2.845005
2603.000000;2.988719
2602.000000;2.802882
2601.000000;2.589590
2600.000000;2.503854
2599.000000;2.517611
2598.000000;2.662826
2597.000000;3.124956
2596.000000;3.023100
2595.000000;2.675070
2594.000000;2.646954
2593.000000;2.680283
2592.000000;2.819666
2591.000000;3.018403
2590.000000;2.845581
2589.000000;2.675338
2588.000000;2.670918
2587.000000;2.823657
2586.000000;2.958115
2585.000000;2.895637
2584.000000;2.827959
2583.000000;2.632315
2582.000000;2.449202
2581.000000;2.384358
2580.000000;2.402816
2579.000000;2.490943
2578.000000;2.645067
2577.000000;2.838543
2576.000000;3.038616
2575.000000;3.076124
2574.000000;2.854992
2573.000000;2.734338
2572.000000;2.760613
2571.000000;2.802874
2570.000000;2.807102
2569.000000;2.968722
2568.000000;3.295301
2567.000000;2.938659
2566.000000;2.714920
2565.000000;2.753559
2564.000000;2.692651
2563.000000;2.625620
2562.000000;2.852894
2561.000000;3.119169
2560.000000;2.723570
2559.000000;2.748888
2558.000000;3.114286
2557.000000;2.681852
2556.000000;2.496229
2555.000000;2.542707
2554.000000;2.603719
2553.000000;2.609905
2552.000000;2.756124
2551.000000;3.050182
2550.000000;2.869622
2549.000000;2.735559
2548.000000;2.703596
2547.000000;2.651210
2546.000000;2.580308
2545.000000;2.571221
2544.000000;2.721304
2543.000000;2.843496
2542.000000;2.779588
2541.000000;2.856530
2540.000000;3.062240
2539.000000;3.021215
2538.000000;2.749339
2537.000000;2.580406
2536.000000;2.501409
2535.000000;2.426529
2534.000000;2.372262
2533.000000;2.427295
2532.000000;2.793671
2531.000000;2.948779
2530.000000;2.555756
2529.000000;2.525881
2528.000000;2.681861
2527.000000;2.717079
2526.000000;2.512622
2525.000000;2.360720
2524.000000;2.327703
2523.000000;2.380004
2522.000000;2.476826
2521.000000;2.517331
2520.000000;2.486925
2519.000000;2.421766
2518.000000;2.389647
2517.000000;2.350606
2516.000000;2.299084
2515.000000;2.266422
2514.000000;2.392310
2513.000000;2.972351
2512.000000;2.679148
2511.000000;2.393370
2510.000000;2.530906
2509.000000;2.624560
2508.000000;2.487466
2507.000000;2.412605
2506.000000;2.492311
2505.000000;2.785501
2504.000000;3.218440
2503.000000;2.982500
2502.000000;2.861096
2501.000000;2.827716
2500.000000;2.752803
2499.000000;2.622323
2498.000000;2.524198
2497.000000;2.496252
2496.000000;2.839915
2495.000000;3.160373
2494.000000;2.464656
2493.000000;2.336753
2492.000000;2.343821
2491.000000;2.385872
2490.000000;2.395401
2489.000000;2.325215
2488.000000;2.272359
2487.000000;2.245438
2486.000000;2.261050
2485.000000;2.323466
2484.000000;2.448109
2483.000000;2.599943
2482.000000;2.685573
2481.000000;2.654462
2480.000000;2.627688
2479.000000;2.664636
2478.000000;2.668082
2477.000000;2.542289
2476.000000;2.383385
2475.000000;2.285981
2474.000000;2.280295
2473.000000;2.373512
2472.000000;2.608895
2471.000000;2.999162
2470.000000;3.033367
2469.000000;2.903701
2468.000000;2.846818
2467.000000;2.758969
2466.000000;2.695896
2465.000000;2.683261
2464.000000;2.723004
2463.000000;2.756056
2462.000000;2.649322
2461.000000;2.456276
2460.000000;2.321275
2459.000000;2.300451
2458.000000;2.406773
2457.000000;2.415413
2456.000000;2.294630
2455.000000;2.272379
2454.000000;2.421815
2453.000000;2.768543
2452.000000;2.772404
2451.000000;2.643172
2450.000000;2.791247
2449.000000;3.200579
2448.000000;3.003469
2447.000000;2.839051
2446.000000;2.829671
2445.000000;2.672432
2444.000000;2.540833
2443.000000;2.600222
2442.000000;2.984631
2441.000000;2.734551
2440.000000;2.326759
2439.000000;2.202953
2438.000000;2.195025
2437.000000;2.280586
2436.000000;2.433553
2435.000000;2.594742
2434.000000;2.676108
2433.000000;2.663609
2432.000000;2.628424
2431.000000;2.665582
2430.000000;2.926396
2429.000000;2.889801
2428.000000;2.692817
2427.000000;2.758519
2426.000000;2.760386
2425.000000;2.699077
2424.000000;2.709784
2423.000000;2.489211
2422.000000;2.306121
2421.000000;2.284799
2420.000000;2.438366
2419.000000;2.868485
2418.000000;2.932392
2417.000000;2.627926
2416.000000;2.601360
2415.000000;2.585271
2414.000000;2.497445
2413.000000;2.491128
2412.000000;2.751797
2411.000000;3.262772
2410.000000;2.899234
2409.000000;2.656525
2408.000000;2.544509
2407.000000;2.498479
2406.000000;2.495008
2405.000000;2.465232
2404.000000;2.402742
2403.000000;2.334311
2402.000000;2.287092
2401.000000;2.271339
2400.000000;2.292138
2399.000000;2.349510
2398.000000;2.445636
2397.000000;2.583539
2396.000000;2.662817
2395.000000;2.656041
2394.000000;2.679686
2393.000000;2.624897
2392.000000;2.549227
2391.000000;2.698828
2390.000000;2.921638
2389.000000;2.695418
2388.000000;2.739884
2387.000000;3.040855
2386.000000;2.969774
2385.000000;2.790054
2384.000000;2.816062
2383.000000;3.024326
2382.000000;3.056781
2381.000000;2.845496
2380.000000;2.777178
2379.000000;2.793491
2378.000000;2.826315
2377.000000;2.880850
2376.000000;3.040994
2375.000000;3.243570
2374.000000;3.493950
2373.000000;3.592585
2372.000000;3.109520
2371.000000;2.941211
2370.000000;2.976513
2369.000000;3.138599
2368.000000;3.514336
2367.000000;4.258892
2366.000000;3.562724
2365.000000;3.464751
2364.000000;3.459052
2363.000000;3.262027
2362.000000;3.120137
2361.000000;3.101989
2360.000000;3.131451
2359.000000;3.147467
2358.000000;3.222303
2357.000000;3.443217
2356.000000;3.565108
2355.000000;3.330607
2354.000000;3.155103
2353.000000;3.075190
2352.000000;3.083311
2351.000000;3.172152
2350.000000;3.291934
2349.000000;3.295189
2348.000000;3.197458
2347.000000;3.113597
2346.000000;3.068734
2345.000000;3.071008
2344.000000;3.115510
2343.000000;3.180189
2342.000000;3.141926
2341.000000;3.020274
2340.000000;2.971071
2339.000000;3.121867
2338.000000;3.392325
2337.000000;3.168953
2336.000000;3.261164
2335.000000;3.624204
2334.000000;3.224360
2333.000000;2.956070
2332.000000;2.797348
2331.000000;2.711924
2330.000000;2.713122
2329.000000;2.842979
2328.000000;3.135318
2327.000000;3.128328
2326.000000;2.889310
2325.000000;2.779093
2324.000000;2.743977
2323.000000;2.800736
2322.000000;3.059908
2321.000000;3.564031
2320.000000;3.152494
2319.000000;3.012640
2318.000000;3.072128
2317.000000;3.055011
2316.000000;3.021688
2315.000000;3.084139
2314.000000;3.369101
2313.000000;3.336379
2312.000000;3.037746
2311.000000;2.931182
2310.000000;2.905989
2309.000000;2.912746
2308.000000;3.090602
2307.000000;3.462491
2306.000000;3.062868
2305.000000;2.842061
2304.000000;2.772705
2303.000000;2.791387
2302.000000;2.878728
2301.000000;3.235310
2300.000000;3.275168
2299.000000;2.811407
2298.000000;2.709766
2297.000000;2.951749
2296.000000;3.184842
2295.000000;2.695858
2294.000000;2.458937
2293.000000;2.401026
2292.000000;2.463675
2291.000000;2.460412
2290.000000;2.331903
2289.000000;2.286070
2288.000000;2.363670
2287.000000;2.602000
2286.000000;3.136264
2285.000000;2.951717
2284.000000;2.712473
2283.000000;2.611986
2282.000000;2.586999
2281.000000;2.685725
2280.000000;2.928985
2279.000000;2.841458
2278.000000;2.559268
2277.000000;2.430664
2276.000000;2.366316
2275.000000;2.325854
2274.000000;2.289866
2273.000000;2.275477
2272.000000;2.317800
2271.000000;2.458896
2270.000000;2.786525
2269.000000;3.256349
2268.000000;3.246161
2267.000000;3.049178
2266.000000;2.694048
2265.000000;2.445487
2264.000000;2.325218
2263.000000;2.298524
2262.000000;2.344180
2261.000000;2.433867
2260.000000;2.573565
2259.000000;2.652362
2258.000000;2.397385
2257.000000;2.226398
2256.000000;2.218764
2255.000000;2.354095
2254.000000;2.535005
2253.000000;2.596481
2252.000000;2.661250
2251.000000;2.988563
2250.000000;3.082634
2249.000000;2.721107
2248.000000;3.160422
2247.000000;3.117489
2246.000000;2.546189
2245.000000;2.441566
2244.000000;2.444982
2243.000000;2.563107
2242.000000;2.681555
2241.000000;2.646605
2240.000000;2.571264
2239.000000;2.525973
2238.000000;2.468972
2237.000000;2.412361
2236.000000;2.400046
2235.000000;2.456749
2234.000000;2.599349
2233.000000;2.895480
2232.000000;3.138736
2231.000000;2.932882
2230.000000;3.127931
2229.000000;2.834857
2228.000000;2.516202
2227.000000;2.475604
2226.000000;2.600495
2225.000000;2.973626
2224.000000;3.286421
2223.000000;2.995318
2222.000000;2.949462
2221.000000;2.681707
2220.000000;2.508576
2219.000000;2.483926
2218.000000;2.544158
2217.000000;2.626477
2216.000000;2.713589
2215.000000;2.826837
2214.000000;2.765328
2213.000000;2.583850
2212.000000;2.447841
2211.000000;2.363779
2210.000000;2.348476
2209.000000;2.429533
2208.000000;2.627016
2207.000000;2.884080
2206.000000;2.765484
2205.000000;2.597774
2204.000000;2.547793
2203.000000;2.666851
2202.000000;2.918720
2201.000000;2.718135
2200.000000;2.611905
2199.000000;2.762150
2198.000000;3.045348
2197.000000;2.914956
2196.000000;2.676380
2195.000000;2.428472
2194.000000;2.291588
2193.000000;2.288734
2192.000000;2.393683
2191.000000;2.565351
2190.000000;2.757348
2189.000000;2.968442
2188.000000;3.088910
2187.000000;3.103838
2186.000000;3.099453
2185.000000;2.870025
2184.000000;2.614406
2183.000000;2.446360
2182.000000;2.347376
2181.000000;2.319198
2180.000000;2.392720
2179.000000;2.515289
2178.000000;2.536676
2177.000000;2.575914
2176.000000;2.676620
2175.000000;2.726081
2174.000000;2.675027
2173.000000;2.593813
2172.000000;2.498539
2171.000000;2.409100
2170.000000;2.361570
2169.000000;2.344492
2168.000000;2.341866
2167.000000;2.426023
2166.000000;2.599951
2165.000000;2.594664
2164.000000;2.582550
2163.000000;2.583148
2162.000000;2.422274
2161.000000;2.280089
2160.000000;2.216357
2159.000000;2.241247
2158.000000;2.331480
2157.000000;2.388999
2156.000000;2.357090
2155.000000;2.335783
2154.000000;2.391089
2153.000000;2.514942
2152.000000;2.552768
2151.000000;2.464017
2150.000000;2.410870
2149.000000;2.450084
2148.000000;2.548907
2147.000000;2.538657
2146.000000;2.471822
2145.000000;2.485841
2144.000000;2.590931
2143.000000;2.763629
2142.000000;3.061375
2141.000000;2.795550
2140.000000;2.480015
2139.000000;2.404756
2138.000000;2.775545
2137.000000;2.929040
2136.000000;2.436966
2135.000000;2.382561
2134.000000;2.448277
2133.000000;2.369720
2132.000000;2.282824
2131.000000;2.357996
2130.000000;2.610994
2129.000000;2.967574
2128.000000;2.825103
2127.000000;2.758979
2126.000000;2.855119
2125.000000;2.862429
2124.000000;2.865814
2123.000000;3.204952
2122.000000;2.959465
2121.000000;2.636386
2120.000000;2.515455
2119.000000;2.446972
2118.000000;2.392121
2117.000000;2.323712
2116.000000;2.260236
2115.000000;2.264120
2114.000000;2.397383
2113.000000;2.660341
2112.000000;2.655121
2111.000000;2.556342
2110.000000;2.647937
2109.000000;3.007623
2108.000000;3.125702
2107.000000;2.880357
2106.000000;3.155642
2105.000000;2.854895
2104.000000;2.590462
2103.000000;2.624507
2102.000000;2.935677
2101.000000;3.398158
2100.000000;3.139722
2099.000000;2.983930
2098.000000;2.781320
2097.000000;2.534551
2096.000000;2.391922
2095.000000;2.381645
2094.000000;2.472620
2093.000000;2.553445
2092.000000;2.601954
2091.000000;2.775120
2090.000000;3.090931
2089.000000;3.060363
2088.000000;2.682184
2087.000000;2.467428
2086.000000;2.449728
2085.000000;2.565318
2084.000000;3.047256
2083.000000;2.876027
2082.000000;2.452574
2081.000000;2.341367
2080.000000;2.338527
2079.000000;2.381843
2078.000000;2.426461
2077.000000;2.535935
2076.000000;2.936042
2075.000000;2.948026
2074.000000;2.610545
2073.000000;2.608904
2072.000000;2.977750
2071.000000;3.148488
2070.000000;2.750281
2069.000000;2.801995
2068.000000;2.952582
2067.000000;3.103322
2066.000000;3.315728
2065.000000;2.582024
2064.000000;2.376126
2063.000000;2.337674
2062.000000;2.377612
2061.000000;2.408980
2060.000000;2.473373
2059.000000;2.648030
2058.000000;2.904108
2057.000000;2.848713
2056.000000;2.741892
2055.000000;2.693323
2054.000000;2.574064
2053.000000;2.467146
2052.000000;2.387804
2051.000000;2.328941
2050.000000;2.312323
2049.000000;2.379237
2048.000000;2.575808
2047.000000;3.028144
2046.000000;3.679201
2045.000000;3.488850
2044.000000;2.887394
2043.000000;2.552341
2042.000000;2.405796
2041.000000;2.377888
2040.000000;2.440069
2039.000000;2.562368
2038.000000;2.598438
2037.000000;2.529526
2036.000000;2.526227
2035.000000;2.849765
2034.000000;2.909635
2033.000000;2.429438
2032.000000;2.317864
2031.000000;2.305044
2030.000000;2.370296
2029.000000;2.484016
2028.000000;2.606640
2027.000000;2.524464
2026.000000;2.428117
2025.000000;2.501533
2024.000000;2.798495
2023.000000;3.142875
2022.000000;3.053303
2021.000000;2.709829
2020.000000;2.560666
2019.000000;2.591959
2018.000000;2.617328
2017.000000;2.497047
2016.000000;2.416748
2015.000000;2.413350
2014.000000;2.420402
2013.000000;2.361378
2012.000000;2.289514
2011.000000;2.294199
2010.000000;2.437570
2009.000000;2.623911
2008.000000;2.535308
2007.000000;2.498222
2006.000000;2.667675
2005.000000;2.612164
2004.000000;2.418209
2003.000000;2.432310
2002.000000;2.571611
2001.000000;2.728383
2000.000000;2.952395
1999.000000;2.665566
1998.000000;2.439378
1997.000000;2.458553
1996.000000;2.618506
1995.000000;2.696619
1994.000000;2.691966
1993.000000;2.805188
1992.000000;2.909241
1991.000000;2.730900
1990.000000;2.701092
1989.000000;2.711094
1988.000000;2.521147
1987.000000;2.420519
1986.000000;2.425875
1985.000000;2.460440
1984.000000;2.476497
1983.000000;2.428237
1982.000000;2.361257
1981.000000;2.415039
1980.000000;2.675072
1979.000000;3.217514
1978.000000;3.180146
1977.000000;2.647201
1976.000000;2.353962
1975.000000;2.207333
1974.000000;2.154189
1973.000000;2.182232
1972.000000;2.297584
1971.000000;2.622652
1970.000000;2.998610
1969.000000;2.498807
1968.000000;2.326465
1967.000000;2.387273
1966.000000;2.702066
1965.000000;3.262833
1964.000000;2.965178
1963.000000;3.325324
1962.000000;3.110872
1961.000000;2.824228
1960.000000;2.780706
1959.000000;2.584247
1958.000000;2.413279
1957.000000;2.411668
1956.000000;2.646799
1955.000000;3.142687
1954.000000;2.926251
1953.000000;2.686284
1952.000000;2.614820
1951.000000;2.611813
1950.000000;2.643414
1949.000000;2.662926
1948.000000;2.668278
1947.000000;3.098998
1946.000000;3.009598
1945.000000;2.545969
1944.000000;2.429893
1943.000000;2.453970
1942.000000;2.606137
1941.000000;3.006148
1940.000000;3.077621
1939.000000;2.851572
1938.000000;2.970141
1937.000000;2.932448
1936.000000;2.690745
1935.000000;2.734266
1934.000000;2.695913
1933.000000;2.442134
1932.000000;2.435162
1931.000000;2.694434
1930.000000;2.745091
1929.000000;2.530762
1928.000000;2.532486
1927.000000;2.593520
1926.000000;2.738794
1925.000000;3.053466
1924.000000;3.517265
1923.000000;3.427149
1922.000000;2.943293
1921.000000;2.686142
1920.000000;2.652640
1919.000000;2.866186
1918.000000;2.793419
1917.000000;2.535761
1916.000000;2.484358
1915.000000;2.459026
1914.000000;2.400105
1913.000000;2.453421
1912.000000;2.739776
1911.000000;2.953045
1910.000000;2.705483
1909.000000;2.665711
1908.000000;2.754933
1907.000000;2.969305
1906.000000;3.159008
1905.000000;2.869737
1904.000000;2.677447
1903.000000;2.578674
1902.000000;2.497586
1901.000000;2.432458
1900.000000;2.430226
1899.000000;2.495882
1898.000000;2.578798
1897.000000;2.837672
1896.000000;3.173634
1895.000000;2.758487
1894.000000;2.588633
1893.000000;2.666587
1892.000000;2.996225
1891.000000;3.209258
1890.000000;2.897922
1889.000000;2.704682
1888.000000;2.536563
1887.000000;2.471597
1886.000000;2.532557
1885.000000;2.574886
1884.000000;2.480554
1883.000000;2.413880
1882.000000;2.424495
1881.000000;2.350393
1880.000000;2.222507
1879.000000;2.186849
1878.000000;2.258457
1877.000000;2.493111
1876.000000;2.934525
1875.000000;2.859603
1874.000000;2.619486
1873.000000;2.514730
1872.000000;2.595348
1871.000000;2.813075
1870.000000;2.788641
1869.000000;2.813386
1868.000000;2.983446
1867.000000;2.866118
1866.000000;2.786705
1865.000000;2.767479
1864.000000;2.679919
1863.000000;2.606429
1862.000000;2.488970
1861.000000;2.367050
1860.000000;2.304872
1859.000000;2.328470
1858.000000;2.468746
1857.000000;2.624644
1856.000000;2.464029
1855.000000;2.267917
1854.000000;2.190681
1853.000000;2.200620
1852.000000;2.265600
1851.000000;2.351747
1850.000000;2.363997
1849.000000;2.283133
1848.000000;2.231227
1847.000000;2.291874
1846.000000;2.458395
1845.000000;2.787918
1844.000000;3.296498
1843.000000;2.990884
1842.000000;3.305428
1841.000000;3.333243
1840.000000;2.858103
1839.000000;2.889503
1838.000000;2.826871
1837.000000;2.747957
1836.000000;2.601286
1835.000000;2.390687
1834.000000;2.294546
1833.000000;2.306247
1832.000000;2.364568
1831.000000;2.417286
1830.000000;2.475100
1829.000000;2.545817
1828.000000;2.629778
1827.000000;2.807334
1826.000000;2.807541
1825.000000;2.563764
1824.000000;2.530113
1823.000000;2.671943
1822.000000;2.743858
1821.000000;2.744113
1820.000000;2.840581
1819.000000;2.995327
1818.000000;3.001718
1817.000000;2.686687
1816.000000;2.464054
1815.000000;2.405622
1814.000000;2.409586
1813.000000;2.386795
1812.000000;2.383556
1811.000000;2.477495
1810.000000;2.654709
1809.000000;2.708864
1808.000000;2.676649
1807.000000;2.731764
1806.000000;2.625524
1805.000000;2.488462
1804.000000;2.455820
1803.000000;2.433782
1802.000000;2.356023
1801.000000;2.281594
1800.000000;2.318287
1799.000000;2.567331
1798.000000;2.707749
1797.000000;2.426192
1796.000000;2.317723
1795.000000;2.512548
1794.000000;2.965144
1793.000000;2.633805
1792.000000;2.485622
1791.000000;2.637960
1790.000000;2.750666
1789.000000;2.744557
1788.000000;3.035440
1787.000000;3.216402
1786.000000;2.775177
1785.000000;2.670122
1784.000000;2.761658
1783.000000;2.927944
1782.000000;3.605487
1781.000000;3.273189
1780.000000;3.018630
1779.000000;3.748921
1778.000000;2.944626
1777.000000;2.563891
1776.000000;2.460586
1775.000000;2.583557
1774.000000;2.819392
1773.000000;2.595909
1772.000000;2.570551
1771.000000;2.832713
1770.000000;3.139684
1769.000000;3.151027
1768.000000;3.073057
1767.000000;2.931219
1766.000000;2.874697
1765.000000;2.887413
1764.000000;2.732912
1763.000000;2.662789
1762.000000;2.676662
1761.000000;2.718028
1760.000000;2.960488
1759.000000;2.991925
1758.000000;2.758292
1757.000000;2.652324
1756.000000;2.734774
1755.000000;2.997459
1754.000000;2.808382
1753.000000;2.579781
1752.000000;2.537908
1751.000000;2.519007
1750.000000;2.657319
1749.000000;3.298483
1748.000000;2.633659
1747.000000;2.386499
1746.000000;2.386738
1745.000000;2.654126
1744.000000;3.375319
1743.000000;2.482273
1742.000000;2.350021
1741.000000;2.550732
1740.000000;2.757167
1739.000000;2.541051
1738.000000;2.538519
1737.000000;2.731424
1736.000000;2.727121
1735.000000;2.718405
1734.000000;2.668454
1733.000000;2.776641
1732.000000;3.127231
1731.000000;2.834556
1730.000000;2.637857
1729.000000;2.685199
1728.000000;2.915735
1727.000000;3.758681
1726.000000;3.150501
1725.000000;2.840538
1724.000000;2.814352
1723.000000;2.745453
1722.000000;2.450575
1721.000000;2.233047
1720.000000;2.188227
1719.000000;2.245102
1718.000000;2.364631
1717.000000;2.591513
1716.000000;2.771421
1715.000000;2.542671
1714.000000;2.342042
1713.000000;2.244012
1712.000000;2.209392
1711.000000;2.223668
1710.000000;2.270639
1709.000000;2.383783
1708.000000;2.582116
1707.000000;2.722667
1706.000000;2.807707
1705.000000;2.691653
1704.000000;2.422222
1703.000000;2.343463
1702.000000;2.393744
1701.000000;2.470721
1700.000000;2.579289
1699.000000;2.654506
1698.000000;2.663121
1697.000000;2.672170
1696.000000;2.684221
1695.000000;2.790246
1694.000000;3.046260
1693.000000;2.958419
1692.000000;2.764663
1691.000000;2.713163
1690.000000;2.815297
1689.000000;3.024629
1688.000000;2.881774
1687.000000;3.110436
1686.000000;3.322517
1685.000000;2.688353
1684.000000;2.933202
1683.000000;3.007563
1682.000000;2.528019
1681.000000;2.503244
1680.000000;2.523664
1679.000000;2.547700
1678.000000;2.796857
1677.000000;2.786799
1676.000000;2.468777
1675.000000;2.380725
1674.000000;2.500813
1673.000000;2.675025
1672.000000;2.517030
1671.000000;2.316746
1670.000000;2.252729
1669.000000;2.295143
1668.000000;2.424067
1667.000000;2.660305
1666.000000;2.888207
1665.000000;2.762506
1664.000000;2.610400
1663.000000;2.503934
1662.000000;2.400709
1661.000000;2.354255
1660.000000;2.373556
1659.000000;2.431401
1658.000000;2.472669
1657.000000;2.430437
1656.000000;2.382020
1655.000000;2.441173
1654.000000;2.667901
1653.000000;2.882243
1652.000000;2.551087
1651.000000;2.405218
1650.000000;2.584842
1649.000000;2.909564
1648.000000;3.264982
1647.000000;3.067850
1646.000000;2.642564
1645.000000;2.504246
1644.000000;2.460151
1643.000000;2.444486
1642.000000;2.493683
1641.000000;2.759052
1640.000000;3.368468
1639.000000;3.062802
1638.000000;2.704638
1637.000000;2.408804
1636.000000;2.273095
1635.000000;2.240300
1634.000000;2.235875
1633.000000;2.290829
1632.000000;2.394197
1631.000000;2.516242
1630.000000;2.645850
1629.000000;2.809156
1628.000000;2.744283
1627.000000;2.489404
1626.000000;2.343783
1625.000000;2.299324
1624.000000;2.361260
1623.000000;2.464617
1622.000000;2.608795
1621.000000;3.094982
1620.000000;2.947623
1619.000000;2.632646
1618.000000;2.640599
1617.000000;2.693048
1616.000000;2.706090
1615.000000;2.764002
1614.000000;2.870778
1613.000000;3.032737
1612.000000;2.912219
1611.000000;2.486698
1610.000000;2.323727
1609.000000;2.345597
1608.000000;2.618206
1607.000000;3.060464
1606.000000;2.805592
1605.000000;2.755917
1604.000000;2.900063
1603.000000;2.994560
1602.000000;2.859496
1601.000000;2.617651
1600.000000;2.635676
1599.000000;2.866775
1598.000000;2.556065
1597.000000;2.298024
1596.000000;2.342395
1595.000000;2.563690
1594.000000;2.503464
1593.000000;2.385384
1592.000000;2.492214
1591.000000;2.807209
1590.000000;3.191365
1589.000000;3.002961
1588.000000;2.709546
1587.000000;2.738806
1586.000000;3.021442
1585.000000;2.605873
1584.000000;2.310595
1583.000000;2.191814
1582.000000;2.128502
1581.000000;2.143056
1580.000000;2.270852
1579.000000;2.545701
1578.000000;2.841127
1577.000000;2.706325
1576.000000;2.472915
1575.000000;2.371380
1574.000000;2.386796
1573.000000;2.534046
1572.000000;2.550059
1571.000000;2.366807
1570.000000;2.286921
1569.000000;2.334337
1568.000000;2.472962
1567.000000;2.571961
1566.000000;2.470204
1565.000000;2.278145
1564.000000;2.133398
1563.000000;2.085791
1562.000000;2.095690
1561.000000;2.122931
1560.000000;2.129067
1559.000000;2.115271
1558.000000;2.207670
1557.000000;2.480033
1556.000000;2.660805
1555.000000;2.531659
1554.000000;2.443857
1553.000000;2.413146
1552.000000;2.450561
1551.000000;2.627741
1550.000000;3.077737
1549.000000;2.792553
1548.000000;2.500970
1547.000000;2.532202
1546.000000;2.625162
1545.000000;2.752266
1544.000000;2.803633
1543.000000;3.012674
1542.000000;2.808333
1541.000000;2.431623
1540.000000;2.356575
1539.000000;2.389742
1538.000000;2.551651
1537.000000;2.811660
1536.000000;2.652077
1535.000000;2.426920
1534.000000;2.347961
1533.000000;2.399631
1532.000000;2.671224
1531.000000;2.983081
1530.000000;2.821395
1529.000000;2.763423
1528.000000;2.723960
1527.000000;2.623836
1526.000000;2.641815
1525.000000;2.834198
1524.000000;2.666709
1523.000000;2.468682
1522.000000;2.451512
1521.000000;2.500710
1520.000000;2.815202
1519.000000;2.721774
1518.000000;2.434753
1517.000000;2.409310
1516.000000;2.502935
1515.000000;2.715879
1514.000000;2.782496
1513.000000;2.691235
1512.000000;2.746975
1511.000000;2.837216
1510.000000;2.633482
1509.000000;2.502386
1508.000000;2.538401
1507.000000;2.664959
1506.000000;2.626893
1505.000000;2.487944
1504.000000;2.435503
1503.000000;2.424195
1502.000000;2.443126
1501.000000;2.410230
1500.000000;2.380588
1499.000000;2.477826
1498.000000;2.542068
1497.000000;2.420658
1496.000000;2.336797
1495.000000;2.301333
1494.000000;2.316807
1493.000000;2.393474
1492.000000;2.595743
1491.000000;2.999533
1490.000000;3.073364
1489.000000;3.281500
1488.000000;3.211643
1487.000000;2.793403
1486.000000;2.702128
1485.000000;2.666003
1484.000000;2.663257
1483.000000;2.678028
1482.000000;2.653623
1481.000000;2.489895
1480.000000;2.358252
1479.000000;2.350922
1478.000000;2.584775
1477.000000;3.189329
1476.000000;2.774677
1475.000000;2.419737
1474.000000;2.247524
1473.000000;2.205419
1472.000000;2.319887
1471.000000;2.795314
1470.000000;2.854065
1469.000000;2.340235
1468.000000;2.232716
1467.000000;2.207413
1466.000000;2.234264
1465.000000;2.271182
1464.000000;2.282046
1463.000000;2.289714
1462.000000;2.388354
1461.000000;2.714624
1460.000000;2.848434
1459.000000;2.704176
1458.000000;2.769956
1457.000000;3.180050
1456.000000;3.053928
1455.000000;2.706907
1454.000000;2.626444
1453.000000;2.608940
1452.000000;2.643083
1451.000000;2.697785
1450.000000;2.549245
1449.000000;2.348421
1448.000000;2.292263
1447.000000;2.398095
1446.000000;2.778221
1445.000000;2.827506
1444.000000;2.445271
1443.000000;2.341510
1442.000000;2.307067
1441.000000;2.302691
1440.000000;2.338203
1439.000000;2.398405
1438.000000;2.436246
1437.000000;2.394063
1436.000000;2.339600
1435.000000;2.349943
1434.000000;2.497739
1433.000000;2.684267
1432.000000;2.579577
1431.000000;2.445608
1430.000000;2.423875
1429.000000;2.460067
1428.000000;2.535875
1427.000000;2.636301
1426.000000;2.644193
1425.000000;2.553917
1424.000000;2.500760
1423.000000;2.648036
1422.000000;2.995967
1421.000000;2.982889
1420.000000;2.921365
1419.000000;2.841911
1418.000000;2.723377
1417.000000;2.668280
1416.000000;2.931562
1415.000000;3.198710
1414.000000;2.760853
1413.000000;2.662043
1412.000000;2.663629
1411.000000;2.678561
1410.000000;2.793394
1409.000000;3.006851
1408.000000;2.903889
1407.000000;2.677773
1406.000000;2.563620
1405.000000;2.511886
1404.000000;2.573499
1403.000000;2.676096
1402.000000;2.845670
1401.000000;2.949743
1400.000000;2.570297
1399.000000;2.336952
1398.000000;2.254822
1397.000000;2.277364
1396.000000;2.433591
1395.000000;2.769256
1394.000000;2.617485
1393.000000;2.326608
1392.000000;2.297765
1391.000000;2.387223
1390.000000;2.499851
1389.000000;2.648239
1388.000000;3.008184
1387.000000;3.407545
1386.000000;2.943133
1385.000000;2.712265
1384.000000;2.649250
1383.000000;2.673711
1382.000000;2.707590
1381.000000;2.654248
1380.000000;2.538541
1379.000000;2.424901
1378.000000;2.376176
1377.000000;2.402593
1376.000000;2.455240
1375.000000;2.514420
1374.000000;2.602087
1373.000000;2.752220
1372.000000;2.944666
1371.000000;2.890435
1370.000000;2.727193
1369.000000;2.575038
1368.000000;2.507806
1367.000000;2.558331
1366.000000;2.600608
1365.000000;2.667000
1364.000000;2.894321
1363.000000;3.231066
1362.000000;3.357261
1361.000000;3.263127
1360.000000;3.161789
1359.000000;3.111668
1358.000000;2.954336
1357.000000;2.732306
1356.000000;2.536781
1355.000000;2.407370
1354.000000;2.378208
1353.000000;2.504356
1352.000000;2.996924
1351.000000;3.004588
1350.000000;2.696001
1349.000000;2.690349
1348.000000;2.877543
1347.000000;3.494622
1346.000000;3.474829
1345.000000;3.146901
1344.000000;3.038894
1343.000000;3.001397
1342.000000;3.137883
1341.000000;3.219805
1340.000000;3.142651
1339.000000;3.394910
1338.000000;2.967470
1337.000000;2.617905
1336.000000;2.633042
1335.000000;2.687348
1334.000000;2.552414
1333.000000;2.480086
1332.000000;2.491873
1331.000000;2.501588
1330.000000;2.504351
1329.000000;2.508251
1328.000000;2.513842
1327.000000;2.512620
1326.000000;2.608928
1325.000000;2.906528
1324.000000;2.633117
1323.000000;2.377165
1322.000000;2.295925
1321.000000;2.283695
1320.000000;2.353571
1319.000000;2.523198
1318.000000;2.714825
1317.000000;2.705375
1316.000000;2.572780
1315.000000;2.440293
1314.000000;2.394132
1313.000000;2.481140
1312.000000;2.798007
1311.000000;2.974236
1310.000000;2.684531
1309.000000;2.670592
1308.000000;2.686619
1307.000000;2.571316
1306.000000;2.467869
1305.000000;2.436550
1304.000000;2.446292
1303.000000;2.519306
1302.000000;2.680752
1301.000000;3.144704
1300.000000;2.959412
1299.000000;2.480023
1298.000000;2.295158
1297.000000;2.256286
1296.000000;2.333698
1295.000000;2.495705
1294.000000;2.775307
1293.000000;3.072130
1292.000000;2.858686
1291.000000;2.831487
1290.000000;3.125721
1289.000000;3.258847
1288.000000;2.610735
1287.000000;2.390371
1286.000000;2.355329
1285.000000;2.398611
1284.000000;2.355938
1283.000000;2.265049
1282.000000;2.264217
1281.000000;2.362073
1280.000000;2.554153
1279.000000;2.764737
1278.000000;2.723417
1277.000000;2.621877
1276.000000;2.675296
1275.000000;3.053528
1274.000000;3.238640
1273.000000;2.827716
1272.000000;2.728130
1271.000000;2.835770
1270.000000;3.356554
1269.000000;3.342535
1268.000000;3.037173
1267.000000;3.016514
1266.000000;2.968653
1265.000000;2.868350
1264.000000;2.806197
1263.000000;2.837910
1262.000000;2.851496
1261.000000;2.698606
1260.000000;2.577901
1259.000000;2.570089
1258.000000;2.674314
1257.000000;3.011833
1256.000000;3.653360
1255.000000;3.148826
1254.000000;3.437651
1253.000000;3.585501
1252.000000;2.919871
1251.000000;3.013194
1250.000000;2.987395
1249.000000;2.617719
1248.000000;2.463447
1247.000000;2.461732
1246.000000;2.500868
1245.000000;2.451647
1244.000000;2.355293
1243.000000;2.304967
1242.000000;2.313849
1241.000000;2.353550
1240.000000;2.365352
1239.000000;2.336435
1238.000000;2.313239
1237.000000;2.316687
1236.000000;2.333194
1235.000000;2.337794
1234.000000;2.321014
1233.000000;2.305116
1232.000000;2.331125
1231.000000;2.426729
1230.000000;2.680963
1229.000000;3.094216
1228.000000;2.932459
1227.000000;2.980254
1226.000000;3.162030
1225.000000;2.906396
1224.000000;3.037969
1223.000000;3.192178
1222.000000;2.699469
1221.000000;2.467343
1220.000000;2.418771
1219.000000;2.504316
1218.000000;2.680001
1217.000000;2.714885
1216.000000;2.672038
1215.000000;2.745738
1214.000000;2.972416
1213.000000;3.098254
1212.000000;2.892711
1211.000000;2.732205
1210.000000;2.695656
1209.000000;2.871042
1208.000000;3.364241
1207.000000;2.956284
1206.000000;2.846626
1205.000000;2.931543
1204.000000;2.962933
1203.000000;3.063320
1202.000000;2.938589
1201.000000;2.595930
1200.000000;2.416875
