Criado como novo conjunto de dados;"2706_e01_daniel.spp","94326.8 Secs"
cm-1;Abs
10000.000000;0.867642
9999.000000;0.866443
9998.000000;0.865248
9997.000000;0.864056
9996.000000;0.862868
9995.000000;0.861682
9994.000000;0.860501
9993.000000;0.859321
9992.000000;0.858147
9991.000000;0.857036
9990.000000;0.856579
9989.000000;0.856889
9988.000000;0.857580
9987.000000;0.858199
9986.000000;0.858493
9985.000000;0.858366
9984.000000;0.857807
9983.000000;0.856916
9982.000000;0.855911
9981.000000;0.855016
9980.000000;0.854347
9979.000000;0.853915
9978.000000;0.853685
9977.000000;0.853661
9976.000000;0.853907
9975.000000;0.854458
9974.000000;0.855221
9973.000000;0.855973
9972.000000;0.856484
9971.000000;0.856609
9970.000000;0.856333
9969.000000;0.855826
9968.000000;0.855435
9967.000000;0.855411
9966.000000;0.855614
9965.000000;0.855637
9964.000000;0.855302
9963.000000;0.854890
9962.000000;0.854768
9961.000000;0.854956
9960.000000;0.855179
9959.000000;0.855257
9958.000000;0.855275
9957.000000;0.855409
9956.000000;0.855682
9955.000000;0.855887
9954.000000;0.855745
9953.000000;0.855212
9952.000000;0.854636
9951.000000;0.854448
9950.000000;0.854664
9949.000000;0.854815
9948.000000;0.854454
9947.000000;0.853596
9946.000000;0.852603
9945.000000;0.851848
9944.000000;0.851565
9943.000000;0.851812
9942.000000;0.852374
9941.000000;0.852836
9940.000000;0.852938
9939.000000;0.852779
9938.000000;0.852549
9937.000000;0.852207
9936.000000;0.851611
9935.000000;0.850855
9934.000000;0.850261
9933.000000;0.850121
9932.000000;0.850537
9931.000000;0.851379
9930.000000;0.852244
9929.000000;0.852653
9928.000000;0.852539
9927.000000;0.852387
9926.000000;0.852607
9925.000000;0.852918
9924.000000;0.852712
9923.000000;0.851944
9922.000000;0.851249
9921.000000;0.851115
9920.000000;0.851300
9919.000000;0.851236
9918.000000;0.850705
9917.000000;0.849958
9916.000000;0.849371
9915.000000;0.849157
9914.000000;0.849287
9913.000000;0.849530
9912.000000;0.849667
9911.000000;0.849756
9910.000000;0.850047
9909.000000;0.850552
9908.000000;0.850867
9907.000000;0.850578
9906.000000;0.849721
9905.000000;0.848744
9904.000000;0.848086
9903.000000;0.847909
9902.000000;0.848121
9901.000000;0.848498
9900.000000;0.848834
9899.000000;0.849106
9898.000000;0.849474
9897.000000;0.850020
9896.000000;0.850530
9895.000000;0.850655
9894.000000;0.850292
9893.000000;0.849698
9892.000000;0.849241
9891.000000;0.849123
9890.000000;0.849339
9889.000000;0.849771
9888.000000;0.850243
9887.000000;0.850523
9886.000000;0.850396
9885.000000;0.849816
9884.000000;0.849000
9883.000000;0.848313
9882.000000;0.847977
9881.000000;0.847892
9880.000000;0.847779
9879.000000;0.847521
9878.000000;0.847276
9877.000000;0.847228
9876.000000;0.847298
9875.000000;0.847214
9874.000000;0.846844
9873.000000;0.846393
9872.000000;0.846229
9871.000000;0.846536
9870.000000;0.847149
9869.000000;0.847692
9868.000000;0.847868
9867.000000;0.847629
9866.000000;0.847165
9865.000000;0.846769
9864.000000;0.846675
9863.000000;0.846917
9862.000000;0.847302
9861.000000;0.847589
9860.000000;0.847724
9859.000000;0.847835
9858.000000;0.847961
9857.000000;0.847906
9856.000000;0.847494
9855.000000;0.846864
9854.000000;0.846342
9853.000000;0.846031
9852.000000;0.845753
9851.000000;0.845407
9850.000000;0.845179
9849.000000;0.845252
9848.000000;0.845483
9847.000000;0.845583
9846.000000;0.845543
9845.000000;0.845655
9844.000000;0.846071
9843.000000;0.846535
9842.000000;0.846667
9841.000000;0.846374
9840.000000;0.845867
9839.000000;0.845381
9838.000000;0.845027
9837.000000;0.844862
9836.000000;0.844908
9835.000000;0.845048
9834.000000;0.845052
9833.000000;0.844784
9832.000000;0.844341
9831.000000;0.843931
9830.000000;0.843677
9829.000000;0.843557
9828.000000;0.843467
9827.000000;0.843285
9826.000000;0.842949
9825.000000;0.842570
9824.000000;0.842385
9823.000000;0.842507
9822.000000;0.842804
9821.000000;0.843089
9820.000000;0.843357
9819.000000;0.843667
9818.000000;0.843887
9817.000000;0.843770
9816.000000;0.843340
9815.000000;0.842956
9814.000000;0.842908
9813.000000;0.843098
9812.000000;0.843243
9811.000000;0.843233
9810.000000;0.843163
9809.000000;0.843124
9808.000000;0.843111
9807.000000;0.843055
9806.000000;0.842831
9805.000000;0.842293
9804.000000;0.841490
9803.000000;0.840798
9802.000000;0.840674
9801.000000;0.841195
9800.000000;0.841921
9799.000000;0.842284
9798.000000;0.842070
9797.000000;0.841529
9796.000000;0.841069
9795.000000;0.840886
9794.000000;0.840878
9793.000000;0.840859
9792.000000;0.840815
9791.000000;0.840907
9790.000000;0.841256
9789.000000;0.841790
9788.000000;0.842305
9787.000000;0.842604
9786.000000;0.842561
9785.000000;0.842181
9784.000000;0.841657
9783.000000;0.841244
9782.000000;0.841009
9781.000000;0.840780
9780.000000;0.840443
9779.000000;0.840149
9778.000000;0.840066
9777.000000;0.840028
9776.000000;0.839666
9775.000000;0.838967
9774.000000;0.838479
9773.000000;0.838783
9772.000000;0.839822
9771.000000;0.840852
9770.000000;0.841103
9769.000000;0.840475
9768.000000;0.839553
9767.000000;0.838979
9766.000000;0.838885
9765.000000;0.838977
9764.000000;0.839034
9763.000000;0.839129
9762.000000;0.839335
9761.000000;0.839442
9760.000000;0.839153
9759.000000;0.838487
9758.000000;0.837807
9757.000000;0.837425
9756.000000;0.837310
9755.000000;0.837193
9754.000000;0.836897
9753.000000;0.836562
9752.000000;0.836527
9751.000000;0.836950
9750.000000;0.837533
9749.000000;0.837737
9748.000000;0.837374
9747.000000;0.836841
9746.000000;0.836646
9745.000000;0.836844
9744.000000;0.837114
9743.000000;0.837276
9742.000000;0.837461
9741.000000;0.837797
9740.000000;0.838174
9739.000000;0.838395
9738.000000;0.838363
9737.000000;0.838087
9736.000000;0.837667
9735.000000;0.837351
9734.000000;0.837380
9733.000000;0.837695
9732.000000;0.837939
9731.000000;0.837852
9730.000000;0.837499
9729.000000;0.837039
9728.000000;0.836474
9727.000000;0.835796
9726.000000;0.835201
9725.000000;0.834941
9724.000000;0.835026
9723.000000;0.835239
9722.000000;0.835398
9721.000000;0.835476
9720.000000;0.835505
9719.000000;0.835548
9718.000000;0.835699
9717.000000;0.835970
9716.000000;0.836180
9715.000000;0.836141
9714.000000;0.835947
9713.000000;0.835939
9712.000000;0.836335
9711.000000;0.837009
9710.000000;0.837647
9709.000000;0.838000
9708.000000;0.837958
9707.000000;0.837514
9706.000000;0.836782
9705.000000;0.835980
9704.000000;0.835282
9703.000000;0.834718
9702.000000;0.834235
9701.000000;0.833841
9700.000000;0.833607
9699.000000;0.833557
9698.000000;0.833597
9697.000000;0.833607
9696.000000;0.833587
9695.000000;0.833665
9694.000000;0.833908
9693.000000;0.834136
9692.000000;0.834033
9691.000000;0.833509
9690.000000;0.832881
9689.000000;0.832587
9688.000000;0.832788
9687.000000;0.833330
9686.000000;0.834008
9685.000000;0.834690
9684.000000;0.835175
9683.000000;0.835187
9682.000000;0.834673
9681.000000;0.833979
9680.000000;0.833550
9679.000000;0.833488
9678.000000;0.833509
9677.000000;0.833349
9676.000000;0.833057
9675.000000;0.832863
9674.000000;0.832872
9673.000000;0.832994
9672.000000;0.833136
9671.000000;0.833359
9670.000000;0.833746
9669.000000;0.834137
9668.000000;0.834122
9667.000000;0.833431
9666.000000;0.832322
9665.000000;0.831431
9664.000000;0.831169
9663.000000;0.831360
9662.000000;0.831538
9661.000000;0.831486
9660.000000;0.831338
9659.000000;0.831256
9658.000000;0.831237
9657.000000;0.831251
9656.000000;0.831357
9655.000000;0.831561
9654.000000;0.831709
9653.000000;0.831643
9652.000000;0.831379
9651.000000;0.831028
9650.000000;0.830633
9649.000000;0.830198
9648.000000;0.829807
9647.000000;0.829572
9646.000000;0.829481
9645.000000;0.829450
9644.000000;0.829484
9643.000000;0.829648
9642.000000;0.829871
9641.000000;0.829941
9640.000000;0.829784
9639.000000;0.829605
9638.000000;0.829652
9637.000000;0.829889
9636.000000;0.830043
9635.000000;0.829956
9634.000000;0.829774
9633.000000;0.829733
9632.000000;0.829850
9631.000000;0.829901
9630.000000;0.829719
9629.000000;0.829391
9628.000000;0.829123
9627.000000;0.828972
9626.000000;0.828832
9625.000000;0.828679
9624.000000;0.828670
9623.000000;0.828910
9622.000000;0.829232
9621.000000;0.829357
9620.000000;0.829218
9619.000000;0.828980
9618.000000;0.828759
9617.000000;0.828491
9616.000000;0.828144
9615.000000;0.827879
9614.000000;0.827884
9613.000000;0.828126
9612.000000;0.828408
9611.000000;0.828606
9610.000000;0.828724
9609.000000;0.828753
9608.000000;0.828625
9607.000000;0.828350
9606.000000;0.828084
9605.000000;0.827968
9604.000000;0.827964
9603.000000;0.827904
9602.000000;0.827692
9601.000000;0.827411
9600.000000;0.827231
9599.000000;0.827251
9598.000000;0.827425
9597.000000;0.827611
9596.000000;0.827658
9595.000000;0.827491
9594.000000;0.827144
9593.000000;0.826738
9592.000000;0.826394
9591.000000;0.826173
9590.000000;0.826078
9589.000000;0.826081
9588.000000;0.826113
9587.000000;0.826079
9586.000000;0.825969
9585.000000;0.825936
9584.000000;0.826140
9583.000000;0.826470
9582.000000;0.826585
9581.000000;0.826346
9580.000000;0.826060
9579.000000;0.826091
9578.000000;0.826327
9577.000000;0.826295
9576.000000;0.825817
9575.000000;0.825275
9574.000000;0.825113
9573.000000;0.825312
9572.000000;0.825531
9571.000000;0.825588
9570.000000;0.825587
9569.000000;0.825653
9568.000000;0.825782
9567.000000;0.825947
9566.000000;0.826126
9565.000000;0.826199
9564.000000;0.825993
9563.000000;0.825491
9562.000000;0.824884
9561.000000;0.824386
9560.000000;0.824111
9559.000000;0.824141
9558.000000;0.824546
9557.000000;0.825215
9556.000000;0.825772
9555.000000;0.825825
9554.000000;0.825314
9553.000000;0.824568
9552.000000;0.824021
9551.000000;0.823900
9550.000000;0.824131
9549.000000;0.824474
9548.000000;0.824741
9547.000000;0.824908
9546.000000;0.825014
9545.000000;0.825010
9544.000000;0.824802
9543.000000;0.824461
9542.000000;0.824253
9541.000000;0.824330
9540.000000;0.824501
9539.000000;0.824455
9538.000000;0.824178
9537.000000;0.823972
9536.000000;0.824036
9535.000000;0.824203
9534.000000;0.824192
9533.000000;0.823985
9532.000000;0.823809
9531.000000;0.823780
9530.000000;0.823733
9529.000000;0.823439
9528.000000;0.822888
9527.000000;0.822309
9526.000000;0.821951
9525.000000;0.821874
9524.000000;0.821943
9523.000000;0.821989
9522.000000;0.821980
9521.000000;0.821992
9520.000000;0.822012
9519.000000;0.821833
9518.000000;0.821270
9517.000000;0.820465
9516.000000;0.819854
9515.000000;0.819761
9514.000000;0.820115
9513.000000;0.820592
9512.000000;0.820944
9511.000000;0.821106
9510.000000;0.821096
9509.000000;0.820959
9508.000000;0.820831
9507.000000;0.820887
9506.000000;0.821189
9505.000000;0.821592
9504.000000;0.821842
9503.000000;0.821751
9502.000000;0.821321
9501.000000;0.820768
9500.000000;0.820378
9499.000000;0.820264
9498.000000;0.820258
9497.000000;0.820120
9496.000000;0.819817
9495.000000;0.819536
9494.000000;0.819429
9493.000000;0.819484
9492.000000;0.819632
9491.000000;0.819847
9490.000000;0.820075
9489.000000;0.820201
9488.000000;0.820185
9487.000000;0.820132
9486.000000;0.820133
9485.000000;0.820104
9484.000000;0.819928
9483.000000;0.819681
9482.000000;0.819583
9481.000000;0.819712
9480.000000;0.819910
9479.000000;0.819995
9478.000000;0.819945
9477.000000;0.819815
9476.000000;0.819578
9475.000000;0.819202
9474.000000;0.818814
9473.000000;0.818644
9472.000000;0.818711
9471.000000;0.818702
9470.000000;0.818303
9469.000000;0.817669
9468.000000;0.817398
9467.000000;0.817917
9466.000000;0.818947
9465.000000;0.819720
9464.000000;0.819725
9463.000000;0.819170
9462.000000;0.818662
9461.000000;0.818567
9460.000000;0.818770
9459.000000;0.818951
9458.000000;0.818915
9457.000000;0.818634
9456.000000;0.818143
9455.000000;0.817527
9454.000000;0.817000
9453.000000;0.816839
9452.000000;0.817116
9451.000000;0.817558
9450.000000;0.817771
9449.000000;0.817634
9448.000000;0.817412
9447.000000;0.817434
9446.000000;0.817736
9445.000000;0.818064
9444.000000;0.818169
9443.000000;0.818005
9442.000000;0.817686
9441.000000;0.817340
9440.000000;0.817038
9439.000000;0.816790
9438.000000;0.816598
9437.000000;0.816533
9436.000000;0.816694
9435.000000;0.817041
9434.000000;0.817337
9433.000000;0.817343
9432.000000;0.817042
9431.000000;0.816567
9430.000000;0.816012
9429.000000;0.815476
9428.000000;0.815224
9427.000000;0.815536
9426.000000;0.816293
9425.000000;0.816937
9424.000000;0.816983
9423.000000;0.816475
9422.000000;0.815842
9421.000000;0.815427
9420.000000;0.815304
9419.000000;0.815403
9418.000000;0.815598
9417.000000;0.815712
9416.000000;0.815611
9415.000000;0.815339
9414.000000;0.815071
9413.000000;0.814933
9412.000000;0.814901
9411.000000;0.814858
9410.000000;0.814686
9409.000000;0.814367
9408.000000;0.814055
9407.000000;0.813962
9406.000000;0.814110
9405.000000;0.814253
9404.000000;0.814163
9403.000000;0.813914
9402.000000;0.813749
9401.000000;0.813742
9400.000000;0.813767
9399.000000;0.813774
9398.000000;0.813895
9397.000000;0.814223
9396.000000;0.814633
9395.000000;0.814910
9394.000000;0.814974
9393.000000;0.814888
9392.000000;0.814734
9391.000000;0.814547
9390.000000;0.814352
9389.000000;0.814181
9388.000000;0.814057
9387.000000;0.813964
9386.000000;0.813852
9385.000000;0.813697
9384.000000;0.813555
9383.000000;0.813525
9382.000000;0.813598
9381.000000;0.813613
9380.000000;0.813443
9379.000000;0.813195
9378.000000;0.813125
9377.000000;0.813333
9376.000000;0.813628
9375.000000;0.813699
9374.000000;0.813369
9373.000000;0.812710
9372.000000;0.811999
9371.000000;0.811549
9370.000000;0.811479
9369.000000;0.811615
9368.000000;0.811692
9367.000000;0.811657
9366.000000;0.811684
9365.000000;0.811894
9364.000000;0.812166
9363.000000;0.812288
9362.000000;0.812195
9361.000000;0.811963
9360.000000;0.811686
9359.000000;0.811433
9358.000000;0.811300
9357.000000;0.811342
9356.000000;0.811466
9355.000000;0.811458
9354.000000;0.811205
9353.000000;0.810855
9352.000000;0.810708
9351.000000;0.810933
9350.000000;0.811394
9349.000000;0.811775
9348.000000;0.811877
9347.000000;0.811753
9346.000000;0.811571
9345.000000;0.811399
9344.000000;0.811175
9343.000000;0.810841
9342.000000;0.810437
9341.000000;0.810069
9340.000000;0.809857
9339.000000;0.809872
9338.000000;0.810082
9337.000000;0.810347
9336.000000;0.810530
9335.000000;0.810597
9334.000000;0.810567
9333.000000;0.810395
9332.000000;0.810015
9331.000000;0.809504
9330.000000;0.809090
9329.000000;0.808954
9328.000000;0.809071
9327.000000;0.809286
9326.000000;0.809499
9325.000000;0.809719
9324.000000;0.809968
9323.000000;0.810165
9322.000000;0.810137
9321.000000;0.809757
9320.000000;0.809117
9319.000000;0.808518
9318.000000;0.808231
9317.000000;0.808265
9316.000000;0.808408
9315.000000;0.808497
9314.000000;0.808549
9313.000000;0.808646
9312.000000;0.808793
9311.000000;0.808938
9310.000000;0.809035
9309.000000;0.809023
9308.000000;0.808819
9307.000000;0.808444
9306.000000;0.808107
9305.000000;0.808057
9304.000000;0.808331
9303.000000;0.808706
9302.000000;0.808896
9301.000000;0.808780
9300.000000;0.808459
9299.000000;0.808124
9298.000000;0.807906
9297.000000;0.807818
9296.000000;0.807802
9295.000000;0.807803
9294.000000;0.807794
9293.000000;0.807766
9292.000000;0.807736
9291.000000;0.807735
9290.000000;0.807741
9289.000000;0.807624
9288.000000;0.807233
9287.000000;0.806599
9286.000000;0.805995
9285.000000;0.805746
9284.000000;0.805951
9283.000000;0.806406
9282.000000;0.806760
9281.000000;0.806787
9280.000000;0.806530
9279.000000;0.806233
9278.000000;0.806102
9277.000000;0.806122
9276.000000;0.806130
9275.000000;0.806052
9274.000000;0.805989
9273.000000;0.806039
9272.000000;0.806121
9271.000000;0.806046
9270.000000;0.805776
9269.000000;0.805511
9268.000000;0.805474
9267.000000;0.805646
9266.000000;0.805760
9265.000000;0.805600
9264.000000;0.805245
9263.000000;0.804974
9262.000000;0.804955
9261.000000;0.805096
9260.000000;0.805234
9259.000000;0.805317
9258.000000;0.805349
9257.000000;0.805248
9256.000000;0.804927
9255.000000;0.804516
9254.000000;0.804321
9253.000000;0.804523
9252.000000;0.805001
9251.000000;0.805479
9250.000000;0.805761
9249.000000;0.805781
9248.000000;0.805554
9247.000000;0.805171
9246.000000;0.804796
9245.000000;0.804548
9244.000000;0.804422
9243.000000;0.804351
9242.000000;0.804315
9241.000000;0.804329
9240.000000;0.804389
9239.000000;0.804456
9238.000000;0.804464
9237.000000;0.804325
9236.000000;0.804014
9235.000000;0.803694
9234.000000;0.803647
9233.000000;0.803989
9232.000000;0.804496
9231.000000;0.804810
9230.000000;0.804786
9229.000000;0.804518
9228.000000;0.804119
9227.000000;0.803611
9226.000000;0.803061
9225.000000;0.802648
9224.000000;0.802492
9223.000000;0.802492
9222.000000;0.802428
9221.000000;0.802203
9220.000000;0.801941
9219.000000;0.801837
9218.000000;0.801930
9217.000000;0.802047
9216.000000;0.802015
9215.000000;0.801877
9214.000000;0.801862
9213.000000;0.802086
9212.000000;0.802377
9211.000000;0.802444
9210.000000;0.802173
9209.000000;0.801685
9208.000000;0.801160
9207.000000;0.800725
9206.000000;0.800479
9205.000000;0.800500
9204.000000;0.800769
9203.000000;0.801146
9202.000000;0.801470
9201.000000;0.801649
9200.000000;0.801682
9199.000000;0.801646
9198.000000;0.801654
9197.000000;0.801727
9196.000000;0.801707
9195.000000;0.801409
9194.000000;0.800894
9193.000000;0.800476
9192.000000;0.800399
9191.000000;0.800589
9190.000000;0.800795
9189.000000;0.800876
9188.000000;0.800849
9187.000000;0.800738
9186.000000;0.800528
9185.000000;0.800247
9184.000000;0.799990
9183.000000;0.799823
9182.000000;0.799755
9181.000000;0.799796
9180.000000;0.799969
9179.000000;0.800233
9178.000000;0.800470
9177.000000;0.800583
9176.000000;0.800574
9175.000000;0.800465
9174.000000;0.800226
9173.000000;0.799813
9172.000000;0.799266
9171.000000;0.798703
9170.000000;0.798234
9169.000000;0.797926
9168.000000;0.797843
9167.000000;0.798024
9166.000000;0.798402
9165.000000;0.798784
9164.000000;0.798997
9163.000000;0.799045
9162.000000;0.799071
9161.000000;0.799152
9160.000000;0.799193
9159.000000;0.799047
9158.000000;0.798709
9157.000000;0.798346
9156.000000;0.798130
9155.000000;0.798082
9154.000000;0.798085
9153.000000;0.798022
9152.000000;0.797894
9151.000000;0.797827
9150.000000;0.797947
9149.000000;0.798218
9148.000000;0.798417
9147.000000;0.798328
9146.000000;0.797996
9145.000000;0.797728
9144.000000;0.797795
9143.000000;0.798172
9142.000000;0.798582
9141.000000;0.798785
9140.000000;0.798755
9139.000000;0.798608
9138.000000;0.798427
9137.000000;0.798211
9136.000000;0.797963
9135.000000;0.797771
9134.000000;0.797743
9133.000000;0.797867
9132.000000;0.797991
9131.000000;0.797966
9130.000000;0.797788
9129.000000;0.797542
9128.000000;0.797253
9127.000000;0.796875
9126.000000;0.796434
9125.000000;0.796079
9124.000000;0.795936
9123.000000;0.795991
9122.000000;0.796172
9121.000000;0.796455
9120.000000;0.796807
9119.000000;0.797078
9118.000000;0.797075
9117.000000;0.796734
9116.000000;0.796155
9115.000000;0.795516
9114.000000;0.795027
9113.000000;0.794902
9112.000000;0.795190
9111.000000;0.795628
9110.000000;0.795833
9109.000000;0.795711
9108.000000;0.795545
9107.000000;0.795605
9106.000000;0.795817
9105.000000;0.795913
9104.000000;0.795805
9103.000000;0.795635
9102.000000;0.795538
9101.000000;0.795510
9100.000000;0.795515
9099.000000;0.795549
9098.000000;0.795575
9097.000000;0.795518
9096.000000;0.795384
9095.000000;0.795300
9094.000000;0.795375
9093.000000;0.795542
9092.000000;0.795595
9091.000000;0.795368
9090.000000;0.794884
9089.000000;0.794357
9088.000000;0.794061
9087.000000;0.794130
9086.000000;0.794455
9085.000000;0.794783
9084.000000;0.794935
9083.000000;0.794916
9082.000000;0.794849
9081.000000;0.794820
9080.000000;0.794796
9079.000000;0.794682
9078.000000;0.794453
9077.000000;0.794225
9076.000000;0.794134
9075.000000;0.794124
9074.000000;0.793958
9073.000000;0.793514
9072.000000;0.793000
9071.000000;0.792745
9070.000000;0.792830
9069.000000;0.793034
9068.000000;0.793145
9067.000000;0.793161
9066.000000;0.793178
9065.000000;0.793230
9064.000000;0.793301
9063.000000;0.793396
9062.000000;0.793477
9061.000000;0.793432
9060.000000;0.793202
9059.000000;0.792883
9058.000000;0.792634
9057.000000;0.792528
9056.000000;0.792540
9055.000000;0.792617
9054.000000;0.792689
9053.000000;0.792677
9052.000000;0.792575
9051.000000;0.792493
9050.000000;0.792518
9049.000000;0.792593
9048.000000;0.792585
9047.000000;0.792473
9046.000000;0.792365
9045.000000;0.792354
9044.000000;0.792428
9043.000000;0.792515
9042.000000;0.792532
9041.000000;0.792400
9040.000000;0.792089
9039.000000;0.791689
9038.000000;0.791380
9037.000000;0.791309
9036.000000;0.791488
9035.000000;0.791778
9034.000000;0.791963
9033.000000;0.791921
9032.000000;0.791756
9031.000000;0.791719
9030.000000;0.791914
9029.000000;0.792157
9028.000000;0.792191
9027.000000;0.791981
9026.000000;0.791692
9025.000000;0.791429
9024.000000;0.791181
9023.000000;0.790970
9022.000000;0.790884
9021.000000;0.790901
9020.000000;0.790851
9019.000000;0.790659
9018.000000;0.790479
9017.000000;0.790491
9016.000000;0.790639
9015.000000;0.790704
9014.000000;0.790575
9013.000000;0.790339
9012.000000;0.790150
9011.000000;0.790094
9010.000000;0.790171
9009.000000;0.790278
9008.000000;0.790240
9007.000000;0.789976
9006.000000;0.789651
9005.000000;0.789569
9004.000000;0.789843
9003.000000;0.790241
9002.000000;0.790429
9001.000000;0.790320
9000.000000;0.790132
8999.000000;0.790119
8998.000000;0.790305
8997.000000;0.790495
8996.000000;0.790491
8995.000000;0.790278
8994.000000;0.790016
8993.000000;0.789885
8992.000000;0.789922
8991.000000;0.790011
8990.000000;0.789997
8989.000000;0.789833
8988.000000;0.789593
8987.000000;0.789364
8986.000000;0.789142
8985.000000;0.788862
8984.000000;0.788528
8983.000000;0.788256
8982.000000;0.788173
8981.000000;0.788280
8980.000000;0.788429
8979.000000;0.788451
8978.000000;0.788298
8977.000000;0.788075
8976.000000;0.787951
8975.000000;0.788012
8974.000000;0.788194
8973.000000;0.788361
8972.000000;0.788426
8971.000000;0.788402
8970.000000;0.788339
8969.000000;0.788271
8968.000000;0.788206
8967.000000;0.788132
8966.000000;0.788003
8965.000000;0.787786
8964.000000;0.787550
8963.000000;0.787459
8962.000000;0.787602
8961.000000;0.787889
8960.000000;0.788161
8959.000000;0.788369
8958.000000;0.788553
8957.000000;0.788669
8956.000000;0.788561
8955.000000;0.788149
8954.000000;0.787557
8953.000000;0.787015
8952.000000;0.786676
8951.000000;0.786555
8950.000000;0.786585
8949.000000;0.786664
8948.000000;0.786706
8947.000000;0.786680
8946.000000;0.786622
8945.000000;0.786561
8944.000000;0.786467
8943.000000;0.786289
8942.000000;0.786023
8941.000000;0.785737
8940.000000;0.785525
8939.000000;0.785462
8938.000000;0.785559
8937.000000;0.785769
8936.000000;0.786018
8935.000000;0.786242
8934.000000;0.786384
8933.000000;0.786385
8932.000000;0.786234
8931.000000;0.786025
8930.000000;0.785895
8929.000000;0.785880
8928.000000;0.785869
8927.000000;0.785739
8926.000000;0.785490
8925.000000;0.785218
8924.000000;0.785000
8923.000000;0.784861
8922.000000;0.784817
8921.000000;0.784894
8920.000000;0.785079
8919.000000;0.785278
8918.000000;0.785363
8917.000000;0.785270
8916.000000;0.785061
8915.000000;0.784868
8914.000000;0.784771
8913.000000;0.784718
8912.000000;0.784615
8911.000000;0.784467
8910.000000;0.784381
8909.000000;0.784420
8908.000000;0.784507
8907.000000;0.784511
8906.000000;0.784406
8905.000000;0.784299
8904.000000;0.784326
8903.000000;0.784539
8902.000000;0.784839
8901.000000;0.785012
8900.000000;0.784872
8899.000000;0.784433
8898.000000;0.783930
8897.000000;0.783618
8896.000000;0.783560
8895.000000;0.783620
8894.000000;0.783641
8893.000000;0.783589
8892.000000;0.783549
8891.000000;0.783615
8890.000000;0.783803
8889.000000;0.784033
8888.000000;0.784187
8887.000000;0.784203
8886.000000;0.784106
8885.000000;0.783966
8884.000000;0.783817
8883.000000;0.783653
8882.000000;0.783457
8881.000000;0.783230
8880.000000;0.782994
8879.000000;0.782798
8878.000000;0.782697
8877.000000;0.782704
8876.000000;0.782782
8875.000000;0.782893
8874.000000;0.783030
8873.000000;0.783162
8872.000000;0.783178
8871.000000;0.782956
8870.000000;0.782497
8869.000000;0.781975
8868.000000;0.781628
8867.000000;0.781587
8866.000000;0.781787
8865.000000;0.782014
8864.000000;0.782061
8863.000000;0.781892
8862.000000;0.781641
8861.000000;0.781459
8860.000000;0.781391
8859.000000;0.781398
8858.000000;0.781482
8857.000000;0.781681
8856.000000;0.781970
8855.000000;0.782201
8854.000000;0.782209
8853.000000;0.781955
8852.000000;0.781554
8851.000000;0.781175
8850.000000;0.780909
8849.000000;0.780741
8848.000000;0.780611
8847.000000;0.780506
8846.000000;0.780458
8845.000000;0.780480
8844.000000;0.780541
8843.000000;0.780621
8842.000000;0.780754
8841.000000;0.780965
8840.000000;0.781198
8839.000000;0.781364
8838.000000;0.781445
8837.000000;0.781486
8836.000000;0.781483
8835.000000;0.781342
8834.000000;0.780987
8833.000000;0.780505
8832.000000;0.780125
8831.000000;0.780048
8830.000000;0.780266
8829.000000;0.780551
8828.000000;0.780638
8827.000000;0.780458
8826.000000;0.780198
8825.000000;0.780105
8824.000000;0.780247
8823.000000;0.780443
8822.000000;0.780458
8821.000000;0.780239
8820.000000;0.779959
8819.000000;0.779821
8818.000000;0.779853
8817.000000;0.779913
8816.000000;0.779895
8815.000000;0.779862
8814.000000;0.779920
8813.000000;0.780004
8812.000000;0.779921
8811.000000;0.779616
8810.000000;0.779272
8809.000000;0.779100
8808.000000;0.779093
8807.000000;0.779109
8806.000000;0.779098
8805.000000;0.779141
8804.000000;0.779270
8803.000000;0.779383
8802.000000;0.779362
8801.000000;0.779185
8800.000000;0.778907
8799.000000;0.778619
8798.000000;0.778432
8797.000000;0.778435
8796.000000;0.778600
8795.000000;0.778803
8794.000000;0.778949
8793.000000;0.779025
8792.000000;0.779024
8791.000000;0.778926
8790.000000;0.778795
8789.000000;0.778812
8788.000000;0.779064
8787.000000;0.779380
8786.000000;0.779477
8785.000000;0.779286
8784.000000;0.779030
8783.000000;0.778942
8782.000000;0.779017
8781.000000;0.779074
8780.000000;0.779021
8779.000000;0.778939
8778.000000;0.778926
8777.000000;0.778929
8776.000000;0.778830
8775.000000;0.778629
8774.000000;0.778466
8773.000000;0.778417
8772.000000;0.778369
8771.000000;0.778175
8770.000000;0.777880
8769.000000;0.777682
8768.000000;0.777675
8767.000000;0.777758
8766.000000;0.777812
8765.000000;0.777841
8764.000000;0.777877
8763.000000;0.777843
8762.000000;0.777660
8761.000000;0.777410
8760.000000;0.777290
8759.000000;0.777389
8758.000000;0.777592
8757.000000;0.777723
8756.000000;0.777692
8755.000000;0.777519
8754.000000;0.777283
8753.000000;0.777072
8752.000000;0.776945
8751.000000;0.776902
8750.000000;0.776908
8749.000000;0.776941
8748.000000;0.777003
8747.000000;0.777102
8746.000000;0.777267
8745.000000;0.777525
8744.000000;0.777805
8743.000000;0.777910
8742.000000;0.777703
8741.000000;0.777304
8740.000000;0.777003
8739.000000;0.776945
8738.000000;0.776992
8737.000000;0.776936
8736.000000;0.776726
8735.000000;0.776462
8734.000000;0.776247
8733.000000;0.776162
8732.000000;0.776273
8731.000000;0.776557
8730.000000;0.776852
8729.000000;0.776990
8728.000000;0.776961
8727.000000;0.776860
8726.000000;0.776715
8725.000000;0.776478
8724.000000;0.776211
8723.000000;0.776115
8722.000000;0.776323
8721.000000;0.776711
8720.000000;0.777007
8719.000000;0.777042
8718.000000;0.776840
8717.000000;0.776530
8716.000000;0.776233
8715.000000;0.776039
8714.000000;0.775993
8713.000000;0.776059
8712.000000;0.776128
8711.000000;0.776109
8710.000000;0.776013
8709.000000;0.775922
8708.000000;0.775883
8707.000000;0.775853
8706.000000;0.775783
8705.000000;0.775711
8704.000000;0.775721
8703.000000;0.775830
8702.000000;0.775957
8701.000000;0.776028
8700.000000;0.776045
8699.000000;0.776007
8698.000000;0.775861
8697.000000;0.775591
8696.000000;0.775325
8695.000000;0.775239
8694.000000;0.775345
8693.000000;0.775479
8692.000000;0.775507
8691.000000;0.775464
8690.000000;0.775455
8689.000000;0.775504
8688.000000;0.775552
8687.000000;0.775557
8686.000000;0.775525
8685.000000;0.775470
8684.000000;0.775400
8683.000000;0.775340
8682.000000;0.775305
8681.000000;0.775283
8680.000000;0.775256
8679.000000;0.775219
8678.000000;0.775155
8677.000000;0.775028
8676.000000;0.774844
8675.000000;0.774687
8674.000000;0.774641
8673.000000;0.774690
8672.000000;0.774743
8671.000000;0.774734
8670.000000;0.774643
8669.000000;0.774463
8668.000000;0.774206
8667.000000;0.773948
8666.000000;0.773778
8665.000000;0.773710
8664.000000;0.773688
8663.000000;0.773681
8662.000000;0.773717
8661.000000;0.773818
8660.000000;0.773965
8659.000000;0.774115
8658.000000;0.774198
8657.000000;0.774095
8656.000000;0.773739
8655.000000;0.773273
8654.000000;0.772984
8653.000000;0.773009
8652.000000;0.773166
8651.000000;0.773176
8650.000000;0.772998
8649.000000;0.772830
8648.000000;0.772813
8647.000000;0.772866
8646.000000;0.772849
8645.000000;0.772770
8644.000000;0.772761
8643.000000;0.772889
8642.000000;0.773066
8641.000000;0.773138
8640.000000;0.773016
8639.000000;0.772734
8638.000000;0.772401
8637.000000;0.772107
8636.000000;0.771863
8635.000000;0.771631
8634.000000;0.771407
8633.000000;0.771245
8632.000000;0.771209
8631.000000;0.771304
8630.000000;0.771475
8629.000000;0.771640
8628.000000;0.771716
8627.000000;0.771646
8626.000000;0.771426
8625.000000;0.771123
8624.000000;0.770850
8623.000000;0.770704
8622.000000;0.770730
8621.000000;0.770895
8620.000000;0.771101
8619.000000;0.771230
8618.000000;0.771218
8617.000000;0.771100
8616.000000;0.770956
8615.000000;0.770805
8614.000000;0.770573
8613.000000;0.770199
8612.000000;0.769747
8611.000000;0.769383
8610.000000;0.769234
8609.000000;0.769271
8608.000000;0.769359
8607.000000;0.769408
8606.000000;0.769438
8605.000000;0.769502
8604.000000;0.769582
8603.000000;0.769590
8602.000000;0.769464
8601.000000;0.769213
8600.000000;0.768890
8599.000000;0.768535
8598.000000;0.768187
8597.000000;0.767900
8596.000000;0.767715
8595.000000;0.767602
8594.000000;0.767476
8593.000000;0.767292
8592.000000;0.767109
8591.000000;0.767014
8590.000000;0.766999
8589.000000;0.766955
8588.000000;0.766811
8587.000000;0.766628
8586.000000;0.766531
8585.000000;0.766557
8584.000000;0.766639
8583.000000;0.766698
8582.000000;0.766709
8581.000000;0.766650
8580.000000;0.766485
8579.000000;0.766244
8578.000000;0.766053
8577.000000;0.766020
8576.000000;0.766094
8575.000000;0.766122
8574.000000;0.766033
8573.000000;0.765909
8572.000000;0.765852
8571.000000;0.765840
8570.000000;0.765753
8569.000000;0.765533
8568.000000;0.765256
8567.000000;0.765040
8566.000000;0.764915
8565.000000;0.764792
8564.000000;0.764569
8563.000000;0.764253
8562.000000;0.763973
8561.000000;0.763864
8560.000000;0.763939
8559.000000;0.764106
8558.000000;0.764279
8557.000000;0.764437
8556.000000;0.764560
8555.000000;0.764586
8554.000000;0.764464
8553.000000;0.764250
8552.000000;0.764065
8551.000000;0.763972
8550.000000;0.763929
8549.000000;0.763888
8548.000000;0.763877
8547.000000;0.763947
8546.000000;0.764044
8545.000000;0.764008
8544.000000;0.763719
8543.000000;0.763242
8542.000000;0.762796
8541.000000;0.762565
8540.000000;0.762562
8539.000000;0.762661
8538.000000;0.762743
8537.000000;0.762782
8536.000000;0.762805
8535.000000;0.762788
8534.000000;0.762662
8533.000000;0.762405
8532.000000;0.762110
8531.000000;0.761909
8530.000000;0.761834
8529.000000;0.761786
8528.000000;0.761646
8527.000000;0.761398
8526.000000;0.761121
8525.000000;0.760883
8524.000000;0.760699
8523.000000;0.760573
8522.000000;0.760539
8521.000000;0.760607
8520.000000;0.760716
8519.000000;0.760771
8518.000000;0.760728
8517.000000;0.760605
8516.000000;0.760428
8515.000000;0.760218
8514.000000;0.760021
8513.000000;0.759897
8512.000000;0.759858
8511.000000;0.759858
8510.000000;0.759874
8509.000000;0.759964
8508.000000;0.760170
8507.000000;0.760397
8506.000000;0.760455
8505.000000;0.760254
8504.000000;0.759915
8503.000000;0.759650
8502.000000;0.759542
8501.000000;0.759475
8500.000000;0.759296
8499.000000;0.759000
8498.000000;0.758749
8497.000000;0.758686
8496.000000;0.758779
8495.000000;0.758839
8494.000000;0.758702
8493.000000;0.758370
8492.000000;0.757982
8491.000000;0.757665
8490.000000;0.757433
8489.000000;0.757238
8488.000000;0.757090
8487.000000;0.757082
8486.000000;0.757273
8485.000000;0.757545
8484.000000;0.757636
8483.000000;0.757368
8482.000000;0.756853
8481.000000;0.756428
8480.000000;0.756349
8479.000000;0.756563
8478.000000;0.756792
8477.000000;0.756822
8476.000000;0.756676
8475.000000;0.756513
8474.000000;0.756415
8473.000000;0.756309
8472.000000;0.756077
8471.000000;0.755701
8470.000000;0.755304
8469.000000;0.755047
8468.000000;0.755014
8467.000000;0.755159
8466.000000;0.755354
8465.000000;0.755476
8464.000000;0.755468
8463.000000;0.755354
8462.000000;0.755216
8461.000000;0.755138
8460.000000;0.755130
8459.000000;0.755120
8458.000000;0.755047
8457.000000;0.754952
8456.000000;0.754949
8455.000000;0.755080
8454.000000;0.755229
8453.000000;0.755231
8452.000000;0.755036
8451.000000;0.754739
8450.000000;0.754458
8449.000000;0.754234
8448.000000;0.754053
8447.000000;0.753911
8446.000000;0.753814
8445.000000;0.753736
8444.000000;0.753634
8443.000000;0.753488
8442.000000;0.753323
8441.000000;0.753174
8440.000000;0.753068
8439.000000;0.753049
8438.000000;0.753153
8437.000000;0.753339
8436.000000;0.753474
8435.000000;0.753434
8434.000000;0.753229
8433.000000;0.752984
8432.000000;0.752800
8431.000000;0.752652
8430.000000;0.752460
8429.000000;0.752228
8428.000000;0.752057
8427.000000;0.752023
8426.000000;0.752085
8425.000000;0.752128
8424.000000;0.752072
8423.000000;0.751914
8422.000000;0.751692
8421.000000;0.751455
8420.000000;0.751265
8419.000000;0.751181
8418.000000;0.751206
8417.000000;0.751268
8416.000000;0.751288
8415.000000;0.751251
8414.000000;0.751195
8413.000000;0.751144
8412.000000;0.751072
8411.000000;0.750936
8410.000000;0.750724
8409.000000;0.750486
8408.000000;0.750321
8407.000000;0.750321
8406.000000;0.750453
8405.000000;0.750532
8404.000000;0.750355
8403.000000;0.749922
8402.000000;0.749471
8401.000000;0.749261
8400.000000;0.749348
8399.000000;0.749584
8398.000000;0.749794
8397.000000;0.749895
8396.000000;0.749881
8395.000000;0.749767
8394.000000;0.749595
8393.000000;0.749419
8392.000000;0.749275
8391.000000;0.749160
8390.000000;0.749064
8389.000000;0.748987
8388.000000;0.748927
8387.000000;0.748868
8386.000000;0.748812
8385.000000;0.748771
8384.000000;0.748740
8383.000000;0.748689
8382.000000;0.748595
8381.000000;0.748453
8380.000000;0.748245
8379.000000;0.747960
8378.000000;0.747650
8377.000000;0.747432
8376.000000;0.747387
8375.000000;0.747484
8374.000000;0.747636
8373.000000;0.747778
8372.000000;0.747844
8371.000000;0.747731
8370.000000;0.747387
8369.000000;0.746930
8368.000000;0.746598
8367.000000;0.746534
8366.000000;0.746673
8365.000000;0.746857
8364.000000;0.746989
8363.000000;0.747045
8362.000000;0.747007
8361.000000;0.746868
8360.000000;0.746695
8359.000000;0.746591
8358.000000;0.746594
8357.000000;0.746621
8356.000000;0.746552
8355.000000;0.746328
8354.000000;0.745987
8353.000000;0.745642
8352.000000;0.745406
8351.000000;0.745320
8350.000000;0.745318
8349.000000;0.745295
8348.000000;0.745195
8347.000000;0.745038
8346.000000;0.744853
8345.000000;0.744657
8344.000000;0.744507
8343.000000;0.744499
8342.000000;0.744658
8341.000000;0.744857
8340.000000;0.744903
8339.000000;0.744738
8338.000000;0.744487
8337.000000;0.744304
8336.000000;0.744207
8335.000000;0.744085
8334.000000;0.743857
8333.000000;0.743574
8332.000000;0.743374
8331.000000;0.743332
8330.000000;0.743376
8329.000000;0.743351
8328.000000;0.743194
8327.000000;0.743029
8326.000000;0.743051
8325.000000;0.743304
8324.000000;0.743617
8323.000000;0.743789
8322.000000;0.743786
8321.000000;0.743708
8320.000000;0.743599
8319.000000;0.743412
8318.000000;0.743134
8317.000000;0.742855
8316.000000;0.742664
8315.000000;0.742551
8314.000000;0.742482
8313.000000;0.742481
8312.000000;0.742569
8311.000000;0.742653
8310.000000;0.742580
8309.000000;0.742336
8308.000000;0.742086
8307.000000;0.741996
8306.000000;0.742052
8305.000000;0.742087
8304.000000;0.741959
8303.000000;0.741679
8302.000000;0.741376
8301.000000;0.741180
8300.000000;0.741130
8299.000000;0.741170
8298.000000;0.741208
8297.000000;0.741166
8296.000000;0.741006
8295.000000;0.740759
8294.000000;0.740529
8293.000000;0.740424
8292.000000;0.740436
8291.000000;0.740458
8290.000000;0.740427
8289.000000;0.740415
8288.000000;0.740487
8287.000000;0.740541
8286.000000;0.740394
8285.000000;0.740031
8284.000000;0.739660
8283.000000;0.739500
8282.000000;0.739587
8281.000000;0.739824
8280.000000;0.740101
8279.000000;0.740317
8278.000000;0.740365
8277.000000;0.740201
8276.000000;0.739893
8275.000000;0.739547
8274.000000;0.739224
8273.000000;0.738969
8272.000000;0.738850
8271.000000;0.738882
8270.000000;0.738939
8269.000000;0.738856
8268.000000;0.738627
8267.000000;0.738425
8266.000000;0.738421
8265.000000;0.738609
8264.000000;0.738831
8263.000000;0.738910
8262.000000;0.738786
8261.000000;0.738546
8260.000000;0.738358
8259.000000;0.738317
8258.000000;0.738367
8257.000000;0.738371
8256.000000;0.738256
8255.000000;0.738057
8254.000000;0.737858
8253.000000;0.737740
8252.000000;0.737756
8251.000000;0.737865
8250.000000;0.737923
8249.000000;0.737807
8248.000000;0.737556
8247.000000;0.737318
8246.000000;0.737165
8245.000000;0.737040
8244.000000;0.736905
8243.000000;0.736813
8242.000000;0.736807
8241.000000;0.736821
8240.000000;0.736762
8239.000000;0.736637
8238.000000;0.736535
8237.000000;0.736507
8236.000000;0.736525
8235.000000;0.736531
8234.000000;0.736468
8233.000000;0.736316
8232.000000;0.736126
8231.000000;0.735994
8230.000000;0.735959
8229.000000;0.735953
8228.000000;0.735890
8227.000000;0.735773
8226.000000;0.735664
8225.000000;0.735587
8224.000000;0.735521
8223.000000;0.735474
8222.000000;0.735481
8221.000000;0.735539
8220.000000;0.735594
8219.000000;0.735601
8218.000000;0.735547
8217.000000;0.735423
8216.000000;0.735233
8215.000000;0.735017
8214.000000;0.734822
8213.000000;0.734635
8212.000000;0.734402
8211.000000;0.734129
8210.000000;0.733914
8209.000000;0.733845
8208.000000;0.733922
8207.000000;0.734072
8206.000000;0.734207
8205.000000;0.734263
8204.000000;0.734215
8203.000000;0.734099
8202.000000;0.733986
8201.000000;0.733913
8200.000000;0.733851
8199.000000;0.733757
8198.000000;0.733625
8197.000000;0.733465
8196.000000;0.733282
8195.000000;0.733109
8194.000000;0.733025
8193.000000;0.733073
8192.000000;0.733177
8191.000000;0.733192
8190.000000;0.733054
8189.000000;0.732849
8188.000000;0.732713
8187.000000;0.732696
8186.000000;0.732736
8185.000000;0.732753
8184.000000;0.732722
8183.000000;0.732647
8182.000000;0.732507
8181.000000;0.732278
8180.000000;0.732010
8179.000000;0.731825
8178.000000;0.731791
8177.000000;0.731828
8176.000000;0.731783
8175.000000;0.731616
8174.000000;0.731452
8173.000000;0.731429
8172.000000;0.731536
8171.000000;0.731625
8170.000000;0.731571
8169.000000;0.731378
8168.000000;0.731139
8167.000000;0.730939
8166.000000;0.730806
8165.000000;0.730734
8164.000000;0.730715
8163.000000;0.730735
8162.000000;0.730758
8161.000000;0.730755
8160.000000;0.730729
8159.000000;0.730726
8158.000000;0.730771
8157.000000;0.730838
8156.000000;0.730869
8155.000000;0.730832
8154.000000;0.730727
8153.000000;0.730568
8152.000000;0.730387
8151.000000;0.730246
8150.000000;0.730203
8149.000000;0.730231
8148.000000;0.730229
8147.000000;0.730122
8146.000000;0.729940
8145.000000;0.729788
8144.000000;0.729737
8143.000000;0.729780
8142.000000;0.729853
8141.000000;0.729895
8140.000000;0.729866
8139.000000;0.729752
8138.000000;0.729543
8137.000000;0.729239
8136.000000;0.728879
8135.000000;0.728564
8134.000000;0.728419
8133.000000;0.728494
8132.000000;0.728711
8131.000000;0.728915
8130.000000;0.728986
8129.000000;0.728909
8128.000000;0.728761
8127.000000;0.728635
8126.000000;0.728554
8125.000000;0.728453
8124.000000;0.728262
8123.000000;0.728010
8122.000000;0.727812
8121.000000;0.727740
8120.000000;0.727750
8119.000000;0.727760
8118.000000;0.727763
8117.000000;0.727795
8116.000000;0.727845
8115.000000;0.727847
8114.000000;0.727770
8113.000000;0.727650
8112.000000;0.727524
8111.000000;0.727389
8110.000000;0.727247
8109.000000;0.727127
8108.000000;0.727043
8107.000000;0.726967
8106.000000;0.726888
8105.000000;0.726858
8104.000000;0.726920
8103.000000;0.727031
8102.000000;0.727097
8101.000000;0.727082
8100.000000;0.727037
8099.000000;0.726999
8098.000000;0.726937
8097.000000;0.726806
8096.000000;0.726627
8095.000000;0.726480
8094.000000;0.726411
8093.000000;0.726388
8092.000000;0.726355
8091.000000;0.726299
8090.000000;0.726248
8089.000000;0.726215
8088.000000;0.726164
8087.000000;0.726043
8086.000000;0.725860
8085.000000;0.725697
8084.000000;0.725640
8083.000000;0.725698
8082.000000;0.725805
8081.000000;0.725885
8080.000000;0.725895
8079.000000;0.725814
8078.000000;0.725613
8077.000000;0.725297
8076.000000;0.724940
8075.000000;0.724662
8074.000000;0.724535
8073.000000;0.724536
8072.000000;0.724584
8071.000000;0.724618
8070.000000;0.724607
8069.000000;0.724530
8068.000000;0.724375
8067.000000;0.724191
8066.000000;0.724083
8065.000000;0.724135
8064.000000;0.724318
8063.000000;0.724499
8062.000000;0.724548
8061.000000;0.724438
8060.000000;0.724237
8059.000000;0.724030
8058.000000;0.723866
8057.000000;0.723747
8056.000000;0.723659
8055.000000;0.723573
8054.000000;0.723454
8053.000000;0.723294
8052.000000;0.723131
8051.000000;0.723028
8050.000000;0.723007
8049.000000;0.723029
8048.000000;0.723030
8047.000000;0.722998
8046.000000;0.722973
8045.000000;0.722992
8044.000000;0.723044
8043.000000;0.723086
8042.000000;0.723084
8041.000000;0.723028
8040.000000;0.722922
8039.000000;0.722777
8038.000000;0.722613
8037.000000;0.722467
8036.000000;0.722367
8035.000000;0.722319
8034.000000;0.722286
8033.000000;0.722222
8032.000000;0.722119
8031.000000;0.722024
8030.000000;0.721989
8029.000000;0.722000
8028.000000;0.721980
8027.000000;0.721882
8026.000000;0.721749
8025.000000;0.721661
8024.000000;0.721642
8023.000000;0.721653
8022.000000;0.721651
8021.000000;0.721619
8020.000000;0.721535
8019.000000;0.721373
8018.000000;0.721154
8017.000000;0.720963
8016.000000;0.720880
8015.000000;0.720903
8014.000000;0.720967
8013.000000;0.721014
8012.000000;0.721044
8011.000000;0.721084
8010.000000;0.721133
8009.000000;0.721149
8008.000000;0.721096
8007.000000;0.720981
8006.000000;0.720856
8005.000000;0.720764
8004.000000;0.720701
8003.000000;0.720642
8002.000000;0.720589
8001.000000;0.720570
8000.000000;0.720586
7999.000000;0.720587
7998.000000;0.720525
7997.000000;0.720408
7996.000000;0.720287
7995.000000;0.720211
7994.000000;0.720191
7993.000000;0.720202
7992.000000;0.720188
7991.000000;0.720081
7990.000000;0.719853
7989.000000;0.719561
7988.000000;0.719316
7987.000000;0.719202
7986.000000;0.719230
7985.000000;0.719359
7984.000000;0.719533
7983.000000;0.719693
7982.000000;0.719772
7981.000000;0.719719
7980.000000;0.719542
7979.000000;0.719315
7978.000000;0.719126
7977.000000;0.719024
7976.000000;0.718989
7975.000000;0.718972
7974.000000;0.718935
7973.000000;0.718874
7972.000000;0.718796
7971.000000;0.718706
7970.000000;0.718598
7969.000000;0.718476
7968.000000;0.718350
7967.000000;0.718234
7966.000000;0.718138
7965.000000;0.718069
7964.000000;0.718031
7963.000000;0.718023
7962.000000;0.718050
7961.000000;0.718100
7960.000000;0.718135
7959.000000;0.718102
7958.000000;0.717991
7957.000000;0.717857
7956.000000;0.717773
7955.000000;0.717758
7954.000000;0.717774
7953.000000;0.717785
7952.000000;0.717771
7951.000000;0.717707
7950.000000;0.717561
7949.000000;0.717346
7948.000000;0.717134
7947.000000;0.716993
7946.000000;0.716919
7945.000000;0.716869
7944.000000;0.716826
7943.000000;0.716804
7942.000000;0.716798
7941.000000;0.716780
7940.000000;0.716750
7939.000000;0.716736
7938.000000;0.716744
7937.000000;0.716717
7936.000000;0.716612
7935.000000;0.716468
7934.000000;0.716367
7933.000000;0.716324
7932.000000;0.716266
7931.000000;0.716139
7930.000000;0.715997
7929.000000;0.715956
7928.000000;0.716054
7927.000000;0.716194
7926.000000;0.716239
7925.000000;0.716143
7924.000000;0.715982
7923.000000;0.715863
7922.000000;0.715819
7921.000000;0.715792
7920.000000;0.715704
7919.000000;0.715529
7918.000000;0.715306
7917.000000;0.715102
7916.000000;0.714980
7915.000000;0.714980
7914.000000;0.715088
7913.000000;0.715236
7912.000000;0.715351
7911.000000;0.715410
7910.000000;0.715421
7909.000000;0.715360
7908.000000;0.715176
7907.000000;0.714877
7906.000000;0.714578
7905.000000;0.714406
7904.000000;0.714373
7903.000000;0.714385
7902.000000;0.714374
7901.000000;0.714372
7900.000000;0.714429
7899.000000;0.714523
7898.000000;0.714575
7897.000000;0.714530
7896.000000;0.714394
7895.000000;0.714211
7894.000000;0.714035
7893.000000;0.713910
7892.000000;0.713844
7891.000000;0.713791
7890.000000;0.713705
7889.000000;0.713584
7888.000000;0.713461
7887.000000;0.713350
7886.000000;0.713243
7885.000000;0.713146
7884.000000;0.713090
7883.000000;0.713089
7882.000000;0.713104
7881.000000;0.713083
7880.000000;0.713005
7879.000000;0.712897
7878.000000;0.712800
7877.000000;0.712738
7876.000000;0.712692
7875.000000;0.712626
7874.000000;0.712533
7873.000000;0.712466
7872.000000;0.712490
7871.000000;0.712598
7870.000000;0.712708
7869.000000;0.712749
7868.000000;0.712712
7867.000000;0.712615
7866.000000;0.712464
7865.000000;0.712269
7864.000000;0.712085
7863.000000;0.711984
7862.000000;0.711975
7861.000000;0.711981
7860.000000;0.711924
7859.000000;0.711801
7858.000000;0.711689
7857.000000;0.711648
7856.000000;0.711655
7855.000000;0.711634
7854.000000;0.711552
7853.000000;0.711460
7852.000000;0.711413
7851.000000;0.711378
7850.000000;0.711277
7849.000000;0.711104
7848.000000;0.710958
7847.000000;0.710924
7846.000000;0.710964
7845.000000;0.710977
7844.000000;0.710924
7843.000000;0.710854
7842.000000;0.710814
7841.000000;0.710817
7840.000000;0.710876
7839.000000;0.711008
7838.000000;0.711169
7837.000000;0.711252
7836.000000;0.711186
7835.000000;0.711008
7834.000000;0.710817
7833.000000;0.710671
7832.000000;0.710580
7831.000000;0.710540
7830.000000;0.710528
7829.000000;0.710487
7828.000000;0.710372
7827.000000;0.710231
7826.000000;0.710172
7825.000000;0.710227
7824.000000;0.710293
7823.000000;0.710242
7822.000000;0.710065
7821.000000;0.709871
7820.000000;0.709745
7819.000000;0.709671
7818.000000;0.709578
7817.000000;0.709444
7816.000000;0.709312
7815.000000;0.709230
7814.000000;0.709204
7813.000000;0.709212
7812.000000;0.709241
7811.000000;0.709288
7810.000000;0.709339
7809.000000;0.709353
7808.000000;0.709301
7807.000000;0.709200
7806.000000;0.709111
7805.000000;0.709076
7804.000000;0.709082
7803.000000;0.709077
7802.000000;0.709028
7801.000000;0.708941
7800.000000;0.708839
7799.000000;0.708730
7798.000000;0.708626
7797.000000;0.708546
7796.000000;0.708498
7795.000000;0.708462
7794.000000;0.708409
7793.000000;0.708336
7792.000000;0.708262
7791.000000;0.708196
7790.000000;0.708124
7789.000000;0.708029
7788.000000;0.707917
7787.000000;0.707800
7786.000000;0.707697
7785.000000;0.707625
7784.000000;0.707593
7783.000000;0.707577
7782.000000;0.707521
7781.000000;0.707400
7780.000000;0.707250
7779.000000;0.707138
7778.000000;0.707091
7777.000000;0.707087
7776.000000;0.707089
7775.000000;0.707076
7774.000000;0.707031
7773.000000;0.706938
7772.000000;0.706816
7771.000000;0.706720
7770.000000;0.706691
7769.000000;0.706707
7768.000000;0.706710
7767.000000;0.706672
7766.000000;0.706611
7765.000000;0.706547
7764.000000;0.706470
7763.000000;0.706372
7762.000000;0.706279
7761.000000;0.706222
7760.000000;0.706191
7759.000000;0.706155
7758.000000;0.706112
7757.000000;0.706086
7756.000000;0.706061
7755.000000;0.705962
7754.000000;0.705748
7753.000000;0.705499
7752.000000;0.705346
7751.000000;0.705320
7750.000000;0.705331
7749.000000;0.705301
7748.000000;0.705253
7747.000000;0.705245
7746.000000;0.705261
7745.000000;0.705232
7744.000000;0.705132
7743.000000;0.705002
7742.000000;0.704872
7741.000000;0.704751
7740.000000;0.704654
7739.000000;0.704615
7738.000000;0.704629
7737.000000;0.704651
7736.000000;0.704658
7735.000000;0.704669
7734.000000;0.704679
7733.000000;0.704629
7732.000000;0.704480
7731.000000;0.704284
7730.000000;0.704138
7729.000000;0.704085
7728.000000;0.704094
7727.000000;0.704113
7726.000000;0.704102
7725.000000;0.704036
7724.000000;0.703920
7723.000000;0.703814
7722.000000;0.703780
7721.000000;0.703813
7720.000000;0.703839
7719.000000;0.703789
7718.000000;0.703658
7717.000000;0.703490
7716.000000;0.703333
7715.000000;0.703228
7714.000000;0.703196
7713.000000;0.703224
7712.000000;0.703263
7711.000000;0.703265
7710.000000;0.703210
7709.000000;0.703104
7708.000000;0.702970
7707.000000;0.702847
7706.000000;0.702761
7705.000000;0.702714
7704.000000;0.702692
7703.000000;0.702693
7702.000000;0.702711
7701.000000;0.702711
7700.000000;0.702655
7699.000000;0.702560
7698.000000;0.702476
7697.000000;0.702416
7696.000000;0.702337
7695.000000;0.702221
7694.000000;0.702118
7693.000000;0.702075
7692.000000;0.702060
7691.000000;0.702003
7690.000000;0.701878
7689.000000;0.701731
7688.000000;0.701612
7687.000000;0.701543
7686.000000;0.701515
7685.000000;0.701498
7684.000000;0.701461
7683.000000;0.701401
7682.000000;0.701362
7681.000000;0.701384
7680.000000;0.701444
7679.000000;0.701462
7678.000000;0.701376
7677.000000;0.701185
7676.000000;0.700932
7675.000000;0.700680
7674.000000;0.700503
7673.000000;0.700452
7672.000000;0.700509
7671.000000;0.700597
7670.000000;0.700646
7669.000000;0.700638
7668.000000;0.700585
7667.000000;0.700501
7666.000000;0.700399
7665.000000;0.700295
7664.000000;0.700201
7663.000000;0.700127
7662.000000;0.700093
7661.000000;0.700112
7660.000000;0.700140
7659.000000;0.700088
7658.000000;0.699916
7657.000000;0.699703
7656.000000;0.699588
7655.000000;0.699636
7654.000000;0.699784
7653.000000;0.699908
7652.000000;0.699920
7651.000000;0.699823
7650.000000;0.699677
7649.000000;0.699541
7648.000000;0.699427
7647.000000;0.699306
7646.000000;0.699171
7645.000000;0.699061
7644.000000;0.699017
7643.000000;0.699017
7642.000000;0.699008
7641.000000;0.698972
7640.000000;0.698946
7639.000000;0.698952
7638.000000;0.698950
7637.000000;0.698885
7636.000000;0.698766
7635.000000;0.698660
7634.000000;0.698603
7633.000000;0.698560
7632.000000;0.698486
7631.000000;0.698396
7630.000000;0.698343
7629.000000;0.698336
7628.000000;0.698325
7627.000000;0.698266
7626.000000;0.698169
7625.000000;0.698073
7624.000000;0.697997
7623.000000;0.697945
7622.000000;0.697929
7621.000000;0.697954
7620.000000;0.697993
7619.000000;0.698013
7618.000000;0.698016
7617.000000;0.698024
7616.000000;0.698019
7615.000000;0.697936
7614.000000;0.697748
7613.000000;0.697524
7612.000000;0.697372
7611.000000;0.697340
7610.000000;0.697381
7609.000000;0.697419
7608.000000;0.697414
7607.000000;0.697382
7606.000000;0.697347
7605.000000;0.697312
7604.000000;0.697269
7603.000000;0.697219
7602.000000;0.697171
7601.000000;0.697120
7600.000000;0.697046
7599.000000;0.696947
7598.000000;0.696845
7597.000000;0.696747
7596.000000;0.696621
7595.000000;0.696443
7594.000000;0.696262
7593.000000;0.696166
7592.000000;0.696186
7591.000000;0.696257
7590.000000;0.696283
7589.000000;0.696219
7588.000000;0.696091
7587.000000;0.695974
7586.000000;0.695941
7585.000000;0.696014
7584.000000;0.696121
7583.000000;0.696150
7582.000000;0.696043
7581.000000;0.695838
7580.000000;0.695621
7579.000000;0.695457
7578.000000;0.695375
7577.000000;0.695376
7576.000000;0.695428
7575.000000;0.695481
7574.000000;0.695499
7573.000000;0.695479
7572.000000;0.695422
7571.000000;0.695330
7570.000000;0.695235
7569.000000;0.695181
7568.000000;0.695179
7567.000000;0.695186
7566.000000;0.695170
7565.000000;0.695146
7564.000000;0.695115
7563.000000;0.695045
7562.000000;0.694917
7561.000000;0.694779
7560.000000;0.694679
7559.000000;0.694596
7558.000000;0.694481
7557.000000;0.694344
7556.000000;0.694231
7555.000000;0.694152
7554.000000;0.694093
7553.000000;0.694066
7552.000000;0.694102
7551.000000;0.694180
7550.000000;0.694251
7549.000000;0.694305
7548.000000;0.694363
7547.000000;0.694401
7546.000000;0.694348
7545.000000;0.694187
7544.000000;0.693989
7543.000000;0.693839
7542.000000;0.693769
7541.000000;0.693771
7540.000000;0.693830
7539.000000;0.693903
7538.000000;0.693927
7537.000000;0.693864
7536.000000;0.693742
7535.000000;0.693623
7534.000000;0.693563
7533.000000;0.693592
7532.000000;0.693691
7531.000000;0.693790
7530.000000;0.693822
7529.000000;0.693804
7528.000000;0.693801
7527.000000;0.693807
7526.000000;0.693742
7525.000000;0.693583
7524.000000;0.693447
7523.000000;0.693461
7522.000000;0.693598
7521.000000;0.693708
7520.000000;0.693677
7519.000000;0.693522
7518.000000;0.693334
7517.000000;0.693191
7516.000000;0.693115
7515.000000;0.693085
7514.000000;0.693075
7513.000000;0.693085
7512.000000;0.693113
7511.000000;0.693109
7510.000000;0.693001
7509.000000;0.692792
7508.000000;0.692594
7507.000000;0.692526
7506.000000;0.692603
7505.000000;0.692742
7504.000000;0.692861
7503.000000;0.692927
7502.000000;0.692929
7501.000000;0.692877
7500.000000;0.692803
7499.000000;0.692750
7498.000000;0.692731
7497.000000;0.692736
7496.000000;0.692750
7495.000000;0.692755
7494.000000;0.692719
7493.000000;0.692626
7492.000000;0.692496
7491.000000;0.692377
7490.000000;0.692290
7489.000000;0.692240
7488.000000;0.692251
7487.000000;0.692321
7486.000000;0.692400
7485.000000;0.692430
7484.000000;0.692414
7483.000000;0.692398
7482.000000;0.692396
7481.000000;0.692368
7480.000000;0.692281
7479.000000;0.692163
7478.000000;0.692074
7477.000000;0.692046
7476.000000;0.692070
7475.000000;0.692102
7474.000000;0.692100
7473.000000;0.692055
7472.000000;0.691995
7471.000000;0.691949
7470.000000;0.691909
7469.000000;0.691849
7468.000000;0.691770
7467.000000;0.691705
7466.000000;0.691684
7465.000000;0.691708
7464.000000;0.691749
7463.000000;0.691752
7462.000000;0.691671
7461.000000;0.691533
7460.000000;0.691447
7459.000000;0.691505
7458.000000;0.691671
7457.000000;0.691802
7456.000000;0.691794
7455.000000;0.691667
7454.000000;0.691513
7453.000000;0.691401
7452.000000;0.691354
7451.000000;0.691364
7450.000000;0.691398
7449.000000;0.691415
7448.000000;0.691397
7447.000000;0.691361
7446.000000;0.691321
7445.000000;0.691277
7444.000000;0.691241
7443.000000;0.691255
7442.000000;0.691348
7441.000000;0.691468
7440.000000;0.691508
7439.000000;0.691401
7438.000000;0.691191
7437.000000;0.691005
7436.000000;0.690948
7435.000000;0.691013
7434.000000;0.691103
7433.000000;0.691134
7432.000000;0.691106
7431.000000;0.691079
7430.000000;0.691094
7429.000000;0.691146
7428.000000;0.691208
7427.000000;0.691258
7426.000000;0.691282
7425.000000;0.691268
7424.000000;0.691224
7423.000000;0.691178
7422.000000;0.691153
7421.000000;0.691147
7420.000000;0.691138
7419.000000;0.691102
7418.000000;0.691015
7417.000000;0.690871
7416.000000;0.690703
7415.000000;0.690578
7414.000000;0.690559
7413.000000;0.690660
7412.000000;0.690828
7411.000000;0.690968
7410.000000;0.691007
7409.000000;0.690942
7408.000000;0.690826
7407.000000;0.690715
7406.000000;0.690629
7405.000000;0.690563
7404.000000;0.690514
7403.000000;0.690478
7402.000000;0.690438
7401.000000;0.690379
7400.000000;0.690330
7399.000000;0.690354
7398.000000;0.690483
7397.000000;0.690665
7396.000000;0.690806
7395.000000;0.690853
7394.000000;0.690827
7393.000000;0.690780
7392.000000;0.690747
7391.000000;0.690740
7390.000000;0.690754
7389.000000;0.690771
7388.000000;0.690764
7387.000000;0.690723
7386.000000;0.690675
7385.000000;0.690650
7384.000000;0.690629
7383.000000;0.690559
7382.000000;0.690427
7381.000000;0.690303
7380.000000;0.690257
7379.000000;0.690237
7378.000000;0.690124
7377.000000;0.689908
7376.000000;0.689767
7375.000000;0.689890
7374.000000;0.690271
7373.000000;0.690689
7372.000000;0.690903
7371.000000;0.690835
7370.000000;0.690627
7369.000000;0.690543
7368.000000;0.690742
7367.000000;0.691115
7366.000000;0.691364
7365.000000;0.691296
7364.000000;0.690992
7363.000000;0.690707
7362.000000;0.690631
7361.000000;0.690776
7360.000000;0.691021
7359.000000;0.691184
7358.000000;0.691124
7357.000000;0.690880
7356.000000;0.690692
7355.000000;0.690783
7354.000000;0.691132
7353.000000;0.691487
7352.000000;0.691603
7351.000000;0.691431
7350.000000;0.691128
7349.000000;0.690937
7348.000000;0.691000
7347.000000;0.691222
7346.000000;0.691350
7345.000000;0.691238
7344.000000;0.690975
7343.000000;0.690722
7342.000000;0.690526
7341.000000;0.690393
7340.000000;0.690437
7339.000000;0.690779
7338.000000;0.691318
7337.000000;0.691755
7336.000000;0.691899
7335.000000;0.691838
7334.000000;0.691784
7333.000000;0.691859
7332.000000;0.692008
7331.000000;0.692042
7330.000000;0.691819
7329.000000;0.691446
7328.000000;0.691228
7327.000000;0.691325
7326.000000;0.691535
7325.000000;0.691563
7324.000000;0.691424
7323.000000;0.691407
7322.000000;0.691680
7321.000000;0.692081
7320.000000;0.692338
7319.000000;0.692343
7318.000000;0.692191
7317.000000;0.692051
7316.000000;0.692043
7315.000000;0.692164
7314.000000;0.692278
7313.000000;0.692267
7312.000000;0.692213
7311.000000;0.692305
7310.000000;0.692534
7309.000000;0.692656
7308.000000;0.692540
7307.000000;0.692395
7306.000000;0.692520
7305.000000;0.692934
7304.000000;0.693363
7303.000000;0.693563
7302.000000;0.693540
7301.000000;0.693488
7300.000000;0.693610
7299.000000;0.693967
7298.000000;0.694389
7297.000000;0.694548
7296.000000;0.694265
7295.000000;0.693762
7294.000000;0.693498
7293.000000;0.693722
7292.000000;0.694230
7291.000000;0.694615
7290.000000;0.694678
7289.000000;0.694562
7288.000000;0.694552
7287.000000;0.694791
7286.000000;0.695176
7285.000000;0.695503
7284.000000;0.695676
7283.000000;0.695754
7282.000000;0.695833
7281.000000;0.695934
7280.000000;0.696010
7279.000000;0.696036
7278.000000;0.696042
7277.000000;0.696050
7276.000000;0.696056
7275.000000;0.696071
7274.000000;0.696142
7273.000000;0.696313
7272.000000;0.696571
7271.000000;0.696849
7270.000000;0.697072
7269.000000;0.697226
7268.000000;0.697369
7267.000000;0.697563
7266.000000;0.697780
7265.000000;0.697907
7264.000000;0.697888
7263.000000;0.697832
7262.000000;0.697940
7261.000000;0.698304
7260.000000;0.698822
7259.000000;0.699315
7258.000000;0.699672
7257.000000;0.699868
7256.000000;0.699907
7255.000000;0.699824
7254.000000;0.699711
7253.000000;0.699695
7252.000000;0.699840
7251.000000;0.700083
7250.000000;0.700305
7249.000000;0.700448
7248.000000;0.700578
7247.000000;0.700784
7246.000000;0.701017
7245.000000;0.701128
7244.000000;0.701092
7243.000000;0.701121
7242.000000;0.701449
7241.000000;0.702004
7240.000000;0.702446
7239.000000;0.702568
7238.000000;0.702558
7237.000000;0.702757
7236.000000;0.703223
7235.000000;0.703653
7234.000000;0.703749
7233.000000;0.703589
7232.000000;0.703552
7231.000000;0.703912
7230.000000;0.704532
7229.000000;0.705024
7228.000000;0.705180
7227.000000;0.705168
7226.000000;0.705317
7225.000000;0.705796
7224.000000;0.706467
7223.000000;0.707024
7222.000000;0.707262
7221.000000;0.707264
7220.000000;0.707292
7219.000000;0.707508
7218.000000;0.707854
7217.000000;0.708172
7216.000000;0.708401
7215.000000;0.708613
7214.000000;0.708907
7213.000000;0.709313
7212.000000;0.709780
7211.000000;0.710225
7210.000000;0.710582
7209.000000;0.710814
7208.000000;0.710920
7207.000000;0.710947
7206.000000;0.711010
7205.000000;0.711261
7204.000000;0.711787
7203.000000;0.712491
7202.000000;0.713121
7201.000000;0.713486
7200.000000;0.713635
7199.000000;0.713777
7198.000000;0.714048
7197.000000;0.714415
7196.000000;0.714788
7195.000000;0.715133
7194.000000;0.715453
7193.000000;0.715731
7192.000000;0.715974
7191.000000;0.716262
7190.000000;0.716662
7189.000000;0.717108
7188.000000;0.717464
7187.000000;0.717696
7186.000000;0.717907
7185.000000;0.718165
7184.000000;0.718426
7183.000000;0.718656
7182.000000;0.718944
7181.000000;0.719403
7180.000000;0.719986
7179.000000;0.720513
7178.000000;0.720877
7177.000000;0.721152
7176.000000;0.721499
7175.000000;0.721982
7174.000000;0.722526
7173.000000;0.722990
7172.000000;0.723287
7171.000000;0.723448
7170.000000;0.723603
7169.000000;0.723883
7168.000000;0.724324
7167.000000;0.724836
7166.000000;0.725286
7165.000000;0.725580
7164.000000;0.725722
7163.000000;0.725823
7162.000000;0.726037
7161.000000;0.726467
7160.000000;0.727100
7159.000000;0.727814
7158.000000;0.728435
7157.000000;0.728849
7156.000000;0.729101
7155.000000;0.729358
7154.000000;0.729729
7153.000000;0.730136
7152.000000;0.730406
7151.000000;0.730501
7150.000000;0.730569
7149.000000;0.730789
7148.000000;0.731222
7147.000000;0.731822
7146.000000;0.732488
7145.000000;0.733080
7144.000000;0.733480
7143.000000;0.733652
7142.000000;0.733599
7141.000000;0.733335
7140.000000;0.733007
7139.000000;0.732951
7138.000000;0.733399
7137.000000;0.734144
7136.000000;0.734703
7135.000000;0.734891
7134.000000;0.735028
7133.000000;0.735481
7132.000000;0.736142
7131.000000;0.736570
7130.000000;0.736569
7129.000000;0.736414
7128.000000;0.736474
7127.000000;0.736773
7126.000000;0.737006
7125.000000;0.736918
7124.000000;0.736565
7123.000000;0.736222
7122.000000;0.736093
7121.000000;0.736162
7120.000000;0.736311
7119.000000;0.736482
7118.000000;0.736677
7117.000000;0.736858
7116.000000;0.736973
7115.000000;0.737054
7114.000000;0.737161
7113.000000;0.737248
7112.000000;0.737189
7111.000000;0.736975
7110.000000;0.736741
7109.000000;0.736519
7108.000000;0.736150
7107.000000;0.735548
7106.000000;0.734906
7105.000000;0.734489
7104.000000;0.734302
7103.000000;0.734101
7102.000000;0.733660
7101.000000;0.732926
7100.000000;0.732056
7099.000000;0.731401
7098.000000;0.731290
7097.000000;0.731590
7096.000000;0.731646
7095.000000;0.730906
7094.000000;0.729584
7093.000000;0.728435
7092.000000;0.727882
7091.000000;0.727654
7090.000000;0.727295
7089.000000;0.726668
7088.000000;0.725870
7087.000000;0.724935
7086.000000;0.723885
7085.000000;0.722898
7084.000000;0.722186
7083.000000;0.721748
7082.000000;0.721389
7081.000000;0.720902
7080.000000;0.720117
7079.000000;0.718918
7078.000000;0.717367
7077.000000;0.715733
7076.000000;0.714216
7075.000000;0.712701
7074.000000;0.711005
7073.000000;0.709291
7072.000000;0.707974
7071.000000;0.707185
7070.000000;0.706553
7069.000000;0.705604
7068.000000;0.704219
7067.000000;0.702606
7066.000000;0.700991
7065.000000;0.699480
7064.000000;0.698102
7063.000000;0.696866
7062.000000;0.695793
7061.000000;0.694961
7060.000000;0.694415
7059.000000;0.693959
7058.000000;0.693129
7057.000000;0.691531
7056.000000;0.689160
7055.000000;0.686325
7054.000000;0.683384
7053.000000;0.680683
7052.000000;0.678618
7051.000000;0.677425
7050.000000;0.676828
7049.000000;0.676102
7048.000000;0.674676
7047.000000;0.672652
7046.000000;0.670604
7045.000000;0.668902
7044.000000;0.667336
7043.000000;0.665391
7042.000000;0.662803
7041.000000;0.659818
7040.000000;0.656993
7039.000000;0.654745
7038.000000;0.653067
7037.000000;0.651630
7036.000000;0.650147
7035.000000;0.648588
7034.000000;0.647000
7033.000000;0.645271
7032.000000;0.643216
7031.000000;0.640871
7030.000000;0.638547
7029.000000;0.636516
7028.000000;0.634699
7027.000000;0.632707
7026.000000;0.630189
7025.000000;0.627137
7024.000000;0.623916
7023.000000;0.621021
7022.000000;0.618775
7021.000000;0.617206
7020.000000;0.616141
7019.000000;0.615273
7018.000000;0.614140
7017.000000;0.612235
7016.000000;0.609387
7015.000000;0.606038
7014.000000;0.602968
7013.000000;0.600697
7012.000000;0.599187
7011.000000;0.598005
7010.000000;0.596569
7009.000000;0.594322
7008.000000;0.591040
7007.000000;0.587132
7006.000000;0.583464
7005.000000;0.580689
7004.000000;0.578777
7003.000000;0.577172
7002.000000;0.575262
7001.000000;0.572734
7000.000000;0.569727
6999.000000;0.566769
6998.000000;0.564398
6997.000000;0.562669
6996.000000;0.561068
6995.000000;0.558981
6994.000000;0.556170
6993.000000;0.552819
6992.000000;0.549370
6991.000000;0.546347
6990.000000;0.544054
6989.000000;0.542312
6988.000000;0.540648
6987.000000;0.538821
6986.000000;0.536927
6985.000000;0.534922
6984.000000;0.532421
6983.000000;0.529236
6982.000000;0.525811
6981.000000;0.522746
6980.000000;0.520074
6979.000000;0.517393
6978.000000;0.514614
6977.000000;0.512143
6976.000000;0.510238
6975.000000;0.508579
6974.000000;0.506638
6973.000000;0.504286
6972.000000;0.501847
6971.000000;0.499652
6970.000000;0.497713
6969.000000;0.495799
6968.000000;0.493698
6967.000000;0.491331
6966.000000;0.488802
6965.000000;0.486498
6964.000000;0.485001
6963.000000;0.484490
6962.000000;0.484134
6961.000000;0.482518
6960.000000;0.479094
6959.000000;0.474895
6958.000000;0.471366
6957.000000;0.468731
6956.000000;0.466099
6955.000000;0.463017
6954.000000;0.460173
6953.000000;0.458320
6952.000000;0.457198
6951.000000;0.455947
6950.000000;0.454143
6949.000000;0.451978
6948.000000;0.449662
6947.000000;0.447101
6946.000000;0.444127
6945.000000;0.440832
6944.000000;0.437681
6943.000000;0.435329
6942.000000;0.434095
6941.000000;0.433510
6940.000000;0.432625
6939.000000;0.430938
6938.000000;0.428746
6937.000000;0.426542
6936.000000;0.424466
6935.000000;0.422476
6934.000000;0.420604
6933.000000;0.418751
6932.000000;0.416642
6931.000000;0.414323
6930.000000;0.412338
6929.000000;0.410999
6928.000000;0.409794
6927.000000;0.407948
6926.000000;0.405383
6925.000000;0.402753
6924.000000;0.400673
6923.000000;0.399229
6922.000000;0.398080
6921.000000;0.396709
6920.000000;0.394692
6919.000000;0.392022
6918.000000;0.389141
6917.000000;0.386569
6916.000000;0.384609
6915.000000;0.383430
6914.000000;0.383072
6913.000000;0.383132
6912.000000;0.382810
6911.000000;0.381621
6910.000000;0.379794
6909.000000;0.377756
6908.000000;0.375541
6907.000000;0.373091
6906.000000;0.370772
6905.000000;0.369099
6904.000000;0.368064
6903.000000;0.367210
6902.000000;0.366280
6901.000000;0.365335
6900.000000;0.364277
6899.000000;0.362723
6898.000000;0.360501
6897.000000;0.358001
6896.000000;0.355847
6895.000000;0.354320
6894.000000;0.353210
6893.000000;0.352206
6892.000000;0.351311
6891.000000;0.350741
6890.000000;0.350442
6889.000000;0.349976
6888.000000;0.349080
6887.000000;0.348097
6886.000000;0.347541
6885.000000;0.347400
6884.000000;0.347253
6883.000000;0.346921
6882.000000;0.346444
6881.000000;0.345489
6880.000000;0.343476
6879.000000;0.340497
6878.000000;0.337621
6877.000000;0.335959
6876.000000;0.335732
6875.000000;0.336353
6874.000000;0.337023
6873.000000;0.337204
6872.000000;0.336922
6871.000000;0.336659
6870.000000;0.336591
6869.000000;0.335996
6868.000000;0.334065
6867.000000;0.331277
6866.000000;0.329212
6865.000000;0.328756
6864.000000;0.329235
6863.000000;0.329630
6862.000000;0.329812
6861.000000;0.330029
6860.000000;0.329944
6859.000000;0.328947
6858.000000;0.327058
6857.000000;0.324995
6856.000000;0.323583
6855.000000;0.323404
6854.000000;0.324502
6853.000000;0.325950
6852.000000;0.326242
6851.000000;0.324784
6850.000000;0.322752
6849.000000;0.321917
6848.000000;0.322856
6847.000000;0.324702
6846.000000;0.326267
6845.000000;0.326829
6844.000000;0.326184
6843.000000;0.324688
6842.000000;0.323320
6841.000000;0.323120
6840.000000;0.324274
6839.000000;0.325919
6838.000000;0.326881
6837.000000;0.326556
6836.000000;0.325303
6835.000000;0.324170
6834.000000;0.324055
6833.000000;0.324932
6832.000000;0.326044
6831.000000;0.326819
6830.000000;0.327249
6829.000000;0.327382
6828.000000;0.327074
6827.000000;0.326498
6826.000000;0.326284
6825.000000;0.326714
6824.000000;0.327257
6823.000000;0.327336
6822.000000;0.327143
6821.000000;0.327261
6820.000000;0.327902
6819.000000;0.328982
6818.000000;0.330455
6817.000000;0.332020
6816.000000;0.332920
6815.000000;0.332753
6814.000000;0.332235
6813.000000;0.332491
6812.000000;0.333701
6811.000000;0.335038
6810.000000;0.335829
6809.000000;0.336174
6808.000000;0.336436
6807.000000;0.336687
6806.000000;0.336789
6805.000000;0.336652
6804.000000;0.336298
6803.000000;0.335903
6802.000000;0.335702
6801.000000;0.335713
6800.000000;0.335756
6799.000000;0.336002
6798.000000;0.337119
6797.000000;0.339379
6796.000000;0.341873
6795.000000;0.343286
6794.000000;0.343406
6793.000000;0.343288
6792.000000;0.343925
6791.000000;0.345288
6790.000000;0.346790
6789.000000;0.348096
6788.000000;0.349172
6787.000000;0.349962
6786.000000;0.350436
6785.000000;0.350791
6784.000000;0.351272
6783.000000;0.351825
6782.000000;0.352127
6781.000000;0.351993
6780.000000;0.351656
6779.000000;0.351624
6778.000000;0.352273
6777.000000;0.353563
6776.000000;0.355153
6775.000000;0.356751
6774.000000;0.358231
6773.000000;0.359424
6772.000000;0.360057
6771.000000;0.360068
6770.000000;0.359844
6769.000000;0.359940
6768.000000;0.360592
6767.000000;0.361623
6766.000000;0.362677
6765.000000;0.363455
6764.000000;0.363899
6763.000000;0.364345
6762.000000;0.365341
6761.000000;0.367049
6760.000000;0.368937
6759.000000;0.370301
6758.000000;0.371034
6757.000000;0.371582
6756.000000;0.372217
6755.000000;0.372731
6754.000000;0.372936
6753.000000;0.373138
6752.000000;0.373839
6751.000000;0.375080
6750.000000;0.376326
6749.000000;0.377046
6748.000000;0.377296
6747.000000;0.377613
6746.000000;0.378344
6745.000000;0.379229
6744.000000;0.379800
6743.000000;0.380080
6742.000000;0.380582
6741.000000;0.381523
6740.000000;0.382387
6739.000000;0.382578
6738.000000;0.382294
6737.000000;0.382421
6736.000000;0.383540
6735.000000;0.385336
6734.000000;0.387020
6733.000000;0.388117
6732.000000;0.388741
6731.000000;0.389317
6730.000000;0.390173
6729.000000;0.391314
6728.000000;0.392434
6727.000000;0.393169
6726.000000;0.393398
6725.000000;0.393354
6724.000000;0.393447
6723.000000;0.393976
6722.000000;0.394947
6721.000000;0.396106
6720.000000;0.397146
6719.000000;0.397945
6718.000000;0.398602
6717.000000;0.399261
6716.000000;0.399950
6715.000000;0.400616
6714.000000;0.401238
6713.000000;0.401848
6712.000000;0.402495
6711.000000;0.403231
6710.000000;0.404088
6709.000000;0.405023
6708.000000;0.405918
6707.000000;0.406703
6706.000000;0.407429
6705.000000;0.408165
6704.000000;0.408880
6703.000000;0.409460
6702.000000;0.409809
6701.000000;0.409950
6700.000000;0.410058
6699.000000;0.410425
6698.000000;0.411217
6697.000000;0.412258
6696.000000;0.413258
6695.000000;0.414055
6694.000000;0.414762
6693.000000;0.415493
6692.000000;0.416200
6691.000000;0.416802
6690.000000;0.417351
6689.000000;0.417926
6688.000000;0.418490
6687.000000;0.418980
6686.000000;0.419429
6685.000000;0.419891
6684.000000;0.420335
6683.000000;0.420760
6682.000000;0.421294
6681.000000;0.422048
6680.000000;0.422957
6679.000000;0.423890
6678.000000;0.424842
6677.000000;0.425843
6676.000000;0.426789
6675.000000;0.427525
6674.000000;0.428065
6673.000000;0.428549
6672.000000;0.429025
6671.000000;0.429454
6670.000000;0.429894
6669.000000;0.430484
6668.000000;0.431211
6667.000000;0.431884
6666.000000;0.432384
6665.000000;0.432805
6664.000000;0.433291
6663.000000;0.433862
6662.000000;0.434446
6661.000000;0.434988
6660.000000;0.435479
6659.000000;0.435956
6658.000000;0.436513
6657.000000;0.437222
6656.000000;0.438019
6655.000000;0.438762
6654.000000;0.439417
6653.000000;0.440088
6652.000000;0.440832
6651.000000;0.441569
6650.000000;0.442207
6649.000000;0.442762
6648.000000;0.443293
6647.000000;0.443815
6646.000000;0.444333
6645.000000;0.444893
6644.000000;0.445509
6643.000000;0.446116
6642.000000;0.446639
6641.000000;0.447064
6640.000000;0.447403
6639.000000;0.447653
6638.000000;0.447856
6637.000000;0.448146
6636.000000;0.448632
6635.000000;0.449265
6634.000000;0.449875
6633.000000;0.450343
6632.000000;0.450706
6631.000000;0.451117
6630.000000;0.451731
6629.000000;0.452594
6628.000000;0.453559
6627.000000;0.454373
6626.000000;0.454884
6625.000000;0.455190
6624.000000;0.455527
6623.000000;0.456016
6622.000000;0.456573
6621.000000;0.457055
6620.000000;0.457459
6619.000000;0.457940
6618.000000;0.458647
6617.000000;0.459554
6616.000000;0.460464
6615.000000;0.461171
6614.000000;0.461629
6613.000000;0.461940
6612.000000;0.462214
6611.000000;0.462475
6610.000000;0.462733
6609.000000;0.463077
6608.000000;0.463626
6607.000000;0.464378
6606.000000;0.465161
6605.000000;0.465748
6604.000000;0.466042
6603.000000;0.466144
6602.000000;0.466267
6601.000000;0.466589
6600.000000;0.467140
6599.000000;0.467799
6598.000000;0.468406
6597.000000;0.468892
6596.000000;0.469314
6595.000000;0.469778
6594.000000;0.470323
6593.000000;0.470871
6592.000000;0.471287
6591.000000;0.471518
6590.000000;0.471670
6589.000000;0.471943
6588.000000;0.472455
6587.000000;0.473132
6586.000000;0.473782
6585.000000;0.474280
6584.000000;0.474676
6583.000000;0.475103
6582.000000;0.475628
6581.000000;0.476215
6580.000000;0.476814
6579.000000;0.477427
6578.000000;0.478050
6577.000000;0.478604
6576.000000;0.478982
6575.000000;0.479167
6574.000000;0.479273
6573.000000;0.479437
6572.000000;0.479701
6571.000000;0.480009
6570.000000;0.480297
6569.000000;0.480574
6568.000000;0.480923
6567.000000;0.481399
6566.000000;0.481965
6565.000000;0.482506
6564.000000;0.482940
6563.000000;0.483298
6562.000000;0.483684
6561.000000;0.484174
6560.000000;0.484775
6559.000000;0.485444
6558.000000;0.486105
6557.000000;0.486664
6556.000000;0.487060
6555.000000;0.487332
6554.000000;0.487599
6553.000000;0.487958
6552.000000;0.488408
6551.000000;0.488893
6550.000000;0.489366
6549.000000;0.489804
6548.000000;0.490198
6547.000000;0.490553
6546.000000;0.490892
6545.000000;0.491219
6544.000000;0.491515
6543.000000;0.491792
6542.000000;0.492117
6541.000000;0.492548
6540.000000;0.493058
6539.000000;0.493571
6538.000000;0.494055
6537.000000;0.494539
6536.000000;0.495015
6535.000000;0.495392
6534.000000;0.495581
6533.000000;0.495617
6532.000000;0.495645
6531.000000;0.495809
6530.000000;0.496140
6529.000000;0.496566
6528.000000;0.496993
6527.000000;0.497369
6526.000000;0.497684
6525.000000;0.497957
6524.000000;0.498220
6523.000000;0.498530
6522.000000;0.498924
6521.000000;0.499384
6520.000000;0.499841
6519.000000;0.500248
6518.000000;0.500632
6517.000000;0.501045
6516.000000;0.501500
6515.000000;0.501952
6514.000000;0.502352
6513.000000;0.502686
6512.000000;0.502967
6511.000000;0.503213
6510.000000;0.503446
6509.000000;0.503690
6508.000000;0.503964
6507.000000;0.504267
6506.000000;0.504565
6505.000000;0.504822
6504.000000;0.505043
6503.000000;0.505287
6502.000000;0.505611
6501.000000;0.506002
6500.000000;0.506386
6499.000000;0.506709
6498.000000;0.506994
6497.000000;0.507299
6496.000000;0.507652
6495.000000;0.508043
6494.000000;0.508449
6493.000000;0.508847
6492.000000;0.509201
6491.000000;0.509478
6490.000000;0.509682
6489.000000;0.509849
6488.000000;0.510034
6487.000000;0.510285
6486.000000;0.510625
6485.000000;0.511021
6484.000000;0.511402
6483.000000;0.511734
6482.000000;0.512055
6481.000000;0.512416
6480.000000;0.512806
6479.000000;0.513163
6478.000000;0.513454
6477.000000;0.513705
6476.000000;0.513952
6475.000000;0.514215
6474.000000;0.514505
6473.000000;0.514814
6472.000000;0.515089
6471.000000;0.515269
6470.000000;0.515361
6469.000000;0.515464
6468.000000;0.515677
6467.000000;0.516003
6466.000000;0.516368
6465.000000;0.516703
6464.000000;0.516994
6463.000000;0.517269
6462.000000;0.517571
6461.000000;0.517942
6460.000000;0.518389
6459.000000;0.518854
6458.000000;0.519247
6457.000000;0.519508
6456.000000;0.519647
6455.000000;0.519712
6454.000000;0.519747
6453.000000;0.519794
6452.000000;0.519915
6451.000000;0.520167
6450.000000;0.520552
6449.000000;0.520983
6448.000000;0.521341
6447.000000;0.521574
6446.000000;0.521736
6445.000000;0.521928
6444.000000;0.522190
6443.000000;0.522465
6442.000000;0.522678
6441.000000;0.522837
6440.000000;0.523033
6439.000000;0.523335
6438.000000;0.523690
6437.000000;0.523982
6436.000000;0.524169
6435.000000;0.524335
6434.000000;0.524578
6433.000000;0.524882
6432.000000;0.525147
6431.000000;0.525339
6430.000000;0.525528
6429.000000;0.525776
6428.000000;0.526032
6427.000000;0.526203
6426.000000;0.526277
6425.000000;0.526334
6424.000000;0.526435
6423.000000;0.526571
6422.000000;0.526720
6421.000000;0.526900
6420.000000;0.527136
6419.000000;0.527413
6418.000000;0.527691
6417.000000;0.527946
6416.000000;0.528178
6415.000000;0.528397
6414.000000;0.528617
6413.000000;0.528849
6412.000000;0.529076
6411.000000;0.529261
6410.000000;0.529406
6409.000000;0.529569
6408.000000;0.529789
6407.000000;0.530028
6406.000000;0.530216
6405.000000;0.530358
6404.000000;0.530530
6403.000000;0.530782
6402.000000;0.531086
6401.000000;0.531394
6400.000000;0.531688
6399.000000;0.531943
6398.000000;0.532112
6397.000000;0.532194
6396.000000;0.532278
6395.000000;0.532454
6394.000000;0.532688
6393.000000;0.532847
6392.000000;0.532870
6391.000000;0.532846
6390.000000;0.532905
6389.000000;0.533079
6388.000000;0.533302
6387.000000;0.533505
6386.000000;0.533669
6385.000000;0.533809
6384.000000;0.533947
6383.000000;0.534109
6382.000000;0.534308
6381.000000;0.534523
6380.000000;0.534720
6379.000000;0.534886
6378.000000;0.535043
6377.000000;0.535215
6376.000000;0.535400
6375.000000;0.535582
6374.000000;0.535741
6373.000000;0.535861
6372.000000;0.535951
6371.000000;0.536065
6370.000000;0.536264
6369.000000;0.536538
6368.000000;0.536801
6367.000000;0.536964
6366.000000;0.537024
6365.000000;0.537060
6364.000000;0.537143
6363.000000;0.537285
6362.000000;0.537447
6361.000000;0.537582
6360.000000;0.537664
6359.000000;0.537705
6358.000000;0.537746
6357.000000;0.537831
6356.000000;0.537975
6355.000000;0.538158
6354.000000;0.538354
6353.000000;0.538542
6352.000000;0.538704
6351.000000;0.538824
6350.000000;0.538901
6349.000000;0.538962
6348.000000;0.539043
6347.000000;0.539162
6346.000000;0.539311
6345.000000;0.539464
6344.000000;0.539599
6343.000000;0.539708
6342.000000;0.539796
6341.000000;0.539885
6340.000000;0.539994
6339.000000;0.540123
6338.000000;0.540239
6337.000000;0.540300
6336.000000;0.540301
6335.000000;0.540290
6334.000000;0.540328
6333.000000;0.540428
6332.000000;0.540547
6331.000000;0.540644
6330.000000;0.540720
6329.000000;0.540804
6328.000000;0.540907
6327.000000;0.541015
6326.000000;0.541110
6325.000000;0.541201
6324.000000;0.541307
6323.000000;0.541442
6322.000000;0.541607
6321.000000;0.541788
6320.000000;0.541961
6319.000000;0.542102
6318.000000;0.542203
6317.000000;0.542272
6316.000000;0.542315
6315.000000;0.542343
6314.000000;0.542381
6313.000000;0.542470
6312.000000;0.542624
6311.000000;0.542789
6310.000000;0.542877
6309.000000;0.542836
6308.000000;0.542714
6307.000000;0.542620
6306.000000;0.542648
6305.000000;0.542808
6304.000000;0.543035
6303.000000;0.543240
6302.000000;0.543376
6301.000000;0.543455
6300.000000;0.543532
6299.000000;0.543652
6298.000000;0.543803
6297.000000;0.543929
6296.000000;0.543979
6295.000000;0.543951
6294.000000;0.543884
6293.000000;0.543817
6292.000000;0.543772
6291.000000;0.543757
6290.000000;0.543773
6289.000000;0.543820
6288.000000;0.543898
6287.000000;0.544012
6286.000000;0.544161
6285.000000;0.544322
6284.000000;0.544450
6283.000000;0.544509
6282.000000;0.544506
6281.000000;0.544492
6280.000000;0.544513
6279.000000;0.544572
6278.000000;0.544633
6277.000000;0.544671
6276.000000;0.544707
6275.000000;0.544775
6274.000000;0.544873
6273.000000;0.544960
6272.000000;0.545019
6271.000000;0.545076
6270.000000;0.545163
6269.000000;0.545258
6268.000000;0.545312
6267.000000;0.545315
6266.000000;0.545305
6265.000000;0.545323
6264.000000;0.545376
6263.000000;0.545445
6262.000000;0.545509
6261.000000;0.545551
6260.000000;0.545566
6259.000000;0.545575
6258.000000;0.545606
6257.000000;0.545646
6256.000000;0.545651
6255.000000;0.545603
6254.000000;0.545546
6253.000000;0.545533
6252.000000;0.545577
6251.000000;0.545659
6250.000000;0.545767
6249.000000;0.545886
6248.000000;0.545975
6247.000000;0.545994
6246.000000;0.545957
6245.000000;0.545918
6244.000000;0.545905
6243.000000;0.545894
6242.000000;0.545867
6241.000000;0.545846
6240.000000;0.545867
6239.000000;0.545923
6238.000000;0.545975
6237.000000;0.546007
6236.000000;0.546038
6235.000000;0.546084
6234.000000;0.546139
6233.000000;0.546183
6232.000000;0.546203
6231.000000;0.546189
6230.000000;0.546145
6229.000000;0.546106
6228.000000;0.546124
6227.000000;0.546220
6226.000000;0.546349
6225.000000;0.546429
6224.000000;0.546425
6223.000000;0.546376
6222.000000;0.546343
6221.000000;0.546344
6220.000000;0.546354
6219.000000;0.546351
6218.000000;0.546341
6217.000000;0.546337
6216.000000;0.546337
6215.000000;0.546337
6214.000000;0.546345
6213.000000;0.546371
6212.000000;0.546410
6211.000000;0.546449
6210.000000;0.546485
6209.000000;0.546526
6208.000000;0.546567
6207.000000;0.546584
6206.000000;0.546565
6205.000000;0.546532
6204.000000;0.546522
6203.000000;0.546550
6202.000000;0.546589
6201.000000;0.546596
6200.000000;0.546559
6199.000000;0.546506
6198.000000;0.546469
6197.000000;0.546455
6196.000000;0.546455
6195.000000;0.546466
6194.000000;0.546497
6193.000000;0.546545
6192.000000;0.546590
6191.000000;0.546606
6190.000000;0.546577
6189.000000;0.546501
6188.000000;0.546384
6187.000000;0.546257
6186.000000;0.546165
6185.000000;0.546147
6184.000000;0.546204
6183.000000;0.546300
6182.000000;0.546396
6181.000000;0.546464
6180.000000;0.546493
6179.000000;0.546493
6178.000000;0.546488
6177.000000;0.546494
6176.000000;0.546499
6175.000000;0.546476
6174.000000;0.546410
6173.000000;0.546326
6172.000000;0.546264
6171.000000;0.546245
6170.000000;0.546254
6169.000000;0.546256
6168.000000;0.546228
6167.000000;0.546174
6166.000000;0.546120
6165.000000;0.546092
6164.000000;0.546103
6163.000000;0.546149
6162.000000;0.546206
6161.000000;0.546245
6160.000000;0.546253
6159.000000;0.546243
6158.000000;0.546241
6157.000000;0.546249
6156.000000;0.546236
6155.000000;0.546179
6154.000000;0.546095
6153.000000;0.546035
6152.000000;0.546032
6151.000000;0.546079
6150.000000;0.546137
6149.000000;0.546169
6148.000000;0.546163
6147.000000;0.546144
6146.000000;0.546141
6145.000000;0.546165
6144.000000;0.546194
6143.000000;0.546197
6142.000000;0.546162
6141.000000;0.546097
6140.000000;0.546021
6139.000000;0.545956
6138.000000;0.545922
6137.000000;0.545921
6136.000000;0.545932
6135.000000;0.545919
6134.000000;0.545867
6133.000000;0.545794
6132.000000;0.545740
6131.000000;0.545729
6130.000000;0.545758
6129.000000;0.545792
6128.000000;0.545801
6127.000000;0.545779
6126.000000;0.545748
6125.000000;0.545727
6124.000000;0.545710
6123.000000;0.545686
6122.000000;0.545659
6121.000000;0.545658
6120.000000;0.545704
6119.000000;0.545776
6118.000000;0.545828
6117.000000;0.545821
6116.000000;0.545754
6115.000000;0.545662
6114.000000;0.545580
6113.000000;0.545520
6112.000000;0.545484
6111.000000;0.545473
6110.000000;0.545486
6109.000000;0.545507
6108.000000;0.545515
6107.000000;0.545504
6106.000000;0.545489
6105.000000;0.545477
6104.000000;0.545447
6103.000000;0.545379
6102.000000;0.545294
6101.000000;0.545238
6100.000000;0.545235
6099.000000;0.545265
6098.000000;0.545295
6097.000000;0.545305
6096.000000;0.545291
6095.000000;0.545262
6094.000000;0.545239
6093.000000;0.545246
6092.000000;0.545285
6091.000000;0.545330
6090.000000;0.545343
6089.000000;0.545307
6088.000000;0.545240
6087.000000;0.545176
6086.000000;0.545141
6085.000000;0.545137
6084.000000;0.545139
6083.000000;0.545123
6082.000000;0.545094
6081.000000;0.545073
6080.000000;0.545064
6079.000000;0.545046
6078.000000;0.544997
6077.000000;0.544938
6076.000000;0.544909
6075.000000;0.544923
6074.000000;0.544939
6073.000000;0.544905
6072.000000;0.544816
6071.000000;0.544719
6070.000000;0.544656
6069.000000;0.544623
6068.000000;0.544592
6067.000000;0.544552
6066.000000;0.544515
6065.000000;0.544494
6064.000000;0.544478
6063.000000;0.544455
6062.000000;0.544435
6061.000000;0.544435
6060.000000;0.544458
6059.000000;0.544488
6058.000000;0.544506
6057.000000;0.544506
6056.000000;0.544489
6055.000000;0.544457
6054.000000;0.544412
6053.000000;0.544358
6052.000000;0.544290
6051.000000;0.544203
6050.000000;0.544115
6049.000000;0.544069
6048.000000;0.544098
6047.000000;0.544192
6046.000000;0.544295
6045.000000;0.544351
6044.000000;0.544346
6043.000000;0.544313
6042.000000;0.544295
6041.000000;0.544305
6040.000000;0.544326
6039.000000;0.544333
6038.000000;0.544318
6037.000000;0.544289
6036.000000;0.544251
6035.000000;0.544200
6034.000000;0.544139
6033.000000;0.544092
6032.000000;0.544093
6031.000000;0.544140
6030.000000;0.544187
6029.000000;0.544187
6028.000000;0.544139
6027.000000;0.544085
6026.000000;0.544058
6025.000000;0.544050
6024.000000;0.544033
6023.000000;0.543991
6022.000000;0.543930
6021.000000;0.543860
6020.000000;0.543795
6019.000000;0.543759
6018.000000;0.543777
6017.000000;0.543848
6016.000000;0.543938
6015.000000;0.544001
6014.000000;0.544019
6013.000000;0.544007
6012.000000;0.543992
6011.000000;0.543990
6010.000000;0.543993
6009.000000;0.543999
6008.000000;0.544025
6007.000000;0.544086
6006.000000;0.544155
6005.000000;0.544170
6004.000000;0.544094
6003.000000;0.543977
6002.000000;0.543906
6001.000000;0.543911
6000.000000;0.543941
5999.000000;0.543935
5998.000000;0.543886
5997.000000;0.543830
5996.000000;0.543786
5995.000000;0.543746
5994.000000;0.543706
5993.000000;0.543691
5992.000000;0.543726
5991.000000;0.543798
5990.000000;0.543858
5989.000000;0.543852
5988.000000;0.543772
5987.000000;0.543669
5986.000000;0.543617
5985.000000;0.543638
5984.000000;0.543690
5983.000000;0.543719
5982.000000;0.543719
5981.000000;0.543726
5980.000000;0.543758
5979.000000;0.543793
5978.000000;0.543794
5977.000000;0.543754
5976.000000;0.543705
5975.000000;0.543687
5974.000000;0.543717
5973.000000;0.543775
5972.000000;0.543823
5971.000000;0.543849
5970.000000;0.543868
5969.000000;0.543897
5968.000000;0.543930
5967.000000;0.543944
5966.000000;0.543927
5965.000000;0.543882
5964.000000;0.543816
5963.000000;0.543746
5962.000000;0.543699
5961.000000;0.543694
5960.000000;0.543718
5959.000000;0.543729
5958.000000;0.543707
5957.000000;0.543671
5956.000000;0.543650
5955.000000;0.543647
5954.000000;0.543646
5953.000000;0.543642
5952.000000;0.543647
5951.000000;0.543661
5950.000000;0.543662
5949.000000;0.543636
5948.000000;0.543603
5947.000000;0.543609
5946.000000;0.543677
5945.000000;0.543778
5944.000000;0.543861
5943.000000;0.543900
5942.000000;0.543915
5941.000000;0.543937
5940.000000;0.543971
5939.000000;0.543991
5938.000000;0.543979
5937.000000;0.543950
5936.000000;0.543941
5935.000000;0.543971
5934.000000;0.544015
5933.000000;0.544032
5932.000000;0.544010
5931.000000;0.543975
5930.000000;0.543960
5929.000000;0.543968
5928.000000;0.543978
5927.000000;0.543975
5926.000000;0.543967
5925.000000;0.543967
5924.000000;0.543983
5923.000000;0.544018
5922.000000;0.544066
5921.000000;0.544103
5920.000000;0.544098
5919.000000;0.544041
5918.000000;0.543956
5917.000000;0.543878
5916.000000;0.543818
5915.000000;0.543770
5914.000000;0.543730
5913.000000;0.543708
5912.000000;0.543709
5911.000000;0.543726
5910.000000;0.543742
5909.000000;0.543750
5908.000000;0.543754
5907.000000;0.543771
5906.000000;0.543805
5905.000000;0.543847
5904.000000;0.543879
5903.000000;0.543900
5902.000000;0.543925
5901.000000;0.543948
5900.000000;0.543936
5899.000000;0.543864
5898.000000;0.543751
5897.000000;0.543651
5896.000000;0.543602
5895.000000;0.543597
5894.000000;0.543599
5893.000000;0.543572
5892.000000;0.543510
5891.000000;0.543434
5890.000000;0.543378
5889.000000;0.543357
5888.000000;0.543365
5887.000000;0.543392
5886.000000;0.543427
5885.000000;0.543454
5884.000000;0.543450
5883.000000;0.543409
5882.000000;0.543364
5881.000000;0.543351
5880.000000;0.543373
5879.000000;0.543401
5878.000000;0.543405
5877.000000;0.543378
5876.000000;0.543338
5875.000000;0.543307
5874.000000;0.543303
5873.000000;0.543323
5872.000000;0.543341
5871.000000;0.543342
5870.000000;0.543327
5869.000000;0.543311
5868.000000;0.543293
5867.000000;0.543270
5866.000000;0.543259
5865.000000;0.543284
5864.000000;0.543344
5863.000000;0.543401
5862.000000;0.543413
5861.000000;0.543367
5860.000000;0.543282
5859.000000;0.543197
5858.000000;0.543148
5857.000000;0.543149
5856.000000;0.543175
5855.000000;0.543187
5854.000000;0.543173
5853.000000;0.543154
5852.000000;0.543157
5851.000000;0.543185
5850.000000;0.543219
5849.000000;0.543241
5848.000000;0.543256
5847.000000;0.543285
5846.000000;0.543339
5845.000000;0.543402
5844.000000;0.543438
5843.000000;0.543431
5842.000000;0.543401
5841.000000;0.543376
5840.000000;0.543354
5839.000000;0.543312
5838.000000;0.543258
5837.000000;0.543223
5836.000000;0.543216
5835.000000;0.543206
5834.000000;0.543162
5833.000000;0.543104
5832.000000;0.543076
5831.000000;0.543098
5830.000000;0.543143
5829.000000;0.543170
5828.000000;0.543167
5827.000000;0.543160
5826.000000;0.543186
5825.000000;0.543256
5824.000000;0.543330
5823.000000;0.543362
5822.000000;0.543349
5821.000000;0.543347
5820.000000;0.543396
5819.000000;0.543474
5818.000000;0.543515
5817.000000;0.543494
5816.000000;0.543450
5815.000000;0.543438
5814.000000;0.543466
5813.000000;0.543494
5812.000000;0.543487
5811.000000;0.543439
5810.000000;0.543374
5809.000000;0.543320
5808.000000;0.543300
5807.000000;0.543321
5806.000000;0.543366
5805.000000;0.543400
5804.000000;0.543397
5803.000000;0.543360
5802.000000;0.543321
5801.000000;0.543309
5800.000000;0.543327
5799.000000;0.543360
5798.000000;0.543387
5797.000000;0.543402
5796.000000;0.543413
5795.000000;0.543437
5794.000000;0.543472
5793.000000;0.543491
5792.000000;0.543463
5791.000000;0.543401
5790.000000;0.543356
5789.000000;0.543367
5788.000000;0.543424
5787.000000;0.543494
5786.000000;0.543556
5785.000000;0.543611
5784.000000;0.543652
5783.000000;0.543664
5782.000000;0.543640
5781.000000;0.543591
5780.000000;0.543529
5779.000000;0.543465
5778.000000;0.543410
5777.000000;0.543370
5776.000000;0.543332
5775.000000;0.543276
5774.000000;0.543199
5773.000000;0.543108
5772.000000;0.543010
5771.000000;0.542905
5770.000000;0.542806
5769.000000;0.542738
5768.000000;0.542708
5767.000000;0.542702
5766.000000;0.542708
5765.000000;0.542732
5764.000000;0.542776
5763.000000;0.542824
5762.000000;0.542856
5761.000000;0.542866
5760.000000;0.542864
5759.000000;0.542848
5758.000000;0.542814
5757.000000;0.542753
5756.000000;0.542666
5755.000000;0.542565
5754.000000;0.542485
5753.000000;0.542468
5752.000000;0.542522
5751.000000;0.542603
5750.000000;0.542643
5749.000000;0.542609
5748.000000;0.542521
5747.000000;0.542419
5746.000000;0.542335
5745.000000;0.542271
5744.000000;0.542213
5743.000000;0.542147
5742.000000;0.542080
5741.000000;0.542026
5740.000000;0.541987
5739.000000;0.541953
5738.000000;0.541922
5737.000000;0.541918
5736.000000;0.541946
5735.000000;0.541972
5734.000000;0.541952
5733.000000;0.541883
5732.000000;0.541812
5731.000000;0.541781
5730.000000;0.541780
5729.000000;0.541771
5728.000000;0.541732
5727.000000;0.541682
5726.000000;0.541644
5725.000000;0.541610
5724.000000;0.541550
5723.000000;0.541454
5722.000000;0.541357
5721.000000;0.541305
5720.000000;0.541298
5719.000000;0.541287
5718.000000;0.541237
5717.000000;0.541159
5716.000000;0.541094
5715.000000;0.541055
5714.000000;0.541027
5713.000000;0.540999
5712.000000;0.540977
5711.000000;0.540954
5710.000000;0.540910
5709.000000;0.540841
5708.000000;0.540770
5707.000000;0.540721
5706.000000;0.540683
5705.000000;0.540630
5704.000000;0.540568
5703.000000;0.540541
5702.000000;0.540581
5701.000000;0.540656
5700.000000;0.540700
5699.000000;0.540677
5698.000000;0.540614
5697.000000;0.540567
5696.000000;0.540553
5695.000000;0.540537
5694.000000;0.540477
5693.000000;0.540393
5692.000000;0.540313
5691.000000;0.540246
5690.000000;0.540179
5689.000000;0.540115
5688.000000;0.540082
5687.000000;0.540093
5686.000000;0.540111
5685.000000;0.540094
5684.000000;0.540042
5683.000000;0.539998
5682.000000;0.539987
5681.000000;0.539988
5680.000000;0.539968
5679.000000;0.539915
5678.000000;0.539850
5677.000000;0.539799
5676.000000;0.539785
5675.000000;0.539808
5674.000000;0.539848
5673.000000;0.539867
5672.000000;0.539855
5671.000000;0.539834
5670.000000;0.539837
5669.000000;0.539868
5668.000000;0.539913
5667.000000;0.539964
5666.000000;0.540013
5665.000000;0.540028
5664.000000;0.539965
5663.000000;0.539829
5662.000000;0.539688
5661.000000;0.539614
5660.000000;0.539625
5659.000000;0.539684
5658.000000;0.539751
5657.000000;0.539804
5656.000000;0.539836
5655.000000;0.539839
5654.000000;0.539811
5653.000000;0.539755
5652.000000;0.539675
5651.000000;0.539586
5650.000000;0.539524
5649.000000;0.539526
5648.000000;0.539599
5647.000000;0.539711
5646.000000;0.539817
5645.000000;0.539892
5644.000000;0.539923
5643.000000;0.539911
5642.000000;0.539877
5641.000000;0.539865
5640.000000;0.539905
5639.000000;0.539988
5638.000000;0.540074
5637.000000;0.540132
5636.000000;0.540157
5635.000000;0.540168
5634.000000;0.540186
5633.000000;0.540220
5632.000000;0.540267
5631.000000;0.540317
5630.000000;0.540372
5629.000000;0.540443
5628.000000;0.540531
5627.000000;0.540622
5626.000000;0.540695
5625.000000;0.540748
5624.000000;0.540800
5623.000000;0.540871
5622.000000;0.540957
5621.000000;0.541045
5620.000000;0.541129
5619.000000;0.541216
5618.000000;0.541308
5617.000000;0.541385
5616.000000;0.541421
5615.000000;0.541430
5614.000000;0.541458
5613.000000;0.541535
5612.000000;0.541641
5611.000000;0.541733
5610.000000;0.541806
5609.000000;0.541899
5608.000000;0.542042
5607.000000;0.542209
5606.000000;0.542350
5605.000000;0.542444
5604.000000;0.542506
5603.000000;0.542562
5602.000000;0.542617
5601.000000;0.542669
5600.000000;0.542722
5599.000000;0.542790
5598.000000;0.542877
5597.000000;0.542977
5596.000000;0.543094
5595.000000;0.543234
5594.000000;0.543389
5593.000000;0.543533
5592.000000;0.543645
5591.000000;0.543733
5590.000000;0.543825
5589.000000;0.543933
5588.000000;0.544032
5587.000000;0.544100
5586.000000;0.544149
5585.000000;0.544232
5584.000000;0.544381
5583.000000;0.544573
5582.000000;0.544740
5581.000000;0.544826
5580.000000;0.544830
5579.000000;0.544800
5578.000000;0.544790
5577.000000;0.544836
5576.000000;0.544938
5575.000000;0.545075
5574.000000;0.545208
5573.000000;0.545302
5572.000000;0.545346
5571.000000;0.545353
5570.000000;0.545353
5569.000000;0.545367
5568.000000;0.545415
5567.000000;0.545520
5566.000000;0.545687
5565.000000;0.545888
5564.000000;0.546066
5563.000000;0.546190
5562.000000;0.546267
5561.000000;0.546331
5560.000000;0.546404
5559.000000;0.546494
5558.000000;0.546596
5557.000000;0.546700
5556.000000;0.546788
5555.000000;0.546850
5554.000000;0.546886
5553.000000;0.546900
5552.000000;0.546892
5551.000000;0.546865
5550.000000;0.546844
5549.000000;0.546856
5548.000000;0.546903
5547.000000;0.546961
5546.000000;0.547013
5545.000000;0.547069
5544.000000;0.547160
5543.000000;0.547309
5542.000000;0.547502
5541.000000;0.547692
5540.000000;0.547827
5539.000000;0.547890
5538.000000;0.547907
5537.000000;0.547924
5536.000000;0.547950
5535.000000;0.547961
5534.000000;0.547940
5533.000000;0.547917
5532.000000;0.547955
5531.000000;0.548081
5530.000000;0.548259
5529.000000;0.548423
5528.000000;0.548543
5527.000000;0.548644
5526.000000;0.548750
5525.000000;0.548837
5524.000000;0.548862
5523.000000;0.548823
5522.000000;0.548768
5521.000000;0.548734
5520.000000;0.548716
5519.000000;0.548696
5518.000000;0.548679
5517.000000;0.548686
5516.000000;0.548722
5515.000000;0.548774
5514.000000;0.548832
5513.000000;0.548898
5512.000000;0.548977
5511.000000;0.549066
5510.000000;0.549152
5509.000000;0.549218
5508.000000;0.549251
5507.000000;0.549262
5506.000000;0.549269
5505.000000;0.549283
5504.000000;0.549306
5503.000000;0.549342
5502.000000;0.549408
5501.000000;0.549515
5500.000000;0.549653
5499.000000;0.549808
5498.000000;0.549964
5497.000000;0.550068
5496.000000;0.550048
5495.000000;0.549914
5494.000000;0.549795
5493.000000;0.549826
5492.000000;0.549981
5491.000000;0.550090
5490.000000;0.550056
5489.000000;0.549980
5488.000000;0.550017
5487.000000;0.550179
5486.000000;0.550349
5485.000000;0.550457
5484.000000;0.550554
5483.000000;0.550710
5482.000000;0.550906
5481.000000;0.551078
5480.000000;0.551179
5479.000000;0.551176
5478.000000;0.551054
5477.000000;0.550860
5476.000000;0.550729
5475.000000;0.550772
5474.000000;0.550928
5473.000000;0.551021
5472.000000;0.551003
5471.000000;0.551023
5470.000000;0.551223
5469.000000;0.551534
5468.000000;0.551755
5467.000000;0.551775
5466.000000;0.551653
5465.000000;0.551511
5464.000000;0.551424
5463.000000;0.551420
5462.000000;0.551521
5461.000000;0.551730
5460.000000;0.551989
5459.000000;0.552188
5458.000000;0.552283
5457.000000;0.552339
5456.000000;0.552455
5455.000000;0.552642
5454.000000;0.552805
5453.000000;0.552838
5452.000000;0.552761
5451.000000;0.552726
5450.000000;0.552850
5449.000000;0.553050
5448.000000;0.553110
5447.000000;0.552959
5446.000000;0.552798
5445.000000;0.552837
5444.000000;0.553015
5443.000000;0.553118
5442.000000;0.553125
5441.000000;0.553267
5440.000000;0.553673
5439.000000;0.554118
5438.000000;0.554278
5437.000000;0.554140
5436.000000;0.554004
5435.000000;0.554133
5434.000000;0.554474
5433.000000;0.554711
5432.000000;0.554614
5431.000000;0.554312
5430.000000;0.554171
5429.000000;0.554418
5428.000000;0.554918
5427.000000;0.555324
5426.000000;0.555461
5425.000000;0.555491
5424.000000;0.555671
5423.000000;0.556045
5422.000000;0.556436
5421.000000;0.556676
5420.000000;0.556768
5419.000000;0.556820
5418.000000;0.556863
5417.000000;0.556813
5416.000000;0.556610
5415.000000;0.556376
5414.000000;0.556323
5413.000000;0.556504
5412.000000;0.556752
5411.000000;0.556944
5410.000000;0.557202
5409.000000;0.557710
5408.000000;0.558397
5407.000000;0.558998
5406.000000;0.559375
5405.000000;0.559626
5404.000000;0.559886
5403.000000;0.560157
5402.000000;0.560377
5401.000000;0.560527
5400.000000;0.560643
5399.000000;0.560787
5398.000000;0.560983
5397.000000;0.561211
5396.000000;0.561424
5395.000000;0.561603
5394.000000;0.561819
5393.000000;0.562153
5392.000000;0.562569
5391.000000;0.562962
5390.000000;0.563315
5389.000000;0.563707
5388.000000;0.564158
5387.000000;0.564586
5386.000000;0.564940
5385.000000;0.565255
5384.000000;0.565568
5383.000000;0.565876
5382.000000;0.566218
5381.000000;0.566642
5380.000000;0.567086
5379.000000;0.567421
5378.000000;0.567656
5377.000000;0.567989
5376.000000;0.568569
5375.000000;0.569276
5374.000000;0.569897
5373.000000;0.570424
5372.000000;0.571010
5371.000000;0.571707
5370.000000;0.572410
5369.000000;0.573055
5368.000000;0.573679
5367.000000;0.574301
5366.000000;0.574877
5365.000000;0.575401
5364.000000;0.575927
5363.000000;0.576493
5362.000000;0.577073
5361.000000;0.577651
5360.000000;0.578281
5359.000000;0.579028
5358.000000;0.579867
5357.000000;0.580698
5356.000000;0.581422
5355.000000;0.582018
5354.000000;0.582588
5353.000000;0.583284
5352.000000;0.584133
5351.000000;0.585011
5350.000000;0.585856
5349.000000;0.586766
5348.000000;0.587778
5347.000000;0.588715
5346.000000;0.589405
5345.000000;0.590002
5344.000000;0.590892
5343.000000;0.592144
5342.000000;0.593316
5341.000000;0.594035
5340.000000;0.594509
5339.000000;0.595247
5338.000000;0.596432
5337.000000;0.597716
5336.000000;0.598639
5335.000000;0.599135
5334.000000;0.599536
5333.000000;0.600177
5332.000000;0.601134
5331.000000;0.602257
5330.000000;0.603317
5329.000000;0.604103
5328.000000;0.604496
5327.000000;0.604477
5326.000000;0.604047
5325.000000;0.603198
5324.000000;0.602031
5323.000000;0.600794
5322.000000;0.599678
5321.000000;0.598558
5320.000000;0.597061
5319.000000;0.594901
5318.000000;0.592021
5317.000000;0.588397
5316.000000;0.583895
5315.000000;0.578409
5314.000000;0.572056
5313.000000;0.565131
5312.000000;0.557868
5311.000000;0.550134
5310.000000;0.541261
5309.000000;0.530344
5308.000000;0.516986
5307.000000;0.501702
5306.000000;0.485322
5305.000000;0.468209
5304.000000;0.450429
5303.000000;0.432303
5302.000000;0.414366
5301.000000;0.397408
5300.000000;0.383022
5299.000000;0.373686
5298.000000;0.372326
5297.000000;0.381422
5296.000000;0.400863
5295.000000;0.428123
5294.000000;0.462346
5293.000000;0.503630
5292.000000;0.547436
5291.000000;0.587130
5290.000000;0.622500
5289.000000;0.657880
5288.000000;0.693124
5287.000000;0.723608
5286.000000;0.747538
5285.000000;0.766740
5284.000000;0.782303
5283.000000;0.796036
5282.000000;0.812758
5281.000000;0.834352
5280.000000;0.854794
5279.000000;0.867489
5278.000000;0.874689
5277.000000;0.882855
5276.000000;0.892877
5275.000000;0.901436
5274.000000;0.908077
5273.000000;0.914511
5272.000000;0.920262
5271.000000;0.925046
5270.000000;0.931573
5269.000000;0.940236
5268.000000;0.945505
5267.000000;0.943993
5266.000000;0.941228
5265.000000;0.943476
5264.000000;0.948241
5263.000000;0.949007
5262.000000;0.945244
5261.000000;0.941105
5260.000000;0.938457
5259.000000;0.938175
5258.000000;0.944050
5257.000000;0.957910
5256.000000;0.972967
5255.000000;0.978993
5254.000000;0.973833
5253.000000;0.963351
5252.000000;0.953219
5251.000000;0.947620
5250.000000;0.951030
5249.000000;0.963858
5248.000000;0.978342
5247.000000;0.984883
5246.000000;0.981752
5245.000000;0.973167
5244.000000;0.961877
5243.000000;0.950350
5242.000000;0.944398
5241.000000;0.948001
5240.000000;0.956643
5239.000000;0.961358
5238.000000;0.958968
5237.000000;0.953678
5236.000000;0.950013
5235.000000;0.949885
5234.000000;0.954191
5233.000000;0.961059
5232.000000;0.964557
5231.000000;0.961073
5230.000000;0.955213
5229.000000;0.954063
5228.000000;0.957953
5227.000000;0.961196
5226.000000;0.960082
5225.000000;0.955796
5224.000000;0.950563
5223.000000;0.945577
5222.000000;0.942256
5221.000000;0.941943
5220.000000;0.944689
5219.000000;0.950001
5218.000000;0.956858
5217.000000;0.961438
5216.000000;0.958711
5215.000000;0.949641
5214.000000;0.942272
5213.000000;0.942525
5212.000000;0.948067
5211.000000;0.952983
5210.000000;0.955364
5209.000000;0.957148
5208.000000;0.958983
5207.000000;0.959594
5206.000000;0.958212
5205.000000;0.954620
5204.000000;0.949351
5203.000000;0.945196
5202.000000;0.945298
5201.000000;0.948434
5200.000000;0.949621
5199.000000;0.947318
5198.000000;0.945637
5197.000000;0.947124
5196.000000;0.948805
5195.000000;0.948340
5194.000000;0.948863
5193.000000;0.953480
5192.000000;0.959744
5191.000000;0.964027
5190.000000;0.967364
5189.000000;0.971923
5188.000000;0.975447
5187.000000;0.974831
5186.000000;0.972265
5185.000000;0.971662
5184.000000;0.971817
5183.000000;0.968890
5182.000000;0.963352
5181.000000;0.959220
5180.000000;0.958071
5179.000000;0.957952
5178.000000;0.956784
5177.000000;0.953612
5176.000000;0.948457
5175.000000;0.943803
5174.000000;0.943735
5173.000000;0.948976
5172.000000;0.954761
5171.000000;0.956570
5170.000000;0.956003
5169.000000;0.957291
5168.000000;0.960562
5167.000000;0.962232
5166.000000;0.960378
5165.000000;0.956246
5164.000000;0.951715
5163.000000;0.948470
5162.000000;0.948179
5161.000000;0.950944
5160.000000;0.954793
5159.000000;0.958408
5158.000000;0.962613
5157.000000;0.967495
5156.000000;0.970723
5155.000000;0.970815
5154.000000;0.969503
5153.000000;0.968798
5152.000000;0.968548
5151.000000;0.968892
5150.000000;0.971271
5149.000000;0.974545
5148.000000;0.974163
5147.000000;0.968096
5146.000000;0.960059
5145.000000;0.954040
5144.000000;0.949647
5143.000000;0.945483
5142.000000;0.943440
5141.000000;0.946005
5140.000000;0.951702
5139.000000;0.956753
5138.000000;0.959634
5137.000000;0.960991
5136.000000;0.961320
5135.000000;0.961470
5134.000000;0.963039
5133.000000;0.965688
5132.000000;0.966391
5131.000000;0.963935
5130.000000;0.961200
5129.000000;0.960338
5128.000000;0.959746
5127.000000;0.958575
5126.000000;0.959978
5125.000000;0.966006
5124.000000;0.972628
5123.000000;0.973880
5122.000000;0.969196
5121.000000;0.963038
5120.000000;0.959214
5119.000000;0.959386
5118.000000;0.964583
5117.000000;0.973524
5116.000000;0.980651
5115.000000;0.980070
5114.000000;0.971510
5113.000000;0.959564
5112.000000;0.948932
5111.000000;0.943099
5110.000000;0.944078
5109.000000;0.949992
5108.000000;0.955281
5107.000000;0.956377
5106.000000;0.955426
5105.000000;0.956049
5104.000000;0.958144
5103.000000;0.959486
5102.000000;0.959761
5101.000000;0.959929
5100.000000;0.959878
5099.000000;0.959607
5098.000000;0.960268
5097.000000;0.961505
5096.000000;0.960391
5095.000000;0.955456
5094.000000;0.949615
5093.000000;0.946352
5092.000000;0.945252
5091.000000;0.944483
5090.000000;0.944654
5089.000000;0.946199
5088.000000;0.946448
5087.000000;0.943477
5086.000000;0.939913
5085.000000;0.939418
5084.000000;0.942227
5083.000000;0.947030
5082.000000;0.954165
5081.000000;0.962736
5080.000000;0.967319
5079.000000;0.963254
5078.000000;0.953978
5077.000000;0.947411
5076.000000;0.946803
5075.000000;0.949677
5074.000000;0.953554
5073.000000;0.958046
5072.000000;0.961867
5071.000000;0.962859
5070.000000;0.961407
5069.000000;0.959519
5068.000000;0.957059
5067.000000;0.952876
5066.000000;0.948666
5065.000000;0.947381
5064.000000;0.948104
5063.000000;0.946375
5062.000000;0.940208
5061.000000;0.932479
5060.000000;0.926490
5059.000000;0.922886
5058.000000;0.921711
5057.000000;0.923917
5056.000000;0.929448
5055.000000;0.936175
5054.000000;0.942020
5053.000000;0.946671
5052.000000;0.949934
5051.000000;0.950371
5050.000000;0.947248
5049.000000;0.942162
5048.000000;0.937602
5047.000000;0.934757
5046.000000;0.932738
5045.000000;0.929271
5044.000000;0.922727
5043.000000;0.914346
5042.000000;0.907931
5041.000000;0.906589
5040.000000;0.910139
5039.000000;0.915887
5038.000000;0.920970
5037.000000;0.923512
5036.000000;0.922825
5035.000000;0.919548
5034.000000;0.914945
5033.000000;0.909617
5032.000000;0.904072
5031.000000;0.900568
5030.000000;0.901962
5029.000000;0.907319
5028.000000;0.910653
5027.000000;0.906939
5026.000000;0.898048
5025.000000;0.889711
5024.000000;0.884851
5023.000000;0.882638
5022.000000;0.882105
5021.000000;0.883368
5020.000000;0.885453
5019.000000;0.885930
5018.000000;0.883656
5017.000000;0.880339
5016.000000;0.878552
5015.000000;0.878915
5014.000000;0.879454
5013.000000;0.877107
5012.000000;0.870098
5011.000000;0.859663
5010.000000;0.849481
5009.000000;0.843047
5008.000000;0.841438
5007.000000;0.842867
5006.000000;0.843969
5005.000000;0.842599
5004.000000;0.839758
5003.000000;0.837893
5002.000000;0.836924
5001.000000;0.833043
5000.000000;0.823313
4999.000000;0.810628
4998.000000;0.801056
4997.000000;0.796821
4996.000000;0.794656
4995.000000;0.791150
4994.000000;0.786739
4993.000000;0.783033
4992.000000;0.779387
4991.000000;0.774485
4990.000000;0.769173
4989.000000;0.765192
4988.000000;0.762490
4987.000000;0.759865
4986.000000;0.757079
4985.000000;0.754189
4984.000000;0.749726
4983.000000;0.742015
4982.000000;0.732176
4981.000000;0.723734
4980.000000;0.719017
4979.000000;0.717129
4978.000000;0.715297
4977.000000;0.711427
4976.000000;0.705439
4975.000000;0.698593
4974.000000;0.691760
4973.000000;0.684597
4972.000000;0.676676
4971.000000;0.668952
4970.000000;0.662997
4969.000000;0.658979
4968.000000;0.655587
4967.000000;0.651874
4966.000000;0.647818
4965.000000;0.642884
4964.000000;0.635714
4963.000000;0.626269
4962.000000;0.616804
4961.000000;0.609610
4960.000000;0.604807
4959.000000;0.600923
4958.000000;0.596524
4957.000000;0.590648
4956.000000;0.582960
4955.000000;0.574418
4954.000000;0.566777
4953.000000;0.560545
4952.000000;0.554315
4951.000000;0.546762
4950.000000;0.538273
4949.000000;0.530019
4948.000000;0.522554
4947.000000;0.515964
4946.000000;0.510279
4945.000000;0.504962
4944.000000;0.498932
4943.000000;0.491754
4942.000000;0.483964
4941.000000;0.475852
4940.000000;0.467141
4939.000000;0.458396
4938.000000;0.451303
4937.000000;0.446599
4936.000000;0.442787
4935.000000;0.437822
4934.000000;0.431249
4933.000000;0.423827
4932.000000;0.416068
4931.000000;0.408193
4930.000000;0.400678
4929.000000;0.393793
4928.000000;0.387164
4927.000000;0.380370
4926.000000;0.373255
4925.000000;0.365319
4924.000000;0.355998
4923.000000;0.346156
4922.000000;0.338052
4921.000000;0.332747
4920.000000;0.328539
4919.000000;0.322944
4918.000000;0.315333
4917.000000;0.306763
4916.000000;0.298165
4915.000000;0.289750
4914.000000;0.281526
4913.000000;0.273348
4912.000000;0.264857
4911.000000;0.256173
4910.000000;0.248260
4909.000000;0.241841
4908.000000;0.236329
4907.000000;0.230530
4906.000000;0.223975
4905.000000;0.216902
4904.000000;0.209518
4903.000000;0.201960
4902.000000;0.194324
4901.000000;0.186105
4900.000000;0.176287
4899.000000;0.164885
4898.000000;0.153909
4897.000000;0.145830
4896.000000;0.141155
4895.000000;0.138077
4894.000000;0.134311
4893.000000;0.128699
4892.000000;0.121398
4891.000000;0.113476
4890.000000;0.106441
4889.000000;0.101405
4888.000000;0.098232
4887.000000;0.095677
4886.000000;0.092508
4885.000000;0.088399
4884.000000;0.083795
4883.000000;0.079259
4882.000000;0.075086
4881.000000;0.071328
4880.000000;0.067897
4879.000000;0.064562
4878.000000;0.061014
4877.000000;0.057092
4876.000000;0.052945
4875.000000;0.048911
4874.000000;0.045379
4873.000000;0.042713
4872.000000;0.041056
4871.000000;0.040123
4870.000000;0.039511
4869.000000;0.039314
4868.000000;0.040013
4867.000000;0.041465
4866.000000;0.042510
4865.000000;0.042086
4864.000000;0.040386
4863.000000;0.038527
4862.000000;0.037342
4861.000000;0.036940
4860.000000;0.037200
4859.000000;0.037961
4858.000000;0.038832
4857.000000;0.039513
4856.000000;0.040431
4855.000000;0.042527
4854.000000;0.046118
4853.000000;0.050279
4852.000000;0.053634
4851.000000;0.055593
4850.000000;0.056720
4849.000000;0.058028
4848.000000;0.060094
4847.000000;0.062832
4846.000000;0.065905
4845.000000;0.069071
4844.000000;0.072105
4843.000000;0.074731
4842.000000;0.076963
4841.000000;0.079346
4840.000000;0.082499
4839.000000;0.086396
4838.000000;0.090388
4837.000000;0.093881
4836.000000;0.096719
4835.000000;0.099043
4834.000000;0.101200
4833.000000;0.103733
4832.000000;0.106990
4831.000000;0.110629
4830.000000;0.113912
4829.000000;0.116582
4828.000000;0.119063
4827.000000;0.121748
4826.000000;0.124552
4825.000000;0.127314
4824.000000;0.130140
4823.000000;0.133096
4822.000000;0.136051
4821.000000;0.139100
4820.000000;0.142728
4819.000000;0.147114
4818.000000;0.151607
4817.000000;0.155316
4816.000000;0.158061
4815.000000;0.160414
4814.000000;0.162982
4813.000000;0.165965
4812.000000;0.169261
4811.000000;0.172645
4810.000000;0.175842
4809.000000;0.178742
4808.000000;0.181561
4807.000000;0.184600
4806.000000;0.187825
4805.000000;0.190873
4804.000000;0.193504
4803.000000;0.195890
4802.000000;0.198403
4801.000000;0.201222
4800.000000;0.204226
4799.000000;0.207200
4798.000000;0.210051
4797.000000;0.212787
4796.000000;0.215351
4795.000000;0.217622
4794.000000;0.219654
4793.000000;0.221784
4792.000000;0.224312
4791.000000;0.227148
4790.000000;0.229921
4789.000000;0.232409
4788.000000;0.234682
4787.000000;0.236876
4786.000000;0.239033
4785.000000;0.241217
4784.000000;0.243565
4783.000000;0.246121
4782.000000;0.248769
4781.000000;0.251410
4780.000000;0.254066
4779.000000;0.256745
4778.000000;0.259321
4777.000000;0.261657
4776.000000;0.263723
4775.000000;0.265524
4774.000000;0.267064
4773.000000;0.268484
4772.000000;0.270127
4771.000000;0.272268
4770.000000;0.274813
4769.000000;0.277368
4768.000000;0.279601
4767.000000;0.281439
4766.000000;0.282947
4765.000000;0.284188
4764.000000;0.285279
4763.000000;0.286499
4762.000000;0.288161
4761.000000;0.290324
4760.000000;0.292714
4759.000000;0.295007
4758.000000;0.297122
4757.000000;0.299124
4756.000000;0.300927
4755.000000;0.302354
4754.000000;0.303534
4753.000000;0.304965
4752.000000;0.306975
4751.000000;0.309272
4750.000000;0.311277
4749.000000;0.312791
4748.000000;0.314124
4747.000000;0.315613
4746.000000;0.317276
4745.000000;0.318924
4744.000000;0.320400
4743.000000;0.321663
4742.000000;0.322824
4741.000000;0.324156
4740.000000;0.325858
4739.000000;0.327806
4738.000000;0.329690
4737.000000;0.331426
4736.000000;0.333207
4735.000000;0.335109
4734.000000;0.336890
4733.000000;0.338316
4732.000000;0.339472
4731.000000;0.340596
4730.000000;0.341771
4729.000000;0.342946
4728.000000;0.344121
4727.000000;0.345318
4726.000000;0.346465
4725.000000;0.347497
4724.000000;0.348502
4723.000000;0.349603
4722.000000;0.350751
4721.000000;0.351787
4720.000000;0.352668
4719.000000;0.353495
4718.000000;0.354366
4717.000000;0.355345
4716.000000;0.356536
4715.000000;0.358001
4714.000000;0.359615
4713.000000;0.361144
4712.000000;0.362493
4711.000000;0.363743
4710.000000;0.364942
4709.000000;0.366020
4708.000000;0.366946
4707.000000;0.367835
4706.000000;0.368780
4705.000000;0.369715
4704.000000;0.370512
4703.000000;0.371173
4702.000000;0.371840
4701.000000;0.372662
4700.000000;0.373713
4699.000000;0.374978
4698.000000;0.376339
4697.000000;0.377589
4696.000000;0.378548
4695.000000;0.379203
4694.000000;0.379723
4693.000000;0.380353
4692.000000;0.381280
4691.000000;0.382528
4690.000000;0.383924
4689.000000;0.385185
4688.000000;0.386135
4687.000000;0.386853
4686.000000;0.387581
4685.000000;0.388478
4684.000000;0.389488
4683.000000;0.390446
4682.000000;0.391251
4681.000000;0.391915
4680.000000;0.392498
4679.000000;0.393068
4678.000000;0.393708
4677.000000;0.394473
4676.000000;0.395320
4675.000000;0.396126
4674.000000;0.396816
4673.000000;0.397454
4672.000000;0.398171
4671.000000;0.399011
4670.000000;0.399908
4669.000000;0.400794
4668.000000;0.401685
4667.000000;0.402614
4666.000000;0.403532
4665.000000;0.404338
4664.000000;0.405009
4663.000000;0.405652
4662.000000;0.406377
4661.000000;0.407152
4660.000000;0.407833
4659.000000;0.408351
4658.000000;0.408809
4657.000000;0.409360
4656.000000;0.410008
4655.000000;0.410602
4654.000000;0.411031
4653.000000;0.411361
4652.000000;0.411758
4651.000000;0.412318
4650.000000;0.413034
4649.000000;0.413863
4648.000000;0.414734
4647.000000;0.415526
4646.000000;0.416118
4645.000000;0.416514
4644.000000;0.416859
4643.000000;0.417284
4642.000000;0.417773
4641.000000;0.418228
4640.000000;0.418630
4639.000000;0.419075
4638.000000;0.419649
4637.000000;0.420305
4636.000000;0.420904
4635.000000;0.421369
4634.000000;0.421776
4633.000000;0.422276
4632.000000;0.422927
4631.000000;0.423617
4630.000000;0.424170
4629.000000;0.424525
4628.000000;0.424806
4627.000000;0.425198
4626.000000;0.425758
4625.000000;0.426356
4624.000000;0.426823
4623.000000;0.427144
4622.000000;0.427485
4621.000000;0.427998
4620.000000;0.428625
4619.000000;0.429159
4618.000000;0.429477
4617.000000;0.429663
4616.000000;0.429886
4615.000000;0.430239
4614.000000;0.430710
4613.000000;0.431256
4612.000000;0.431796
4611.000000;0.432206
4610.000000;0.432393
4609.000000;0.432402
4608.000000;0.432373
4607.000000;0.432430
4606.000000;0.432643
4605.000000;0.433079
4604.000000;0.433773
4603.000000;0.434625
4602.000000;0.435424
4601.000000;0.436006
4600.000000;0.436371
4599.000000;0.436623
4598.000000;0.436844
4597.000000;0.437047
4596.000000;0.437194
4595.000000;0.437252
4594.000000;0.437274
4593.000000;0.437418
4592.000000;0.437820
4591.000000;0.438420
4590.000000;0.438977
4589.000000;0.439321
4588.000000;0.439505
4587.000000;0.439682
4586.000000;0.439903
4585.000000;0.440117
4584.000000;0.440306
4583.000000;0.440515
4582.000000;0.440765
4581.000000;0.441027
4580.000000;0.441292
4579.000000;0.441582
4578.000000;0.441873
4577.000000;0.442062
4576.000000;0.442088
4575.000000;0.442042
4574.000000;0.442122
4573.000000;0.442454
4572.000000;0.442970
4571.000000;0.443471
4570.000000;0.443796
4569.000000;0.443950
4568.000000;0.444042
4567.000000;0.444133
4566.000000;0.444154
4565.000000;0.444019
4564.000000;0.443777
4563.000000;0.443622
4562.000000;0.443745
4561.000000;0.444175
4560.000000;0.444775
4559.000000;0.445344
4558.000000;0.445734
4557.000000;0.445906
4556.000000;0.445915
4555.000000;0.445854
4554.000000;0.445809
4553.000000;0.445830
4552.000000;0.445927
4551.000000;0.446073
4550.000000;0.446211
4549.000000;0.446276
4548.000000;0.446218
4547.000000;0.446060
4546.000000;0.445920
4545.000000;0.445945
4544.000000;0.446185
4543.000000;0.446539
4542.000000;0.446867
4541.000000;0.447117
4540.000000;0.447303
4539.000000;0.447403
4538.000000;0.447372
4537.000000;0.447261
4536.000000;0.447198
4535.000000;0.447233
4534.000000;0.447289
4533.000000;0.447321
4532.000000;0.447444
4531.000000;0.447777
4530.000000;0.448232
4529.000000;0.448554
4528.000000;0.448589
4527.000000;0.448410
4526.000000;0.448190
4525.000000;0.448029
4524.000000;0.447930
4523.000000;0.447860
4522.000000;0.447787
4521.000000;0.447712
4520.000000;0.447685
4519.000000;0.447768
4518.000000;0.447947
4517.000000;0.448120
4516.000000;0.448210
4515.000000;0.448241
4514.000000;0.448286
4513.000000;0.448371
4512.000000;0.448485
4511.000000;0.448647
4510.000000;0.448885
4509.000000;0.449138
4508.000000;0.449265
4507.000000;0.449201
4506.000000;0.449068
4505.000000;0.449080
4504.000000;0.449311
4503.000000;0.449610
4502.000000;0.449724
4501.000000;0.449508
4500.000000;0.449028
4499.000000;0.448532
4498.000000;0.448323
4497.000000;0.448572
4496.000000;0.449139
4495.000000;0.449618
4494.000000;0.449660
4493.000000;0.449267
4492.000000;0.448749
4491.000000;0.448391
4490.000000;0.448244
4489.000000;0.448221
4488.000000;0.448273
4487.000000;0.448398
4486.000000;0.448558
4485.000000;0.448696
4484.000000;0.448799
4483.000000;0.448878
4482.000000;0.448898
4481.000000;0.448818
4480.000000;0.448673
4479.000000;0.448547
4478.000000;0.448449
4477.000000;0.448304
4476.000000;0.448073
4475.000000;0.447839
4474.000000;0.447748
4473.000000;0.447890
4472.000000;0.448240
4471.000000;0.448648
4470.000000;0.448900
4469.000000;0.448874
4468.000000;0.448683
4467.000000;0.448582
4466.000000;0.448681
4465.000000;0.448793
4464.000000;0.448657
4463.000000;0.448270
4462.000000;0.447923
4461.000000;0.447888
4460.000000;0.448135
4459.000000;0.448390
4458.000000;0.448414
4457.000000;0.448178
4456.000000;0.447810
4455.000000;0.447474
4454.000000;0.447293
4453.000000;0.447319
4452.000000;0.447496
4451.000000;0.447671
4450.000000;0.447720
4449.000000;0.447647
4448.000000;0.447559
4447.000000;0.447533
4446.000000;0.447559
4445.000000;0.447605
4444.000000;0.447700
4443.000000;0.447881
4442.000000;0.448089
4441.000000;0.448151
4440.000000;0.447938
4439.000000;0.447526
4438.000000;0.447179
4437.000000;0.447118
4436.000000;0.447320
4435.000000;0.447577
4434.000000;0.447734
4433.000000;0.447810
4432.000000;0.447869
4431.000000;0.447899
4430.000000;0.447885
4429.000000;0.447898
4428.000000;0.447985
4427.000000;0.448020
4426.000000;0.447832
4425.000000;0.447454
4424.000000;0.447085
4423.000000;0.446790
4422.000000;0.446432
4421.000000;0.445963
4420.000000;0.445567
4419.000000;0.445392
4418.000000;0.445328
4417.000000;0.445227
4416.000000;0.445232
4415.000000;0.445601
4414.000000;0.446262
4413.000000;0.446760
4412.000000;0.446706
4411.000000;0.446107
4410.000000;0.445207
4409.000000;0.444187
4408.000000;0.443148
4407.000000;0.442253
4406.000000;0.441719
4405.000000;0.441688
4404.000000;0.442107
4403.000000;0.442668
4402.000000;0.442882
4401.000000;0.442376
4400.000000;0.441232
4399.000000;0.439954
4398.000000;0.439010
4397.000000;0.438457
4396.000000;0.438028
4395.000000;0.437459
4394.000000;0.436662
4393.000000;0.435729
4392.000000;0.434931
4391.000000;0.434603
4390.000000;0.434792
4389.000000;0.435010
4388.000000;0.434598
4387.000000;0.433416
4386.000000;0.432028
4385.000000;0.431114
4384.000000;0.430816
4383.000000;0.430732
4382.000000;0.430419
4381.000000;0.429733
4380.000000;0.428769
4379.000000;0.427684
4378.000000;0.426653
4377.000000;0.425830
4376.000000;0.425264
4375.000000;0.424850
4374.000000;0.424422
4373.000000;0.423836
4372.000000;0.422984
4371.000000;0.421810
4370.000000;0.420364
4369.000000;0.418782
4368.000000;0.417186
4367.000000;0.415663
4366.000000;0.414373
4365.000000;0.413510
4364.000000;0.413034
4363.000000;0.412550
4362.000000;0.411629
4361.000000;0.410251
4360.000000;0.408785
4359.000000;0.407545
4358.000000;0.406533
4357.000000;0.405633
4356.000000;0.404865
4355.000000;0.404308
4354.000000;0.403886
4353.000000;0.403336
4352.000000;0.402317
4351.000000;0.400584
4350.000000;0.398227
4349.000000;0.395830
4348.000000;0.394158
4347.000000;0.393460
4346.000000;0.393142
4345.000000;0.392342
4344.000000;0.390790
4343.000000;0.388954
4342.000000;0.387393
4341.000000;0.386207
4340.000000;0.385152
4339.000000;0.384071
4338.000000;0.383095
4337.000000;0.382445
4336.000000;0.382075
4335.000000;0.381489
4334.000000;0.380051
4333.000000;0.377585
4332.000000;0.374570
4331.000000;0.371622
4330.000000;0.368942
4329.000000;0.366544
4328.000000;0.364815
4327.000000;0.364336
4326.000000;0.364989
4325.000000;0.365670
4324.000000;0.365244
4323.000000;0.363583
4322.000000;0.361419
4321.000000;0.359360
4320.000000;0.357424
4319.000000;0.355454
4318.000000;0.353539
4317.000000;0.351855
4316.000000;0.350362
4315.000000;0.348876
4314.000000;0.347387
4313.000000;0.346104
4312.000000;0.345179
4311.000000;0.344515
4310.000000;0.343866
4309.000000;0.343079
4308.000000;0.342149
4307.000000;0.341160
4306.000000;0.340267
4305.000000;0.339706
4304.000000;0.339598
4303.000000;0.339643
4302.000000;0.339105
4301.000000;0.337361
4300.000000;0.334570
4299.000000;0.331655
4298.000000;0.329544
4297.000000;0.328414
4296.000000;0.327667
4295.000000;0.326692
4294.000000;0.325635
4293.000000;0.325381
4292.000000;0.326674
4291.000000;0.329208
4290.000000;0.331680
4289.000000;0.332847
4288.000000;0.332483
4287.000000;0.331393
4286.000000;0.330654
4285.000000;0.330883
4284.000000;0.332068
4283.000000;0.333875
4282.000000;0.336138
4281.000000;0.339173
4280.000000;0.343385
4279.000000;0.348291
4278.000000;0.352260
4277.000000;0.353928
4276.000000;0.353864
4275.000000;0.354269
4274.000000;0.356819
4273.000000;0.361339
4272.000000;0.366790
4271.000000;0.372684
4270.000000;0.378828
4269.000000;0.384386
4268.000000;0.388364
4267.000000;0.391014
4266.000000;0.393839
4265.000000;0.398074
4264.000000;0.403983
4263.000000;0.411614
4262.000000;0.421007
4261.000000;0.431167
4260.000000;0.440152
4259.000000;0.447085
4258.000000;0.453157
4257.000000;0.459786
4256.000000;0.466544
4255.000000;0.472006
4254.000000;0.476289
4253.000000;0.481553
4252.000000;0.489829
4251.000000;0.501014
4250.000000;0.513007
4249.000000;0.523283
4248.000000;0.530703
4247.000000;0.536532
4246.000000;0.543582
4245.000000;0.553728
4244.000000;0.565892
4243.000000;0.577063
4242.000000;0.585141
4241.000000;0.590716
4240.000000;0.596020
4239.000000;0.602951
4238.000000;0.612319
4237.000000;0.624084
4236.000000;0.637356
4235.000000;0.650161
4234.000000;0.660151
4233.000000;0.666598
4232.000000;0.671652
4231.000000;0.679167
4230.000000;0.691907
4229.000000;0.709160
4228.000000;0.726946
4227.000000;0.741161
4226.000000;0.750709
4225.000000;0.757806
4224.000000;0.765802
4223.000000;0.776597
4222.000000;0.789209
4221.000000;0.800589
4220.000000;0.808678
4219.000000;0.814845
4218.000000;0.822558
4217.000000;0.833598
4216.000000;0.846191
4215.000000;0.856897
4214.000000;0.863909
4213.000000;0.868529
4212.000000;0.874251
4211.000000;0.884535
4210.000000;0.899997
4209.000000;0.916819
4208.000000;0.929350
4207.000000;0.935965
4206.000000;0.941011
4205.000000;0.949622
4204.000000;0.961965
4203.000000;0.973156
4202.000000;0.978771
4201.000000;0.980029
4200.000000;0.982599
4199.000000;0.991286
4198.000000;1.006574
4197.000000;1.024942
4196.000000;1.042047
4195.000000;1.055872
4194.000000;1.066900
4193.000000;1.076405
4192.000000;1.085812
4191.000000;1.097198
4190.000000;1.112226
4189.000000;1.130310
4188.000000;1.148979
4187.000000;1.165763
4186.000000;1.179117
4185.000000;1.188094
4184.000000;1.192529
4183.000000;1.193893
4182.000000;1.194489
4181.000000;1.195243
4180.000000;1.196418
4179.000000;1.200933
4178.000000;1.214111
4177.000000;1.238441
4176.000000;1.269289
4175.000000;1.296781
4174.000000;1.312833
4173.000000;1.316780
4172.000000;1.314591
4171.000000;1.313169
4170.000000;1.314940
4169.000000;1.317354
4168.000000;1.317503
4167.000000;1.317001
4166.000000;1.321133
4165.000000;1.333485
4164.000000;1.353363
4163.000000;1.378460
4162.000000;1.406913
4161.000000;1.434809
4160.000000;1.454610
4159.000000;1.459017
4158.000000;1.448021
4157.000000;1.430332
4156.000000;1.416498
4155.000000;1.414689
4154.000000;1.428995
4153.000000;1.456231
4152.000000;1.485507
4151.000000;1.505293
4150.000000;1.513945
4149.000000;1.520389
4148.000000;1.534716
4147.000000;1.557161
4146.000000;1.574941
4145.000000;1.576869
4144.000000;1.567119
4143.000000;1.561281
4142.000000;1.567752
4141.000000;1.577528
4140.000000;1.580000
4139.000000;1.577785
4138.000000;1.581951
4137.000000;1.594676
4136.000000;1.604309
4135.000000;1.606960
4134.000000;1.617247
4133.000000;1.647292
4132.000000;1.687366
4131.000000;1.709389
4130.000000;1.703835
4129.000000;1.696888
4128.000000;1.710622
4127.000000;1.744782
4126.000000;1.784031
4125.000000;1.803051
4124.000000;1.783405
4123.000000;1.736978
4122.000000;1.696218
4121.000000;1.684976
4120.000000;1.704816
4119.000000;1.735397
4118.000000;1.748624
4117.000000;1.739637
4116.000000;1.731749
4115.000000;1.747162
4114.000000;1.789551
4113.000000;1.841577
4112.000000;1.875793
4111.000000;1.879349
4110.000000;1.865313
4109.000000;1.849788
4108.000000;1.839007
4107.000000;1.841807
4106.000000;1.867902
4105.000000;1.913016
4104.000000;1.950225
4103.000000;1.953062
4102.000000;1.931715
4101.000000;1.919453
4100.000000;1.936575
4099.000000;1.977817
4098.000000;2.020019
4097.000000;2.034517
4096.000000;2.004905
4095.000000;1.943874
4094.000000;1.884919
4093.000000;1.858763
4092.000000;1.879707
4091.000000;1.943378
4090.000000;2.029083
4089.000000;2.107907
4088.000000;2.150730
4087.000000;2.132962
4086.000000;2.081818
4085.000000;2.046201
4084.000000;2.032915
4083.000000;2.030028
4082.000000;2.034910
4081.000000;2.040801
4080.000000;2.038985
4079.000000;2.038652
4078.000000;2.039983
4077.000000;2.022770
4076.000000;1.981538
4075.000000;1.934919
4074.000000;1.903908
4073.000000;1.896093
4072.000000;1.907276
4071.000000;1.925407
4070.000000;1.931800
4069.000000;1.929495
4068.000000;1.946369
4067.000000;1.987737
4066.000000;2.012178
4065.000000;1.983263
4064.000000;1.937988
4063.000000;1.928642
4062.000000;1.966524
4061.000000;2.016224
4060.000000;2.030155
4059.000000;2.010343
4058.000000;1.989662
4057.000000;1.994628
4056.000000;2.039577
4055.000000;2.114248
4054.000000;2.176210
4053.000000;2.198900
4052.000000;2.211272
4051.000000;2.236192
4050.000000;2.229391
4049.000000;2.181548
4048.000000;2.137131
4047.000000;2.110278
4046.000000;2.119913
4045.000000;2.165196
4044.000000;2.208853
4043.000000;2.243858
4042.000000;2.308862
4041.000000;2.400355
4040.000000;2.390087
4039.000000;2.267239
4038.000000;2.156714
4037.000000;2.089600
4036.000000;2.055351
4035.000000;2.052830
4034.000000;2.095890
4033.000000;2.182750
4032.000000;2.253035
4031.000000;2.237085
4030.000000;2.189963
4029.000000;2.186185
4028.000000;2.235426
4027.000000;2.326316
4026.000000;2.436090
4025.000000;2.478690
4024.000000;2.407939
4023.000000;2.322107
4022.000000;2.294728
4021.000000;2.328573
4020.000000;2.389826
4019.000000;2.430096
4018.000000;2.416674
4017.000000;2.371343
4016.000000;2.336232
4015.000000;2.321500
4014.000000;2.322839
4013.000000;2.341028
4012.000000;2.325057
4011.000000;2.209669
4010.000000;2.076380
4009.000000;1.997048
4008.000000;1.975424
4007.000000;1.990829
4006.000000;2.014157
4005.000000;2.030083
4004.000000;2.051708
4003.000000;2.105364
4002.000000;2.216612
4001.000000;2.379220
4000.000000;2.517168
3999.000000;2.519479
3998.000000;2.458660
3997.000000;2.477088
3996.000000;2.489240
3995.000000;2.371376
3994.000000;2.201043
3993.000000;2.069642
3992.000000;2.019476
3991.000000;2.050237
3990.000000;2.142186
3989.000000;2.281286
3988.000000;2.392914
3987.000000;2.361653
3986.000000;2.317698
3985.000000;2.312637
3984.000000;2.261431
3983.000000;2.191414
3982.000000;2.180789
3981.000000;2.245190
3980.000000;2.333774
3979.000000;2.355179
3978.000000;2.337677
3977.000000;2.366898
3976.000000;2.449003
3975.000000;2.462854
3974.000000;2.394842
3973.000000;2.411489
3972.000000;2.596320
3971.000000;3.000963
3970.000000;2.848671
3969.000000;2.527293
3968.000000;2.436470
3967.000000;2.447609
3966.000000;2.471315
3965.000000;2.390078
3964.000000;2.292175
3963.000000;2.248340
3962.000000;2.248473
3961.000000;2.257810
3960.000000;2.231428
3959.000000;2.180009
3958.000000;2.162022
3957.000000;2.208476
3956.000000;2.290132
3955.000000;2.358602
3954.000000;2.421396
3953.000000;2.484396
3952.000000;2.525921
3951.000000;2.534064
3950.000000;2.476536
3949.000000;2.385126
3948.000000;2.322581
3947.000000;2.294635
3946.000000;2.314165
3945.000000;2.438186
3944.000000;2.717958
3943.000000;2.969211
3942.000000;2.830619
3941.000000;2.682161
3940.000000;2.687543
3939.000000;2.743566
3938.000000;2.648425
3937.000000;2.553436
3936.000000;2.568212
3935.000000;2.680361
3934.000000;2.722000
3933.000000;2.746161
3932.000000;3.145146
3931.000000;2.981886
3930.000000;2.675342
3929.000000;2.558565
3928.000000;2.435824
3927.000000;2.404061
3926.000000;2.453350
3925.000000;2.501618
3924.000000;2.511848
3923.000000;2.467293
3922.000000;2.396294
3921.000000;2.371566
3920.000000;2.427381
3919.000000;2.550792
3918.000000;2.709464
3917.000000;2.825179
3916.000000;2.707320
3915.000000;2.488801
3914.000000;2.363756
3913.000000;2.316965
3912.000000;2.283350
3911.000000;2.234606
3910.000000;2.177549
3909.000000;2.156340
3908.000000;2.221555
3907.000000;2.474470
3906.000000;2.792591
3905.000000;2.497562
3904.000000;2.405683
3903.000000;2.500492
3902.000000;2.842730
3901.000000;3.266321
3900.000000;2.811370
3899.000000;2.772188
3898.000000;3.063286
3897.000000;3.344007
3896.000000;2.713039
3895.000000;2.615488
3894.000000;2.813613
3893.000000;3.117821
3892.000000;3.204423
3891.000000;3.179504
3890.000000;3.059878
3889.000000;2.868661
3888.000000;2.831203
3887.000000;2.936528
3886.000000;3.030384
3885.000000;3.047057
3884.000000;3.136473
3883.000000;3.489221
3882.000000;3.362899
3881.000000;3.226960
3880.000000;3.366206
3879.000000;3.369772
3878.000000;3.058234
3877.000000;2.810575
3876.000000;2.819753
3875.000000;3.004396
3874.000000;3.101323
3873.000000;3.060940
3872.000000;2.977370
3871.000000;3.012862
3870.000000;3.398134
3869.000000;3.741328
3868.000000;3.088229
3867.000000;2.897006
3866.000000;2.980835
3865.000000;3.191634
3864.000000;3.207388
3863.000000;3.060077
3862.000000;2.913945
3861.000000;2.795906
3860.000000;2.722299
3859.000000;2.733664
3858.000000;3.032051
3857.000000;3.158230
3856.000000;2.910945
3855.000000;3.046247
3854.000000;3.444132
3853.000000;3.874973
3852.000000;3.687769
3851.000000;3.500146
3850.000000;3.505549
3849.000000;3.710294
3848.000000;3.700759
3847.000000;3.249899
3846.000000;2.886153
3845.000000;2.729464
3844.000000;2.797732
3843.000000;3.048223
3842.000000;3.260323
3841.000000;3.310717
3840.000000;3.419238
3839.000000;3.848048
3838.000000;3.935596
3837.000000;3.581145
3836.000000;3.506445
3835.000000;3.518476
3834.000000;3.518456
3833.000000;3.402979
3832.000000;3.334768
3831.000000;3.232361
3830.000000;2.995074
3829.000000;2.840297
3828.000000;2.857676
3827.000000;2.949627
3826.000000;2.907631
3825.000000;2.798546
3824.000000;2.800136
3823.000000;2.933018
3822.000000;3.106816
3821.000000;3.268084
3820.000000;3.553833
3819.000000;4.051990
3818.000000;3.343054
3817.000000;3.242086
3816.000000;3.382706
3815.000000;3.615211
3814.000000;3.760154
3813.000000;3.818016
3812.000000;4.019621
3811.000000;3.417660
3810.000000;3.424432
3809.000000;3.155716
3808.000000;2.875884
3807.000000;2.938103
3806.000000;3.041169
3805.000000;2.966560
3804.000000;2.889136
3803.000000;2.985995
3802.000000;3.199621
3801.000000;3.362630
3800.000000;3.389431
3799.000000;3.303057
3798.000000;3.213170
3797.000000;3.168937
3796.000000;3.115358
3795.000000;2.959655
3794.000000;2.739707
3793.000000;2.580020
3792.000000;2.576683
3791.000000;2.727101
3790.000000;3.056929
3789.000000;3.334167
3788.000000;2.791806
3787.000000;2.534339
3786.000000;2.520346
3785.000000;2.645324
3784.000000;2.783090
3783.000000;2.802895
3782.000000;3.021891
3781.000000;3.408370
3780.000000;3.034896
3779.000000;2.959461
3778.000000;3.081419
3777.000000;2.937655
3776.000000;2.783769
3775.000000;2.762557
3774.000000;2.645346
3773.000000;2.521344
3772.000000;2.531218
3771.000000;2.767120
3770.000000;3.480210
3769.000000;3.355296
3768.000000;3.237429
3767.000000;3.326326
3766.000000;3.115951
3765.000000;2.959011
3764.000000;2.816706
3763.000000;2.660909
3762.000000;2.678889
3761.000000;3.008426
3760.000000;3.149507
3759.000000;2.938241
3758.000000;2.981521
3757.000000;3.064903
3756.000000;3.100316
3755.000000;3.582299
3754.000000;3.672211
3753.000000;3.160649
3752.000000;3.185281
3751.000000;3.320940
3750.000000;3.554427
3749.000000;3.926693
3748.000000;4.094551
3747.000000;3.993706
3746.000000;4.004622
3745.000000;3.968918
3744.000000;3.851665
3743.000000;3.706470
3742.000000;3.430360
3741.000000;3.181661
3740.000000;3.126471
3739.000000;3.169160
3738.000000;3.119934
3737.000000;3.014484
3736.000000;2.997380
3735.000000;3.063841
3734.000000;3.312098
3733.000000;3.805891
3732.000000;3.370878
3731.000000;3.129161
3730.000000;3.007424
3729.000000;3.009860
3728.000000;3.240133
3727.000000;3.130567
3726.000000;2.860645
3725.000000;2.799924
3724.000000;2.824420
3723.000000;2.840111
3722.000000;2.876953
3721.000000;2.817442
3720.000000;2.651642
3719.000000;2.557649
3718.000000;2.609381
3717.000000;2.807100
3716.000000;2.749279
3715.000000;2.584277
3714.000000;2.665877
3713.000000;3.061481
3712.000000;3.437012
3711.000000;3.144252
3710.000000;3.118954
3709.000000;3.221075
3708.000000;3.387690
3707.000000;3.446135
3706.000000;3.280802
3705.000000;3.166625
3704.000000;3.159990
3703.000000;3.149166
3702.000000;3.038010
3701.000000;2.976683
3700.000000;2.976209
3699.000000;2.878497
3698.000000;2.818696
3697.000000;2.911088
3696.000000;2.961323
3695.000000;2.844344
3694.000000;2.974840
3693.000000;3.344887
3692.000000;3.120437
3691.000000;3.153021
3690.000000;3.364828
3689.000000;3.385264
3688.000000;3.454706
3687.000000;3.488326
3686.000000;3.438270
3685.000000;3.278319
3684.000000;3.010898
3683.000000;2.833969
3682.000000;2.789847
3681.000000;3.046967
3680.000000;3.581640
3679.000000;3.270861
3678.000000;3.195712
3677.000000;3.220596
3676.000000;3.388650
3675.000000;3.704845
3674.000000;3.781220
3673.000000;3.666617
3672.000000;3.677607
3671.000000;3.827661
3670.000000;3.643490
3669.000000;3.318369
3668.000000;3.008494
3667.000000;2.819432
3666.000000;2.783984
3665.000000;2.853086
3664.000000;2.924649
3663.000000;2.984993
3662.000000;2.957006
3661.000000;2.768817
3660.000000;2.615728
3659.000000;2.658769
3658.000000;2.833469
3657.000000;2.814137
3656.000000;2.737444
3655.000000;2.663918
3654.000000;2.568578
3653.000000;2.660066
3652.000000;3.020882
3651.000000;3.209896
3650.000000;3.169194
3649.000000;3.252520
3648.000000;3.461575
3647.000000;3.871137
3646.000000;3.468766
3645.000000;3.046390
3644.000000;2.752192
3643.000000;2.594606
3642.000000;2.559424
3641.000000;2.700917
3640.000000;3.365920
3639.000000;3.163423
3638.000000;2.819573
3637.000000;2.837857
3636.000000;2.803348
3635.000000;2.783973
3634.000000;2.719569
3633.000000;2.682756
3632.000000;2.801620
3631.000000;3.125965
3630.000000;3.219664
3629.000000;3.169612
3628.000000;3.243891
3627.000000;3.306340
3626.000000;3.042328
3625.000000;2.781101
3624.000000;2.669413
3623.000000;2.635671
3622.000000;2.688606
3621.000000;2.882040
3620.000000;3.452093
3619.000000;3.815444
3618.000000;3.228917
3617.000000;3.106992
3616.000000;3.086852
3615.000000;2.964142
3614.000000;2.794233
3613.000000;2.711050
3612.000000;2.717985
3611.000000;2.796832
3610.000000;2.763437
3609.000000;2.622694
3608.000000;2.562729
3607.000000;2.578142
3606.000000;2.709267
3605.000000;2.921854
3604.000000;3.201543
3603.000000;3.337190
3602.000000;2.929503
3601.000000;2.806489
3600.000000;2.856693
3599.000000;2.910097
3598.000000;3.043312
3597.000000;3.038417
3596.000000;2.740102
3595.000000;2.530974
3594.000000;2.452145
3593.000000;2.479551
3592.000000;2.662214
3591.000000;2.786500
3590.000000;2.576126
3589.000000;2.464120
3588.000000;2.487529
3587.000000;2.550117
3586.000000;2.617474
3585.000000;2.728879
3584.000000;2.993976
3583.000000;3.027293
3582.000000;2.742347
3581.000000;2.569416
3580.000000;2.470409
3579.000000;2.447084
3578.000000;2.553593
3577.000000;2.615464
3576.000000;2.489878
3575.000000;2.460560
3574.000000;2.554749
3573.000000;2.635828
3572.000000;2.556507
3571.000000;2.421427
3570.000000;2.356373
3569.000000;2.391944
3568.000000;2.544595
3567.000000;2.799138
3566.000000;3.163296
3565.000000;2.985919
3564.000000;2.725985
3563.000000;2.712400
3562.000000;2.878046
3561.000000;3.561625
3560.000000;3.429094
3559.000000;3.009462
3558.000000;2.969888
3557.000000;3.036615
3556.000000;3.176178
3555.000000;2.966209
3554.000000;2.812615
3553.000000;2.716459
3552.000000;2.594252
3551.000000;2.555151
3550.000000;2.624135
3549.000000;2.968477
3548.000000;3.256545
3547.000000;2.819089
3546.000000;2.762570
3545.000000;2.836247
3544.000000;2.733085
3543.000000;2.587639
3542.000000;2.618056
3541.000000;2.934249
3540.000000;3.209031
3539.000000;2.895614
3538.000000;2.701348
3537.000000;2.610907
3536.000000;2.593997
3535.000000;2.848178
3534.000000;2.942290
3533.000000;2.706078
3532.000000;2.932082
3531.000000;3.089157
3530.000000;2.702264
3529.000000;2.678272
3528.000000;2.944709
3527.000000;2.925645
3526.000000;2.615762
3525.000000;2.500183
3524.000000;2.498610
3523.000000;2.693540
3522.000000;2.901409
3521.000000;2.540076
3520.000000;2.402581
3519.000000;2.474245
3518.000000;2.751592
3517.000000;3.070922
3516.000000;2.746893
3515.000000;2.655474
3514.000000;2.798454
3513.000000;2.713255
3512.000000;2.507078
3511.000000;2.459738
3510.000000;2.449729
3509.000000;2.429753
3508.000000;2.416738
3507.000000;2.460677
3506.000000;2.581591
3505.000000;2.792187
3504.000000;3.197258
3503.000000;3.025362
3502.000000;2.743489
3501.000000;2.719676
3500.000000;2.788793
3499.000000;2.822985
3498.000000;2.850997
3497.000000;2.979622
3496.000000;3.193906
3495.000000;3.072223
3494.000000;2.828477
3493.000000;2.753438
3492.000000;2.868328
3491.000000;2.909766
3490.000000;2.686696
3489.000000;2.610504
3488.000000;2.659843
3487.000000;2.641393
3486.000000;2.465089
3485.000000;2.291230
3484.000000;2.204124
3483.000000;2.231808
3482.000000;2.363054
3481.000000;2.578250
3480.000000;2.957771
3479.000000;2.925333
3478.000000;2.680225
3477.000000;2.733245
3476.000000;2.967681
3475.000000;3.012000
3474.000000;2.874532
3473.000000;2.867286
3472.000000;2.894847
3471.000000;2.830536
3470.000000;2.811908
3469.000000;2.825066
3468.000000;2.804948
3467.000000;2.901680
3466.000000;3.056086
3465.000000;2.873406
3464.000000;2.590575
3463.000000;2.456138
3462.000000;2.430807
3461.000000;2.395663
3460.000000;2.343032
3459.000000;2.327664
3458.000000;2.359632
3457.000000;2.592069
3456.000000;3.055900
3455.000000;2.796722
3454.000000;2.697376
3453.000000;2.902632
3452.000000;2.951128
3451.000000;2.675634
3450.000000;2.399336
3449.000000;2.259262
3448.000000;2.231440
3447.000000;2.266199
3446.000000;2.309295
3445.000000;2.340066
3444.000000;2.372428
3443.000000;2.389332
3442.000000;2.399059
3441.000000;2.464722
3440.000000;2.628995
3439.000000;2.747413
3438.000000;2.620225
3437.000000;2.509416
3436.000000;2.479064
3435.000000;2.583972
3434.000000;3.044183
3433.000000;2.863115
3432.000000;2.497790
3431.000000;2.494354
3430.000000;2.645984
3429.000000;2.729847
3428.000000;2.636468
3427.000000;2.605194
3426.000000;2.726350
3425.000000;3.180611
3424.000000;3.112839
3423.000000;2.692661
3422.000000;2.573441
3421.000000;2.555685
3420.000000;2.607385
3419.000000;2.692063
3418.000000;2.706633
3417.000000;2.505973
3416.000000;2.330999
3415.000000;2.299334
3414.000000;2.458936
3413.000000;2.676121
3412.000000;2.565300
3411.000000;2.541676
3410.000000;2.686002
3409.000000;2.802866
3408.000000;2.688773
3407.000000;2.535373
3406.000000;2.544963
3405.000000;2.700898
3404.000000;2.913114
3403.000000;2.851578
3402.000000;2.663538
3401.000000;2.540324
3400.000000;2.411269
3399.000000;2.322756
3398.000000;2.330802
3397.000000;2.422922
3396.000000;2.579210
3395.000000;2.830982
3394.000000;2.898094
3393.000000;2.634806
3392.000000;2.446323
3391.000000;2.347135
3390.000000;2.347738
3389.000000;2.471187
3388.000000;2.664582
3387.000000;2.699510
3386.000000;2.514717
3385.000000;2.346072
3384.000000;2.290102
3383.000000;2.342192
3382.000000;2.469307
3381.000000;2.637507
3380.000000;2.854032
3379.000000;3.289384
3378.000000;2.899271
3377.000000;2.462036
3376.000000;2.337810
3375.000000;2.342433
3374.000000;2.404931
3373.000000;2.400353
3372.000000;2.363513
3371.000000;2.401251
3370.000000;2.559861
3369.000000;3.044189
3368.000000;3.065716
3367.000000;2.659097
3366.000000;2.523028
3365.000000;2.475712
3364.000000;2.478935
3363.000000;2.495755
3362.000000;2.509157
3361.000000;2.516485
3360.000000;2.497484
3359.000000;2.436326
3358.000000;2.382595
3357.000000;2.413866
3356.000000;2.540592
3355.000000;2.917722
3354.000000;3.412238
3353.000000;2.951550
3352.000000;2.898381
3351.000000;2.942629
3350.000000;3.176967
3349.000000;3.372576
3348.000000;2.827434
3347.000000;2.565492
3346.000000;2.403916
3345.000000;2.281589
3344.000000;2.227798
3343.000000;2.257845
3342.000000;2.343184
3341.000000;2.434009
3340.000000;2.515454
3339.000000;2.477112
3338.000000;2.360108
3337.000000;2.304229
3336.000000;2.345209
3335.000000;2.482126
3334.000000;2.830271
3333.000000;3.473444
3332.000000;3.154559
3331.000000;2.873698
3330.000000;2.610131
3329.000000;2.499344
3328.000000;2.471174
3327.000000;2.450221
3326.000000;2.475039
3325.000000;2.546733
3324.000000;2.657956
3323.000000;2.678665
3322.000000;2.591802
3321.000000;2.477799
3320.000000;2.428292
3319.000000;2.481409
3318.000000;2.737811
3317.000000;3.296822
3316.000000;2.928840
3315.000000;2.582139
3314.000000;2.458664
3313.000000;2.378367
3312.000000;2.517971
3311.000000;2.931412
3310.000000;2.600942
3309.000000;2.404907
3308.000000;2.613760
3307.000000;3.300781
3306.000000;2.545727
3305.000000;2.289624
3304.000000;2.241043
3303.000000;2.278757
3302.000000;2.424471
3301.000000;2.630154
3300.000000;3.016092
3299.000000;3.197997
3298.000000;3.025451
3297.000000;3.026598
3296.000000;2.965776
3295.000000;3.081517
3294.000000;3.162506
3293.000000;3.043449
3292.000000;2.975315
3291.000000;2.578336
3290.000000;2.352743
3289.000000;2.323089
3288.000000;2.412973
3287.000000;2.597265
3286.000000;2.874672
3285.000000;3.126395
3284.000000;3.038188
3283.000000;3.106443
3282.000000;3.107568
3281.000000;2.840073
3280.000000;2.718226
3279.000000;2.623979
3278.000000;2.470333
3277.000000;2.309100
3276.000000;2.222108
3275.000000;2.249170
3274.000000;2.412402
3273.000000;2.702862
3272.000000;2.871607
3271.000000;2.809182
3270.000000;2.794134
3269.000000;2.925610
3268.000000;2.937680
3267.000000;2.730011
3266.000000;2.575058
3265.000000;2.510131
3264.000000;2.521997
3263.000000;2.628146
3262.000000;3.097872
3261.000000;2.961846
3260.000000;2.515607
3259.000000;2.398065
3258.000000;2.437488
3257.000000;2.507269
3256.000000;2.454525
3255.000000;2.387857
3254.000000;2.388444
3253.000000;2.468363
3252.000000;2.556072
3251.000000;2.480800
3250.000000;2.401283
3249.000000;2.455469
3248.000000;2.641985
3247.000000;2.937496
3246.000000;3.019441
3245.000000;2.813265
3244.000000;2.791586
3243.000000;3.021096
3242.000000;3.387268
3241.000000;3.187986
3240.000000;2.915540
3239.000000;2.759600
3238.000000;2.699021
3237.000000;2.749010
3236.000000;2.905614
3235.000000;3.050739
3234.000000;2.984832
3233.000000;2.863036
3232.000000;2.909323
3231.000000;3.150625
3230.000000;3.376263
3229.000000;3.933474
3228.000000;2.953107
3227.000000;2.601473
3226.000000;2.516798
3225.000000;2.634552
3224.000000;2.858627
3223.000000;2.648184
3222.000000;2.447290
3221.000000;2.390136
3220.000000;2.423579
3219.000000;2.609447
3218.000000;3.051417
3217.000000;3.185662
3216.000000;3.035593
3215.000000;2.681949
3214.000000;2.417228
3213.000000;2.409554
3212.000000;2.513234
3211.000000;2.564373
3210.000000;2.553066
3209.000000;2.483904
3208.000000;2.335335
3207.000000;2.251308
3206.000000;2.287655
3205.000000;2.452427
3204.000000;2.898510
3203.000000;2.972505
3202.000000;2.532883
3201.000000;2.379108
3200.000000;2.340946
3199.000000;2.381436
3198.000000;2.453834
3197.000000;2.456392
3196.000000;2.430607
3195.000000;2.491261
3194.000000;2.681000
3193.000000;2.902289
3192.000000;3.039462
3191.000000;3.315868
3190.000000;3.160605
3189.000000;2.620895
3188.000000;2.326084
3187.000000;2.193388
3186.000000;2.180362
3185.000000;2.276524
3184.000000;2.484644
3183.000000;2.680465
3182.000000;2.618271
3181.000000;2.517617
3180.000000;2.493917
3179.000000;2.514146
3178.000000;2.518252
3177.000000;2.448360
3176.000000;2.363016
3175.000000;2.356486
3174.000000;2.444230
3173.000000;2.562197
3172.000000;2.604988
3171.000000;2.549622
3170.000000;2.508429
3169.000000;2.528959
3168.000000;2.558909
3167.000000;2.739109
3166.000000;3.135768
3165.000000;2.668286
3164.000000;2.356603
3163.000000;2.286324
3162.000000;2.318453
3161.000000;2.390426
3160.000000;2.460329
3159.000000;2.586899
3158.000000;3.125520
3157.000000;2.976474
3156.000000;2.577562
3155.000000;2.496605
3154.000000;2.467756
3153.000000;2.600260
3152.000000;3.177599
3151.000000;2.739194
3150.000000;2.604441
3149.000000;3.008205
3148.000000;3.015117
3147.000000;2.814585
3146.000000;3.149407
3145.000000;2.993372
3144.000000;2.691832
3143.000000;2.642723
3142.000000;2.650803
3141.000000;2.638775
3140.000000;2.557529
3139.000000;2.451152
3138.000000;2.390718
3137.000000;2.423996
3136.000000;2.579515
3135.000000;2.829557
3134.000000;2.835933
3133.000000;2.637574
3132.000000;2.534618
3131.000000;2.529303
3130.000000;2.562720
3129.000000;2.629808
3128.000000;2.788559
3127.000000;2.967228
3126.000000;3.082011
3125.000000;2.767126
3124.000000;2.535143
3123.000000;2.468239
3122.000000;2.463582
3121.000000;2.501975
3120.000000;2.649265
3119.000000;2.945791
3118.000000;2.972717
3117.000000;2.763635
3116.000000;2.768932
3115.000000;2.895536
3114.000000;2.769294
3113.000000;2.606147
3112.000000;2.539624
3111.000000;2.520414
3110.000000;2.670276
3109.000000;3.117842
3108.000000;2.853840
3107.000000;2.634431
3106.000000;2.629932
3105.000000;2.528534
3104.000000;2.501434
3103.000000;2.525482
3102.000000;2.452977
3101.000000;2.389077
3100.000000;2.428487
3099.000000;2.586999
3098.000000;2.857210
3097.000000;3.165920
3096.000000;3.082858
3095.000000;2.717893
3094.000000;2.540356
3093.000000;2.529795
3092.000000;2.653717
3091.000000;2.830728
3090.000000;2.896800
3089.000000;2.887820
3088.000000;2.859564
3087.000000;2.979138
3086.000000;3.203959
3085.000000;2.780393
3084.000000;2.547690
3083.000000;2.552483
3082.000000;2.695833
3081.000000;2.822505
3080.000000;2.746560
3079.000000;2.620473
3078.000000;2.591956
3077.000000;2.698201
3076.000000;2.840226
3075.000000;2.797734
3074.000000;2.776187
3073.000000;3.051258
3072.000000;2.970918
3071.000000;2.599700
3070.000000;2.398952
3069.000000;2.293147
3068.000000;2.279158
3067.000000;2.414133
3066.000000;2.746927
3065.000000;2.610132
3064.000000;2.441561
3063.000000;2.502567
3062.000000;2.703851
3061.000000;2.619081
3060.000000;2.408309
3059.000000;2.372423
3058.000000;2.476621
3057.000000;2.658551
3056.000000;2.809603
3055.000000;2.838567
3054.000000;2.697893
3053.000000;2.570660
3052.000000;2.525728
3051.000000;2.540797
3050.000000;2.653159
3049.000000;2.950209
3048.000000;2.838337
3047.000000;2.670122
3046.000000;2.655575
3045.000000;2.622825
3044.000000;2.625802
3043.000000;2.702425
3042.000000;2.790105
3041.000000;2.757374
3040.000000;2.602672
3039.000000;2.454802
3038.000000;2.375039
3037.000000;2.340022
3036.000000;2.304460
3035.000000;2.283052
3034.000000;2.309714
3033.000000;2.359343
3032.000000;2.376044
3031.000000;2.395536
3030.000000;2.481475
3029.000000;2.653932
3028.000000;2.881564
3027.000000;2.859607
3026.000000;2.727185
3025.000000;2.815413
3024.000000;3.372137
3023.000000;3.121630
3022.000000;2.967790
3021.000000;3.542801
3020.000000;3.264015
3019.000000;2.904761
3018.000000;2.701109
3017.000000;2.557314
3016.000000;2.519084
3015.000000;2.613531
3014.000000;2.779359
3013.000000;2.702598
3012.000000;2.448911
3011.000000;2.254243
3010.000000;2.180749
3009.000000;2.237527
3008.000000;2.532311
3007.000000;2.862418
3006.000000;2.436584
3005.000000;2.402698
3004.000000;2.592242
3003.000000;2.834450
3002.000000;2.746462
3001.000000;2.801355
3000.000000;3.399236
2999.000000;3.427676
2998.000000;2.841751
2997.000000;2.667543
2996.000000;2.550290
2995.000000;2.555064
2994.000000;2.667510
2993.000000;2.841669
2992.000000;2.999981
2991.000000;3.144418
2990.000000;3.748744
2989.000000;3.091961
2988.000000;2.904681
2987.000000;2.777429
2986.000000;2.562348
2985.000000;2.470060
2984.000000;2.478300
2983.000000;2.513730
2982.000000;2.570546
2981.000000;2.686254
2980.000000;2.857330
2979.000000;3.003902
2978.000000;2.907525
2977.000000;2.734427
2976.000000;2.686262
2975.000000;2.630516
2974.000000;2.476772
2973.000000;2.384857
2972.000000;2.411474
2971.000000;2.531527
2970.000000;2.570413
2969.000000;2.458610
2968.000000;2.371833
2967.000000;2.376357
2966.000000;2.491843
2965.000000;2.883721
2964.000000;3.048952
2963.000000;2.693219
2962.000000;2.563708
2961.000000;2.496197
2960.000000;2.460793
2959.000000;2.506347
2958.000000;2.726887
2957.000000;3.439231
2956.000000;2.966490
2955.000000;2.818701
2954.000000;2.870126
2953.000000;2.897946
2952.000000;2.716694
2951.000000;2.522454
2950.000000;2.423388
2949.000000;2.419083
2948.000000;2.458593
2947.000000;2.488599
2946.000000;2.575038
2945.000000;2.817375
2944.000000;2.739052
2943.000000;2.558152
2942.000000;2.582736
2941.000000;2.704774
2940.000000;2.824342
2939.000000;2.858606
2938.000000;2.912975
2937.000000;2.971857
2936.000000;2.796383
2935.000000;2.661408
2934.000000;2.698476
2933.000000;2.964426
2932.000000;3.539983
2931.000000;2.729948
2930.000000;2.509981
2929.000000;2.445792
2928.000000;2.455280
2927.000000;2.432036
2926.000000;2.411116
2925.000000;2.451793
2924.000000;2.528153
2923.000000;2.578323
2922.000000;2.569708
2921.000000;2.522448
2920.000000;2.427574
2919.000000;2.309569
2918.000000;2.259982
2917.000000;2.321151
2916.000000;2.473510
2915.000000;2.627321
2914.000000;2.610383
2913.000000;2.503352
2912.000000;2.425992
2911.000000;2.374832
2910.000000;2.404883
2909.000000;2.569307
2908.000000;3.141403
2907.000000;2.937167
2906.000000;2.604341
2905.000000;2.439704
2904.000000;2.327293
2903.000000;2.272824
2902.000000;2.270494
2901.000000;2.316118
2900.000000;2.428671
2899.000000;2.737159
2898.000000;3.264448
2897.000000;2.785710
2896.000000;2.605817
2895.000000;2.569887
2894.000000;2.829741
2893.000000;3.161967
2892.000000;2.869587
2891.000000;2.836396
2890.000000;2.842504
2889.000000;2.913180
2888.000000;2.929438
2887.000000;2.706007
2886.000000;2.561170
2885.000000;2.533489
2884.000000;2.490369
2883.000000;2.397910
2882.000000;2.386170
2881.000000;2.506081
2880.000000;2.767179
2879.000000;2.770621
2878.000000;2.551985
2877.000000;2.465889
2876.000000;2.485896
2875.000000;2.555884
2874.000000;2.792187
2873.000000;3.310560
2872.000000;2.665697
2871.000000;2.523130
2870.000000;2.639894
2869.000000;3.066302
2868.000000;2.825916
2867.000000;2.628028
2866.000000;2.647179
2865.000000;3.072272
2864.000000;3.095687
2863.000000;2.489409
2862.000000;2.293671
2861.000000;2.242113
2860.000000;2.316445
2859.000000;2.475117
2858.000000;2.695815
2857.000000;2.813500
2856.000000;2.544285
2855.000000;2.353212
2854.000000;2.298549
2853.000000;2.363318
2852.000000;2.530690
2851.000000;2.588783
2850.000000;2.522561
2849.000000;2.569537
2848.000000;2.816220
2847.000000;3.395610
2846.000000;2.992092
2845.000000;2.775775
2844.000000;2.812360
2843.000000;3.021139
2842.000000;2.766850
2841.000000;2.502223
2840.000000;2.450509
2839.000000;2.528266
2838.000000;2.644709
2837.000000;2.620412
2836.000000;2.529996
2835.000000;2.469430
2834.000000;2.454301
2833.000000;2.493228
2832.000000;2.598187
2831.000000;2.793521
2830.000000;2.876938
2829.000000;2.687751
2828.000000;2.468370
2827.000000;2.361147
2826.000000;2.428495
2825.000000;2.792485
2824.000000;2.878550
2823.000000;2.728652
2822.000000;3.071143
2821.000000;3.099897
2820.000000;2.722081
2819.000000;2.649669
2818.000000;2.622021
2817.000000;2.641613
2816.000000;2.739741
2815.000000;2.879910
2814.000000;2.909078
2813.000000;2.851317
2812.000000;2.677238
2811.000000;2.568061
2810.000000;2.646225
2809.000000;2.776312
2808.000000;2.558845
2807.000000;2.360983
2806.000000;2.320309
2805.000000;2.397698
2804.000000;2.603371
2803.000000;2.885712
2802.000000;3.413815
2801.000000;3.024462
2800.000000;2.718006
2799.000000;2.626793
2798.000000;2.538426
2797.000000;2.426208
2796.000000;2.368740
2795.000000;2.401911
2794.000000;2.578088
2793.000000;3.060277
2792.000000;3.108505
2791.000000;2.831822
2790.000000;2.938143
2789.000000;2.863142
2788.000000;2.678528
2787.000000;2.540410
2786.000000;2.475144
2785.000000;2.689300
2784.000000;2.920053
2783.000000;2.568418
2782.000000;2.463746
2781.000000;2.666785
2780.000000;2.793087
2779.000000;2.495677
2778.000000;2.380858
2777.000000;2.425444
2776.000000;2.546584
2775.000000;2.720172
2774.000000;2.931596
2773.000000;2.608812
2772.000000;2.353154
2771.000000;2.230845
2770.000000;2.210945
2769.000000;2.289995
2768.000000;2.453886
2767.000000;2.612467
2766.000000;2.819836
2765.000000;3.340898
2764.000000;3.017209
2763.000000;2.798134
2762.000000;2.903709
2761.000000;2.964051
2760.000000;2.608185
2759.000000;2.452564
2758.000000;2.466217
2757.000000;2.518030
2756.000000;2.583830
2755.000000;2.717243
2754.000000;3.190074
2753.000000;3.208476
2752.000000;2.735928
2751.000000;2.566936
2750.000000;2.532169
2749.000000;2.615804
2748.000000;2.761078
2747.000000;2.782168
2746.000000;2.811341
2745.000000;3.089071
2744.000000;2.915094
2743.000000;2.534982
2742.000000;2.355047
2741.000000;2.312879
2740.000000;2.391136
2739.000000;2.683953
2738.000000;3.248012
2737.000000;2.658393
2736.000000;2.457262
2735.000000;2.408438
2734.000000;2.493917
2733.000000;2.696014
2732.000000;3.000532
2731.000000;3.003773
2730.000000;2.875517
2729.000000;2.958762
2728.000000;3.221052
2727.000000;3.122941
2726.000000;2.684270
2725.000000;2.453320
2724.000000;2.395477
2723.000000;2.470700
2722.000000;2.654659
2721.000000;2.867089
2720.000000;2.533784
2719.000000;2.289729
2718.000000;2.204376
2717.000000;2.234999
2716.000000;2.335265
2715.000000;2.377332
2714.000000;2.376578
2713.000000;2.470947
2712.000000;2.618334
2711.000000;2.657870
2710.000000;2.719228
2709.000000;2.793102
2708.000000;2.688550
2707.000000;2.579080
2706.000000;2.583386
2705.000000;2.695023
2704.000000;2.711079
2703.000000;2.657794
2702.000000;2.736054
2701.000000;2.712436
2700.000000;2.522844
2699.000000;2.355118
2698.000000;2.264196
2697.000000;2.279711
2696.000000;2.410595
2695.000000;2.613797
2694.000000;2.611974
2693.000000;2.445302
2692.000000;2.321252
2691.000000;2.259000
2690.000000;2.249611
2689.000000;2.294710
2688.000000;2.409549
2687.000000;2.603605
2686.000000;3.016786
2685.000000;3.399484
2684.000000;3.167403
2683.000000;3.384332
2682.000000;2.608532
2681.000000;2.426579
2680.000000;2.424712
2679.000000;2.576940
2678.000000;2.811322
2677.000000;3.443702
2676.000000;3.261643
2675.000000;2.786063
2674.000000;2.724554
2673.000000;3.169455
2672.000000;2.751399
2671.000000;2.372666
2670.000000;2.271694
2669.000000;2.253940
2668.000000;2.283039
2667.000000;2.324047
2666.000000;2.369336
2665.000000;2.417893
2664.000000;2.490236
2663.000000;2.616682
2662.000000;2.929273
2661.000000;3.281232
2660.000000;2.547119
2659.000000;2.322170
2658.000000;2.231157
2657.000000;2.234244
2656.000000;2.297795
2655.000000;2.412980
2654.000000;2.539414
2653.000000;2.604236
2652.000000;2.700367
2651.000000;2.848900
2650.000000;2.855962
2649.000000;2.776301
2648.000000;2.708211
2647.000000;2.635369
2646.000000;2.554645
2645.000000;2.506816
2644.000000;2.552361
2643.000000;2.797931
2642.000000;3.217830
2641.000000;3.020518
2640.000000;2.895111
2639.000000;2.655969
2638.000000;2.620611
2637.000000;3.067619
2636.000000;2.743278
2635.000000;2.493501
2634.000000;2.543793
2633.000000;2.723352
2632.000000;2.713725
2631.000000;2.631937
2630.000000;2.602727
2629.000000;2.617748
2628.000000;2.716109
2627.000000;2.857441
2626.000000;2.943447
2625.000000;2.884091
2624.000000;2.714139
2623.000000;2.561692
2622.000000;2.440279
2621.000000;2.367761
2620.000000;2.380460
2619.000000;2.472136
2618.000000;2.726287
2617.000000;2.889337
2616.000000;2.482939
2615.000000;2.269842
2614.000000;2.218163
2613.000000;2.280695
2612.000000;2.460958
2611.000000;2.418109
2610.000000;2.234242
2609.000000;2.187679
2608.000000;2.239371
2607.000000;2.441197
2606.000000;2.979805
2605.000000;2.575698
2604.000000;2.385289
2603.000000;2.454620
2602.000000;2.732651
2601.000000;3.284119
2600.000000;3.248274
2599.000000;2.812951
2598.000000;2.609523
2597.000000;2.600897
2596.000000;2.779998
2595.000000;2.698710
2594.000000;2.449275
2593.000000;2.382414
2592.000000;2.488689
2591.000000;2.710335
2590.000000;2.680007
2589.000000;2.451848
2588.000000;2.357905
2587.000000;2.455025
2586.000000;2.664398
2585.000000;2.837036
2584.000000;2.771156
2583.000000;2.475293
2582.000000;2.358685
2581.000000;2.460352
2580.000000;2.834261
2579.000000;2.545901
2578.000000;2.271872
2577.000000;2.241401
2576.000000;2.355880
2575.000000;2.803975
2574.000000;3.432158
2573.000000;2.662456
2572.000000;2.534637
2571.000000;2.390310
2570.000000;2.276261
2569.000000;2.223307
2568.000000;2.252821
2567.000000;2.375163
2566.000000;2.596809
2565.000000;2.809832
2564.000000;2.761999
2563.000000;2.738625
2562.000000;2.705015
2561.000000;2.522413
2560.000000;2.337614
2559.000000;2.211693
2558.000000;2.158614
2557.000000;2.167404
2556.000000;2.217750
2555.000000;2.292733
2554.000000;2.344058
2553.000000;2.339616
2552.000000;2.351985
2551.000000;2.444169
2550.000000;2.597436
2549.000000;2.715805
2548.000000;2.776486
2547.000000;2.763696
2546.000000;2.677454
2545.000000;2.629479
2544.000000;2.607260
2543.000000;2.570416
2542.000000;2.546829
2541.000000;2.646890
2540.000000;2.814309
2539.000000;2.616471
2538.000000;2.454927
2537.000000;2.473013
2536.000000;2.592950
2535.000000;2.763807
2534.000000;2.855704
2533.000000;2.812406
2532.000000;2.744493
2531.000000;2.682026
2530.000000;2.616483
2529.000000;2.567202
2528.000000;2.532740
2527.000000;2.505898
2526.000000;2.452144
2525.000000;2.355953
2524.000000;2.311474
2523.000000;2.391903
2522.000000;2.695725
2521.000000;2.907145
2520.000000;2.570801
2519.000000;2.435647
2518.000000;2.396079
2517.000000;2.462290
2516.000000;2.627245
2515.000000;2.674848
2514.000000;2.646618
2513.000000;2.775365
2512.000000;3.238877
2511.000000;3.191834
2510.000000;2.818688
2509.000000;2.689520
2508.000000;2.754827
2507.000000;3.567965
2506.000000;2.895377
2505.000000;2.510222
2504.000000;2.384426
2503.000000;2.374515
2502.000000;2.531087
2501.000000;2.816992
2500.000000;2.826236
2499.000000;2.834812
2498.000000;2.960435
2497.000000;2.678669
2496.000000;2.442717
2495.000000;2.359893
2494.000000;2.391884
2493.000000;2.484860
2492.000000;2.551365
2491.000000;2.560848
2490.000000;2.684256
2489.000000;3.077848
2488.000000;2.626048
2487.000000;2.282378
2486.000000;2.181357
2485.000000;2.154822
2484.000000;2.189212
2483.000000;2.278123
2482.000000;2.404353
2481.000000;2.574256
2480.000000;2.855552
2479.000000;2.700267
2478.000000;2.429963
2477.000000;2.338152
2476.000000;2.390347
2475.000000;2.575540
2474.000000;2.566214
2473.000000;2.396866
2472.000000;2.373185
2471.000000;2.490314
2470.000000;2.722375
2469.000000;2.985014
2468.000000;3.090804
2467.000000;3.103582
2466.000000;3.062607
2465.000000;3.010211
2464.000000;3.057704
2463.000000;3.025744
2462.000000;3.043174
2461.000000;2.885735
2460.000000;2.549207
2459.000000;2.391051
2458.000000;2.385364
2457.000000;2.470026
2456.000000;2.514692
2455.000000;2.510293
2454.000000;2.573628
2453.000000;2.690362
2452.000000;2.731733
2451.000000;2.595530
2450.000000;2.426280
2449.000000;2.342169
2448.000000;2.325529
2447.000000;2.334269
2446.000000;2.388069
2445.000000;2.545040
2444.000000;2.846852
2443.000000;2.841368
2442.000000;2.582579
2441.000000;2.539394
2440.000000;2.550042
2439.000000;2.463890
2438.000000;2.420249
2437.000000;2.465018
2436.000000;2.514152
2435.000000;2.502702
2434.000000;2.524734
2433.000000;2.692655
2432.000000;2.814986
2431.000000;2.673545
2430.000000;2.680077
2429.000000;3.168239
2428.000000;2.890113
2427.000000;2.505689
2426.000000;2.425782
2425.000000;2.467426
2424.000000;2.541975
2423.000000;2.486701
2422.000000;2.362533
2421.000000;2.309264
2420.000000;2.370118
2419.000000;2.535555
2418.000000;2.733432
2417.000000;2.884186
2416.000000;2.804849
2415.000000;2.490628
2414.000000;2.282837
2413.000000;2.218081
2412.000000;2.266605
2411.000000;2.398170
2410.000000;2.608358
2409.000000;3.118567
2408.000000;3.215798
2407.000000;2.810004
2406.000000;2.730706
2405.000000;2.629698
2404.000000;2.592101
2403.000000;2.857123
2402.000000;3.050882
2401.000000;2.595362
2400.000000;2.390268
2399.000000;2.325630
2398.000000;2.344779
2397.000000;2.476951
2396.000000;2.706180
2395.000000;2.920430
2394.000000;2.997935
2393.000000;3.041887
2392.000000;3.257239
2391.000000;3.251712
2390.000000;2.810543
2389.000000;2.594729
2388.000000;2.641569
2387.000000;2.948398
2386.000000;2.569871
2385.000000;2.255217
2384.000000;2.209417
2383.000000;2.359254
2382.000000;2.866190
2381.000000;2.773738
2380.000000;2.444525
2379.000000;2.438268
2378.000000;2.534628
2377.000000;2.874888
2376.000000;2.798488
2375.000000;2.546912
2374.000000;2.506554
2373.000000;2.625234
2372.000000;3.118365
2371.000000;2.938971
2370.000000;2.656218
2369.000000;2.665123
2368.000000;2.800343
2367.000000;2.727467
2366.000000;2.533091
2365.000000;2.457925
2364.000000;2.476062
2363.000000;2.545112
2362.000000;2.630653
2361.000000;2.669925
2360.000000;2.591312
2359.000000;2.515833
2358.000000;2.567010
2357.000000;2.816676
2356.000000;2.892277
2355.000000;2.661692
2354.000000;2.555203
2353.000000;2.503162
2352.000000;2.492440
2351.000000;2.541590
2350.000000;2.843810
2349.000000;3.089845
2348.000000;2.665823
2347.000000;2.548811
2346.000000;2.611918
2345.000000;2.719677
2344.000000;2.797823
2343.000000;2.802570
2342.000000;2.723094
2341.000000;2.571448
2340.000000;2.472961
2339.000000;2.494740
2338.000000;2.668072
2337.000000;2.966365
2336.000000;3.030919
2335.000000;2.800836
2334.000000;2.663366
2333.000000;2.609996
2332.000000;2.534654
2331.000000;2.482421
2330.000000;2.529083
2329.000000;2.678228
2328.000000;3.023017
2327.000000;3.353734
2326.000000;2.887992
2325.000000;2.629785
2324.000000;2.529040
2323.000000;2.488668
2322.000000;2.472616
2321.000000;2.488004
2320.000000;2.579458
2319.000000;2.745752
2318.000000;2.986565
2317.000000;3.328515
2316.000000;3.257317
2315.000000;2.910214
2314.000000;2.684913
2313.000000;2.542075
2312.000000;2.464461
2311.000000;2.438911
2310.000000;2.462118
2309.000000;2.537314
2308.000000;2.715256
2307.000000;3.141873
2306.000000;3.344110
2305.000000;2.994816
2304.000000;2.872097
2303.000000;2.765175
2302.000000;2.557462
2301.000000;2.391878
2300.000000;2.376885
2299.000000;2.593101
2298.000000;2.869663
2297.000000;2.766644
2296.000000;2.741593
2295.000000;2.799996
2294.000000;2.775929
2293.000000;2.954492
2292.000000;3.347803
2291.000000;2.761917
2290.000000;2.452730
2289.000000;2.345097
2288.000000;2.293894
2287.000000;2.296398
2286.000000;2.340380
2285.000000;2.539915
2284.000000;2.990156
2283.000000;2.754514
2282.000000;2.521130
2281.000000;2.507616
2280.000000;2.580525
2279.000000;2.997217
2278.000000;3.440404
2277.000000;2.794418
2276.000000;2.648334
2275.000000;2.718494
2274.000000;2.716505
2273.000000;2.453724
2272.000000;2.306718
2271.000000;2.296587
2270.000000;2.301322
2269.000000;2.294046
2268.000000;2.308916
2267.000000;2.370647
2266.000000;2.438028
2265.000000;2.480454
2264.000000;2.595173
2263.000000;2.856339
2262.000000;2.840941
2261.000000;2.618799
2260.000000;2.584707
2259.000000;2.666830
2258.000000;2.932589
2257.000000;3.187918
2256.000000;2.654043
2255.000000;2.386139
2254.000000;2.300375
2253.000000;2.320906
2252.000000;2.399471
2251.000000;2.506881
2250.000000;2.626215
2249.000000;2.581784
2248.000000;2.511188
2247.000000;2.536032
2246.000000;2.586972
2245.000000;2.597308
2244.000000;2.621523
2243.000000;2.797413
2242.000000;2.927372
2241.000000;2.761115
2240.000000;2.796875
2239.000000;2.847274
2238.000000;2.602435
2237.000000;2.480547
2236.000000;2.502650
2235.000000;2.555847
2234.000000;2.566935
2233.000000;2.552068
2232.000000;2.567904
2231.000000;2.642224
2230.000000;2.770483
2229.000000;2.861875
2228.000000;2.852729
2227.000000;3.004959
2226.000000;3.365806
2225.000000;3.240771
2224.000000;3.003727
2223.000000;2.744962
2222.000000;2.561509
2221.000000;2.435516
2220.000000;2.312289
2219.000000;2.191072
2218.000000;2.089033
2217.000000;2.015188
2216.000000;2.018145
2215.000000;2.119908
2214.000000;2.393683
2213.000000;3.057958
2212.000000;2.860577
2211.000000;2.619152
2210.000000;2.580813
2209.000000;2.485229
2208.000000;2.429076
2207.000000;2.414651
2206.000000;2.414051
2205.000000;2.323467
2204.000000;2.249884
2203.000000;2.316333
2202.000000;2.547562
2201.000000;2.718594
2200.000000;2.774515
2199.000000;3.154593
2198.000000;3.439385
2197.000000;3.052964
2196.000000;2.955452
2195.000000;2.969486
2194.000000;2.830619
2193.000000;2.706985
2192.000000;2.698552
2191.000000;2.478118
2190.000000;2.288469
2189.000000;2.270059
2188.000000;2.377012
2187.000000;2.761523
2186.000000;2.903209
2185.000000;2.437673
2184.000000;2.298067
2183.000000;2.324915
2182.000000;2.379504
2181.000000;2.383282
2180.000000;2.387151
2179.000000;2.495291
2178.000000;2.628446
2177.000000;2.643135
2176.000000;2.655123
2175.000000;2.572868
2174.000000;2.408355
2173.000000;2.326410
2172.000000;2.343941
2171.000000;2.448550
2170.000000;2.587342
2169.000000;2.676722
2168.000000;2.672507
2167.000000;2.735414
2166.000000;2.793645
2165.000000;2.517039
2164.000000;2.292601
2163.000000;2.243525
2162.000000;2.331508
2161.000000;2.572414
2160.000000;3.060568
2159.000000;3.133251
2158.000000;2.797046
2157.000000;2.724494
2156.000000;2.806317
2155.000000;2.656379
2154.000000;2.669670
2153.000000;3.042497
2152.000000;2.724397
2151.000000;2.576633
2150.000000;2.744365
2149.000000;2.789852
2148.000000;2.572341
2147.000000;2.419457
2146.000000;2.388251
2145.000000;2.607884
2144.000000;2.778789
2143.000000;2.443919
2142.000000;2.393101
2141.000000;2.478706
2140.000000;2.462798
2139.000000;2.438285
2138.000000;2.521376
2137.000000;2.645598
2136.000000;2.844863
2135.000000;3.405657
2134.000000;3.009204
2133.000000;2.779178
2132.000000;3.102487
2131.000000;3.097423
2130.000000;2.565899
2129.000000;2.332836
2128.000000;2.258972
2127.000000;2.268839
2126.000000;2.313507
2125.000000;2.351770
2124.000000;2.367644
2123.000000;2.376674
2122.000000;2.399907
2121.000000;2.395222
2120.000000;2.381549
2119.000000;2.442848
2118.000000;2.614235
2117.000000;2.797415
2116.000000;2.778696
2115.000000;2.736608
2114.000000;2.860276
2113.000000;3.157791
2112.000000;3.200855
2111.000000;2.773018
2110.000000;2.460990
2109.000000;2.306897
2108.000000;2.271655
2107.000000;2.312849
2106.000000;2.366103
2105.000000;2.387396
2104.000000;2.378064
2103.000000;2.406772
2102.000000;2.478123
2101.000000;2.627330
2100.000000;2.721938
2099.000000;2.444147
2098.000000;2.261660
2097.000000;2.230993
2096.000000;2.303593
2095.000000;2.459627
2094.000000;2.662147
2093.000000;2.843912
2092.000000;3.042349
2091.000000;3.266097
2090.000000;2.806237
2089.000000;2.495756
2088.000000;2.410548
2087.000000;2.459175
2086.000000;2.701974
2085.000000;3.149161
2084.000000;2.885159
2083.000000;2.617724
2082.000000;2.508019
2081.000000;2.399565
2080.000000;2.359724
2079.000000;2.410789
2078.000000;2.572332
2077.000000;2.888445
2076.000000;2.978319
2075.000000;2.822318
2074.000000;2.818524
2073.000000;2.986683
2072.000000;3.277750
2071.000000;3.161033
2070.000000;3.183451
2069.000000;3.147026
2068.000000;2.821864
2067.000000;2.746274
2066.000000;2.879976
2065.000000;2.928957
2064.000000;2.687109
2063.000000;2.472105
2062.000000;2.346551
2061.000000;2.317584
2060.000000;2.391638
2059.000000;2.500594
2058.000000;2.563667
2057.000000;2.556948
2056.000000;2.624623
2055.000000;2.743132
2054.000000;2.738218
2053.000000;2.656795
2052.000000;2.747553
2051.000000;3.440435
2050.000000;2.971515
2049.000000;2.539658
2048.000000;2.429382
2047.000000;2.429341
2046.000000;2.505004
2045.000000;2.513665
2044.000000;2.521552
2043.000000;2.587858
2042.000000;2.587419
2041.000000;2.462540
2040.000000;2.311590
2039.000000;2.228004
2038.000000;2.244974
2037.000000;2.344440
2036.000000;2.498687
2035.000000;2.645342
2034.000000;2.803039
2033.000000;2.850459
2032.000000;2.654955
2031.000000;2.503892
2030.000000;2.489522
2029.000000;2.803041
2028.000000;2.909644
2027.000000;2.437431
2026.000000;2.248445
2025.000000;2.214566
2024.000000;2.295311
2023.000000;2.508161
2022.000000;2.925012
2021.000000;3.062677
2020.000000;2.639282
2019.000000;2.408492
2018.000000;2.337756
2017.000000;2.381894
2016.000000;2.501821
2015.000000;2.594225
2014.000000;2.531615
2013.000000;2.481008
2012.000000;2.539831
2011.000000;2.647672
2010.000000;2.727723
2009.000000;2.784750
2008.000000;2.815641
2007.000000;2.724489
2006.000000;2.632424
2005.000000;2.609269
2004.000000;2.677374
2003.000000;2.753230
2002.000000;2.783928
2001.000000;3.077769
2000.000000;2.994481
1999.000000;2.615636
1998.000000;2.510698
1997.000000;2.529583
1996.000000;2.627143
1995.000000;2.687150
1994.000000;2.651650
1993.000000;2.640955
1992.000000;2.743596
1991.000000;2.886133
1990.000000;2.684857
1989.000000;2.494817
1988.000000;2.460786
1987.000000;2.499691
1986.000000;2.496862
1985.000000;2.425168
1984.000000;2.389821
1983.000000;2.409802
1982.000000;2.455904
1981.000000;2.507637
1980.000000;2.588951
1979.000000;2.844471
1978.000000;3.076507
1977.000000;2.911318
1976.000000;2.856795
1975.000000;2.772329
1974.000000;2.743925
1973.000000;2.766264
1972.000000;2.586096
1971.000000;2.476818
1970.000000;2.526789
1969.000000;2.771429
1968.000000;3.491038
1967.000000;3.408461
1966.000000;2.897449
1965.000000;2.589518
1964.000000;2.411940
1963.000000;2.351173
1962.000000;2.369387
1961.000000;2.448111
1960.000000;2.542414
1959.000000;2.646071
1958.000000;2.645656
1957.000000;2.519648
1956.000000;2.413628
1955.000000;2.380716
1954.000000;2.449575
1953.000000;2.667921
1952.000000;2.911601
1951.000000;2.919831
1950.000000;2.842430
1949.000000;2.742738
1948.000000;2.648140
1947.000000;2.727401
1946.000000;3.298738
1945.000000;3.181598
1944.000000;2.847969
1943.000000;2.999937
1942.000000;3.121326
1941.000000;2.944847
1940.000000;2.714285
1939.000000;2.481552
1938.000000;2.341154
1937.000000;2.323658
1936.000000;2.415814
1935.000000;2.789310
1934.000000;2.947573
1933.000000;2.467625
1932.000000;2.367054
1931.000000;2.503373
1930.000000;2.868317
1929.000000;2.638704
1928.000000;2.380854
1927.000000;2.419674
1926.000000;2.614961
1925.000000;3.207793
1924.000000;3.157494
1923.000000;2.649462
1922.000000;2.574320
1921.000000;2.538360
1920.000000;2.534404
1919.000000;2.582479
1918.000000;2.734783
1917.000000;3.127531
1916.000000;2.710787
1915.000000;2.415582
1914.000000;2.325755
1913.000000;2.292051
1912.000000;2.309681
1911.000000;2.376345
1910.000000;2.474063
1909.000000;2.442894
1908.000000;2.311786
1907.000000;2.242559
1906.000000;2.242820
1905.000000;2.289542
1904.000000;2.382888
1903.000000;2.531836
1902.000000;2.635381
1901.000000;2.573818
1900.000000;2.467489
1899.000000;2.388601
1898.000000;2.358516
1897.000000;2.342612
1896.000000;2.307098
1895.000000;2.281411
1894.000000;2.344539
1893.000000;2.548538
1892.000000;2.680556
1891.000000;2.612090
1890.000000;2.638620
1889.000000;2.990080
1888.000000;3.103469
1887.000000;2.682407
1886.000000;2.550085
1885.000000;2.510361
1884.000000;2.446761
1883.000000;2.428904
1882.000000;2.501233
1881.000000;2.853266
1880.000000;3.353986
1879.000000;2.677254
1878.000000;2.497260
1877.000000;2.447231
1876.000000;2.482644
1875.000000;2.607621
1874.000000;2.648672
1873.000000;2.589568
1872.000000;2.460794
1871.000000;2.365920
1870.000000;2.369199
1869.000000;2.545731
1868.000000;2.921505
1867.000000;2.690978
1866.000000;2.462346
1865.000000;2.479723
1864.000000;2.584595
1863.000000;2.460138
1862.000000;2.250801
1861.000000;2.187719
1860.000000;2.264722
1859.000000;2.465963
1858.000000;2.713507
1857.000000;2.863662
1856.000000;2.787716
1855.000000;2.641186
1854.000000;2.586280
1853.000000;2.599823
1852.000000;2.744291
1851.000000;2.886908
1850.000000;2.741577
1849.000000;2.640180
1848.000000;2.569989
1847.000000;2.570898
1846.000000;2.705262
1845.000000;2.952992
1844.000000;3.052958
1843.000000;2.630476
1842.000000;2.317878
1841.000000;2.187143
1840.000000;2.181914
1839.000000;2.274116
1838.000000;2.427455
1837.000000;2.556733
1836.000000;2.538682
1835.000000;2.423436
1834.000000;2.346788
1833.000000;2.355387
1832.000000;2.447652
1831.000000;2.584469
1830.000000;2.669514
1829.000000;2.636155
1828.000000;2.561163
1827.000000;2.571713
1826.000000;2.645961
1825.000000;2.974727
1824.000000;3.525473
1823.000000;2.697608
1822.000000;2.550101
1821.000000;2.557512
1820.000000;2.612966
1819.000000;2.949030
1818.000000;3.004844
1817.000000;2.584304
1816.000000;2.525617
1815.000000;2.720089
1814.000000;3.009270
1813.000000;3.207379
1812.000000;3.118458
1811.000000;2.866952
1810.000000;2.630171
1809.000000;2.360063
1808.000000;2.241882
1807.000000;2.302428
1806.000000;2.431688
1805.000000;2.558630
1804.000000;2.675991
1803.000000;2.577621
1802.000000;2.507099
1801.000000;2.663064
1800.000000;2.925568
1799.000000;2.753066
1798.000000;2.580330
1797.000000;2.459252
1796.000000;2.399040
1795.000000;2.443741
1794.000000;2.613063
1793.000000;2.884803
1792.000000;2.879733
1791.000000;2.814258
1790.000000;2.695011
1789.000000;2.428318
1788.000000;2.283376
1787.000000;2.226500
1786.000000;2.217120
1785.000000;2.255404
1784.000000;2.361648
1783.000000;2.524064
1782.000000;2.674630
1781.000000;2.955032
1780.000000;3.298778
1779.000000;3.167156
1778.000000;2.787337
1777.000000;2.584098
1776.000000;2.672144
1775.000000;2.734035
1774.000000;2.529132
1773.000000;2.490565
1772.000000;2.575697
1771.000000;2.955074
1770.000000;3.268908
1769.000000;2.640191
1768.000000;2.479622
1767.000000;2.388067
1766.000000;2.365396
1765.000000;2.464292
1764.000000;2.681996
1763.000000;2.959219
1762.000000;2.993447
1761.000000;2.702138
1760.000000;2.506166
1759.000000;2.475781
1758.000000;2.512043
1757.000000;2.474557
1756.000000;2.333014
1755.000000;2.228727
1754.000000;2.239312
1753.000000;2.355387
1752.000000;2.565848
1751.000000;2.770445
1750.000000;2.517553
1749.000000;2.277037
1748.000000;2.206150
1747.000000;2.283713
1746.000000;2.444409
1745.000000;2.563999
1744.000000;2.565483
1743.000000;2.425100
1742.000000;2.274613
1741.000000;2.195889
1740.000000;2.162299
1739.000000;2.121621
1738.000000;2.082871
1737.000000;2.091230
1736.000000;2.160723
1735.000000;2.241375
1734.000000;2.263950
1733.000000;2.268464
1732.000000;2.378646
1731.000000;2.857447
1730.000000;3.008733
1729.000000;2.651357
1728.000000;2.747733
1727.000000;2.710041
1726.000000;2.537902
1725.000000;2.489168
1724.000000;2.552908
1723.000000;2.644817
1722.000000;2.490920
1721.000000;2.337099
1720.000000;2.291593
1719.000000;2.302171
1718.000000;2.324034
1717.000000;2.347701
1716.000000;2.395616
1715.000000;2.508866
1714.000000;2.675306
1713.000000;2.993688
1712.000000;3.145795
1711.000000;2.742179
1710.000000;2.616395
1709.000000;2.635340
1708.000000;2.654721
1707.000000;2.680532
1706.000000;2.878190
1705.000000;2.750013
1704.000000;2.491532
1703.000000;2.558732
1702.000000;2.864759
1701.000000;2.866349
1700.000000;2.646819
1699.000000;2.534835
1698.000000;2.542089
1697.000000;2.571073
1696.000000;2.568182
1695.000000;2.673600
1694.000000;3.133864
1693.000000;3.364229
1692.000000;2.858445
1691.000000;2.605757
1690.000000;2.533672
1689.000000;2.793591
1688.000000;2.765860
1687.000000;2.393404
1686.000000;2.355528
1685.000000;2.399668
1684.000000;2.446070
1683.000000;2.610766
1682.000000;3.089335
1681.000000;3.191500
1680.000000;2.591937
1679.000000;2.287017
1678.000000;2.214243
1677.000000;2.293857
1676.000000;2.405656
1675.000000;2.421208
1674.000000;2.340074
1673.000000;2.277085
1672.000000;2.294002
1671.000000;2.410577
1670.000000;2.726623
1669.000000;2.748984
1668.000000;2.516994
1667.000000;2.491024
1666.000000;2.516738
1665.000000;2.636133
1664.000000;2.874814
1663.000000;2.916560
1662.000000;2.576732
1661.000000;2.312928
1660.000000;2.251055
1659.000000;2.346991
1658.000000;2.859227
1657.000000;3.147123
1656.000000;2.621988
1655.000000;2.842054
1654.000000;3.251902
1653.000000;2.964400
1652.000000;2.586048
1651.000000;2.470010
1650.000000;2.375517
1649.000000;2.295031
1648.000000;2.270630
1647.000000;2.289067
1646.000000;2.313140
1645.000000;2.327522
1644.000000;2.338081
1643.000000;2.345334
1642.000000;2.382612
1641.000000;2.496686
1640.000000;2.800539
1639.000000;3.253228
1638.000000;2.967281
1637.000000;3.022316
1636.000000;2.859532
1635.000000;2.545888
1634.000000;2.445877
1633.000000;2.454135
1632.000000;2.465602
1631.000000;2.493886
1630.000000;2.613866
1629.000000;2.813748
1628.000000;2.712565
1627.000000;2.500774
1626.000000;2.405790
1625.000000;2.352427
1624.000000;2.351657
1623.000000;2.421914
1622.000000;2.524651
1621.000000;2.525784
1620.000000;2.505491
1619.000000;2.519005
1618.000000;2.506195
1617.000000;2.438840
1616.000000;2.359889
1615.000000;2.348363
1614.000000;2.398217
1613.000000;2.430277
1612.000000;2.426904
1611.000000;2.462050
1610.000000;2.627815
1609.000000;2.829056
1608.000000;2.790778
1607.000000;2.892297
1606.000000;2.914602
1605.000000;2.795409
1604.000000;2.755173
1603.000000;2.695029
1602.000000;2.771932
1601.000000;3.264570
1600.000000;3.063463
1599.000000;2.714970
1598.000000;2.624426
1597.000000;2.567341
1596.000000;2.613329
1595.000000;2.581519
1594.000000;2.449438
1593.000000;2.423772
1592.000000;2.503027
1591.000000;2.603365
1590.000000;2.699899
1589.000000;2.800243
1588.000000;2.896484
1587.000000;2.898721
1586.000000;2.692278
1585.000000;2.444661
1584.000000;2.282284
1583.000000;2.213839
1582.000000;2.235782
1581.000000;2.344912
1580.000000;2.649441
1579.000000;3.050090
1578.000000;2.612605
1577.000000;2.362819
1576.000000;2.210254
1575.000000;2.141429
1574.000000;2.161289
1573.000000;2.199568
1572.000000;2.203740
1571.000000;2.204547
1570.000000;2.231483
1569.000000;2.299952
1568.000000;2.424901
1567.000000;2.517564
1566.000000;2.492694
1565.000000;2.424906
1564.000000;2.391726
1563.000000;2.485713
1562.000000;2.655397
1561.000000;2.616865
1560.000000;2.602375
1559.000000;2.613539
1558.000000;2.619127
1557.000000;2.620270
1556.000000;2.697535
1555.000000;2.714477
1554.000000;2.612161
1553.000000;2.513340
1552.000000;2.527863
1551.000000;2.564909
1550.000000;2.452189
1549.000000;2.365187
1548.000000;2.450567
1547.000000;2.547037
1546.000000;2.530210
1545.000000;2.586267
1544.000000;2.999039
1543.000000;3.042440
1542.000000;3.039536
1541.000000;2.808863
1540.000000;2.459775
1539.000000;2.333486
1538.000000;2.409923
1537.000000;2.564522
1536.000000;2.648497
1535.000000;2.681678
1534.000000;2.727474
1533.000000;2.769084
1532.000000;2.654336
1531.000000;2.404305
1530.000000;2.202547
1529.000000;2.089151
1528.000000;2.060627
1527.000000;2.117966
1526.000000;2.275637
1525.000000;2.516706
1524.000000;2.727983
1523.000000;2.833352
1522.000000;2.824837
1521.000000;2.834911
1520.000000;3.381362
1519.000000;3.453548
1518.000000;2.700834
1517.000000;2.306968
1516.000000;2.101204
1515.000000;2.134659
1514.000000;2.393498
1513.000000;2.675107
1512.000000;2.658538
1511.000000;2.733298
1510.000000;3.061462
1509.000000;3.050008
1508.000000;2.781160
1507.000000;2.526320
1506.000000;2.543589
1505.000000;2.991177
1504.000000;2.676404
1503.000000;2.436878
1502.000000;2.312471
1501.000000;2.261877
1500.000000;2.281978
1499.000000;2.352735
1498.000000;2.324421
1497.000000;2.220900
1496.000000;2.187249
1495.000000;2.222475
1494.000000;2.292195
1493.000000;2.368306
1492.000000;2.419708
1491.000000;2.387001
1490.000000;2.247700
1489.000000;2.114768
1488.000000;2.124284
1487.000000;2.348296
1486.000000;2.576345
1485.000000;2.362462
1484.000000;2.240660
1483.000000;2.240680
1482.000000;2.315175
1481.000000;2.516861
1480.000000;2.752145
1479.000000;2.487260
1478.000000;2.469782
1477.000000;2.792548
1476.000000;2.733755
1475.000000;2.318134
1474.000000;2.232768
1473.000000;2.255514
1472.000000;2.393256
1471.000000;2.732406
1470.000000;3.028551
1469.000000;2.886508
1468.000000;2.743280
1467.000000;2.527835
1466.000000;2.432864
1465.000000;2.477936
1464.000000;2.692400
1463.000000;3.192093
1462.000000;2.898056
1461.000000;2.644446
1460.000000;2.627968
1459.000000;2.651387
1458.000000;2.649289
1457.000000;2.636659
1456.000000;2.614936
1455.000000;2.568399
1454.000000;2.594357
1453.000000;2.763633
1452.000000;3.178051
1451.000000;2.689483
1450.000000;2.499529
1449.000000;2.477364
1448.000000;2.574873
1447.000000;2.833288
1446.000000;3.126738
1445.000000;2.891736
1444.000000;2.979770
1443.000000;3.194506
1442.000000;2.797121
1441.000000;2.566883
1440.000000;2.552717
1439.000000;2.711512
1438.000000;2.929777
1437.000000;2.917817
1436.000000;2.711271
1435.000000;2.496373
1434.000000;2.422483
1433.000000;2.502421
1432.000000;2.707809
1431.000000;2.927930
1430.000000;3.048979
1429.000000;3.075734
1428.000000;3.110926
1427.000000;2.966873
1426.000000;2.791859
1425.000000;2.745180
1424.000000;2.560428
1423.000000;2.358084
1422.000000;2.329737
1421.000000;2.427325
1420.000000;2.537767
1419.000000;2.558891
1418.000000;2.506224
1417.000000;2.527909
1416.000000;2.645590
1415.000000;3.190665
1414.000000;3.165028
1413.000000;2.556128
1412.000000;2.408019
1411.000000;2.324148
1410.000000;2.238718
1409.000000;2.157545
1408.000000;2.159640
1407.000000;2.213507
1406.000000;2.244723
1405.000000;2.275299
1404.000000;2.393011
1403.000000;2.762637
1402.000000;2.792942
1401.000000;2.535051
1400.000000;2.470945
1399.000000;2.539629
1398.000000;2.712726
1397.000000;2.796748
1396.000000;2.632649
1395.000000;2.455804
1394.000000;2.382424
1393.000000;2.397703
1392.000000;2.451966
1391.000000;2.517042
1390.000000;2.625677
1389.000000;2.819857
1388.000000;2.915077
1387.000000;2.909799
1386.000000;2.993160
1385.000000;2.963197
1384.000000;2.642906
1383.000000;2.393803
1382.000000;2.323508
1381.000000;2.371763
1380.000000;2.429328
1379.000000;2.442062
1378.000000;2.457646
1377.000000;2.425197
1376.000000;2.362237
1375.000000;2.353648
1374.000000;2.427705
1373.000000;2.536817
1372.000000;2.558107
1371.000000;2.517724
1370.000000;2.499520
1369.000000;2.554121
1368.000000;2.682251
1367.000000;2.702103
1366.000000;2.577580
1365.000000;2.514260
1364.000000;2.533293
1363.000000;2.526911
1362.000000;2.400082
1361.000000;2.306450
1360.000000;2.337451
1359.000000;2.440088
1358.000000;2.418933
1357.000000;2.364262
1356.000000;2.448610
1355.000000;2.762473
1354.000000;3.149273
1353.000000;2.723973
1352.000000;2.456922
1351.000000;2.422827
1350.000000;2.578746
1349.000000;3.210813
1348.000000;2.869151
1347.000000;2.645173
1346.000000;2.618415
1345.000000;2.628357
1344.000000;2.581391
1343.000000;2.497895
1342.000000;2.445004
1341.000000;2.423202
1340.000000;2.428579
1339.000000;2.502780
1338.000000;2.739923
1337.000000;2.912491
1336.000000;2.709825
1335.000000;2.668967
1334.000000;2.737610
1333.000000;2.910022
1332.000000;2.737096
1331.000000;2.501946
1330.000000;2.500217
1329.000000;2.699025
1328.000000;2.692326
1327.000000;2.520035
1326.000000;2.469150
1325.000000;2.511823
1324.000000;2.597089
1323.000000;2.620438
1322.000000;2.516519
1321.000000;2.401510
1320.000000;2.367841
1319.000000;2.360206
1318.000000;2.296509
1317.000000;2.240814
1316.000000;2.283293
1315.000000;2.449254
1314.000000;2.677793
1313.000000;2.708517
1312.000000;2.605977
1311.000000;2.603536
1310.000000;2.697482
1309.000000;2.793456
1308.000000;2.769966
1307.000000;2.631781
1306.000000;2.525871
1305.000000;2.494255
1304.000000;2.499065
1303.000000;2.531169
1302.000000;2.651825
1301.000000;2.688106
1300.000000;2.598966
1299.000000;2.619943
1298.000000;2.723825
1297.000000;2.654987
1296.000000;2.542292
1295.000000;2.564043
1294.000000;2.740432
1293.000000;3.110618
1292.000000;3.606250
1291.000000;2.893726
1290.000000;2.613976
1289.000000;2.496736
1288.000000;2.468848
1287.000000;2.455949
1286.000000;2.473826
1285.000000;2.580452
1284.000000;2.865525
1283.000000;3.209654
1282.000000;2.800298
1281.000000;2.475484
1280.000000;2.302839
1279.000000;2.273058
1278.000000;2.425334
1277.000000;2.586356
1276.000000;2.478576
1275.000000;2.474213
1274.000000;2.687005
1273.000000;3.066143
1272.000000;3.361183
1271.000000;3.249951
1270.000000;2.764726
1269.000000;2.540945
1268.000000;2.485805
1267.000000;2.495434
1266.000000;2.535709
1265.000000;2.619888
1264.000000;2.751182
1263.000000;2.939071
1262.000000;3.100396
1261.000000;2.904625
1260.000000;2.711689
1259.000000;2.609877
1258.000000;2.602537
1257.000000;2.700068
1256.000000;2.917501
1255.000000;3.212847
1254.000000;3.114742
1253.000000;2.785492
1252.000000;2.562476
1251.000000;2.438176
1250.000000;2.384988
1249.000000;2.368069
1248.000000;2.385793
1247.000000;2.445912
1246.000000;2.544483
1245.000000;2.670328
1244.000000;2.793303
1243.000000;2.729061
1242.000000;2.541504
1241.000000;2.438788
1240.000000;2.437603
1239.000000;2.500951
1238.000000;2.574982
1237.000000;2.615129
1236.000000;2.815333
1235.000000;3.565856
1234.000000;2.609945
1233.000000;2.433329
1232.000000;2.431080
1231.000000;2.501273
1230.000000;2.534773
1229.000000;2.590844
1228.000000;2.782302
1227.000000;3.155122
1226.000000;2.912808
1225.000000;2.593423
1224.000000;2.536092
1223.000000;2.683088
1222.000000;3.055345
1221.000000;3.056080
1220.000000;2.732112
1219.000000;2.493046
1218.000000;2.397361
1217.000000;2.432189
1216.000000;2.518556
1215.000000;2.542838
1214.000000;2.512845
1213.000000;2.511192
1212.000000;2.500430
1211.000000;2.472173
1210.000000;2.508410
1209.000000;2.535582
1208.000000;2.458290
1207.000000;2.379346
1206.000000;2.357637
1205.000000;2.373395
1204.000000;2.353179
1203.000000;2.323167
1202.000000;2.334241
1201.000000;2.396595
1200.000000;2.544661
