Criado como novo conjunto de dados;"2706_e01_daniel.spp","47164.5 Secs"
cm-1;Abs
10000.000000;1.106718
9999.000000;1.106775
9998.000000;1.106831
9997.000000;1.106887
9996.000000;1.106943
9995.000000;1.107001
9994.000000;1.107054
9993.000000;1.107118
9992.000000;1.107161
9991.000000;1.107242
9990.000000;1.107243
9989.000000;1.107616
9988.000000;1.108583
9987.000000;1.109627
9986.000000;1.110263
9985.000000;1.110236
9984.000000;1.109785
9983.000000;1.109247
9982.000000;1.108789
9981.000000;1.108465
9980.000000;1.108341
9979.000000;1.108370
9978.000000;1.108343
9977.000000;1.108176
9976.000000;1.108178
9975.000000;1.108788
9974.000000;1.110004
9973.000000;1.111226
9972.000000;1.111733
9971.000000;1.111311
9970.000000;1.110396
9969.000000;1.109629
9968.000000;1.109281
9967.000000;1.109109
9966.000000;1.108805
9965.000000;1.108466
9964.000000;1.108478
9963.000000;1.108971
9962.000000;1.109613
9961.000000;1.109979
9960.000000;1.109924
9959.000000;1.109577
9958.000000;1.109167
9957.000000;1.108933
9956.000000;1.108965
9955.000000;1.108993
9954.000000;1.108566
9953.000000;1.107663
9952.000000;1.106946
9951.000000;1.107087
9950.000000;1.107896
9949.000000;1.108396
9948.000000;1.107807
9947.000000;1.106303
9946.000000;1.104773
9945.000000;1.104032
9944.000000;1.104306
9943.000000;1.105292
9942.000000;1.106488
9941.000000;1.107411
9940.000000;1.107667
9939.000000;1.107092
9938.000000;1.105988
9937.000000;1.105065
9936.000000;1.104927
9935.000000;1.105546
9934.000000;1.106340
9933.000000;1.106759
9932.000000;1.106684
9931.000000;1.106314
9930.000000;1.105894
9929.000000;1.105613
9928.000000;1.105530
9927.000000;1.105488
9926.000000;1.105285
9925.000000;1.104976
9924.000000;1.104800
9923.000000;1.104743
9922.000000;1.104474
9921.000000;1.103876
9920.000000;1.103325
9919.000000;1.103195
9918.000000;1.103370
9917.000000;1.103493
9916.000000;1.103504
9915.000000;1.103622
9914.000000;1.103933
9913.000000;1.104291
9912.000000;1.104545
9911.000000;1.104631
9910.000000;1.104548
9909.000000;1.104442
9908.000000;1.104577
9907.000000;1.104928
9906.000000;1.104984
9905.000000;1.104308
9904.000000;1.103181
9903.000000;1.102317
9902.000000;1.102024
9901.000000;1.102071
9900.000000;1.102297
9899.000000;1.102846
9898.000000;1.103712
9897.000000;1.104560
9896.000000;1.105205
9895.000000;1.105849
9894.000000;1.106514
9893.000000;1.106601
9892.000000;1.105470
9891.000000;1.103387
9890.000000;1.101519
9889.000000;1.100895
9888.000000;1.101507
9887.000000;1.102388
9886.000000;1.102482
9885.000000;1.101486
9884.000000;1.099994
9883.000000;1.098838
9882.000000;1.098381
9881.000000;1.098472
9880.000000;1.098864
9879.000000;1.099446
9878.000000;1.100123
9877.000000;1.100746
9876.000000;1.101260
9875.000000;1.101683
9874.000000;1.101882
9873.000000;1.101636
9872.000000;1.100998
9871.000000;1.100339
9870.000000;1.099895
9869.000000;1.099515
9868.000000;1.099046
9867.000000;1.098759
9866.000000;1.099095
9865.000000;1.100065
9864.000000;1.101133
9863.000000;1.101632
9862.000000;1.101220
9861.000000;1.100059
9860.000000;1.098743
9859.000000;1.097984
9858.000000;1.098144
9857.000000;1.098964
9856.000000;1.099795
9855.000000;1.100101
9854.000000;1.099737
9853.000000;1.098888
9852.000000;1.097916
9851.000000;1.097204
9850.000000;1.096946
9849.000000;1.097033
9848.000000;1.097204
9847.000000;1.097263
9846.000000;1.097117
9845.000000;1.096738
9844.000000;1.096265
9843.000000;1.096077
9842.000000;1.096524
9841.000000;1.097491
9840.000000;1.098386
9839.000000;1.098649
9838.000000;1.098170
9837.000000;1.097196
9836.000000;1.096066
9835.000000;1.095176
9834.000000;1.094983
9833.000000;1.095651
9832.000000;1.096646
9831.000000;1.097009
9830.000000;1.096270
9829.000000;1.094945
9828.000000;1.093941
9827.000000;1.093605
9826.000000;1.093572
9825.000000;1.093493
9824.000000;1.093536
9823.000000;1.094053
9822.000000;1.095001
9821.000000;1.095955
9820.000000;1.096579
9819.000000;1.096851
9818.000000;1.096887
9817.000000;1.096788
9816.000000;1.096678
9815.000000;1.096707
9814.000000;1.096919
9813.000000;1.097198
9812.000000;1.097347
9811.000000;1.097190
9810.000000;1.096640
9809.000000;1.095808
9808.000000;1.095014
9807.000000;1.094575
9806.000000;1.094563
9805.000000;1.094800
9804.000000;1.095053
9803.000000;1.095156
9802.000000;1.095072
9801.000000;1.094948
9800.000000;1.095040
9799.000000;1.095359
9798.000000;1.095458
9797.000000;1.094839
9796.000000;1.093612
9795.000000;1.092484
9794.000000;1.092019
9793.000000;1.092129
9792.000000;1.092331
9791.000000;1.092335
9790.000000;1.092213
9789.000000;1.092156
9788.000000;1.092205
9787.000000;1.092215
9786.000000;1.092016
9785.000000;1.091661
9784.000000;1.091466
9783.000000;1.091674
9782.000000;1.092075
9781.000000;1.092169
9780.000000;1.091748
9779.000000;1.091107
9778.000000;1.090641
9777.000000;1.090466
9776.000000;1.090561
9775.000000;1.091023
9774.000000;1.091902
9773.000000;1.092906
9772.000000;1.093574
9771.000000;1.093721
9770.000000;1.093539
9769.000000;1.093269
9768.000000;1.092939
9767.000000;1.092453
9766.000000;1.091800
9765.000000;1.091165
9764.000000;1.090855
9763.000000;1.091083
9762.000000;1.091721
9761.000000;1.092315
9760.000000;1.092427
9759.000000;1.091981
9758.000000;1.091241
9757.000000;1.090520
9756.000000;1.089969
9755.000000;1.089585
9754.000000;1.089282
9753.000000;1.088957
9752.000000;1.088571
9751.000000;1.088167
9750.000000;1.087782
9749.000000;1.087428
9748.000000;1.087206
9747.000000;1.087336
9746.000000;1.087984
9745.000000;1.089053
9744.000000;1.090161
9743.000000;1.090780
9742.000000;1.090517
9741.000000;1.089439
9740.000000;1.088205
9739.000000;1.087668
9738.000000;1.088162
9737.000000;1.089176
9736.000000;1.089816
9735.000000;1.089556
9734.000000;1.088552
9733.000000;1.087414
9732.000000;1.086815
9731.000000;1.087115
9730.000000;1.088063
9729.000000;1.088891
9728.000000;1.088914
9727.000000;1.088083
9726.000000;1.086867
9725.000000;1.085753
9724.000000;1.085028
9723.000000;1.084862
9722.000000;1.085251
9721.000000;1.085885
9720.000000;1.086327
9719.000000;1.086409
9718.000000;1.086293
9717.000000;1.086189
9716.000000;1.086272
9715.000000;1.086795
9714.000000;1.087882
9713.000000;1.089083
9712.000000;1.089496
9711.000000;1.088654
9710.000000;1.087092
9709.000000;1.085783
9708.000000;1.085148
9707.000000;1.084909
9706.000000;1.084753
9705.000000;1.084772
9704.000000;1.085200
9703.000000;1.085971
9702.000000;1.086708
9701.000000;1.087060
9700.000000;1.086917
9699.000000;1.086353
9698.000000;1.085470
9697.000000;1.084360
9696.000000;1.083196
9695.000000;1.082331
9694.000000;1.082189
9693.000000;1.082941
9692.000000;1.084281
9691.000000;1.085596
9690.000000;1.086384
9689.000000;1.086509
9688.000000;1.086103
9687.000000;1.085357
9686.000000;1.084484
9685.000000;1.083748
9684.000000;1.083370
9683.000000;1.083371
9682.000000;1.083544
9681.000000;1.083633
9680.000000;1.083496
9679.000000;1.083163
9678.000000;1.082801
9677.000000;1.082655
9676.000000;1.082923
9675.000000;1.083597
9674.000000;1.084427
9673.000000;1.085078
9672.000000;1.085369
9671.000000;1.085357
9670.000000;1.085148
9669.000000;1.084719
9668.000000;1.084014
9667.000000;1.083190
9666.000000;1.082622
9665.000000;1.082601
9664.000000;1.083068
9663.000000;1.083690
9662.000000;1.084119
9661.000000;1.084156
9660.000000;1.083770
9659.000000;1.083147
9658.000000;1.082715
9657.000000;1.082904
9656.000000;1.083693
9655.000000;1.084483
9654.000000;1.084619
9653.000000;1.084107
9652.000000;1.083610
9651.000000;1.083661
9650.000000;1.084025
9649.000000;1.084013
9648.000000;1.083310
9647.000000;1.082270
9646.000000;1.081430
9645.000000;1.080959
9644.000000;1.080702
9643.000000;1.080550
9642.000000;1.080550
9641.000000;1.080686
9640.000000;1.080779
9639.000000;1.080674
9638.000000;1.080424
9637.000000;1.080201
9636.000000;1.080064
9635.000000;1.079897
9634.000000;1.079549
9633.000000;1.079041
9632.000000;1.078636
9631.000000;1.078682
9630.000000;1.079304
9629.000000;1.080229
9628.000000;1.080963
9627.000000;1.081183
9626.000000;1.080964
9625.000000;1.080572
9624.000000;1.080130
9623.000000;1.079581
9622.000000;1.078944
9621.000000;1.078424
9620.000000;1.078206
9619.000000;1.078246
9618.000000;1.078405
9617.000000;1.078695
9616.000000;1.079235
9615.000000;1.079948
9614.000000;1.080491
9613.000000;1.080585
9612.000000;1.080306
9611.000000;1.079946
9610.000000;1.079676
9609.000000;1.079480
9608.000000;1.079361
9607.000000;1.079419
9606.000000;1.079681
9605.000000;1.079972
9604.000000;1.080016
9603.000000;1.079623
9602.000000;1.078783
9601.000000;1.077694
9600.000000;1.076726
9599.000000;1.076263
9598.000000;1.076445
9597.000000;1.077061
9596.000000;1.077723
9595.000000;1.078180
9594.000000;1.078433
9593.000000;1.078567
9592.000000;1.078533
9591.000000;1.078158
9590.000000;1.077377
9589.000000;1.076395
9588.000000;1.075547
9587.000000;1.075003
9586.000000;1.074722
9585.000000;1.074672
9584.000000;1.074951
9583.000000;1.075575
9582.000000;1.076286
9581.000000;1.076718
9580.000000;1.076753
9579.000000;1.076566
9578.000000;1.076356
9577.000000;1.076208
9576.000000;1.076214
9575.000000;1.076475
9574.000000;1.076865
9573.000000;1.076961
9572.000000;1.076432
9571.000000;1.075470
9570.000000;1.074668
9569.000000;1.074467
9568.000000;1.074774
9567.000000;1.075153
9566.000000;1.075321
9565.000000;1.075419
9564.000000;1.075762
9563.000000;1.076339
9562.000000;1.076677
9561.000000;1.076324
9560.000000;1.075462
9559.000000;1.074793
9558.000000;1.074762
9557.000000;1.075076
9556.000000;1.075132
9555.000000;1.074775
9554.000000;1.074382
9553.000000;1.074266
9552.000000;1.074295
9551.000000;1.074181
9550.000000;1.073961
9549.000000;1.073978
9548.000000;1.074404
9547.000000;1.074955
9546.000000;1.075151
9545.000000;1.074839
9544.000000;1.074357
9543.000000;1.074126
9542.000000;1.074146
9541.000000;1.074028
9540.000000;1.073506
9539.000000;1.072765
9538.000000;1.072179
9537.000000;1.071910
9536.000000;1.071888
9535.000000;1.072066
9534.000000;1.072442
9533.000000;1.072863
9532.000000;1.073054
9531.000000;1.072923
9530.000000;1.072682
9529.000000;1.072587
9528.000000;1.072685
9527.000000;1.072903
9526.000000;1.073226
9525.000000;1.073622
9524.000000;1.073896
9523.000000;1.073811
9522.000000;1.073381
9521.000000;1.072856
9520.000000;1.072402
9519.000000;1.071910
9518.000000;1.071233
9517.000000;1.070537
9516.000000;1.070241
9515.000000;1.070570
9514.000000;1.071227
9513.000000;1.071605
9512.000000;1.071360
9511.000000;1.070733
9510.000000;1.070302
9509.000000;1.070420
9508.000000;1.070928
9507.000000;1.071330
9506.000000;1.071240
9505.000000;1.070687
9504.000000;1.070108
9503.000000;1.070007
9502.000000;1.070543
9501.000000;1.071386
9500.000000;1.072040
9499.000000;1.072315
9498.000000;1.072398
9497.000000;1.072428
9496.000000;1.072175
9495.000000;1.071324
9494.000000;1.070010
9493.000000;1.068873
9492.000000;1.068491
9491.000000;1.068872
9490.000000;1.069541
9489.000000;1.070003
9488.000000;1.070081
9487.000000;1.069916
9486.000000;1.069777
9485.000000;1.069874
9484.000000;1.070210
9483.000000;1.070557
9482.000000;1.070583
9481.000000;1.070087
9480.000000;1.069175
9479.000000;1.068248
9478.000000;1.067794
9477.000000;1.068053
9476.000000;1.068799
9475.000000;1.069469
9474.000000;1.069576
9473.000000;1.069021
9472.000000;1.068065
9471.000000;1.067094
9470.000000;1.066434
9469.000000;1.066233
9468.000000;1.066393
9467.000000;1.066639
9466.000000;1.066763
9465.000000;1.066782
9464.000000;1.066811
9463.000000;1.066911
9462.000000;1.067147
9461.000000;1.067643
9460.000000;1.068342
9459.000000;1.068795
9458.000000;1.068496
9457.000000;1.067485
9456.000000;1.066384
9455.000000;1.065750
9454.000000;1.065621
9453.000000;1.065748
9452.000000;1.065975
9451.000000;1.066211
9450.000000;1.066270
9449.000000;1.066018
9448.000000;1.065596
9447.000000;1.065265
9446.000000;1.065097
9445.000000;1.065006
9444.000000;1.064989
9443.000000;1.065118
9442.000000;1.065354
9441.000000;1.065593
9440.000000;1.065851
9439.000000;1.066191
9438.000000;1.066477
9437.000000;1.066474
9436.000000;1.066193
9435.000000;1.065902
9434.000000;1.065746
9433.000000;1.065608
9432.000000;1.065426
9431.000000;1.065365
9430.000000;1.065521
9429.000000;1.065672
9428.000000;1.065542
9427.000000;1.065182
9426.000000;1.064874
9425.000000;1.064726
9424.000000;1.064579
9423.000000;1.064275
9422.000000;1.063848
9421.000000;1.063403
9420.000000;1.062939
9419.000000;1.062396
9418.000000;1.061836
9417.000000;1.061533
9416.000000;1.061801
9415.000000;1.062682
9414.000000;1.063795
9413.000000;1.064570
9412.000000;1.064691
9411.000000;1.064299
9410.000000;1.063812
9409.000000;1.063621
9408.000000;1.063893
9407.000000;1.064462
9406.000000;1.064881
9405.000000;1.064752
9404.000000;1.064105
9403.000000;1.063343
9402.000000;1.062763
9401.000000;1.062307
9400.000000;1.061875
9399.000000;1.061642
9398.000000;1.061881
9397.000000;1.062571
9396.000000;1.063389
9395.000000;1.064028
9394.000000;1.064343
9393.000000;1.064237
9392.000000;1.063668
9391.000000;1.062813
9390.000000;1.062075
9389.000000;1.061776
9388.000000;1.061898
9387.000000;1.062101
9386.000000;1.061958
9385.000000;1.061226
9384.000000;1.060075
9383.000000;1.059088
9382.000000;1.058893
9381.000000;1.059639
9380.000000;1.060827
9379.000000;1.061701
9378.000000;1.061851
9377.000000;1.061442
9376.000000;1.060915
9375.000000;1.060531
9374.000000;1.060249
9373.000000;1.059994
9372.000000;1.059886
9371.000000;1.060078
9370.000000;1.060397
9369.000000;1.060386
9368.000000;1.059813
9367.000000;1.059006
9366.000000;1.058558
9365.000000;1.058756
9364.000000;1.059398
9363.000000;1.060066
9362.000000;1.060415
9361.000000;1.060278
9360.000000;1.059724
9359.000000;1.059080
9358.000000;1.058739
9357.000000;1.058849
9356.000000;1.059221
9355.000000;1.059536
9354.000000;1.059580
9353.000000;1.059296
9352.000000;1.058761
9351.000000;1.058158
9350.000000;1.057669
9349.000000;1.057334
9348.000000;1.057059
9347.000000;1.056779
9346.000000;1.056557
9345.000000;1.056517
9344.000000;1.056740
9343.000000;1.057187
9342.000000;1.057635
9341.000000;1.057725
9340.000000;1.057274
9339.000000;1.056568
9338.000000;1.056186
9337.000000;1.056438
9336.000000;1.057069
9335.000000;1.057565
9334.000000;1.057626
9333.000000;1.057317
9332.000000;1.056940
9331.000000;1.056880
9330.000000;1.057376
9329.000000;1.058217
9328.000000;1.058756
9327.000000;1.058479
9326.000000;1.057576
9325.000000;1.056767
9324.000000;1.056573
9323.000000;1.056898
9322.000000;1.057281
9321.000000;1.057337
9320.000000;1.056934
9319.000000;1.056183
9318.000000;1.055422
9317.000000;1.055056
9316.000000;1.055238
9315.000000;1.055756
9314.000000;1.056270
9313.000000;1.056586
9312.000000;1.056641
9311.000000;1.056393
9310.000000;1.055877
9309.000000;1.055284
9308.000000;1.054811
9307.000000;1.054451
9306.000000;1.054108
9305.000000;1.053863
9304.000000;1.053909
9303.000000;1.054229
9302.000000;1.054558
9301.000000;1.054725
9300.000000;1.054850
9299.000000;1.055065
9298.000000;1.055230
9297.000000;1.055107
9296.000000;1.054699
9295.000000;1.054204
9294.000000;1.053691
9293.000000;1.053082
9292.000000;1.052453
9291.000000;1.052121
9290.000000;1.052292
9289.000000;1.052775
9288.000000;1.053170
9287.000000;1.053254
9286.000000;1.053081
9285.000000;1.052802
9284.000000;1.052545
9283.000000;1.052441
9282.000000;1.052595
9281.000000;1.052965
9280.000000;1.053324
9279.000000;1.053387
9278.000000;1.052986
9277.000000;1.052183
9276.000000;1.051261
9275.000000;1.050575
9274.000000;1.050324
9273.000000;1.050423
9272.000000;1.050670
9271.000000;1.050980
9270.000000;1.051385
9269.000000;1.051809
9268.000000;1.052060
9267.000000;1.052092
9266.000000;1.052124
9265.000000;1.052347
9264.000000;1.052605
9263.000000;1.052574
9262.000000;1.052220
9261.000000;1.051867
9260.000000;1.051771
9259.000000;1.051806
9258.000000;1.051654
9257.000000;1.051198
9256.000000;1.050606
9255.000000;1.050126
9254.000000;1.049905
9253.000000;1.049942
9252.000000;1.050081
9251.000000;1.050112
9250.000000;1.049982
9249.000000;1.049898
9248.000000;1.050086
9247.000000;1.050489
9246.000000;1.050847
9245.000000;1.051011
9244.000000;1.050999
9243.000000;1.050740
9242.000000;1.050047
9241.000000;1.048977
9240.000000;1.048020
9239.000000;1.047692
9238.000000;1.048018
9237.000000;1.048576
9236.000000;1.049018
9235.000000;1.049315
9234.000000;1.049529
9233.000000;1.049588
9232.000000;1.049417
9231.000000;1.049130
9230.000000;1.048941
9229.000000;1.048925
9228.000000;1.048984
9227.000000;1.049025
9226.000000;1.049065
9225.000000;1.049132
9224.000000;1.049165
9223.000000;1.049050
9222.000000;1.048759
9221.000000;1.048391
9220.000000;1.048072
9219.000000;1.047853
9218.000000;1.047726
9217.000000;1.047716
9216.000000;1.047902
9215.000000;1.048288
9214.000000;1.048722
9213.000000;1.048968
9212.000000;1.048904
9211.000000;1.048622
9210.000000;1.048344
9209.000000;1.048239
9208.000000;1.048269
9207.000000;1.048210
9206.000000;1.047874
9205.000000;1.047328
9204.000000;1.046849
9203.000000;1.046631
9202.000000;1.046615
9201.000000;1.046639
9200.000000;1.046644
9199.000000;1.046638
9198.000000;1.046550
9197.000000;1.046260
9196.000000;1.045789
9195.000000;1.045321
9194.000000;1.045042
9193.000000;1.045006
9192.000000;1.045157
9191.000000;1.045354
9190.000000;1.045412
9189.000000;1.045242
9188.000000;1.044982
9187.000000;1.044882
9186.000000;1.045010
9185.000000;1.045196
9184.000000;1.045263
9183.000000;1.045228
9182.000000;1.045210
9181.000000;1.045258
9180.000000;1.045314
9179.000000;1.045298
9178.000000;1.045166
9177.000000;1.044972
9176.000000;1.044890
9175.000000;1.045060
9174.000000;1.045372
9173.000000;1.045464
9172.000000;1.045054
9171.000000;1.044239
9170.000000;1.043402
9169.000000;1.042903
9168.000000;1.042886
9167.000000;1.043273
9166.000000;1.043813
9165.000000;1.044223
9164.000000;1.044411
9163.000000;1.044518
9162.000000;1.044670
9161.000000;1.044750
9160.000000;1.044530
9159.000000;1.044008
9158.000000;1.043475
9157.000000;1.043244
9156.000000;1.043393
9155.000000;1.043748
9154.000000;1.044018
9153.000000;1.043954
9152.000000;1.043516
9151.000000;1.042936
9150.000000;1.042560
9149.000000;1.042565
9148.000000;1.042841
9147.000000;1.043135
9146.000000;1.043254
9145.000000;1.043120
9144.000000;1.042712
9143.000000;1.042054
9142.000000;1.041272
9141.000000;1.040638
9140.000000;1.040451
9139.000000;1.040764
9138.000000;1.041203
9137.000000;1.041234
9136.000000;1.040724
9135.000000;1.040179
9134.000000;1.040232
9133.000000;1.040916
9132.000000;1.041557
9131.000000;1.041466
9130.000000;1.040647
9129.000000;1.039752
9128.000000;1.039399
9127.000000;1.039650
9126.000000;1.040099
9125.000000;1.040367
9124.000000;1.040435
9123.000000;1.040528
9122.000000;1.040770
9121.000000;1.041037
9120.000000;1.041115
9119.000000;1.040910
9118.000000;1.040480
9117.000000;1.039963
9116.000000;1.039517
9115.000000;1.039248
9114.000000;1.039123
9113.000000;1.039042
9112.000000;1.039046
9111.000000;1.039346
9110.000000;1.040011
9109.000000;1.040707
9108.000000;1.040942
9107.000000;1.040567
9106.000000;1.039893
9105.000000;1.039321
9104.000000;1.039014
9103.000000;1.038935
9102.000000;1.038996
9101.000000;1.039056
9100.000000;1.038941
9099.000000;1.038597
9098.000000;1.038167
9097.000000;1.037832
9096.000000;1.037642
9095.000000;1.037554
9094.000000;1.037544
9093.000000;1.037591
9092.000000;1.037614
9091.000000;1.037554
9090.000000;1.037462
9089.000000;1.037417
9088.000000;1.037401
9087.000000;1.037371
9086.000000;1.037404
9085.000000;1.037661
9084.000000;1.038172
9083.000000;1.038752
9082.000000;1.039144
9081.000000;1.039213
9080.000000;1.038994
9079.000000;1.038600
9078.000000;1.038103
9077.000000;1.037491
9076.000000;1.036769
9075.000000;1.036086
9074.000000;1.035689
9073.000000;1.035669
9072.000000;1.035834
9071.000000;1.035910
9070.000000;1.035839
9069.000000;1.035762
9068.000000;1.035751
9067.000000;1.035744
9066.000000;1.035725
9065.000000;1.035796
9064.000000;1.035985
9063.000000;1.036103
9062.000000;1.035943
9061.000000;1.035539
9060.000000;1.035131
9059.000000;1.034924
9058.000000;1.034969
9057.000000;1.035208
9056.000000;1.035509
9055.000000;1.035694
9054.000000;1.035649
9053.000000;1.035435
9052.000000;1.035190
9051.000000;1.034926
9050.000000;1.034564
9049.000000;1.034163
9048.000000;1.033955
9047.000000;1.034052
9046.000000;1.034247
9045.000000;1.034255
9044.000000;1.034072
9043.000000;1.033946
9042.000000;1.034015
9041.000000;1.034155
9040.000000;1.034236
9039.000000;1.034317
9038.000000;1.034469
9037.000000;1.034541
9036.000000;1.034306
9035.000000;1.033807
9034.000000;1.033349
9033.000000;1.033126
9032.000000;1.033008
9031.000000;1.032804
9030.000000;1.032581
9029.000000;1.032587
9028.000000;1.032909
9027.000000;1.033353
9026.000000;1.033666
9025.000000;1.033713
9024.000000;1.033451
9023.000000;1.032907
9022.000000;1.032259
9021.000000;1.031822
9020.000000;1.031772
9019.000000;1.031902
9018.000000;1.031791
9017.000000;1.031272
9016.000000;1.030660
9015.000000;1.030435
9014.000000;1.030743
9013.000000;1.031281
9012.000000;1.031639
9011.000000;1.031682
9010.000000;1.031563
9009.000000;1.031478
9008.000000;1.031494
9007.000000;1.031587
9006.000000;1.031672
9005.000000;1.031577
9004.000000;1.031119
9003.000000;1.030357
9002.000000;1.029671
9001.000000;1.029465
9000.000000;1.029779
8999.000000;1.030308
8998.000000;1.030779
8997.000000;1.031166
8996.000000;1.031505
8995.000000;1.031693
8994.000000;1.031603
8993.000000;1.031289
8992.000000;1.030931
8991.000000;1.030606
8990.000000;1.030247
8989.000000;1.029811
8988.000000;1.029364
8987.000000;1.028987
8986.000000;1.028700
8985.000000;1.028521
8984.000000;1.028495
8983.000000;1.028627
8982.000000;1.028826
8981.000000;1.028950
8980.000000;1.028893
8979.000000;1.028642
8978.000000;1.028326
8977.000000;1.028188
8976.000000;1.028395
8975.000000;1.028802
8974.000000;1.029007
8973.000000;1.028726
8972.000000;1.028089
8971.000000;1.027488
8970.000000;1.027173
8969.000000;1.027070
8968.000000;1.026971
8967.000000;1.026837
8966.000000;1.026862
8965.000000;1.027258
8964.000000;1.027992
8963.000000;1.028750
8962.000000;1.029181
8961.000000;1.029192
8960.000000;1.028964
8959.000000;1.028702
8958.000000;1.028435
8957.000000;1.028074
8956.000000;1.027559
8955.000000;1.026915
8954.000000;1.026256
8953.000000;1.025815
8952.000000;1.025861
8951.000000;1.026425
8950.000000;1.027133
8949.000000;1.027474
8948.000000;1.027287
8947.000000;1.026888
8946.000000;1.026657
8945.000000;1.026607
8944.000000;1.026455
8943.000000;1.026026
8942.000000;1.025476
8941.000000;1.025103
8940.000000;1.025069
8939.000000;1.025356
8938.000000;1.025889
8937.000000;1.026572
8936.000000;1.027191
8935.000000;1.027416
8934.000000;1.027051
8933.000000;1.026261
8932.000000;1.025462
8931.000000;1.024970
8930.000000;1.024801
8929.000000;1.024835
8928.000000;1.025029
8927.000000;1.025370
8926.000000;1.025698
8925.000000;1.025755
8924.000000;1.025452
8923.000000;1.024979
8922.000000;1.024612
8921.000000;1.024474
8920.000000;1.024507
8919.000000;1.024612
8918.000000;1.024715
8917.000000;1.024771
8916.000000;1.024756
8915.000000;1.024693
8914.000000;1.024621
8913.000000;1.024540
8912.000000;1.024416
8911.000000;1.024240
8910.000000;1.024074
8909.000000;1.023994
8908.000000;1.024005
8907.000000;1.024027
8906.000000;1.023973
8905.000000;1.023837
8904.000000;1.023683
8903.000000;1.023563
8902.000000;1.023483
8901.000000;1.023438
8900.000000;1.023425
8899.000000;1.023402
8898.000000;1.023261
8897.000000;1.022949
8896.000000;1.022587
8895.000000;1.022414
8894.000000;1.022549
8893.000000;1.022810
8892.000000;1.022842
8891.000000;1.022467
8890.000000;1.021889
8889.000000;1.021515
8888.000000;1.021534
8887.000000;1.021718
8886.000000;1.021704
8885.000000;1.021435
8884.000000;1.021206
8883.000000;1.021264
8882.000000;1.021499
8881.000000;1.021623
8880.000000;1.021548
8879.000000;1.021433
8878.000000;1.021403
8877.000000;1.021400
8876.000000;1.021335
8875.000000;1.021239
8874.000000;1.021181
8873.000000;1.021142
8872.000000;1.021073
8871.000000;1.021027
8870.000000;1.021137
8869.000000;1.021422
8868.000000;1.021667
8867.000000;1.021533
8866.000000;1.020858
8865.000000;1.019883
8864.000000;1.019144
8863.000000;1.019054
8862.000000;1.019568
8861.000000;1.020270
8860.000000;1.020755
8859.000000;1.020866
8858.000000;1.020624
8857.000000;1.020109
8856.000000;1.019490
8855.000000;1.019046
8854.000000;1.018998
8853.000000;1.019297
8852.000000;1.019644
8851.000000;1.019746
8850.000000;1.019567
8849.000000;1.019351
8848.000000;1.019381
8847.000000;1.019657
8846.000000;1.019842
8845.000000;1.019590
8844.000000;1.018940
8843.000000;1.018291
8842.000000;1.017957
8841.000000;1.017886
8840.000000;1.017846
8839.000000;1.017755
8838.000000;1.017709
8837.000000;1.017774
8836.000000;1.017904
8835.000000;1.018019
8834.000000;1.018036
8833.000000;1.017857
8832.000000;1.017457
8831.000000;1.017001
8830.000000;1.016751
8829.000000;1.016813
8828.000000;1.017040
8827.000000;1.017191
8826.000000;1.017142
8825.000000;1.016938
8824.000000;1.016720
8823.000000;1.016614
8822.000000;1.016622
8821.000000;1.016580
8820.000000;1.016294
8819.000000;1.015766
8818.000000;1.015246
8817.000000;1.015042
8816.000000;1.015267
8815.000000;1.015773
8814.000000;1.016290
8813.000000;1.016635
8812.000000;1.016785
8811.000000;1.016775
8810.000000;1.016572
8809.000000;1.016166
8808.000000;1.015755
8807.000000;1.015658
8806.000000;1.015933
8805.000000;1.016186
8804.000000;1.015974
8803.000000;1.015354
8802.000000;1.014826
8801.000000;1.014745
8800.000000;1.014951
8799.000000;1.015062
8798.000000;1.014923
8797.000000;1.014673
8796.000000;1.014501
8795.000000;1.014498
8794.000000;1.014653
8793.000000;1.014870
8792.000000;1.014986
8791.000000;1.014897
8790.000000;1.014635
8789.000000;1.014278
8788.000000;1.013831
8787.000000;1.013282
8786.000000;1.012732
8785.000000;1.012369
8784.000000;1.012339
8783.000000;1.012664
8782.000000;1.013250
8781.000000;1.013893
8780.000000;1.014346
8779.000000;1.014504
8778.000000;1.014496
8777.000000;1.014490
8776.000000;1.014412
8775.000000;1.014015
8774.000000;1.013232
8773.000000;1.012361
8772.000000;1.011798
8771.000000;1.011662
8770.000000;1.011739
8769.000000;1.011755
8768.000000;1.011619
8767.000000;1.011427
8766.000000;1.011312
8765.000000;1.011315
8764.000000;1.011397
8763.000000;1.011522
8762.000000;1.011693
8761.000000;1.011883
8760.000000;1.011969
8759.000000;1.011809
8758.000000;1.011391
8757.000000;1.010875
8756.000000;1.010496
8755.000000;1.010439
8754.000000;1.010762
8753.000000;1.011326
8752.000000;1.011811
8751.000000;1.011895
8750.000000;1.011504
8749.000000;1.010867
8748.000000;1.010322
8747.000000;1.010099
8746.000000;1.010254
8745.000000;1.010686
8744.000000;1.011140
8743.000000;1.011315
8742.000000;1.011070
8741.000000;1.010549
8740.000000;1.010038
8739.000000;1.009702
8738.000000;1.009506
8737.000000;1.009352
8736.000000;1.009209
8735.000000;1.009112
8734.000000;1.009101
8733.000000;1.009196
8732.000000;1.009373
8731.000000;1.009541
8730.000000;1.009567
8729.000000;1.009387
8728.000000;1.009075
8727.000000;1.008776
8726.000000;1.008564
8725.000000;1.008374
8724.000000;1.008098
8723.000000;1.007750
8722.000000;1.007485
8721.000000;1.007430
8720.000000;1.007497
8719.000000;1.007445
8718.000000;1.007161
8717.000000;1.006838
8716.000000;1.006814
8715.000000;1.007247
8714.000000;1.007957
8713.000000;1.008582
8712.000000;1.008846
8711.000000;1.008715
8710.000000;1.008375
8709.000000;1.008071
8708.000000;1.007917
8707.000000;1.007826
8706.000000;1.007629
8705.000000;1.007284
8704.000000;1.006917
8703.000000;1.006649
8702.000000;1.006448
8701.000000;1.006228
8700.000000;1.006036
8699.000000;1.006031
8698.000000;1.006257
8697.000000;1.006521
8696.000000;1.006582
8695.000000;1.006421
8694.000000;1.006221
8693.000000;1.006113
8692.000000;1.006030
8691.000000;1.005858
8690.000000;1.005619
8689.000000;1.005426
8688.000000;1.005286
8687.000000;1.005091
8686.000000;1.004825
8685.000000;1.004675
8684.000000;1.004843
8683.000000;1.005298
8682.000000;1.005777
8681.000000;1.006010
8680.000000;1.005919
8679.000000;1.005600
8678.000000;1.005209
8677.000000;1.004882
8676.000000;1.004698
8675.000000;1.004662
8674.000000;1.004691
8673.000000;1.004651
8672.000000;1.004452
8671.000000;1.004134
8670.000000;1.003856
8669.000000;1.003772
8668.000000;1.003890
8667.000000;1.004037
8666.000000;1.004005
8665.000000;1.003712
8664.000000;1.003260
8663.000000;1.002868
8662.000000;1.002753
8661.000000;1.002997
8660.000000;1.003454
8659.000000;1.003810
8658.000000;1.003815
8657.000000;1.003469
8656.000000;1.002981
8655.000000;1.002552
8654.000000;1.002254
8653.000000;1.002080
8652.000000;1.002024
8651.000000;1.002066
8650.000000;1.002137
8649.000000;1.002146
8648.000000;1.002031
8647.000000;1.001750
8646.000000;1.001293
8645.000000;1.000739
8644.000000;1.000293
8643.000000;1.000149
8642.000000;1.000300
8641.000000;1.000495
8640.000000;1.000449
8639.000000;1.000085
8638.000000;0.999582
8637.000000;0.999207
8636.000000;0.999105
8635.000000;0.999226
8634.000000;0.999387
8633.000000;0.999418
8632.000000;0.999270
8631.000000;0.999039
8630.000000;0.998875
8629.000000;0.998847
8628.000000;0.998898
8627.000000;0.998915
8626.000000;0.998864
8625.000000;0.998817
8624.000000;0.998862
8623.000000;0.998982
8622.000000;0.999060
8621.000000;0.998973
8620.000000;0.998695
8619.000000;0.998311
8618.000000;0.997959
8617.000000;0.997729
8616.000000;0.997597
8615.000000;0.997436
8614.000000;0.997114
8613.000000;0.996628
8612.000000;0.996163
8611.000000;0.995974
8610.000000;0.996184
8609.000000;0.996636
8608.000000;0.997004
8607.000000;0.997060
8606.000000;0.996841
8605.000000;0.996526
8604.000000;0.996224
8603.000000;0.995957
8602.000000;0.995796
8601.000000;0.995862
8600.000000;0.996111
8599.000000;0.996227
8598.000000;0.995906
8597.000000;0.995239
8596.000000;0.994669
8595.000000;0.994539
8594.000000;0.994733
8593.000000;0.994838
8592.000000;0.994593
8591.000000;0.994109
8590.000000;0.993667
8589.000000;0.993418
8588.000000;0.993304
8587.000000;0.993228
8586.000000;0.993184
8585.000000;0.993241
8584.000000;0.993441
8583.000000;0.993741
8582.000000;0.994013
8581.000000;0.994095
8580.000000;0.993896
8579.000000;0.993507
8578.000000;0.993204
8577.000000;0.993218
8576.000000;0.993491
8575.000000;0.993692
8574.000000;0.993529
8573.000000;0.993031
8572.000000;0.992483
8571.000000;0.992110
8570.000000;0.991870
8569.000000;0.991568
8568.000000;0.991152
8567.000000;0.990822
8566.000000;0.990830
8565.000000;0.991162
8564.000000;0.991512
8563.000000;0.991581
8562.000000;0.991353
8561.000000;0.991049
8560.000000;0.990872
8559.000000;0.990892
8558.000000;0.991089
8557.000000;0.991373
8556.000000;0.991555
8555.000000;0.991463
8554.000000;0.991130
8553.000000;0.990774
8552.000000;0.990531
8551.000000;0.990339
8550.000000;0.990126
8549.000000;0.989971
8548.000000;0.989958
8547.000000;0.989994
8546.000000;0.989920
8545.000000;0.989755
8544.000000;0.989667
8543.000000;0.989727
8542.000000;0.989817
8541.000000;0.989794
8540.000000;0.989618
8539.000000;0.989324
8538.000000;0.988974
8537.000000;0.988688
8536.000000;0.988608
8535.000000;0.988763
8534.000000;0.989003
8533.000000;0.989105
8532.000000;0.988921
8531.000000;0.988457
8530.000000;0.987880
8529.000000;0.987434
8528.000000;0.987282
8527.000000;0.987378
8526.000000;0.987521
8525.000000;0.987527
8524.000000;0.987333
8523.000000;0.986987
8522.000000;0.986614
8521.000000;0.986352
8520.000000;0.986234
8519.000000;0.986146
8518.000000;0.985971
8517.000000;0.985761
8516.000000;0.985670
8515.000000;0.985734
8514.000000;0.985854
8513.000000;0.985962
8512.000000;0.986095
8511.000000;0.986281
8510.000000;0.986461
8509.000000;0.986576
8508.000000;0.986614
8507.000000;0.986547
8506.000000;0.986307
8505.000000;0.985885
8504.000000;0.985363
8503.000000;0.984827
8502.000000;0.984314
8501.000000;0.983872
8500.000000;0.983567
8499.000000;0.983406
8498.000000;0.983349
8497.000000;0.983417
8496.000000;0.983653
8495.000000;0.983912
8494.000000;0.983871
8493.000000;0.983368
8492.000000;0.982663
8491.000000;0.982189
8490.000000;0.982117
8489.000000;0.982268
8488.000000;0.982420
8487.000000;0.982540
8486.000000;0.982720
8485.000000;0.983003
8484.000000;0.983315
8483.000000;0.983526
8482.000000;0.983533
8481.000000;0.983323
8480.000000;0.982954
8479.000000;0.982498
8478.000000;0.982022
8477.000000;0.981640
8476.000000;0.981464
8475.000000;0.981477
8474.000000;0.981516
8473.000000;0.981439
8472.000000;0.981248
8471.000000;0.981009
8470.000000;0.980744
8469.000000;0.980498
8468.000000;0.980413
8467.000000;0.980592
8466.000000;0.980930
8465.000000;0.981188
8464.000000;0.981242
8463.000000;0.981149
8462.000000;0.980985
8461.000000;0.980735
8460.000000;0.980392
8459.000000;0.980060
8458.000000;0.979885
8457.000000;0.979912
8456.000000;0.980004
8455.000000;0.979936
8454.000000;0.979583
8453.000000;0.979066
8452.000000;0.978652
8451.000000;0.978483
8450.000000;0.978468
8449.000000;0.978489
8448.000000;0.978600
8447.000000;0.978880
8446.000000;0.979184
8445.000000;0.979236
8444.000000;0.978990
8443.000000;0.978713
8442.000000;0.978632
8441.000000;0.978658
8440.000000;0.978551
8439.000000;0.978243
8438.000000;0.977887
8437.000000;0.977649
8436.000000;0.977572
8435.000000;0.977619
8434.000000;0.977737
8433.000000;0.977851
8432.000000;0.977897
8431.000000;0.977857
8430.000000;0.977748
8429.000000;0.977561
8428.000000;0.977273
8427.000000;0.976939
8426.000000;0.976707
8425.000000;0.976694
8424.000000;0.976829
8423.000000;0.976871
8422.000000;0.976646
8421.000000;0.976236
8420.000000;0.975882
8419.000000;0.975680
8418.000000;0.975474
8417.000000;0.975106
8416.000000;0.974690
8415.000000;0.974513
8414.000000;0.974680
8413.000000;0.975015
8412.000000;0.975304
8411.000000;0.975505
8410.000000;0.975649
8409.000000;0.975684
8408.000000;0.975549
8407.000000;0.975314
8406.000000;0.975111
8405.000000;0.974949
8404.000000;0.974725
8403.000000;0.974413
8402.000000;0.974122
8401.000000;0.973935
8400.000000;0.973813
8399.000000;0.973680
8398.000000;0.973521
8397.000000;0.973341
8396.000000;0.973116
8395.000000;0.972850
8394.000000;0.972612
8393.000000;0.972448
8392.000000;0.972301
8391.000000;0.972110
8390.000000;0.971944
8389.000000;0.971934
8388.000000;0.972083
8387.000000;0.972240
8386.000000;0.972293
8385.000000;0.972293
8384.000000;0.972338
8383.000000;0.972408
8382.000000;0.972389
8381.000000;0.972236
8380.000000;0.972039
8379.000000;0.971930
8378.000000;0.971941
8377.000000;0.971985
8376.000000;0.971943
8375.000000;0.971774
8374.000000;0.971535
8373.000000;0.971299
8372.000000;0.971081
8371.000000;0.970891
8370.000000;0.970825
8369.000000;0.970993
8368.000000;0.971340
8367.000000;0.971622
8366.000000;0.971628
8365.000000;0.971377
8364.000000;0.971046
8363.000000;0.970772
8362.000000;0.970582
8361.000000;0.970452
8360.000000;0.970318
8359.000000;0.970088
8358.000000;0.969733
8357.000000;0.969362
8356.000000;0.969122
8355.000000;0.969044
8354.000000;0.969078
8353.000000;0.969224
8352.000000;0.969500
8351.000000;0.969793
8350.000000;0.969902
8349.000000;0.969757
8348.000000;0.969470
8347.000000;0.969129
8346.000000;0.968698
8345.000000;0.968185
8344.000000;0.967768
8343.000000;0.967622
8342.000000;0.967707
8341.000000;0.967835
8340.000000;0.967877
8339.000000;0.967815
8338.000000;0.967684
8337.000000;0.967569
8336.000000;0.967587
8335.000000;0.967744
8334.000000;0.967843
8333.000000;0.967673
8332.000000;0.967276
8331.000000;0.966896
8330.000000;0.966670
8329.000000;0.966512
8328.000000;0.966326
8327.000000;0.966188
8326.000000;0.966234
8325.000000;0.966455
8324.000000;0.966691
8323.000000;0.966796
8322.000000;0.966732
8321.000000;0.966537
8320.000000;0.966270
8319.000000;0.966011
8318.000000;0.965845
8317.000000;0.965810
8316.000000;0.965839
8315.000000;0.965779
8314.000000;0.965515
8313.000000;0.965085
8312.000000;0.964664
8311.000000;0.964422
8310.000000;0.964411
8309.000000;0.964591
8308.000000;0.964895
8307.000000;0.965218
8306.000000;0.965394
8305.000000;0.965293
8304.000000;0.964935
8303.000000;0.964489
8302.000000;0.964137
8301.000000;0.963971
8300.000000;0.963979
8299.000000;0.964052
8298.000000;0.964026
8297.000000;0.963793
8296.000000;0.963409
8295.000000;0.963055
8294.000000;0.962874
8293.000000;0.962875
8292.000000;0.962972
8291.000000;0.963067
8290.000000;0.963106
8289.000000;0.963093
8288.000000;0.963084
8287.000000;0.963123
8286.000000;0.963185
8285.000000;0.963189
8284.000000;0.963076
8283.000000;0.962848
8282.000000;0.962561
8281.000000;0.962300
8280.000000;0.962139
8279.000000;0.962070
8278.000000;0.961984
8277.000000;0.961800
8276.000000;0.961568
8275.000000;0.961400
8274.000000;0.961302
8273.000000;0.961195
8272.000000;0.961083
8271.000000;0.961090
8270.000000;0.961274
8269.000000;0.961512
8268.000000;0.961642
8267.000000;0.961665
8266.000000;0.961703
8265.000000;0.961811
8264.000000;0.961906
8263.000000;0.961876
8262.000000;0.961691
8261.000000;0.961404
8260.000000;0.961104
8259.000000;0.960866
8258.000000;0.960713
8257.000000;0.960592
8256.000000;0.960423
8255.000000;0.960179
8254.000000;0.959928
8253.000000;0.959785
8252.000000;0.959823
8251.000000;0.960000
8250.000000;0.960178
8249.000000;0.960229
8248.000000;0.960146
8247.000000;0.960018
8246.000000;0.959902
8245.000000;0.959761
8244.000000;0.959545
8243.000000;0.959302
8242.000000;0.959142
8241.000000;0.959128
8240.000000;0.959234
8239.000000;0.959385
8238.000000;0.959505
8237.000000;0.959528
8236.000000;0.959420
8235.000000;0.959204
8234.000000;0.958942
8233.000000;0.958691
8232.000000;0.958476
8231.000000;0.958307
8230.000000;0.958170
8229.000000;0.958028
8228.000000;0.957854
8227.000000;0.957672
8226.000000;0.957552
8225.000000;0.957546
8224.000000;0.957654
8223.000000;0.957835
8222.000000;0.958017
8221.000000;0.958101
8220.000000;0.958009
8219.000000;0.957738
8218.000000;0.957365
8217.000000;0.957002
8216.000000;0.956722
8215.000000;0.956542
8214.000000;0.956430
8213.000000;0.956349
8212.000000;0.956297
8211.000000;0.956298
8210.000000;0.956331
8209.000000;0.956316
8208.000000;0.956206
8207.000000;0.956089
8206.000000;0.956105
8205.000000;0.956255
8204.000000;0.956370
8203.000000;0.956287
8202.000000;0.955997
8201.000000;0.955602
8200.000000;0.955199
8199.000000;0.954876
8198.000000;0.954729
8197.000000;0.954770
8196.000000;0.954840
8195.000000;0.954746
8194.000000;0.954503
8193.000000;0.954332
8192.000000;0.954391
8191.000000;0.954583
8190.000000;0.954695
8189.000000;0.954653
8188.000000;0.954547
8187.000000;0.954451
8186.000000;0.954317
8185.000000;0.954072
8184.000000;0.953755
8183.000000;0.953506
8182.000000;0.953441
8181.000000;0.953548
8180.000000;0.953703
8179.000000;0.953785
8178.000000;0.953771
8177.000000;0.953738
8176.000000;0.953757
8175.000000;0.953811
8174.000000;0.953810
8173.000000;0.953676
8172.000000;0.953396
8171.000000;0.953031
8170.000000;0.952688
8169.000000;0.952458
8168.000000;0.952357
8167.000000;0.952328
8166.000000;0.952303
8165.000000;0.952272
8164.000000;0.952275
8163.000000;0.952330
8162.000000;0.952402
8161.000000;0.952428
8160.000000;0.952368
8159.000000;0.952238
8158.000000;0.952108
8157.000000;0.952048
8156.000000;0.952061
8155.000000;0.952074
8154.000000;0.952003
8153.000000;0.951827
8152.000000;0.951594
8151.000000;0.951376
8150.000000;0.951222
8149.000000;0.951137
8148.000000;0.951074
8147.000000;0.950966
8146.000000;0.950797
8145.000000;0.950616
8144.000000;0.950489
8143.000000;0.950434
8142.000000;0.950425
8141.000000;0.950443
8140.000000;0.950472
8139.000000;0.950478
8138.000000;0.950425
8137.000000;0.950321
8136.000000;0.950233
8135.000000;0.950239
8134.000000;0.950365
8133.000000;0.950560
8132.000000;0.950699
8131.000000;0.950649
8130.000000;0.950354
8129.000000;0.949889
8128.000000;0.949440
8127.000000;0.949212
8126.000000;0.949304
8125.000000;0.949613
8124.000000;0.949863
8123.000000;0.949818
8122.000000;0.949493
8121.000000;0.949125
8120.000000;0.948905
8119.000000;0.948801
8118.000000;0.948678
8117.000000;0.948501
8116.000000;0.948360
8115.000000;0.948341
8114.000000;0.948450
8113.000000;0.948606
8112.000000;0.948672
8111.000000;0.948530
8110.000000;0.948225
8109.000000;0.947977
8108.000000;0.947968
8107.000000;0.948145
8106.000000;0.948330
8105.000000;0.948466
8104.000000;0.948627
8103.000000;0.948775
8102.000000;0.948723
8101.000000;0.948384
8100.000000;0.947953
8099.000000;0.947710
8098.000000;0.947727
8097.000000;0.947828
8096.000000;0.947788
8095.000000;0.947525
8094.000000;0.947143
8093.000000;0.946865
8092.000000;0.946863
8091.000000;0.947090
8090.000000;0.947312
8089.000000;0.947357
8088.000000;0.947269
8087.000000;0.947165
8086.000000;0.947022
8085.000000;0.946726
8084.000000;0.946313
8083.000000;0.946008
8082.000000;0.945979
8081.000000;0.946130
8080.000000;0.946226
8079.000000;0.946161
8078.000000;0.946043
8077.000000;0.946009
8076.000000;0.946048
8075.000000;0.946051
8074.000000;0.945967
8073.000000;0.945849
8072.000000;0.945743
8071.000000;0.945628
8070.000000;0.945482
8069.000000;0.945356
8068.000000;0.945294
8067.000000;0.945233
8066.000000;0.945071
8065.000000;0.944813
8064.000000;0.944594
8063.000000;0.944503
8062.000000;0.944486
8061.000000;0.944421
8060.000000;0.944277
8059.000000;0.944129
8058.000000;0.944069
8057.000000;0.944119
8056.000000;0.944227
8055.000000;0.944332
8054.000000;0.944415
8053.000000;0.944483
8052.000000;0.944492
8051.000000;0.944332
8050.000000;0.943952
8049.000000;0.943479
8048.000000;0.943141
8047.000000;0.943061
8046.000000;0.943179
8045.000000;0.943334
8044.000000;0.943393
8043.000000;0.943299
8042.000000;0.943108
8041.000000;0.942989
8040.000000;0.943069
8039.000000;0.943250
8038.000000;0.943268
8037.000000;0.942999
8036.000000;0.942626
8035.000000;0.942430
8034.000000;0.942485
8033.000000;0.942638
8032.000000;0.942742
8031.000000;0.942783
8030.000000;0.942786
8029.000000;0.942706
8028.000000;0.942474
8027.000000;0.942113
8026.000000;0.941758
8025.000000;0.941561
8024.000000;0.941567
8023.000000;0.941700
8022.000000;0.941852
8021.000000;0.941956
8020.000000;0.941973
8019.000000;0.941870
8018.000000;0.941669
8017.000000;0.941497
8016.000000;0.941472
8015.000000;0.941555
8014.000000;0.941594
8013.000000;0.941531
8012.000000;0.941459
8011.000000;0.941447
8010.000000;0.941423
8009.000000;0.941300
8008.000000;0.941113
8007.000000;0.940954
8006.000000;0.940842
8005.000000;0.940756
8004.000000;0.940726
8003.000000;0.940784
8002.000000;0.940873
8001.000000;0.940906
8000.000000;0.940894
7999.000000;0.940923
7998.000000;0.940987
7997.000000;0.940955
7996.000000;0.940717
7995.000000;0.940315
7994.000000;0.939912
7993.000000;0.939654
7992.000000;0.939564
7991.000000;0.939537
7990.000000;0.939452
7989.000000;0.939321
7988.000000;0.939279
7987.000000;0.939407
7986.000000;0.939608
7985.000000;0.939725
7984.000000;0.939735
7983.000000;0.939731
7982.000000;0.939729
7981.000000;0.939623
7980.000000;0.939345
7979.000000;0.939003
7978.000000;0.938791
7977.000000;0.938807
7976.000000;0.938956
7975.000000;0.939046
7974.000000;0.938939
7973.000000;0.938653
7972.000000;0.938337
7971.000000;0.938138
7970.000000;0.938105
7969.000000;0.938186
7968.000000;0.938291
7967.000000;0.938339
7966.000000;0.938291
7965.000000;0.938154
7964.000000;0.937950
7963.000000;0.937673
7962.000000;0.937325
7961.000000;0.937007
7960.000000;0.936886
7959.000000;0.937010
7958.000000;0.937236
7957.000000;0.937379
7956.000000;0.937399
7955.000000;0.937366
7954.000000;0.937312
7953.000000;0.937225
7952.000000;0.937132
7951.000000;0.937086
7950.000000;0.937048
7949.000000;0.936917
7948.000000;0.936672
7947.000000;0.936411
7946.000000;0.936221
7945.000000;0.936097
7944.000000;0.936013
7943.000000;0.935974
7942.000000;0.935974
7941.000000;0.935971
7940.000000;0.935965
7939.000000;0.936018
7938.000000;0.936147
7937.000000;0.936259
7936.000000;0.936250
7935.000000;0.936126
7934.000000;0.935963
7933.000000;0.935783
7932.000000;0.935537
7931.000000;0.935212
7930.000000;0.934882
7929.000000;0.934660
7928.000000;0.934606
7927.000000;0.934700
7926.000000;0.934866
7925.000000;0.935017
7924.000000;0.935085
7923.000000;0.935050
7922.000000;0.934953
7921.000000;0.934886
7920.000000;0.934914
7919.000000;0.934969
7918.000000;0.934874
7917.000000;0.934531
7916.000000;0.934062
7915.000000;0.933718
7914.000000;0.933635
7913.000000;0.933747
7912.000000;0.933914
7911.000000;0.934053
7910.000000;0.934121
7909.000000;0.934077
7908.000000;0.933942
7907.000000;0.933836
7906.000000;0.933868
7905.000000;0.934009
7904.000000;0.934145
7903.000000;0.934206
7902.000000;0.934198
7901.000000;0.934126
7900.000000;0.933967
7899.000000;0.933727
7898.000000;0.933453
7897.000000;0.933175
7896.000000;0.932902
7895.000000;0.932666
7894.000000;0.932520
7893.000000;0.932470
7892.000000;0.932467
7891.000000;0.932490
7890.000000;0.932565
7889.000000;0.932668
7888.000000;0.932682
7887.000000;0.932531
7886.000000;0.932305
7885.000000;0.932158
7884.000000;0.932102
7883.000000;0.931995
7882.000000;0.931732
7881.000000;0.931367
7880.000000;0.931049
7879.000000;0.930903
7878.000000;0.930979
7877.000000;0.931229
7876.000000;0.931480
7875.000000;0.931534
7874.000000;0.931357
7873.000000;0.931121
7872.000000;0.931006
7871.000000;0.930994
7870.000000;0.930946
7869.000000;0.930810
7868.000000;0.930673
7867.000000;0.930616
7866.000000;0.930631
7865.000000;0.930669
7864.000000;0.930688
7863.000000;0.930644
7862.000000;0.930496
7861.000000;0.930268
7860.000000;0.930054
7859.000000;0.929941
7858.000000;0.929959
7857.000000;0.930086
7856.000000;0.930220
7855.000000;0.930200
7854.000000;0.929928
7853.000000;0.929517
7852.000000;0.929210
7851.000000;0.929134
7850.000000;0.929197
7849.000000;0.929243
7848.000000;0.929225
7847.000000;0.929174
7846.000000;0.929097
7845.000000;0.929001
7844.000000;0.928944
7843.000000;0.928983
7842.000000;0.929080
7841.000000;0.929122
7840.000000;0.929031
7839.000000;0.928825
7838.000000;0.928586
7837.000000;0.928420
7836.000000;0.928392
7835.000000;0.928480
7834.000000;0.928593
7833.000000;0.928667
7832.000000;0.928719
7831.000000;0.928779
7830.000000;0.928828
7829.000000;0.928833
7828.000000;0.928788
7827.000000;0.928677
7826.000000;0.928460
7825.000000;0.928147
7824.000000;0.927846
7823.000000;0.927657
7822.000000;0.927540
7821.000000;0.927388
7820.000000;0.927173
7819.000000;0.926969
7818.000000;0.926832
7817.000000;0.926742
7816.000000;0.926657
7815.000000;0.926566
7814.000000;0.926466
7813.000000;0.926350
7812.000000;0.926237
7811.000000;0.926157
7810.000000;0.926114
7809.000000;0.926087
7808.000000;0.926080
7807.000000;0.926124
7806.000000;0.926221
7805.000000;0.926327
7804.000000;0.926401
7803.000000;0.926433
7802.000000;0.926438
7801.000000;0.926433
7800.000000;0.926431
7799.000000;0.926414
7798.000000;0.926321
7797.000000;0.926109
7796.000000;0.925805
7795.000000;0.925491
7794.000000;0.925239
7793.000000;0.925080
7792.000000;0.925020
7791.000000;0.925023
7790.000000;0.925015
7789.000000;0.924943
7788.000000;0.924827
7787.000000;0.924727
7786.000000;0.924656
7785.000000;0.924583
7784.000000;0.924497
7783.000000;0.924421
7782.000000;0.924365
7781.000000;0.924308
7780.000000;0.924242
7779.000000;0.924168
7778.000000;0.924052
7777.000000;0.923840
7776.000000;0.923538
7775.000000;0.923244
7774.000000;0.923050
7773.000000;0.922961
7772.000000;0.922923
7771.000000;0.922902
7770.000000;0.922914
7769.000000;0.922981
7768.000000;0.923103
7767.000000;0.923242
7766.000000;0.923341
7765.000000;0.923346
7764.000000;0.923240
7763.000000;0.923071
7762.000000;0.922927
7761.000000;0.922885
7760.000000;0.922934
7759.000000;0.922964
7758.000000;0.922851
7757.000000;0.922581
7756.000000;0.922266
7755.000000;0.922033
7754.000000;0.921904
7753.000000;0.921820
7752.000000;0.921724
7751.000000;0.921602
7750.000000;0.921463
7749.000000;0.921341
7748.000000;0.921308
7747.000000;0.921408
7746.000000;0.921577
7745.000000;0.921675
7744.000000;0.921606
7743.000000;0.921403
7742.000000;0.921185
7741.000000;0.921050
7740.000000;0.921033
7739.000000;0.921104
7738.000000;0.921188
7737.000000;0.921180
7736.000000;0.920997
7735.000000;0.920634
7734.000000;0.920195
7733.000000;0.919842
7732.000000;0.919674
7731.000000;0.919649
7730.000000;0.919632
7729.000000;0.919537
7728.000000;0.919395
7727.000000;0.919291
7726.000000;0.919263
7725.000000;0.919293
7724.000000;0.919366
7723.000000;0.919480
7722.000000;0.919608
7721.000000;0.919688
7720.000000;0.919659
7719.000000;0.919503
7718.000000;0.919273
7717.000000;0.919075
7716.000000;0.918992
7715.000000;0.918990
7714.000000;0.918935
7713.000000;0.918725
7712.000000;0.918380
7711.000000;0.918001
7710.000000;0.917696
7709.000000;0.917543
7708.000000;0.917571
7707.000000;0.917710
7706.000000;0.917818
7705.000000;0.917824
7704.000000;0.917809
7703.000000;0.917882
7702.000000;0.918004
7701.000000;0.918017
7700.000000;0.917842
7699.000000;0.917561
7698.000000;0.917315
7697.000000;0.917166
7696.000000;0.917084
7695.000000;0.917005
7694.000000;0.916892
7693.000000;0.916773
7692.000000;0.916713
7691.000000;0.916722
7690.000000;0.916719
7689.000000;0.916636
7688.000000;0.916525
7687.000000;0.916498
7686.000000;0.916558
7685.000000;0.916589
7684.000000;0.916510
7683.000000;0.916362
7682.000000;0.916232
7681.000000;0.916140
7680.000000;0.916052
7679.000000;0.915936
7678.000000;0.915768
7677.000000;0.915541
7676.000000;0.915296
7675.000000;0.915110
7674.000000;0.915014
7673.000000;0.914979
7672.000000;0.914990
7671.000000;0.915064
7670.000000;0.915166
7669.000000;0.915174
7668.000000;0.914995
7667.000000;0.914685
7666.000000;0.914398
7665.000000;0.914228
7664.000000;0.914142
7663.000000;0.914051
7662.000000;0.913901
7661.000000;0.913708
7660.000000;0.913555
7659.000000;0.913536
7658.000000;0.913663
7657.000000;0.913812
7656.000000;0.913803
7655.000000;0.913569
7654.000000;0.913216
7653.000000;0.912913
7652.000000;0.912737
7651.000000;0.912643
7650.000000;0.912568
7649.000000;0.912515
7648.000000;0.912512
7647.000000;0.912529
7646.000000;0.912491
7645.000000;0.912374
7644.000000;0.912241
7643.000000;0.912153
7642.000000;0.912105
7641.000000;0.912058
7640.000000;0.912011
7639.000000;0.911979
7638.000000;0.911942
7637.000000;0.911872
7636.000000;0.911784
7635.000000;0.911701
7634.000000;0.911599
7633.000000;0.911436
7632.000000;0.911237
7631.000000;0.911085
7630.000000;0.911016
7629.000000;0.910985
7628.000000;0.910937
7627.000000;0.910862
7626.000000;0.910761
7625.000000;0.910627
7624.000000;0.910482
7623.000000;0.910389
7622.000000;0.910373
7621.000000;0.910377
7620.000000;0.910321
7619.000000;0.910179
7618.000000;0.909975
7617.000000;0.909739
7616.000000;0.909511
7615.000000;0.909350
7614.000000;0.909281
7613.000000;0.909264
7612.000000;0.909227
7611.000000;0.909147
7610.000000;0.909049
7609.000000;0.908953
7608.000000;0.908853
7607.000000;0.908743
7606.000000;0.908641
7605.000000;0.908585
7604.000000;0.908596
7603.000000;0.908649
7602.000000;0.908673
7601.000000;0.908602
7600.000000;0.908436
7599.000000;0.908227
7598.000000;0.908013
7597.000000;0.907799
7596.000000;0.907601
7595.000000;0.907480
7594.000000;0.907469
7593.000000;0.907521
7592.000000;0.907549
7591.000000;0.907514
7590.000000;0.907440
7589.000000;0.907363
7588.000000;0.907303
7587.000000;0.907279
7586.000000;0.907295
7585.000000;0.907315
7584.000000;0.907279
7583.000000;0.907166
7582.000000;0.907014
7581.000000;0.906868
7580.000000;0.906716
7579.000000;0.906501
7578.000000;0.906193
7577.000000;0.905834
7576.000000;0.905505
7575.000000;0.905262
7574.000000;0.905116
7573.000000;0.905066
7572.000000;0.905130
7571.000000;0.905297
7570.000000;0.905472
7569.000000;0.905516
7568.000000;0.905374
7567.000000;0.905137
7566.000000;0.904944
7565.000000;0.904843
7564.000000;0.904770
7563.000000;0.904653
7562.000000;0.904494
7561.000000;0.904352
7560.000000;0.904274
7559.000000;0.904252
7558.000000;0.904227
7557.000000;0.904127
7556.000000;0.903931
7555.000000;0.903714
7554.000000;0.903598
7553.000000;0.903631
7552.000000;0.903725
7551.000000;0.903738
7550.000000;0.903617
7549.000000;0.903437
7548.000000;0.903287
7547.000000;0.903182
7546.000000;0.903085
7545.000000;0.902984
7544.000000;0.902893
7543.000000;0.902799
7542.000000;0.902664
7541.000000;0.902502
7540.000000;0.902396
7539.000000;0.902408
7538.000000;0.902482
7537.000000;0.902480
7536.000000;0.902324
7535.000000;0.902075
7534.000000;0.901870
7533.000000;0.901783
7532.000000;0.901761
7531.000000;0.901700
7530.000000;0.901566
7529.000000;0.901427
7528.000000;0.901350
7527.000000;0.901303
7526.000000;0.901187
7525.000000;0.900979
7524.000000;0.900771
7523.000000;0.900678
7522.000000;0.900706
7521.000000;0.900766
7520.000000;0.900773
7519.000000;0.900713
7518.000000;0.900618
7517.000000;0.900510
7516.000000;0.900375
7515.000000;0.900191
7514.000000;0.899978
7513.000000;0.899816
7512.000000;0.899769
7511.000000;0.899789
7510.000000;0.899739
7509.000000;0.899546
7508.000000;0.899288
7507.000000;0.899092
7506.000000;0.898993
7505.000000;0.898932
7504.000000;0.898886
7503.000000;0.898888
7502.000000;0.898938
7501.000000;0.898951
7500.000000;0.898855
7499.000000;0.898682
7498.000000;0.898529
7497.000000;0.898452
7496.000000;0.898415
7495.000000;0.898352
7494.000000;0.898234
7493.000000;0.898079
7492.000000;0.897930
7491.000000;0.897817
7490.000000;0.897758
7489.000000;0.897740
7488.000000;0.897755
7487.000000;0.897769
7486.000000;0.897723
7485.000000;0.897588
7484.000000;0.897398
7483.000000;0.897224
7482.000000;0.897098
7481.000000;0.896994
7480.000000;0.896885
7479.000000;0.896782
7478.000000;0.896711
7477.000000;0.896651
7476.000000;0.896538
7475.000000;0.896336
7474.000000;0.896090
7473.000000;0.895905
7472.000000;0.895843
7471.000000;0.895864
7470.000000;0.895876
7469.000000;0.895831
7468.000000;0.895758
7467.000000;0.895702
7466.000000;0.895661
7465.000000;0.895599
7464.000000;0.895490
7463.000000;0.895339
7462.000000;0.895165
7461.000000;0.894990
7460.000000;0.894832
7459.000000;0.894703
7458.000000;0.894617
7457.000000;0.894610
7456.000000;0.894715
7455.000000;0.894892
7454.000000;0.895027
7453.000000;0.895023
7452.000000;0.894873
7451.000000;0.894635
7450.000000;0.894365
7449.000000;0.894118
7448.000000;0.893972
7447.000000;0.893968
7446.000000;0.894031
7445.000000;0.894011
7444.000000;0.893848
7443.000000;0.893627
7442.000000;0.893482
7441.000000;0.893451
7440.000000;0.893478
7439.000000;0.893503
7438.000000;0.893519
7437.000000;0.893544
7436.000000;0.893572
7435.000000;0.893581
7434.000000;0.893564
7433.000000;0.893541
7432.000000;0.893531
7431.000000;0.893529
7430.000000;0.893514
7429.000000;0.893483
7428.000000;0.893442
7427.000000;0.893383
7426.000000;0.893300
7425.000000;0.893215
7424.000000;0.893168
7423.000000;0.893157
7422.000000;0.893128
7421.000000;0.893042
7420.000000;0.892920
7419.000000;0.892812
7418.000000;0.892736
7417.000000;0.892686
7416.000000;0.892652
7415.000000;0.892619
7414.000000;0.892576
7413.000000;0.892548
7412.000000;0.892597
7411.000000;0.892727
7410.000000;0.892839
7409.000000;0.892829
7408.000000;0.892706
7407.000000;0.892564
7406.000000;0.892444
7405.000000;0.892310
7404.000000;0.892156
7403.000000;0.892063
7402.000000;0.892100
7401.000000;0.892235
7400.000000;0.892349
7399.000000;0.892355
7398.000000;0.892239
7397.000000;0.892043
7396.000000;0.891833
7395.000000;0.891660
7394.000000;0.891542
7393.000000;0.891495
7392.000000;0.891560
7391.000000;0.891760
7390.000000;0.892033
7389.000000;0.892270
7388.000000;0.892430
7387.000000;0.892575
7386.000000;0.892744
7385.000000;0.892849
7384.000000;0.892765
7383.000000;0.892497
7382.000000;0.892190
7381.000000;0.891984
7380.000000;0.891926
7379.000000;0.892009
7378.000000;0.892230
7377.000000;0.892552
7376.000000;0.892875
7375.000000;0.893125
7374.000000;0.893345
7373.000000;0.893635
7372.000000;0.893945
7371.000000;0.894015
7370.000000;0.893613
7369.000000;0.892809
7368.000000;0.891968
7367.000000;0.891445
7366.000000;0.891304
7365.000000;0.891363
7364.000000;0.891426
7363.000000;0.891445
7362.000000;0.891482
7361.000000;0.891597
7360.000000;0.891733
7359.000000;0.891723
7358.000000;0.891426
7357.000000;0.890885
7356.000000;0.890322
7355.000000;0.889988
7354.000000;0.889976
7353.000000;0.890180
7352.000000;0.890398
7351.000000;0.890464
7350.000000;0.890353
7349.000000;0.890179
7348.000000;0.890070
7347.000000;0.889999
7346.000000;0.889834
7345.000000;0.889551
7344.000000;0.889311
7343.000000;0.889264
7342.000000;0.889356
7341.000000;0.889413
7340.000000;0.889379
7339.000000;0.889362
7338.000000;0.889451
7337.000000;0.889606
7336.000000;0.889723
7335.000000;0.889736
7334.000000;0.889632
7333.000000;0.889430
7332.000000;0.889156
7331.000000;0.888813
7330.000000;0.888385
7329.000000;0.887905
7328.000000;0.887489
7327.000000;0.887273
7326.000000;0.887282
7325.000000;0.887416
7324.000000;0.887553
7323.000000;0.887636
7322.000000;0.887663
7321.000000;0.887636
7320.000000;0.887537
7319.000000;0.887335
7318.000000;0.887028
7317.000000;0.886686
7316.000000;0.886409
7315.000000;0.886234
7314.000000;0.886109
7313.000000;0.885990
7312.000000;0.885923
7311.000000;0.885984
7310.000000;0.886138
7309.000000;0.886224
7308.000000;0.886118
7307.000000;0.885884
7306.000000;0.885702
7305.000000;0.885670
7304.000000;0.885707
7303.000000;0.885658
7302.000000;0.885444
7301.000000;0.885113
7300.000000;0.884784
7299.000000;0.884538
7298.000000;0.884382
7297.000000;0.884289
7296.000000;0.884266
7295.000000;0.884357
7294.000000;0.884548
7293.000000;0.884709
7292.000000;0.884656
7291.000000;0.884313
7290.000000;0.883809
7289.000000;0.883398
7288.000000;0.883270
7287.000000;0.883421
7286.000000;0.883692
7285.000000;0.883930
7284.000000;0.884091
7283.000000;0.884196
7282.000000;0.884264
7281.000000;0.884302
7280.000000;0.884325
7279.000000;0.884326
7278.000000;0.884276
7277.000000;0.884176
7276.000000;0.884088
7275.000000;0.884065
7274.000000;0.884067
7273.000000;0.884004
7272.000000;0.883860
7271.000000;0.883714
7270.000000;0.883638
7269.000000;0.883636
7268.000000;0.883679
7267.000000;0.883724
7266.000000;0.883685
7265.000000;0.883460
7264.000000;0.883035
7263.000000;0.882551
7262.000000;0.882203
7261.000000;0.882083
7260.000000;0.882125
7259.000000;0.882188
7258.000000;0.882168
7257.000000;0.882031
7256.000000;0.881792
7255.000000;0.881475
7254.000000;0.881110
7253.000000;0.880752
7252.000000;0.880466
7251.000000;0.880274
7250.000000;0.880117
7249.000000;0.879935
7248.000000;0.879737
7247.000000;0.879570
7246.000000;0.879402
7245.000000;0.879141
7244.000000;0.878783
7243.000000;0.878487
7242.000000;0.878432
7241.000000;0.878607
7240.000000;0.878822
7239.000000;0.878892
7238.000000;0.878745
7237.000000;0.878396
7236.000000;0.877876
7235.000000;0.877204
7234.000000;0.876419
7233.000000;0.875650
7232.000000;0.875139
7231.000000;0.875115
7230.000000;0.875584
7229.000000;0.876300
7228.000000;0.876968
7227.000000;0.877442
7226.000000;0.877727
7225.000000;0.877801
7224.000000;0.877498
7223.000000;0.876643
7222.000000;0.875258
7221.000000;0.873619
7220.000000;0.872131
7219.000000;0.871128
7218.000000;0.870742
7217.000000;0.870860
7216.000000;0.871207
7215.000000;0.871509
7214.000000;0.871622
7213.000000;0.871519
7212.000000;0.871200
7211.000000;0.870661
7210.000000;0.869922
7209.000000;0.869002
7208.000000;0.867884
7207.000000;0.866566
7206.000000;0.865170
7205.000000;0.863912
7204.000000;0.862953
7203.000000;0.862324
7202.000000;0.861988
7201.000000;0.861875
7200.000000;0.861811
7199.000000;0.861552
7198.000000;0.860981
7197.000000;0.860196
7196.000000;0.859317
7195.000000;0.858276
7194.000000;0.856914
7193.000000;0.855274
7192.000000;0.853631
7191.000000;0.852196
7190.000000;0.850926
7189.000000;0.849665
7188.000000;0.848399
7187.000000;0.847262
7186.000000;0.846322
7185.000000;0.845459
7184.000000;0.844506
7183.000000;0.843451
7182.000000;0.842423
7181.000000;0.841475
7180.000000;0.840486
7179.000000;0.839323
7178.000000;0.838023
7177.000000;0.836706
7176.000000;0.835358
7175.000000;0.833843
7174.000000;0.832142
7173.000000;0.830440
7172.000000;0.828903
7171.000000;0.827459
7170.000000;0.825908
7169.000000;0.824181
7168.000000;0.822400
7167.000000;0.820721
7166.000000;0.819210
7165.000000;0.817856
7164.000000;0.816580
7163.000000;0.815222
7162.000000;0.813642
7161.000000;0.811885
7160.000000;0.810161
7159.000000;0.808624
7158.000000;0.807200
7157.000000;0.805682
7156.000000;0.803916
7155.000000;0.801867
7154.000000;0.799608
7153.000000;0.797287
7152.000000;0.795070
7151.000000;0.793037
7150.000000;0.791135
7149.000000;0.789258
7148.000000;0.787339
7147.000000;0.785335
7146.000000;0.783205
7145.000000;0.780971
7144.000000;0.778741
7143.000000;0.776581
7142.000000;0.774392
7141.000000;0.772040
7140.000000;0.769587
7139.000000;0.767289
7138.000000;0.765290
7137.000000;0.763407
7136.000000;0.761313
7135.000000;0.758908
7134.000000;0.756440
7133.000000;0.754231
7132.000000;0.752277
7131.000000;0.750173
7130.000000;0.747492
7129.000000;0.744235
7128.000000;0.740837
7127.000000;0.737719
7126.000000;0.734916
7125.000000;0.732205
7124.000000;0.729456
7123.000000;0.726747
7122.000000;0.724155
7121.000000;0.721580
7120.000000;0.718810
7119.000000;0.715696
7118.000000;0.712307
7117.000000;0.709010
7116.000000;0.706324
7115.000000;0.704494
7114.000000;0.703172
7113.000000;0.701661
7112.000000;0.699503
7111.000000;0.696740
7110.000000;0.693571
7109.000000;0.689981
7108.000000;0.685874
7107.000000;0.681449
7106.000000;0.677167
7105.000000;0.673380
7104.000000;0.670126
7103.000000;0.667285
7102.000000;0.664691
7101.000000;0.662115
7100.000000;0.659298
7099.000000;0.656088
7098.000000;0.652484
7097.000000;0.648585
7096.000000;0.644627
7095.000000;0.641052
7094.000000;0.638281
7093.000000;0.636266
7092.000000;0.634454
7091.000000;0.632313
7090.000000;0.629757
7089.000000;0.626966
7088.000000;0.623961
7087.000000;0.620560
7086.000000;0.616710
7085.000000;0.612645
7084.000000;0.608668
7083.000000;0.604895
7082.000000;0.601270
7081.000000;0.597717
7080.000000;0.594221
7079.000000;0.590799
7078.000000;0.587444
7077.000000;0.584094
7076.000000;0.580661
7075.000000;0.577116
7074.000000;0.573547
7073.000000;0.570059
7072.000000;0.566666
7071.000000;0.563350
7070.000000;0.560174
7069.000000;0.557228
7068.000000;0.554439
7067.000000;0.551577
7066.000000;0.548494
7065.000000;0.545280
7064.000000;0.542082
7063.000000;0.538864
7062.000000;0.535445
7061.000000;0.531743
7060.000000;0.527886
7059.000000;0.524051
7058.000000;0.520274
7057.000000;0.516453
7056.000000;0.512469
7055.000000;0.508293
7054.000000;0.504039
7053.000000;0.499971
7052.000000;0.496380
7051.000000;0.493371
7050.000000;0.490743
7049.000000;0.488158
7048.000000;0.485438
7047.000000;0.482633
7046.000000;0.479794
7045.000000;0.476842
7044.000000;0.473696
7043.000000;0.470407
7042.000000;0.467021
7041.000000;0.463443
7040.000000;0.459590
7039.000000;0.455605
7038.000000;0.451689
7037.000000;0.447781
7036.000000;0.443680
7035.000000;0.439482
7034.000000;0.435602
7033.000000;0.432202
7032.000000;0.428869
7031.000000;0.425136
7030.000000;0.421190
7029.000000;0.417769
7028.000000;0.415318
7027.000000;0.413443
7026.000000;0.411240
7025.000000;0.408069
7024.000000;0.403989
7023.000000;0.399572
7022.000000;0.395467
7021.000000;0.392104
7020.000000;0.389545
7019.000000;0.387398
7018.000000;0.384939
7017.000000;0.381595
7016.000000;0.377510
7015.000000;0.373473
7014.000000;0.370144
7013.000000;0.367427
7012.000000;0.364743
7011.000000;0.361730
7010.000000;0.358416
7009.000000;0.354862
7008.000000;0.351061
7007.000000;0.347192
7006.000000;0.343599
7005.000000;0.340394
7004.000000;0.337359
7003.000000;0.334307
7002.000000;0.331269
7001.000000;0.328217
7000.000000;0.324942
6999.000000;0.321370
6998.000000;0.317800
6997.000000;0.314622
6996.000000;0.311949
6995.000000;0.309610
6994.000000;0.307302
6993.000000;0.304652
6992.000000;0.301380
6991.000000;0.297577
6990.000000;0.293682
6989.000000;0.290105
6988.000000;0.287013
6987.000000;0.284420
6986.000000;0.282152
6985.000000;0.279685
6984.000000;0.276427
6983.000000;0.272382
6982.000000;0.268251
6981.000000;0.264699
6980.000000;0.261769
6979.000000;0.259157
6978.000000;0.256738
6977.000000;0.254496
6976.000000;0.252209
6975.000000;0.249523
6974.000000;0.246309
6973.000000;0.242773
6972.000000;0.239306
6971.000000;0.236276
6970.000000;0.233805
6969.000000;0.231632
6968.000000;0.229365
6967.000000;0.226921
6966.000000;0.224534
6965.000000;0.222345
6964.000000;0.220233
6963.000000;0.218064
6962.000000;0.215781
6961.000000;0.213210
6960.000000;0.210164
6959.000000;0.206796
6958.000000;0.203543
6957.000000;0.200627
6956.000000;0.197971
6955.000000;0.195605
6954.000000;0.193681
6953.000000;0.191992
6952.000000;0.190034
6951.000000;0.187754
6950.000000;0.185734
6949.000000;0.184342
6948.000000;0.183106
6947.000000;0.181302
6946.000000;0.178772
6945.000000;0.175885
6944.000000;0.172988
6943.000000;0.170202
6942.000000;0.167489
6941.000000;0.164720
6940.000000;0.161939
6939.000000;0.159629
6938.000000;0.158296
6937.000000;0.157626
6936.000000;0.156586
6935.000000;0.154610
6934.000000;0.152182
6933.000000;0.149962
6932.000000;0.147935
6931.000000;0.145788
6930.000000;0.143598
6929.000000;0.141610
6928.000000;0.139743
6927.000000;0.137833
6926.000000;0.136037
6925.000000;0.134561
6924.000000;0.133241
6923.000000;0.131827
6922.000000;0.130396
6921.000000;0.129079
6920.000000;0.127662
6919.000000;0.125883
6918.000000;0.123898
6917.000000;0.122087
6916.000000;0.120630
6915.000000;0.119558
6914.000000;0.118928
6913.000000;0.118568
6912.000000;0.117959
6911.000000;0.116795
6910.000000;0.115424
6909.000000;0.114363
6908.000000;0.113568
6907.000000;0.112548
6906.000000;0.111002
6905.000000;0.109065
6904.000000;0.107140
6903.000000;0.105731
6902.000000;0.105187
6901.000000;0.105269
6900.000000;0.105172
6899.000000;0.104210
6898.000000;0.102313
6897.000000;0.099793
6896.000000;0.097043
6895.000000;0.094685
6894.000000;0.093488
6893.000000;0.093638
6892.000000;0.094331
6891.000000;0.094487
6890.000000;0.093680
6889.000000;0.092173
6888.000000;0.090440
6887.000000;0.088998
6886.000000;0.088351
6885.000000;0.088584
6884.000000;0.089127
6883.000000;0.089234
6882.000000;0.088581
6881.000000;0.087303
6880.000000;0.085758
6879.000000;0.084423
6878.000000;0.083685
6877.000000;0.083464
6876.000000;0.083298
6875.000000;0.082960
6874.000000;0.082648
6873.000000;0.082514
6872.000000;0.082438
6871.000000;0.082348
6870.000000;0.082253
6869.000000;0.081814
6868.000000;0.080572
6867.000000;0.078850
6866.000000;0.077773
6865.000000;0.077952
6864.000000;0.078762
6863.000000;0.079406
6862.000000;0.080013
6861.000000;0.081059
6860.000000;0.082274
6859.000000;0.082875
6858.000000;0.082571
6857.000000;0.081743
6856.000000;0.080870
6855.000000;0.080283
6854.000000;0.080227
6853.000000;0.080628
6852.000000;0.081005
6851.000000;0.081065
6850.000000;0.081174
6849.000000;0.081856
6848.000000;0.083107
6847.000000;0.084599
6846.000000;0.086193
6845.000000;0.087751
6844.000000;0.088791
6843.000000;0.088950
6842.000000;0.088636
6841.000000;0.088715
6840.000000;0.089584
6839.000000;0.090930
6838.000000;0.092250
6837.000000;0.093229
6836.000000;0.093780
6835.000000;0.094140
6834.000000;0.094787
6833.000000;0.095945
6832.000000;0.097352
6831.000000;0.098747
6830.000000;0.100257
6829.000000;0.101966
6828.000000;0.103504
6827.000000;0.104554
6826.000000;0.105476
6825.000000;0.106854
6824.000000;0.108609
6823.000000;0.110112
6822.000000;0.111080
6821.000000;0.111898
6820.000000;0.113117
6819.000000;0.115026
6818.000000;0.117602
6817.000000;0.120458
6816.000000;0.122942
6815.000000;0.124682
6814.000000;0.125992
6813.000000;0.127435
6812.000000;0.129090
6811.000000;0.130620
6810.000000;0.131962
6809.000000;0.133483
6808.000000;0.135478
6807.000000;0.137865
6806.000000;0.140395
6805.000000;0.142845
6804.000000;0.144999
6803.000000;0.146734
6802.000000;0.148151
6801.000000;0.149411
6800.000000;0.150553
6799.000000;0.151722
6798.000000;0.153405
6797.000000;0.156007
6796.000000;0.159213
6795.000000;0.162226
6794.000000;0.164663
6793.000000;0.166891
6792.000000;0.169413
6791.000000;0.172274
6790.000000;0.175238
6789.000000;0.178171
6788.000000;0.180975
6787.000000;0.183357
6786.000000;0.185036
6785.000000;0.186166
6784.000000;0.187297
6783.000000;0.188847
6782.000000;0.190756
6781.000000;0.192746
6780.000000;0.194763
6779.000000;0.196984
6778.000000;0.199486
6777.000000;0.202141
6776.000000;0.204872
6775.000000;0.207766
6774.000000;0.210749
6773.000000;0.213350
6772.000000;0.215095
6771.000000;0.216094
6770.000000;0.216996
6769.000000;0.218372
6768.000000;0.220320
6767.000000;0.222656
6766.000000;0.225189
6765.000000;0.227736
6764.000000;0.230152
6763.000000;0.232472
6762.000000;0.234891
6761.000000;0.237511
6760.000000;0.240252
6759.000000;0.243041
6758.000000;0.245864
6757.000000;0.248573
6756.000000;0.250870
6755.000000;0.252646
6754.000000;0.254181
6753.000000;0.255890
6752.000000;0.257993
6751.000000;0.260459
6750.000000;0.263085
6749.000000;0.265582
6748.000000;0.267770
6747.000000;0.269787
6746.000000;0.271932
6745.000000;0.274221
6744.000000;0.276352
6743.000000;0.278187
6742.000000;0.279970
6741.000000;0.281899
6740.000000;0.283809
6739.000000;0.285524
6738.000000;0.287290
6737.000000;0.289508
6736.000000;0.292177
6735.000000;0.294911
6734.000000;0.297427
6733.000000;0.299734
6732.000000;0.301889
6731.000000;0.303902
6730.000000;0.305892
6729.000000;0.308055
6728.000000;0.310352
6727.000000;0.312459
6726.000000;0.314139
6725.000000;0.315534
6724.000000;0.317012
6723.000000;0.318794
6722.000000;0.320814
6721.000000;0.322866
6720.000000;0.324795
6719.000000;0.326594
6718.000000;0.328363
6717.000000;0.330222
6716.000000;0.332271
6715.000000;0.334608
6714.000000;0.337275
6713.000000;0.340131
6712.000000;0.342853
6711.000000;0.345162
6710.000000;0.347025
6709.000000;0.348619
6708.000000;0.350143
6707.000000;0.351752
6706.000000;0.353571
6705.000000;0.355603
6704.000000;0.357681
6703.000000;0.359576
6702.000000;0.361233
6701.000000;0.362817
6700.000000;0.364540
6699.000000;0.366423
6698.000000;0.368402
6697.000000;0.370231
6696.000000;0.372077
6695.000000;0.374028
6694.000000;0.376005
6693.000000;0.377964
6692.000000;0.379847
6691.000000;0.381768
6690.000000;0.383817
6689.000000;0.385889
6688.000000;0.387745
6687.000000;0.389319
6686.000000;0.390805
6685.000000;0.392391
6684.000000;0.394043
6683.000000;0.395655
6682.000000;0.397293
6681.000000;0.399139
6680.000000;0.401239
6679.000000;0.403445
6678.000000;0.405552
6677.000000;0.407389
6676.000000;0.408848
6675.000000;0.409986
6674.000000;0.411109
6673.000000;0.412582
6672.000000;0.414494
6671.000000;0.416564
6670.000000;0.418435
6669.000000;0.419984
6668.000000;0.421349
6667.000000;0.422743
6666.000000;0.424293
6665.000000;0.425987
6664.000000;0.427715
6663.000000;0.429381
6662.000000;0.430998
6661.000000;0.432643
6660.000000;0.434337
6659.000000;0.436006
6658.000000;0.437566
6657.000000;0.438987
6656.000000;0.440299
6655.000000;0.441598
6654.000000;0.443055
6653.000000;0.444817
6652.000000;0.446836
6651.000000;0.448857
6650.000000;0.450650
6649.000000;0.452221
6648.000000;0.453757
6647.000000;0.455389
6646.000000;0.457066
6645.000000;0.458638
6644.000000;0.460011
6643.000000;0.461219
6642.000000;0.462382
6641.000000;0.463611
6640.000000;0.464930
6639.000000;0.466294
6638.000000;0.467657
6637.000000;0.468995
6636.000000;0.470273
6635.000000;0.471457
6634.000000;0.472599
6633.000000;0.473849
6632.000000;0.475326
6631.000000;0.476966
6630.000000;0.478580
6629.000000;0.480037
6628.000000;0.481373
6627.000000;0.482706
6626.000000;0.484094
6625.000000;0.485481
6624.000000;0.486771
6623.000000;0.487933
6622.000000;0.489055
6621.000000;0.490282
6620.000000;0.491673
6619.000000;0.493148
6618.000000;0.494579
6617.000000;0.495929
6616.000000;0.497242
6615.000000;0.498559
6614.000000;0.499877
6613.000000;0.501199
6612.000000;0.502542
6611.000000;0.503902
6610.000000;0.505264
6609.000000;0.506642
6608.000000;0.508048
6607.000000;0.509416
6606.000000;0.510636
6605.000000;0.511678
6604.000000;0.512621
6603.000000;0.513552
6602.000000;0.514511
6601.000000;0.515536
6600.000000;0.516657
6599.000000;0.517819
6598.000000;0.518912
6597.000000;0.519947
6596.000000;0.521106
6595.000000;0.522518
6594.000000;0.524076
6593.000000;0.525562
6592.000000;0.526879
6591.000000;0.528042
6590.000000;0.529042
6589.000000;0.529888
6588.000000;0.530749
6587.000000;0.531858
6586.000000;0.533223
6585.000000;0.534578
6584.000000;0.535673
6583.000000;0.536515
6582.000000;0.537273
6581.000000;0.538088
6580.000000;0.539037
6579.000000;0.540181
6578.000000;0.541496
6577.000000;0.542819
6576.000000;0.543956
6575.000000;0.544868
6574.000000;0.545680
6573.000000;0.546556
6572.000000;0.547587
6571.000000;0.548765
6570.000000;0.549984
6569.000000;0.551090
6568.000000;0.551998
6567.000000;0.552784
6566.000000;0.553622
6565.000000;0.554631
6564.000000;0.555789
6563.000000;0.556967
6562.000000;0.558026
6561.000000;0.558913
6560.000000;0.559714
6559.000000;0.560583
6558.000000;0.561604
6557.000000;0.562713
6556.000000;0.563789
6555.000000;0.564781
6554.000000;0.565738
6553.000000;0.566725
6552.000000;0.567774
6551.000000;0.568872
6550.000000;0.569966
6549.000000;0.570990
6548.000000;0.571910
6547.000000;0.572763
6546.000000;0.573607
6545.000000;0.574461
6544.000000;0.575302
6543.000000;0.576114
6542.000000;0.576914
6541.000000;0.577718
6540.000000;0.578522
6539.000000;0.579301
6538.000000;0.580050
6537.000000;0.580824
6536.000000;0.581726
6535.000000;0.582808
6534.000000;0.583963
6533.000000;0.584986
6532.000000;0.585774
6531.000000;0.586426
6530.000000;0.587118
6529.000000;0.587931
6528.000000;0.588828
6527.000000;0.589745
6526.000000;0.590640
6525.000000;0.591481
6524.000000;0.592263
6523.000000;0.593025
6522.000000;0.593791
6521.000000;0.594527
6520.000000;0.595208
6519.000000;0.595896
6518.000000;0.596680
6517.000000;0.597551
6516.000000;0.598399
6515.000000;0.599158
6514.000000;0.599870
6513.000000;0.600591
6512.000000;0.601308
6511.000000;0.601988
6510.000000;0.602655
6509.000000;0.603371
6508.000000;0.604153
6507.000000;0.604958
6506.000000;0.605747
6505.000000;0.606532
6504.000000;0.607358
6503.000000;0.608238
6502.000000;0.609122
6501.000000;0.609917
6500.000000;0.610588
6499.000000;0.611199
6498.000000;0.611840
6497.000000;0.612517
6496.000000;0.613160
6495.000000;0.613732
6494.000000;0.614279
6493.000000;0.614862
6492.000000;0.615493
6491.000000;0.616166
6490.000000;0.616892
6489.000000;0.617675
6488.000000;0.618474
6487.000000;0.619243
6486.000000;0.619979
6485.000000;0.620698
6484.000000;0.621381
6483.000000;0.621998
6482.000000;0.622572
6481.000000;0.623175
6480.000000;0.623854
6479.000000;0.624584
6478.000000;0.625291
6477.000000;0.625909
6476.000000;0.626417
6475.000000;0.626853
6474.000000;0.627300
6473.000000;0.627824
6472.000000;0.628423
6471.000000;0.629035
6470.000000;0.629622
6469.000000;0.630216
6468.000000;0.630868
6467.000000;0.631581
6466.000000;0.632307
6465.000000;0.633002
6464.000000;0.633676
6463.000000;0.634362
6462.000000;0.635068
6461.000000;0.635764
6460.000000;0.636410
6459.000000;0.636980
6458.000000;0.637475
6457.000000;0.637918
6456.000000;0.638359
6455.000000;0.638859
6454.000000;0.639431
6453.000000;0.640012
6452.000000;0.640515
6451.000000;0.640934
6450.000000;0.641362
6449.000000;0.641896
6448.000000;0.642526
6447.000000;0.643159
6446.000000;0.643721
6445.000000;0.644219
6444.000000;0.644698
6443.000000;0.645196
6442.000000;0.645730
6441.000000;0.646295
6440.000000;0.646859
6439.000000;0.647382
6438.000000;0.647857
6437.000000;0.648328
6436.000000;0.648840
6435.000000;0.649390
6434.000000;0.649933
6433.000000;0.650421
6432.000000;0.650835
6431.000000;0.651200
6430.000000;0.651577
6429.000000;0.652044
6428.000000;0.652615
6427.000000;0.653217
6426.000000;0.653748
6425.000000;0.654184
6424.000000;0.654583
6423.000000;0.655005
6422.000000;0.655441
6421.000000;0.655841
6420.000000;0.656198
6419.000000;0.656576
6418.000000;0.657050
6417.000000;0.657639
6416.000000;0.658268
6415.000000;0.658832
6414.000000;0.659287
6413.000000;0.659689
6412.000000;0.660112
6411.000000;0.660560
6410.000000;0.660975
6409.000000;0.661338
6408.000000;0.661696
6407.000000;0.662097
6406.000000;0.662532
6405.000000;0.662981
6404.000000;0.663464
6403.000000;0.664004
6402.000000;0.664561
6401.000000;0.665044
6400.000000;0.665414
6399.000000;0.665711
6398.000000;0.666007
6397.000000;0.666331
6396.000000;0.666678
6395.000000;0.667042
6394.000000;0.667416
6393.000000;0.667786
6392.000000;0.668139
6391.000000;0.668480
6390.000000;0.668830
6389.000000;0.669217
6388.000000;0.669672
6387.000000;0.670193
6386.000000;0.670724
6385.000000;0.671174
6384.000000;0.671493
6383.000000;0.671736
6382.000000;0.672008
6381.000000;0.672370
6380.000000;0.672802
6379.000000;0.673240
6378.000000;0.673627
6377.000000;0.673934
6376.000000;0.674170
6375.000000;0.674382
6374.000000;0.674632
6373.000000;0.674947
6372.000000;0.675312
6371.000000;0.675712
6370.000000;0.676159
6369.000000;0.676646
6368.000000;0.677103
6367.000000;0.677454
6366.000000;0.677699
6365.000000;0.677916
6364.000000;0.678159
6363.000000;0.678415
6362.000000;0.678649
6361.000000;0.678864
6360.000000;0.679084
6359.000000;0.679305
6358.000000;0.679522
6357.000000;0.679754
6356.000000;0.680031
6355.000000;0.680341
6354.000000;0.680646
6353.000000;0.680934
6352.000000;0.681228
6351.000000;0.681547
6350.000000;0.681881
6349.000000;0.682197
6348.000000;0.682466
6347.000000;0.682679
6346.000000;0.682871
6345.000000;0.683111
6344.000000;0.683431
6343.000000;0.683779
6342.000000;0.684077
6341.000000;0.684315
6340.000000;0.684562
6339.000000;0.684864
6338.000000;0.685199
6337.000000;0.685510
6336.000000;0.685763
6335.000000;0.685950
6334.000000;0.686087
6333.000000;0.686226
6332.000000;0.686425
6331.000000;0.686695
6330.000000;0.686991
6329.000000;0.687284
6328.000000;0.687587
6327.000000;0.687897
6326.000000;0.688162
6325.000000;0.688353
6324.000000;0.688528
6323.000000;0.688767
6322.000000;0.689075
6321.000000;0.689381
6320.000000;0.689631
6319.000000;0.689825
6318.000000;0.689978
6317.000000;0.690110
6316.000000;0.690259
6315.000000;0.690466
6314.000000;0.690722
6313.000000;0.690975
6312.000000;0.691191
6311.000000;0.691383
6310.000000;0.691579
6309.000000;0.691786
6308.000000;0.692008
6307.000000;0.692254
6306.000000;0.692522
6305.000000;0.692783
6304.000000;0.692994
6303.000000;0.693129
6302.000000;0.693190
6301.000000;0.693225
6300.000000;0.693315
6299.000000;0.693509
6298.000000;0.693770
6297.000000;0.693993
6296.000000;0.694117
6295.000000;0.694179
6294.000000;0.694261
6293.000000;0.694406
6292.000000;0.694586
6291.000000;0.694767
6290.000000;0.694956
6289.000000;0.695187
6288.000000;0.695469
6287.000000;0.695753
6286.000000;0.695975
6285.000000;0.696109
6284.000000;0.696196
6283.000000;0.696304
6282.000000;0.696476
6281.000000;0.696701
6280.000000;0.696929
6279.000000;0.697114
6278.000000;0.697259
6277.000000;0.697417
6276.000000;0.697628
6275.000000;0.697858
6274.000000;0.698036
6273.000000;0.698152
6272.000000;0.698273
6271.000000;0.698457
6270.000000;0.698658
6269.000000;0.698781
6268.000000;0.698793
6267.000000;0.698744
6266.000000;0.698712
6265.000000;0.698759
6264.000000;0.698936
6263.000000;0.699250
6262.000000;0.699621
6261.000000;0.699914
6260.000000;0.700053
6259.000000;0.700077
6258.000000;0.700088
6257.000000;0.700155
6256.000000;0.700283
6255.000000;0.700442
6254.000000;0.700607
6253.000000;0.700773
6252.000000;0.700946
6251.000000;0.701121
6250.000000;0.701270
6249.000000;0.701371
6248.000000;0.701444
6247.000000;0.701529
6246.000000;0.701633
6245.000000;0.701723
6244.000000;0.701782
6243.000000;0.701835
6242.000000;0.701913
6241.000000;0.702018
6240.000000;0.702138
6239.000000;0.702267
6238.000000;0.702395
6237.000000;0.702489
6236.000000;0.702537
6235.000000;0.702570
6234.000000;0.702641
6233.000000;0.702775
6232.000000;0.702956
6231.000000;0.703150
6230.000000;0.703322
6229.000000;0.703450
6228.000000;0.703552
6227.000000;0.703672
6226.000000;0.703830
6225.000000;0.703976
6224.000000;0.704044
6223.000000;0.704029
6222.000000;0.704006
6221.000000;0.704046
6220.000000;0.704144
6219.000000;0.704234
6218.000000;0.704280
6217.000000;0.704315
6216.000000;0.704392
6215.000000;0.704503
6214.000000;0.704576
6213.000000;0.704565
6212.000000;0.704519
6211.000000;0.704549
6210.000000;0.704718
6209.000000;0.704977
6208.000000;0.705221
6207.000000;0.705368
6206.000000;0.705413
6205.000000;0.705410
6204.000000;0.705429
6203.000000;0.705510
6202.000000;0.705638
6201.000000;0.705760
6200.000000;0.705844
6199.000000;0.705905
6198.000000;0.705972
6197.000000;0.706048
6196.000000;0.706123
6195.000000;0.706200
6194.000000;0.706294
6193.000000;0.706404
6192.000000;0.706512
6191.000000;0.706605
6190.000000;0.706676
6189.000000;0.706715
6188.000000;0.706703
6187.000000;0.706648
6186.000000;0.706602
6185.000000;0.706629
6184.000000;0.706753
6183.000000;0.706934
6182.000000;0.707092
6181.000000;0.707164
6180.000000;0.707135
6179.000000;0.707038
6178.000000;0.706925
6177.000000;0.706838
6176.000000;0.706804
6175.000000;0.706837
6174.000000;0.706944
6173.000000;0.707113
6172.000000;0.707296
6171.000000;0.707429
6170.000000;0.707471
6169.000000;0.707438
6168.000000;0.707394
6167.000000;0.707402
6166.000000;0.707485
6165.000000;0.707625
6164.000000;0.707790
6163.000000;0.707948
6162.000000;0.708071
6161.000000;0.708142
6160.000000;0.708172
6159.000000;0.708187
6158.000000;0.708199
6157.000000;0.708195
6156.000000;0.708154
6155.000000;0.708093
6154.000000;0.708055
6153.000000;0.708072
6152.000000;0.708125
6151.000000;0.708171
6150.000000;0.708198
6149.000000;0.708244
6148.000000;0.708348
6147.000000;0.708490
6146.000000;0.708601
6145.000000;0.708628
6144.000000;0.708579
6143.000000;0.708517
6142.000000;0.708505
6141.000000;0.708569
6140.000000;0.708683
6139.000000;0.708790
6138.000000;0.708840
6137.000000;0.708824
6136.000000;0.708777
6135.000000;0.708741
6134.000000;0.708742
6133.000000;0.708790
6132.000000;0.708876
6131.000000;0.708971
6130.000000;0.709030
6129.000000;0.709035
6128.000000;0.709002
6127.000000;0.708959
6126.000000;0.708926
6125.000000;0.708925
6124.000000;0.708990
6123.000000;0.709132
6122.000000;0.709305
6121.000000;0.709430
6120.000000;0.709474
6119.000000;0.709471
6118.000000;0.709473
6117.000000;0.709504
6116.000000;0.709555
6115.000000;0.709601
6114.000000;0.709612
6113.000000;0.709561
6112.000000;0.709461
6111.000000;0.709368
6110.000000;0.709336
6109.000000;0.709369
6108.000000;0.709418
6107.000000;0.709438
6106.000000;0.709431
6105.000000;0.709434
6104.000000;0.709472
6103.000000;0.709541
6102.000000;0.709616
6101.000000;0.709675
6100.000000;0.709706
6099.000000;0.709712
6098.000000;0.709708
6097.000000;0.709720
6096.000000;0.709760
6095.000000;0.709813
6094.000000;0.709853
6093.000000;0.709884
6092.000000;0.709934
6091.000000;0.710013
6090.000000;0.710082
6089.000000;0.710093
6088.000000;0.710038
6087.000000;0.709946
6086.000000;0.709850
6085.000000;0.709770
6084.000000;0.709726
6083.000000;0.709743
6082.000000;0.709833
6081.000000;0.709986
6080.000000;0.710175
6079.000000;0.710364
6078.000000;0.710514
6077.000000;0.710591
6076.000000;0.710585
6075.000000;0.710521
6074.000000;0.710431
6073.000000;0.710334
6072.000000;0.710232
6071.000000;0.710125
6070.000000;0.710029
6069.000000;0.709969
6068.000000;0.709960
6067.000000;0.709986
6066.000000;0.710025
6065.000000;0.710074
6064.000000;0.710141
6063.000000;0.710213
6062.000000;0.710253
6061.000000;0.710242
6060.000000;0.710213
6059.000000;0.710208
6058.000000;0.710222
6057.000000;0.710220
6056.000000;0.710192
6055.000000;0.710169
6054.000000;0.710182
6053.000000;0.710224
6052.000000;0.710265
6051.000000;0.710294
6050.000000;0.710333
6049.000000;0.710415
6048.000000;0.710549
6047.000000;0.710690
6046.000000;0.710770
6045.000000;0.710756
6044.000000;0.710681
6043.000000;0.710597
6042.000000;0.710523
6041.000000;0.710443
6040.000000;0.710354
6039.000000;0.710287
6038.000000;0.710277
6037.000000;0.710340
6036.000000;0.710457
6035.000000;0.710592
6034.000000;0.710697
6033.000000;0.710759
6032.000000;0.710806
6031.000000;0.710876
6030.000000;0.710958
6029.000000;0.710999
6028.000000;0.710966
6027.000000;0.710872
6026.000000;0.710750
6025.000000;0.710623
6024.000000;0.710513
6023.000000;0.710450
6022.000000;0.710453
6021.000000;0.710520
6020.000000;0.710634
6019.000000;0.710774
6018.000000;0.710916
6017.000000;0.711036
6016.000000;0.711131
6015.000000;0.711205
6014.000000;0.711241
6013.000000;0.711210
6012.000000;0.711126
6011.000000;0.711048
6010.000000;0.711022
6009.000000;0.711033
6008.000000;0.711037
6007.000000;0.711022
6006.000000;0.711020
6005.000000;0.711058
6004.000000;0.711124
6003.000000;0.711171
6002.000000;0.711166
6001.000000;0.711122
6000.000000;0.711087
5999.000000;0.711087
5998.000000;0.711086
5997.000000;0.711033
5996.000000;0.710941
5995.000000;0.710892
5994.000000;0.710938
5993.000000;0.711031
5992.000000;0.711079
5991.000000;0.711044
5990.000000;0.710964
5989.000000;0.710884
5988.000000;0.710810
5987.000000;0.710742
5986.000000;0.710701
5985.000000;0.710713
5984.000000;0.710778
5983.000000;0.710871
5982.000000;0.710966
5981.000000;0.711045
5980.000000;0.711106
5979.000000;0.711142
5978.000000;0.711149
5977.000000;0.711126
5976.000000;0.711099
5975.000000;0.711108
5974.000000;0.711180
5973.000000;0.711301
5972.000000;0.711431
5971.000000;0.711528
5970.000000;0.711558
5969.000000;0.711513
5968.000000;0.711421
5967.000000;0.711342
5966.000000;0.711315
5965.000000;0.711327
5964.000000;0.711338
5963.000000;0.711342
5962.000000;0.711364
5961.000000;0.711405
5960.000000;0.711421
5959.000000;0.711373
5958.000000;0.711284
5957.000000;0.711216
5956.000000;0.711195
5955.000000;0.711182
5954.000000;0.711136
5953.000000;0.711064
5952.000000;0.711010
5951.000000;0.710995
5950.000000;0.711005
5949.000000;0.711018
5948.000000;0.711025
5947.000000;0.711023
5946.000000;0.711009
5945.000000;0.710995
5944.000000;0.711011
5943.000000;0.711057
5942.000000;0.711096
5941.000000;0.711097
5940.000000;0.711087
5939.000000;0.711119
5938.000000;0.711197
5937.000000;0.711269
5936.000000;0.711302
5935.000000;0.711330
5934.000000;0.711406
5933.000000;0.711528
5932.000000;0.711650
5931.000000;0.711731
5930.000000;0.711765
5929.000000;0.711751
5928.000000;0.711690
5927.000000;0.711602
5926.000000;0.711525
5925.000000;0.711482
5924.000000;0.711466
5923.000000;0.711470
5922.000000;0.711495
5921.000000;0.711538
5920.000000;0.711563
5919.000000;0.711521
5918.000000;0.711396
5917.000000;0.711231
5916.000000;0.711095
5915.000000;0.711021
5914.000000;0.710993
5913.000000;0.710974
5912.000000;0.710960
5911.000000;0.710971
5910.000000;0.711019
5909.000000;0.711084
5908.000000;0.711133
5907.000000;0.711152
5906.000000;0.711150
5905.000000;0.711147
5904.000000;0.711157
5903.000000;0.711180
5902.000000;0.711204
5901.000000;0.711207
5900.000000;0.711169
5899.000000;0.711084
5898.000000;0.710966
5897.000000;0.710852
5896.000000;0.710794
5895.000000;0.710822
5894.000000;0.710905
5893.000000;0.710979
5892.000000;0.711007
5891.000000;0.711005
5890.000000;0.710989
5889.000000;0.710931
5888.000000;0.710803
5887.000000;0.710638
5886.000000;0.710518
5885.000000;0.710487
5884.000000;0.710512
5883.000000;0.710534
5882.000000;0.710532
5881.000000;0.710526
5880.000000;0.710545
5879.000000;0.710595
5878.000000;0.710653
5877.000000;0.710691
5876.000000;0.710699
5875.000000;0.710696
5874.000000;0.710701
5873.000000;0.710704
5872.000000;0.710673
5871.000000;0.710602
5870.000000;0.710522
5869.000000;0.710462
5868.000000;0.710409
5867.000000;0.710336
5866.000000;0.710239
5865.000000;0.710141
5864.000000;0.710068
5863.000000;0.710030
5862.000000;0.710027
5861.000000;0.710049
5860.000000;0.710081
5859.000000;0.710110
5858.000000;0.710134
5857.000000;0.710145
5856.000000;0.710124
5855.000000;0.710052
5854.000000;0.709939
5853.000000;0.709829
5852.000000;0.709767
5851.000000;0.709767
5850.000000;0.709803
5849.000000;0.709830
5848.000000;0.709823
5847.000000;0.709799
5846.000000;0.709787
5845.000000;0.709783
5844.000000;0.709751
5843.000000;0.709677
5842.000000;0.709600
5841.000000;0.709562
5840.000000;0.709560
5839.000000;0.709549
5838.000000;0.709498
5837.000000;0.709405
5836.000000;0.709287
5835.000000;0.709175
5834.000000;0.709107
5833.000000;0.709098
5832.000000;0.709112
5831.000000;0.709098
5830.000000;0.709051
5829.000000;0.709016
5828.000000;0.709024
5827.000000;0.709051
5826.000000;0.709053
5825.000000;0.709014
5824.000000;0.708952
5823.000000;0.708900
5822.000000;0.708881
5821.000000;0.708887
5820.000000;0.708864
5819.000000;0.708757
5818.000000;0.708573
5817.000000;0.708388
5816.000000;0.708266
5815.000000;0.708202
5814.000000;0.708161
5813.000000;0.708136
5812.000000;0.708138
5811.000000;0.708143
5810.000000;0.708103
5809.000000;0.708009
5808.000000;0.707905
5807.000000;0.707840
5806.000000;0.707829
5805.000000;0.707853
5804.000000;0.707869
5803.000000;0.707825
5802.000000;0.707696
5801.000000;0.707520
5800.000000;0.707361
5799.000000;0.707249
5798.000000;0.707163
5797.000000;0.707084
5796.000000;0.707023
5795.000000;0.706994
5794.000000;0.706980
5793.000000;0.706957
5792.000000;0.706917
5791.000000;0.706863
5790.000000;0.706789
5789.000000;0.706694
5788.000000;0.706609
5787.000000;0.706580
5786.000000;0.706613
5785.000000;0.706665
5784.000000;0.706663
5783.000000;0.706562
5782.000000;0.706371
5781.000000;0.706146
5780.000000;0.705960
5779.000000;0.705850
5778.000000;0.705797
5777.000000;0.705744
5776.000000;0.705643
5775.000000;0.705500
5774.000000;0.705363
5773.000000;0.705270
5772.000000;0.705203
5771.000000;0.705108
5770.000000;0.704956
5769.000000;0.704791
5768.000000;0.704692
5767.000000;0.704685
5766.000000;0.704708
5765.000000;0.704676
5764.000000;0.704554
5763.000000;0.704375
5762.000000;0.704193
5761.000000;0.704029
5760.000000;0.703879
5759.000000;0.703746
5758.000000;0.703649
5757.000000;0.703598
5756.000000;0.703559
5755.000000;0.703481
5754.000000;0.703356
5753.000000;0.703225
5752.000000;0.703124
5751.000000;0.703033
5750.000000;0.702910
5749.000000;0.702751
5748.000000;0.702579
5747.000000;0.702399
5746.000000;0.702193
5745.000000;0.701962
5744.000000;0.701748
5743.000000;0.701585
5742.000000;0.701465
5741.000000;0.701359
5740.000000;0.701247
5739.000000;0.701125
5738.000000;0.700997
5737.000000;0.700883
5736.000000;0.700804
5735.000000;0.700753
5734.000000;0.700692
5733.000000;0.700588
5732.000000;0.700439
5731.000000;0.700266
5730.000000;0.700086
5729.000000;0.699906
5728.000000;0.699731
5727.000000;0.699566
5726.000000;0.699416
5725.000000;0.699293
5724.000000;0.699195
5723.000000;0.699093
5722.000000;0.698952
5721.000000;0.698776
5720.000000;0.698602
5719.000000;0.698435
5718.000000;0.698237
5717.000000;0.697990
5716.000000;0.697745
5715.000000;0.697566
5714.000000;0.697446
5713.000000;0.697327
5712.000000;0.697171
5711.000000;0.696970
5710.000000;0.696725
5709.000000;0.696443
5708.000000;0.696177
5707.000000;0.695982
5706.000000;0.695844
5705.000000;0.695679
5704.000000;0.695446
5703.000000;0.695208
5702.000000;0.695063
5701.000000;0.695028
5700.000000;0.695021
5699.000000;0.694943
5698.000000;0.694755
5697.000000;0.694503
5696.000000;0.694265
5695.000000;0.694106
5694.000000;0.694008
5693.000000;0.693960
5692.000000;0.693866
5691.000000;0.693696
5690.000000;0.693486
5689.000000;0.693237
5688.000000;0.692978
5687.000000;0.692750
5686.000000;0.692591
5685.000000;0.692487
5684.000000;0.692392
5683.000000;0.692267
5682.000000;0.692110
5681.000000;0.691927
5680.000000;0.691711
5679.000000;0.691464
5678.000000;0.691222
5677.000000;0.691035
5676.000000;0.690912
5675.000000;0.690804
5674.000000;0.690654
5673.000000;0.690460
5672.000000;0.690266
5671.000000;0.690110
5670.000000;0.689983
5669.000000;0.689858
5668.000000;0.689731
5667.000000;0.689625
5666.000000;0.689555
5665.000000;0.689489
5664.000000;0.689367
5663.000000;0.689148
5662.000000;0.688863
5661.000000;0.688597
5660.000000;0.688424
5659.000000;0.688363
5658.000000;0.688375
5657.000000;0.688391
5656.000000;0.688338
5655.000000;0.688171
5654.000000;0.687903
5653.000000;0.687613
5652.000000;0.687382
5651.000000;0.687238
5650.000000;0.687153
5649.000000;0.687089
5648.000000;0.687031
5647.000000;0.686977
5646.000000;0.686928
5645.000000;0.686883
5644.000000;0.686835
5643.000000;0.686760
5642.000000;0.686643
5641.000000;0.686508
5640.000000;0.686410
5639.000000;0.686374
5638.000000;0.686362
5637.000000;0.686328
5636.000000;0.686266
5635.000000;0.686200
5634.000000;0.686144
5633.000000;0.686095
5632.000000;0.686053
5631.000000;0.686015
5630.000000;0.685958
5629.000000;0.685845
5628.000000;0.685678
5627.000000;0.685509
5626.000000;0.685407
5625.000000;0.685402
5624.000000;0.685471
5623.000000;0.685560
5622.000000;0.685634
5621.000000;0.685695
5620.000000;0.685767
5619.000000;0.685851
5618.000000;0.685922
5617.000000;0.685952
5616.000000;0.685929
5615.000000;0.685859
5614.000000;0.685754
5613.000000;0.685646
5612.000000;0.685591
5611.000000;0.685628
5610.000000;0.685752
5609.000000;0.685918
5608.000000;0.686063
5607.000000;0.686142
5606.000000;0.686138
5605.000000;0.686081
5604.000000;0.686028
5603.000000;0.686015
5602.000000;0.686043
5601.000000;0.686109
5600.000000;0.686230
5599.000000;0.686417
5598.000000;0.686628
5597.000000;0.686791
5596.000000;0.686870
5595.000000;0.686884
5594.000000;0.686871
5593.000000;0.686840
5592.000000;0.686793
5591.000000;0.686764
5590.000000;0.686807
5589.000000;0.686937
5588.000000;0.687093
5587.000000;0.687182
5586.000000;0.687176
5585.000000;0.687149
5584.000000;0.687210
5583.000000;0.687385
5582.000000;0.687592
5581.000000;0.687738
5580.000000;0.687813
5579.000000;0.687886
5578.000000;0.688003
5577.000000;0.688141
5576.000000;0.688251
5575.000000;0.688315
5574.000000;0.688362
5573.000000;0.688432
5572.000000;0.688539
5571.000000;0.688665
5570.000000;0.688789
5569.000000;0.688912
5568.000000;0.689061
5567.000000;0.689253
5566.000000;0.689461
5565.000000;0.689642
5564.000000;0.689773
5563.000000;0.689867
5562.000000;0.689936
5561.000000;0.689977
5560.000000;0.689986
5559.000000;0.689988
5558.000000;0.690016
5557.000000;0.690084
5556.000000;0.690185
5555.000000;0.690314
5554.000000;0.690469
5553.000000;0.690638
5552.000000;0.690816
5551.000000;0.691019
5550.000000;0.691274
5549.000000;0.691562
5548.000000;0.691821
5547.000000;0.691999
5546.000000;0.692092
5545.000000;0.692130
5544.000000;0.692148
5543.000000;0.692164
5542.000000;0.692204
5541.000000;0.692218
5540.000000;0.692202
5539.000000;0.692025
5538.000000;0.691918
5537.000000;0.691201
5536.000000;0.691055
5535.000000;0.691169
5534.000000;0.691266
5533.000000;0.691297
5532.000000;0.691517
5531.000000;0.691347
5530.000000;0.693545
5529.000000;0.694022
5528.000000;0.693618
5527.000000;0.693575
5526.000000;0.693460
5525.000000;0.693521
5524.000000;0.693552
5523.000000;0.693581
5522.000000;0.693572
5521.000000;0.693585
5520.000000;0.693713
5519.000000;0.694022
5518.000000;0.694483
5517.000000;0.694959
5516.000000;0.695342
5515.000000;0.695484
5514.000000;0.695508
5513.000000;0.695225
5512.000000;0.695222
5511.000000;0.693324
5510.000000;0.692959
5509.000000;0.693230
5508.000000;0.693253
5507.000000;0.693367
5506.000000;0.693371
5505.000000;0.693406
5504.000000;0.693375
5503.000000;0.693397
5502.000000;0.693245
5501.000000;0.693319
5500.000000;0.692909
5499.000000;0.695729
5498.000000;0.695981
5497.000000;0.695617
5496.000000;0.695706
5495.000000;0.695830
5494.000000;0.694333
5493.000000;0.693902
5492.000000;0.693933
5491.000000;0.693844
5490.000000;0.693897
5489.000000;0.693883
5488.000000;0.693868
5487.000000;0.693847
5486.000000;0.693874
5485.000000;0.693960
5484.000000;0.694112
5483.000000;0.694324
5482.000000;0.694560
5481.000000;0.694765
5480.000000;0.694883
5479.000000;0.694866
5478.000000;0.694685
5477.000000;0.694373
5476.000000;0.694043
5475.000000;0.693825
5474.000000;0.693759
5473.000000;0.693781
5472.000000;0.693818
5471.000000;0.693846
5470.000000;0.693863
5469.000000;0.693854
5468.000000;0.693821
5467.000000;0.693806
5466.000000;0.693849
5465.000000;0.693941
5464.000000;0.694039
5463.000000;0.694110
5462.000000;0.694143
5461.000000;0.694135
5460.000000;0.694082
5459.000000;0.694011
5458.000000;0.693913
5457.000000;0.693897
5456.000000;0.693852
5455.000000;0.694046
5454.000000;0.693886
5453.000000;0.696420
5452.000000;0.696077
5451.000000;0.695179
5450.000000;0.694746
5449.000000;0.694393
5448.000000;0.694241
5447.000000;0.694152
5446.000000;0.694252
5445.000000;0.694604
5444.000000;0.695189
5443.000000;0.695836
5442.000000;0.696329
5441.000000;0.696569
5440.000000;0.696606
5439.000000;0.696493
5438.000000;0.696193
5437.000000;0.695687
5436.000000;0.695071
5435.000000;0.694486
5434.000000;0.693982
5433.000000;0.693513
5432.000000;0.693046
5431.000000;0.692597
5430.000000;0.692190
5429.000000;0.691886
5428.000000;0.691796
5427.000000;0.691975
5426.000000;0.692316
5425.000000;0.692604
5424.000000;0.692653
5423.000000;0.692396
5422.000000;0.691907
5421.000000;0.691362
5420.000000;0.690930
5419.000000;0.690652
5418.000000;0.690402
5417.000000;0.690002
5416.000000;0.689384
5415.000000;0.688676
5414.000000;0.688082
5413.000000;0.687691
5412.000000;0.687424
5411.000000;0.687191
5410.000000;0.687005
5409.000000;0.686927
5408.000000;0.686945
5407.000000;0.686969
5406.000000;0.686913
5405.000000;0.686747
5404.000000;0.686471
5403.000000;0.686097
5402.000000;0.685646
5401.000000;0.685145
5400.000000;0.684610
5399.000000;0.684053
5398.000000;0.683495
5397.000000;0.682926
5396.000000;0.682294
5395.000000;0.681563
5394.000000;0.680787
5393.000000;0.680073
5392.000000;0.679466
5391.000000;0.678909
5390.000000;0.678310
5389.000000;0.677615
5388.000000;0.676838
5387.000000;0.676040
5386.000000;0.675299
5385.000000;0.674650
5384.000000;0.674052
5383.000000;0.673438
5382.000000;0.672777
5381.000000;0.672047
5380.000000;0.671178
5379.000000;0.670095
5378.000000;0.668824
5377.000000;0.667502
5376.000000;0.666225
5375.000000;0.664963
5374.000000;0.663647
5373.000000;0.662288
5372.000000;0.660966
5371.000000;0.659735
5370.000000;0.658582
5369.000000;0.657426
5368.000000;0.656158
5367.000000;0.654666
5366.000000;0.652898
5365.000000;0.650926
5364.000000;0.648953
5363.000000;0.647196
5362.000000;0.645743
5361.000000;0.644496
5360.000000;0.643220
5359.000000;0.641614
5358.000000;0.639390
5357.000000;0.636398
5356.000000;0.632704
5355.000000;0.628578
5354.000000;0.624432
5353.000000;0.620727
5352.000000;0.617755
5351.000000;0.615398
5350.000000;0.613104
5349.000000;0.610197
5348.000000;0.606225
5347.000000;0.601074
5346.000000;0.594946
5345.000000;0.588420
5344.000000;0.582296
5343.000000;0.577000
5342.000000;0.572132
5341.000000;0.566743
5340.000000;0.560082
5339.000000;0.552088
5338.000000;0.543273
5337.000000;0.534258
5336.000000;0.525355
5335.000000;0.516390
5334.000000;0.506862
5333.000000;0.496439
5332.000000;0.485356
5331.000000;0.474122
5330.000000;0.462826
5329.000000;0.451003
5328.000000;0.438161
5327.000000;0.424134
5326.000000;0.408980
5325.000000;0.392880
5324.000000;0.376131
5323.000000;0.358863
5322.000000;0.340753
5321.000000;0.321322
5320.000000;0.300493
5319.000000;0.278439
5318.000000;0.255038
5317.000000;0.230041
5316.000000;0.203707
5315.000000;0.176527
5314.000000;0.148334
5313.000000;0.118505
5312.000000;0.086994
5311.000000;0.054137
5310.000000;0.019420
5309.000000;-0.018279
5308.000000;-0.058983
5307.000000;-0.101466
5306.000000;-0.145134
5305.000000;-0.190473
5304.000000;-0.237297
5303.000000;-0.284404
5302.000000;-0.331149
5301.000000;-0.377043
5300.000000;-0.419567
5299.000000;-0.454959
5298.000000;-0.480889
5297.000000;-0.496315
5296.000000;-0.501164
5295.000000;-0.497314
5294.000000;-0.486597
5293.000000;-0.469306
5292.000000;-0.447083
5291.000000;-0.424060
5290.000000;-0.403683
5289.000000;-0.387026
5288.000000;-0.373599
5287.000000;-0.361668
5286.000000;-0.349009
5285.000000;-0.335313
5284.000000;-0.322725
5283.000000;-0.312435
5282.000000;-0.302665
5281.000000;-0.291849
5280.000000;-0.281600
5279.000000;-0.274270
5278.000000;-0.269514
5277.000000;-0.265481
5276.000000;-0.261649
5275.000000;-0.258259
5274.000000;-0.254616
5273.000000;-0.250163
5272.000000;-0.245813
5271.000000;-0.242255
5270.000000;-0.238495
5269.000000;-0.233817
5268.000000;-0.229372
5267.000000;-0.225818
5266.000000;-0.221411
5265.000000;-0.214863
5264.000000;-0.208397
5263.000000;-0.205337
5262.000000;-0.205952
5261.000000;-0.208137
5260.000000;-0.210734
5259.000000;-0.213358
5258.000000;-0.214249
5257.000000;-0.211533
5256.000000;-0.206349
5255.000000;-0.202236
5254.000000;-0.201409
5253.000000;-0.203067
5252.000000;-0.204783
5251.000000;-0.204204
5250.000000;-0.200200
5249.000000;-0.194222
5248.000000;-0.189835
5247.000000;-0.189108
5246.000000;-0.190190
5245.000000;-0.190054
5244.000000;-0.188474
5243.000000;-0.187428
5242.000000;-0.187752
5241.000000;-0.188709
5240.000000;-0.190077
5239.000000;-0.192314
5238.000000;-0.194900
5237.000000;-0.196479
5236.000000;-0.196571
5235.000000;-0.195628
5234.000000;-0.193791
5233.000000;-0.191215
5232.000000;-0.189138
5231.000000;-0.188858
5230.000000;-0.189738
5229.000000;-0.189682
5228.000000;-0.187624
5227.000000;-0.184388
5226.000000;-0.181367
5225.000000;-0.179631
5224.000000;-0.179945
5223.000000;-0.182274
5222.000000;-0.185231
5221.000000;-0.187092
5220.000000;-0.187418
5219.000000;-0.187063
5218.000000;-0.186937
5217.000000;-0.187401
5216.000000;-0.188353
5215.000000;-0.189075
5214.000000;-0.188556
5213.000000;-0.186792
5212.000000;-0.185231
5211.000000;-0.185009
5210.000000;-0.185258
5209.000000;-0.184091
5208.000000;-0.181005
5207.000000;-0.177454
5206.000000;-0.175230
5205.000000;-0.174964
5204.000000;-0.176003
5203.000000;-0.177175
5202.000000;-0.177794
5201.000000;-0.178102
5200.000000;-0.178499
5199.000000;-0.178502
5198.000000;-0.177359
5197.000000;-0.175755
5196.000000;-0.175580
5195.000000;-0.177383
5194.000000;-0.179377
5193.000000;-0.179722
5192.000000;-0.178697
5191.000000;-0.177800
5190.000000;-0.177707
5189.000000;-0.178070
5188.000000;-0.178519
5187.000000;-0.178836
5186.000000;-0.178739
5185.000000;-0.178393
5184.000000;-0.178549
5183.000000;-0.179437
5182.000000;-0.180202
5181.000000;-0.180102
5180.000000;-0.179562
5179.000000;-0.179400
5178.000000;-0.179726
5177.000000;-0.180361
5176.000000;-0.181556
5175.000000;-0.183310
5174.000000;-0.184568
5173.000000;-0.184169
5172.000000;-0.182363
5171.000000;-0.180611
5170.000000;-0.180118
5169.000000;-0.181072
5168.000000;-0.182780
5167.000000;-0.184022
5166.000000;-0.183778
5165.000000;-0.182196
5164.000000;-0.180569
5163.000000;-0.180071
5162.000000;-0.180848
5161.000000;-0.182394
5160.000000;-0.184006
5159.000000;-0.184698
5158.000000;-0.183720
5157.000000;-0.181709
5156.000000;-0.180488
5155.000000;-0.181114
5154.000000;-0.182774
5153.000000;-0.184033
5152.000000;-0.184368
5151.000000;-0.184057
5150.000000;-0.183438
5149.000000;-0.182903
5148.000000;-0.182907
5147.000000;-0.183428
5146.000000;-0.183981
5145.000000;-0.184505
5144.000000;-0.185516
5143.000000;-0.187053
5142.000000;-0.188257
5141.000000;-0.188475
5140.000000;-0.188020
5139.000000;-0.187488
5138.000000;-0.187123
5137.000000;-0.187174
5136.000000;-0.187989
5135.000000;-0.189322
5134.000000;-0.190415
5133.000000;-0.191134
5132.000000;-0.192055
5131.000000;-0.193068
5130.000000;-0.193034
5129.000000;-0.191456
5128.000000;-0.189426
5127.000000;-0.188216
5126.000000;-0.187849
5125.000000;-0.187757
5124.000000;-0.187959
5123.000000;-0.188692
5122.000000;-0.189580
5121.000000;-0.190066
5120.000000;-0.190190
5119.000000;-0.190308
5118.000000;-0.190442
5117.000000;-0.190429
5116.000000;-0.190290
5115.000000;-0.190025
5114.000000;-0.189543
5113.000000;-0.189101
5112.000000;-0.189250
5111.000000;-0.190090
5110.000000;-0.191187
5109.000000;-0.192416
5108.000000;-0.194041
5107.000000;-0.195770
5106.000000;-0.196675
5105.000000;-0.196407
5104.000000;-0.195686
5103.000000;-0.195236
5102.000000;-0.195049
5101.000000;-0.194912
5100.000000;-0.194769
5099.000000;-0.194348
5098.000000;-0.193380
5097.000000;-0.192497
5096.000000;-0.192929
5095.000000;-0.194940
5094.000000;-0.197501
5093.000000;-0.199821
5092.000000;-0.202061
5091.000000;-0.204118
5090.000000;-0.205000
5089.000000;-0.204219
5088.000000;-0.202728
5087.000000;-0.201734
5086.000000;-0.201451
5085.000000;-0.201555
5084.000000;-0.201784
5083.000000;-0.201563
5082.000000;-0.200207
5081.000000;-0.198190
5080.000000;-0.197128
5079.000000;-0.197745
5078.000000;-0.198864
5077.000000;-0.199227
5076.000000;-0.199272
5075.000000;-0.200190
5074.000000;-0.202109
5073.000000;-0.204201
5072.000000;-0.205842
5071.000000;-0.206742
5070.000000;-0.206562
5069.000000;-0.205434
5068.000000;-0.204338
5067.000000;-0.204107
5066.000000;-0.204499
5065.000000;-0.204891
5064.000000;-0.205312
5063.000000;-0.206037
5062.000000;-0.206734
5061.000000;-0.206808
5060.000000;-0.206264
5059.000000;-0.205625
5058.000000;-0.205380
5057.000000;-0.205901
5056.000000;-0.207328
5055.000000;-0.209042
5054.000000;-0.209912
5053.000000;-0.209617
5052.000000;-0.209065
5051.000000;-0.209053
5050.000000;-0.209280
5049.000000;-0.209194
5048.000000;-0.208963
5047.000000;-0.208933
5046.000000;-0.208958
5045.000000;-0.208983
5044.000000;-0.209515
5043.000000;-0.210749
5042.000000;-0.211976
5041.000000;-0.212622
5040.000000;-0.213139
5039.000000;-0.214036
5038.000000;-0.214791
5037.000000;-0.214624
5036.000000;-0.213677
5035.000000;-0.212551
5034.000000;-0.211378
5033.000000;-0.210321
5032.000000;-0.210268
5031.000000;-0.211862
5030.000000;-0.214240
5029.000000;-0.215820
5028.000000;-0.216160
5027.000000;-0.216113
5026.000000;-0.216400
5025.000000;-0.217032
5024.000000;-0.217881
5023.000000;-0.218845
5022.000000;-0.219503
5021.000000;-0.219434
5020.000000;-0.218967
5019.000000;-0.218987
5018.000000;-0.219951
5017.000000;-0.221566
5016.000000;-0.223394
5015.000000;-0.225277
5014.000000;-0.227178
5013.000000;-0.229027
5012.000000;-0.230724
5011.000000;-0.232055
5010.000000;-0.232716
5009.000000;-0.232596
5008.000000;-0.231854
5007.000000;-0.230688
5006.000000;-0.229390
5005.000000;-0.228613
5004.000000;-0.228971
5003.000000;-0.230181
5002.000000;-0.231293
5001.000000;-0.232041
5000.000000;-0.233196
4999.000000;-0.235127
4998.000000;-0.236959
4997.000000;-0.237800
4996.000000;-0.238132
4995.000000;-0.239127
4994.000000;-0.240863
4993.000000;-0.242465
4992.000000;-0.243484
4991.000000;-0.244325
4990.000000;-0.245328
4989.000000;-0.246251
4988.000000;-0.246768
4987.000000;-0.246955
4986.000000;-0.247137
4985.000000;-0.247579
4984.000000;-0.248370
4983.000000;-0.249421
4982.000000;-0.250665
4981.000000;-0.252356
4980.000000;-0.254865
4979.000000;-0.258022
4978.000000;-0.261074
4977.000000;-0.263497
4976.000000;-0.265413
4975.000000;-0.267018
4974.000000;-0.268110
4973.000000;-0.268530
4972.000000;-0.268632
4971.000000;-0.268900
4970.000000;-0.269581
4969.000000;-0.270958
4968.000000;-0.273419
4967.000000;-0.276770
4966.000000;-0.279958
4965.000000;-0.282045
4964.000000;-0.283176
4963.000000;-0.284227
4962.000000;-0.285799
4961.000000;-0.287887
4960.000000;-0.290139
4959.000000;-0.292062
4958.000000;-0.293332
4957.000000;-0.294299
4956.000000;-0.295777
4955.000000;-0.298014
4954.000000;-0.300286
4953.000000;-0.301916
4952.000000;-0.303249
4951.000000;-0.305177
4950.000000;-0.308065
4949.000000;-0.311431
4948.000000;-0.314394
4947.000000;-0.316160
4946.000000;-0.316549
4945.000000;-0.316481
4944.000000;-0.317467
4943.000000;-0.320126
4942.000000;-0.323475
4941.000000;-0.326093
4940.000000;-0.327647
4939.000000;-0.328869
4938.000000;-0.330437
4937.000000;-0.332477
4936.000000;-0.334924
4935.000000;-0.337793
4934.000000;-0.341172
4933.000000;-0.345162
4932.000000;-0.349660
4931.000000;-0.354033
4930.000000;-0.357269
4929.000000;-0.358780
4928.000000;-0.358973
4927.000000;-0.359014
4926.000000;-0.360211
4925.000000;-0.363398
4924.000000;-0.368213
4923.000000;-0.372877
4922.000000;-0.375464
4921.000000;-0.375821
4920.000000;-0.375720
4919.000000;-0.376865
4918.000000;-0.379402
4917.000000;-0.382534
4916.000000;-0.385825
4915.000000;-0.389350
4914.000000;-0.393142
4913.000000;-0.397135
4912.000000;-0.401347
4911.000000;-0.405609
4910.000000;-0.409355
4909.000000;-0.412159
4908.000000;-0.414317
4907.000000;-0.416499
4906.000000;-0.419000
4905.000000;-0.421709
4904.000000;-0.424502
4903.000000;-0.427274
4902.000000;-0.429949
4901.000000;-0.432785
4900.000000;-0.436359
4899.000000;-0.440780
4898.000000;-0.445053
4897.000000;-0.447753
4896.000000;-0.448467
4895.000000;-0.448309
4894.000000;-0.448949
4893.000000;-0.451269
4892.000000;-0.454850
4891.000000;-0.458413
4890.000000;-0.460665
4889.000000;-0.461016
4888.000000;-0.459804
4887.000000;-0.457987
4886.000000;-0.456533
4885.000000;-0.455960
4884.000000;-0.456225
4883.000000;-0.456868
4882.000000;-0.457233
4881.000000;-0.456820
4880.000000;-0.455710
4879.000000;-0.454699
4878.000000;-0.454666
4877.000000;-0.455635
4876.000000;-0.456711
4875.000000;-0.457025
4874.000000;-0.456380
4873.000000;-0.454892
4872.000000;-0.452566
4871.000000;-0.449570
4870.000000;-0.446361
4869.000000;-0.443016
4868.000000;-0.438926
4867.000000;-0.433807
4866.000000;-0.428573
4865.000000;-0.424476
4864.000000;-0.421653
4863.000000;-0.419082
4862.000000;-0.415793
4861.000000;-0.411548
4860.000000;-0.406543
4859.000000;-0.401229
4858.000000;-0.396333
4857.000000;-0.392251
4856.000000;-0.388303
4855.000000;-0.383159
4854.000000;-0.376310
4853.000000;-0.368743
4852.000000;-0.361916
4851.000000;-0.356296
4850.000000;-0.351129
4849.000000;-0.345499
4848.000000;-0.339350
4847.000000;-0.333306
4846.000000;-0.327656
4845.000000;-0.321928
4844.000000;-0.315649
4843.000000;-0.309096
4842.000000;-0.302855
4841.000000;-0.296876
4840.000000;-0.290552
4839.000000;-0.283652
4838.000000;-0.276613
4837.000000;-0.269901
4836.000000;-0.263627
4835.000000;-0.257757
4834.000000;-0.252149
4833.000000;-0.246312
4832.000000;-0.239730
4831.000000;-0.232574
4830.000000;-0.225574
4829.000000;-0.219099
4828.000000;-0.212884
4827.000000;-0.206734
4826.000000;-0.200813
4825.000000;-0.195075
4824.000000;-0.189101
4823.000000;-0.182806
4822.000000;-0.176667
4821.000000;-0.170852
4820.000000;-0.164741
4819.000000;-0.157818
4818.000000;-0.150559
4817.000000;-0.143892
4816.000000;-0.138100
4815.000000;-0.132720
4814.000000;-0.127223
4813.000000;-0.121359
4812.000000;-0.115085
4811.000000;-0.108580
4810.000000;-0.102220
4809.000000;-0.096181
4808.000000;-0.090228
4807.000000;-0.084142
4806.000000;-0.078179
4805.000000;-0.072771
4804.000000;-0.067881
4803.000000;-0.063020
4802.000000;-0.057814
4801.000000;-0.052320
4800.000000;-0.046779
4799.000000;-0.041312
4798.000000;-0.035891
4797.000000;-0.030458
4796.000000;-0.025049
4795.000000;-0.019823
4794.000000;-0.014866
4793.000000;-0.009998
4792.000000;-0.004937
4791.000000;0.000340
4790.000000;0.005582
4789.000000;0.010623
4788.000000;0.015490
4787.000000;0.020116
4786.000000;0.024309
4785.000000;0.028185
4784.000000;0.032322
4783.000000;0.037209
4782.000000;0.042671
4781.000000;0.048069
4780.000000;0.052955
4779.000000;0.057349
4778.000000;0.061533
4777.000000;0.065766
4776.000000;0.070145
4775.000000;0.074561
4774.000000;0.078807
4773.000000;0.082824
4772.000000;0.086803
4771.000000;0.090989
4770.000000;0.095455
4769.000000;0.100112
4768.000000;0.104779
4767.000000;0.109181
4766.000000;0.113054
4765.000000;0.116425
4764.000000;0.119715
4763.000000;0.123429
4762.000000;0.127743
4761.000000;0.132409
4760.000000;0.136964
4759.000000;0.141010
4758.000000;0.144429
4757.000000;0.147426
4756.000000;0.150347
4755.000000;0.153438
4754.000000;0.156822
4753.000000;0.160584
4752.000000;0.164681
4751.000000;0.168774
4750.000000;0.172418
4749.000000;0.175533
4748.000000;0.178548
4747.000000;0.181952
4746.000000;0.185809
4745.000000;0.189752
4744.000000;0.193341
4743.000000;0.196384
4742.000000;0.199057
4741.000000;0.201781
4740.000000;0.204852
4739.000000;0.208147
4738.000000;0.211300
4737.000000;0.214198
4736.000000;0.217093
4735.000000;0.220202
4734.000000;0.223391
4733.000000;0.226396
4732.000000;0.229187
4731.000000;0.231962
4730.000000;0.234900
4729.000000;0.238044
4728.000000;0.241305
4727.000000;0.244462
4726.000000;0.247283
4725.000000;0.249757
4724.000000;0.252135
4723.000000;0.254645
4722.000000;0.257275
4721.000000;0.259919
4720.000000;0.262576
4719.000000;0.265258
4718.000000;0.267828
4717.000000;0.270131
4716.000000;0.272260
4715.000000;0.274536
4714.000000;0.277198
4713.000000;0.280195
4712.000000;0.283237
4711.000000;0.285994
4710.000000;0.288296
4709.000000;0.290252
4708.000000;0.292163
4707.000000;0.294277
4706.000000;0.296637
4705.000000;0.299147
4704.000000;0.301680
4703.000000;0.304099
4702.000000;0.306285
4701.000000;0.308248
4700.000000;0.310133
4699.000000;0.312054
4698.000000;0.313979
4697.000000;0.315830
4696.000000;0.317621
4695.000000;0.319447
4694.000000;0.321412
4693.000000;0.323630
4692.000000;0.326157
4691.000000;0.328836
4690.000000;0.331313
4689.000000;0.333336
4688.000000;0.335018
4687.000000;0.336704
4686.000000;0.338627
4685.000000;0.340740
4684.000000;0.342802
4683.000000;0.344545
4682.000000;0.345826
4681.000000;0.346760
4680.000000;0.347716
4679.000000;0.349091
4678.000000;0.351043
4677.000000;0.353415
4676.000000;0.355862
4675.000000;0.358046
4674.000000;0.359829
4673.000000;0.361356
4672.000000;0.362898
4671.000000;0.364580
4670.000000;0.366284
4669.000000;0.367855
4668.000000;0.369297
4667.000000;0.370707
4666.000000;0.372127
4665.000000;0.373530
4664.000000;0.374921
4663.000000;0.376357
4662.000000;0.377912
4661.000000;0.379658
4660.000000;0.381596
4659.000000;0.383556
4658.000000;0.385230
4657.000000;0.386419
4656.000000;0.387227
4655.000000;0.387961
4654.000000;0.388869
4653.000000;0.390005
4652.000000;0.391281
4651.000000;0.392574
4650.000000;0.393837
4649.000000;0.395156
4648.000000;0.396658
4647.000000;0.398330
4646.000000;0.399990
4645.000000;0.401463
4644.000000;0.402737
4643.000000;0.403898
4642.000000;0.405004
4641.000000;0.406080
4640.000000;0.407158
4639.000000;0.408245
4638.000000;0.409316
4637.000000;0.410385
4636.000000;0.411517
4635.000000;0.412717
4634.000000;0.413891
4633.000000;0.414975
4632.000000;0.416045
4631.000000;0.417221
4630.000000;0.418515
4629.000000;0.419837
4628.000000;0.421063
4627.000000;0.422059
4626.000000;0.422709
4625.000000;0.423058
4624.000000;0.423366
4623.000000;0.423934
4622.000000;0.424879
4621.000000;0.426117
4620.000000;0.427504
4619.000000;0.428919
4618.000000;0.430276
4617.000000;0.431539
4616.000000;0.432704
4615.000000;0.433749
4614.000000;0.434627
4613.000000;0.435355
4612.000000;0.436029
4611.000000;0.436710
4610.000000;0.437360
4609.000000;0.437938
4608.000000;0.438464
4607.000000;0.438959
4606.000000;0.439415
4605.000000;0.439904
4604.000000;0.440591
4603.000000;0.441544
4602.000000;0.442616
4601.000000;0.443636
4600.000000;0.444609
4599.000000;0.445609
4598.000000;0.446580
4597.000000;0.447382
4596.000000;0.447995
4595.000000;0.448521
4594.000000;0.449041
4593.000000;0.449600
4592.000000;0.450286
4591.000000;0.451155
4590.000000;0.452082
4589.000000;0.452861
4588.000000;0.453453
4587.000000;0.454037
4586.000000;0.454747
4585.000000;0.455492
4584.000000;0.456059
4583.000000;0.456331
4582.000000;0.456386
4581.000000;0.456463
4580.000000;0.456823
4579.000000;0.457561
4578.000000;0.458497
4577.000000;0.459299
4576.000000;0.459762
4575.000000;0.459973
4574.000000;0.460220
4573.000000;0.460763
4572.000000;0.461626
4571.000000;0.462588
4570.000000;0.463378
4569.000000;0.463922
4568.000000;0.464346
4567.000000;0.464762
4566.000000;0.465138
4565.000000;0.465427
4564.000000;0.465684
4563.000000;0.465960
4562.000000;0.466208
4561.000000;0.466409
4560.000000;0.466678
4559.000000;0.467091
4558.000000;0.467496
4557.000000;0.467676
4556.000000;0.467668
4555.000000;0.467723
4554.000000;0.467960
4553.000000;0.468263
4552.000000;0.468538
4551.000000;0.468894
4550.000000;0.469471
4549.000000;0.470230
4548.000000;0.470977
4547.000000;0.471526
4546.000000;0.471776
4545.000000;0.471721
4544.000000;0.471467
4543.000000;0.471207
4542.000000;0.471130
4541.000000;0.471325
4540.000000;0.471718
4539.000000;0.472049
4538.000000;0.472005
4537.000000;0.471534
4536.000000;0.471000
4535.000000;0.470891
4534.000000;0.471356
4533.000000;0.472132
4532.000000;0.472897
4531.000000;0.473533
4530.000000;0.474040
4529.000000;0.474375
4528.000000;0.474492
4527.000000;0.474438
4526.000000;0.474301
4525.000000;0.474128
4524.000000;0.473976
4523.000000;0.473957
4522.000000;0.474130
4521.000000;0.474376
4520.000000;0.474459
4519.000000;0.474243
4518.000000;0.473809
4517.000000;0.473412
4516.000000;0.473320
4515.000000;0.473614
4514.000000;0.474084
4513.000000;0.474352
4512.000000;0.474197
4511.000000;0.473746
4510.000000;0.473351
4509.000000;0.473267
4508.000000;0.473482
4507.000000;0.473817
4506.000000;0.474116
4505.000000;0.474368
4504.000000;0.474650
4503.000000;0.474969
4502.000000;0.475172
4501.000000;0.475012
4500.000000;0.474358
4499.000000;0.473344
4498.000000;0.472348
4497.000000;0.471768
4496.000000;0.471767
4495.000000;0.472157
4494.000000;0.472550
4493.000000;0.472659
4492.000000;0.472468
4491.000000;0.472141
4490.000000;0.471815
4489.000000;0.471515
4488.000000;0.471226
4487.000000;0.470968
4486.000000;0.470792
4485.000000;0.470736
4484.000000;0.470743
4483.000000;0.470650
4482.000000;0.470306
4481.000000;0.469749
4480.000000;0.469203
4479.000000;0.468852
4478.000000;0.468659
4477.000000;0.468479
4476.000000;0.468268
4475.000000;0.468087
4474.000000;0.467959
4473.000000;0.467852
4472.000000;0.467760
4471.000000;0.467683
4470.000000;0.467514
4469.000000;0.467079
4468.000000;0.466322
4467.000000;0.465377
4466.000000;0.464423
4465.000000;0.463560
4464.000000;0.462848
4463.000000;0.462386
4462.000000;0.462285
4461.000000;0.462557
4460.000000;0.463025
4459.000000;0.463341
4458.000000;0.463154
4457.000000;0.462366
4456.000000;0.461217
4455.000000;0.460046
4454.000000;0.459022
4453.000000;0.458152
4452.000000;0.457486
4451.000000;0.457108
4450.000000;0.456923
4449.000000;0.456625
4448.000000;0.455994
4447.000000;0.455135
4446.000000;0.454344
4445.000000;0.453835
4444.000000;0.453658
4443.000000;0.453771
4442.000000;0.454014
4441.000000;0.454066
4440.000000;0.453606
4439.000000;0.452597
4438.000000;0.451308
4437.000000;0.450021
4436.000000;0.448792
4435.000000;0.447567
4434.000000;0.446439
4433.000000;0.445622
4432.000000;0.445147
4431.000000;0.444745
4430.000000;0.444123
4429.000000;0.443285
4428.000000;0.442457
4427.000000;0.441754
4426.000000;0.441082
4425.000000;0.440361
4424.000000;0.439645
4423.000000;0.438957
4422.000000;0.438170
4421.000000;0.437172
4420.000000;0.436057
4419.000000;0.435001
4418.000000;0.434038
4417.000000;0.433078
4416.000000;0.432105
4415.000000;0.431186
4414.000000;0.430291
4413.000000;0.429226
4412.000000;0.427823
4411.000000;0.426115
4410.000000;0.424309
4409.000000;0.422653
4408.000000;0.421313
4407.000000;0.420295
4406.000000;0.419439
4405.000000;0.418503
4404.000000;0.417298
4403.000000;0.415783
4402.000000;0.414098
4401.000000;0.412542
4400.000000;0.411410
4399.000000;0.410745
4398.000000;0.410240
4397.000000;0.409467
4396.000000;0.408181
4395.000000;0.406396
4394.000000;0.404263
4393.000000;0.402019
4392.000000;0.399963
4391.000000;0.398304
4390.000000;0.396933
4389.000000;0.395456
4388.000000;0.393548
4387.000000;0.391261
4386.000000;0.388971
4385.000000;0.387070
4384.000000;0.385690
4383.000000;0.384657
4382.000000;0.383660
4381.000000;0.382454
4380.000000;0.380940
4379.000000;0.379102
4378.000000;0.376946
4377.000000;0.374516
4376.000000;0.371938
4375.000000;0.369403
4374.000000;0.367086
4373.000000;0.365033
4372.000000;0.363064
4371.000000;0.360810
4370.000000;0.358013
4369.000000;0.354842
4368.000000;0.351865
4367.000000;0.349610
4366.000000;0.348142
4365.000000;0.346987
4364.000000;0.345432
4363.000000;0.343019
4362.000000;0.339926
4361.000000;0.336879
4360.000000;0.334497
4359.000000;0.332701
4358.000000;0.330868
4357.000000;0.328550
4356.000000;0.325841
4355.000000;0.323061
4354.000000;0.320393
4353.000000;0.317900
4352.000000;0.315548
4351.000000;0.313075
4350.000000;0.310087
4349.000000;0.306557
4348.000000;0.303004
4347.000000;0.299952
4346.000000;0.297359
4345.000000;0.294749
4344.000000;0.291765
4343.000000;0.288387
4342.000000;0.284826
4341.000000;0.281448
4340.000000;0.278679
4339.000000;0.276688
4338.000000;0.275172
4337.000000;0.273552
4336.000000;0.271293
4335.000000;0.267982
4334.000000;0.263446
4333.000000;0.258053
4332.000000;0.252715
4331.000000;0.248231
4330.000000;0.244599
4329.000000;0.241144
4328.000000;0.237313
4327.000000;0.233220
4326.000000;0.229555
4325.000000;0.227173
4324.000000;0.226589
4323.000000;0.227360
4322.000000;0.227934
4321.000000;0.226564
4320.000000;0.222642
4319.000000;0.216945
4318.000000;0.210663
4317.000000;0.204569
4316.000000;0.199030
4315.000000;0.194272
4314.000000;0.190390
4313.000000;0.187274
4312.000000;0.184646
4311.000000;0.182077
4310.000000;0.179027
4309.000000;0.175165
4308.000000;0.170806
4307.000000;0.166875
4306.000000;0.164250
4305.000000;0.163065
4304.000000;0.162565
4303.000000;0.161550
4302.000000;0.159058
4301.000000;0.154854
4300.000000;0.149449
4299.000000;0.143721
4298.000000;0.138446
4297.000000;0.133933
4296.000000;0.129823
4295.000000;0.125398
4294.000000;0.120510
4293.000000;0.116130
4292.000000;0.113489
4291.000000;0.112528
4290.000000;0.111850
4289.000000;0.110510
4288.000000;0.109238
4287.000000;0.109360
4286.000000;0.110849
4285.000000;0.112029
4284.000000;0.111198
4283.000000;0.108191
4282.000000;0.104452
4281.000000;0.101953
4280.000000;0.101766
4279.000000;0.103026
4278.000000;0.103402
4277.000000;0.101274
4276.000000;0.097470
4275.000000;0.094465
4274.000000;0.093968
4273.000000;0.095752
4272.000000;0.098651
4271.000000;0.101781
4270.000000;0.104556
4269.000000;0.106343
4268.000000;0.106819
4267.000000;0.106451
4266.000000;0.106210
4265.000000;0.106957
4264.000000;0.109352
4263.000000;0.113957
4262.000000;0.120673
4261.000000;0.127964
4260.000000;0.133317
4259.000000;0.135127
4258.000000;0.134211
4257.000000;0.133263
4256.000000;0.134774
4255.000000;0.139423
4254.000000;0.146187
4253.000000;0.153456
4252.000000;0.159935
4251.000000;0.165090
4250.000000;0.169432
4249.000000;0.174373
4248.000000;0.181164
4247.000000;0.189461
4246.000000;0.197196
4245.000000;0.202428
4244.000000;0.205084
4243.000000;0.206867
4242.000000;0.209109
4241.000000;0.212247
4240.000000;0.216547
4239.000000;0.222780
4238.000000;0.231625
4237.000000;0.242697
4236.000000;0.254318
4235.000000;0.264131
4234.000000;0.270150
4233.000000;0.271986
4232.000000;0.271527
4231.000000;0.272138
4230.000000;0.276432
4229.000000;0.284407
4228.000000;0.293625
4227.000000;0.301216
4226.000000;0.305984
4225.000000;0.309139
4224.000000;0.313273
4223.000000;0.320437
4222.000000;0.330777
4221.000000;0.342731
4220.000000;0.354279
4219.000000;0.363754
4218.000000;0.369995
4217.000000;0.372897
4216.000000;0.374077
4215.000000;0.375999
4214.000000;0.379875
4213.000000;0.384891
4212.000000;0.389921
4211.000000;0.395370
4210.000000;0.402410
4209.000000;0.410744
4208.000000;0.418277
4207.000000;0.423433
4206.000000;0.427240
4205.000000;0.432629
4204.000000;0.441638
4203.000000;0.453261
4202.000000;0.463895
4201.000000;0.470268
4200.000000;0.472209
4199.000000;0.472237
4198.000000;0.472793
4197.000000;0.474720
4196.000000;0.478149
4195.000000;0.483519
4194.000000;0.490873
4193.000000;0.498816
4192.000000;0.505368
4191.000000;0.510016
4190.000000;0.514247
4189.000000;0.520094
4188.000000;0.528682
4187.000000;0.539739
4186.000000;0.551391
4185.000000;0.560534
4184.000000;0.564767
4183.000000;0.564455
4182.000000;0.562390
4181.000000;0.561459
4180.000000;0.563056
4179.000000;0.567330
4178.000000;0.573921
4177.000000;0.582080
4176.000000;0.590883
4175.000000;0.599926
4174.000000;0.609337
4173.000000;0.618722
4172.000000;0.626702
4171.000000;0.632034
4170.000000;0.634959
4169.000000;0.637064
4168.000000;0.639847
4167.000000;0.643529
4166.000000;0.647122
4165.000000;0.649677
4164.000000;0.651614
4163.000000;0.654739
4162.000000;0.660758
4161.000000;0.669705
4160.000000;0.679933
4159.000000;0.689601
4158.000000;0.697665
4157.000000;0.703428
4156.000000;0.706358
4155.000000;0.707185
4154.000000;0.708357
4153.000000;0.712217
4152.000000;0.718624
4151.000000;0.724729
4150.000000;0.727536
4149.000000;0.726785
4148.000000;0.724599
4147.000000;0.722851
4146.000000;0.722781
4145.000000;0.726895
4144.000000;0.738790
4143.000000;0.759590
4142.000000;0.784231
4141.000000;0.802676
4140.000000;0.807451
4139.000000;0.800065
4138.000000;0.788807
4137.000000;0.781946
4136.000000;0.783279
4135.000000;0.791214
4134.000000;0.800229
4133.000000;0.804830
4132.000000;0.804467
4131.000000;0.804071
4130.000000;0.809211
4129.000000;0.821114
4128.000000;0.835269
4127.000000;0.844360
4126.000000;0.844305
4125.000000;0.838631
4124.000000;0.835959
4123.000000;0.842507
4122.000000;0.857067
4121.000000;0.872561
4120.000000;0.881821
4119.000000;0.882320
4118.000000;0.877042
4117.000000;0.872330
4116.000000;0.874283
4115.000000;0.884823
4114.000000;0.899393
4113.000000;0.909672
4112.000000;0.911309
4111.000000;0.907851
4110.000000;0.905338
4109.000000;0.906108
4108.000000;0.909282
4107.000000;0.913995
4106.000000;0.919668
4105.000000;0.924622
4104.000000;0.926837
4103.000000;0.926074
4102.000000;0.924263
4101.000000;0.923595
4100.000000;0.925157
4099.000000;0.929925
4098.000000;0.939559
4097.000000;0.954690
4096.000000;0.972332
4095.000000;0.985967
4094.000000;0.990247
4093.000000;0.986311
4092.000000;0.980625
4091.000000;0.978557
4090.000000;0.980829
4089.000000;0.985080
4088.000000;0.988996
4087.000000;0.991445
4086.000000;0.992217
4085.000000;0.993024
4084.000000;0.998463
4083.000000;1.012960
4082.000000;1.034634
4081.000000;1.054110
4080.000000;1.062911
4079.000000;1.062272
4078.000000;1.060928
4077.000000;1.065476
4076.000000;1.074605
4075.000000;1.082162
4074.000000;1.083022
4073.000000;1.075403
4072.000000;1.062213
4071.000000;1.051960
4070.000000;1.054445
4069.000000;1.071929
4068.000000;1.092849
4067.000000;1.097851
4066.000000;1.080188
4065.000000;1.053466
4064.000000;1.034152
4063.000000;1.028684
4062.000000;1.035693
4061.000000;1.052092
4060.000000;1.074806
4059.000000;1.099068
4058.000000;1.119675
4057.000000;1.134643
4056.000000;1.145095
4055.000000;1.153171
4054.000000;1.160525
4053.000000;1.167140
4052.000000;1.172277
4051.000000;1.175023
4050.000000;1.173338
4049.000000;1.166102
4048.000000;1.155774
4047.000000;1.147261
4046.000000;1.145158
4045.000000;1.152189
4044.000000;1.168175
4043.000000;1.187245
4042.000000;1.197579
4041.000000;1.191035
4040.000000;1.173502
4039.000000;1.160227
4038.000000;1.162954
4037.000000;1.183623
4036.000000;1.214841
4035.000000;1.242453
4034.000000;1.252891
4033.000000;1.243597
4032.000000;1.225469
4031.000000;1.213479
4030.000000;1.213698
4029.000000;1.220475
4028.000000;1.225632
4027.000000;1.226948
4026.000000;1.226280
4025.000000;1.224546
4024.000000;1.221732
4023.000000;1.219126
4022.000000;1.219250
4021.000000;1.224103
4020.000000;1.233702
4019.000000;1.245206
4018.000000;1.254258
4017.000000;1.259514
4016.000000;1.265039
4015.000000;1.275471
4014.000000;1.289176
4013.000000;1.298964
4012.000000;1.299811
4011.000000;1.292274
4010.000000;1.278493
4009.000000;1.260931
4008.000000;1.246078
4007.000000;1.242595
4006.000000;1.252719
4005.000000;1.269193
4004.000000;1.283720
4003.000000;1.296287
4002.000000;1.312841
4001.000000;1.336127
4000.000000;1.360907
3999.000000;1.377770
3998.000000;1.380863
3997.000000;1.371521
3996.000000;1.355181
3995.000000;1.339264
3994.000000;1.333523
3993.000000;1.345219
3992.000000;1.369985
3991.000000;1.388029
3990.000000;1.380760
3989.000000;1.357851
3988.000000;1.346791
3987.000000;1.362373
3986.000000;1.399278
3985.000000;1.440607
3984.000000;1.469672
3983.000000;1.479017
3982.000000;1.470833
3981.000000;1.451975
3980.000000;1.431712
3979.000000;1.419343
3978.000000;1.418593
3977.000000;1.425217
3976.000000;1.430735
3975.000000;1.428781
3974.000000;1.420149
3973.000000;1.412216
3972.000000;1.413007
3971.000000;1.427026
3970.000000;1.453890
3969.000000;1.489031
3968.000000;1.526517
3967.000000;1.557802
3966.000000;1.569418
3965.000000;1.553190
3964.000000;1.523111
3963.000000;1.505606
3962.000000;1.510926
3961.000000;1.519860
3960.000000;1.505208
3959.000000;1.471465
3958.000000;1.444242
3957.000000;1.440096
3956.000000;1.464458
3955.000000;1.515012
3954.000000;1.577414
3953.000000;1.618888
3952.000000;1.613513
3951.000000;1.575814
3950.000000;1.532458
3949.000000;1.500797
3948.000000;1.493059
3947.000000;1.510265
3946.000000;1.537740
3945.000000;1.559856
3944.000000;1.572807
3943.000000;1.577418
3942.000000;1.580049
3941.000000;1.592766
3940.000000;1.619398
3939.000000;1.650473
3938.000000;1.671030
3937.000000;1.674205
3936.000000;1.662732
3935.000000;1.635918
3934.000000;1.596724
3933.000000;1.563640
3932.000000;1.567110
3931.000000;1.628039
3930.000000;1.721321
3929.000000;1.776287
3928.000000;1.763019
3927.000000;1.710514
3926.000000;1.645619
3925.000000;1.592751
3924.000000;1.566044
3923.000000;1.560093
3922.000000;1.575735
3921.000000;1.625035
3920.000000;1.718915
3919.000000;1.841446
3918.000000;1.908482
3917.000000;1.893857
3916.000000;1.862417
3915.000000;1.831867
3914.000000;1.812689
3913.000000;1.811847
3912.000000;1.830995
3911.000000;1.882998
3910.000000;1.971605
3909.000000;2.052974
3908.000000;2.061682
3907.000000;1.994724
3906.000000;1.907279
3905.000000;1.837389
3904.000000;1.809171
3903.000000;1.846434
3902.000000;1.909559
3901.000000;1.932095
3900.000000;1.937876
3899.000000;1.938639
3898.000000;1.928062
3897.000000;1.921876
3896.000000;1.928957
3895.000000;1.942861
3894.000000;1.949005
3893.000000;1.963614
3892.000000;2.013154
3891.000000;2.019471
3890.000000;1.944821
3889.000000;2.003898
3888.000000;2.310584
3887.000000;2.277464
3886.000000;1.929681
3885.000000;1.731389
3884.000000;1.712212
3883.000000;1.862382
3882.000000;1.962947
3881.000000;1.815182
3880.000000;1.606694
3879.000000;1.506606
3878.000000;1.584791
3877.000000;1.823014
3876.000000;2.173855
3875.000000;2.329874
3874.000000;2.041648
3873.000000;1.861360
3872.000000;1.985902
3871.000000;2.426955
3870.000000;1.971978
3869.000000;1.635955
3868.000000;1.698137
3867.000000;2.042288
3866.000000;1.740439
3865.000000;1.714322
3864.000000;2.044566
3863.000000;2.051310
3862.000000;2.325667
3861.000000;2.209262
3860.000000;2.165973
3859.000000;2.217833
3858.000000;2.308159
3857.000000;2.184258
3856.000000;2.013349
3855.000000;1.965763
3854.000000;2.038196
3853.000000;2.342656
3852.000000;2.901436
3851.000000;2.446392
3850.000000;2.299607
3849.000000;2.355321
3848.000000;2.411590
3847.000000;2.540952
3846.000000;2.627545
3845.000000;2.503625
3844.000000;2.313997
3843.000000;2.200684
3842.000000;2.166404
3841.000000;2.250686
3840.000000;2.370088
3839.000000;2.224149
3838.000000;2.068336
3837.000000;2.062350
3836.000000;2.211767
3835.000000;2.520428
3834.000000;2.528704
3833.000000;2.332719
3832.000000;2.335555
3831.000000;2.517754
3830.000000;2.574848
3829.000000;2.433143
3828.000000;2.424313
3827.000000;2.449707
3826.000000;2.491875
3825.000000;2.584682
3824.000000;2.836209
3823.000000;3.193079
3822.000000;2.630173
3821.000000;2.337794
3820.000000;2.265238
3819.000000;2.327853
3818.000000;2.202484
3817.000000;1.976786
3816.000000;1.916500
3815.000000;2.005559
3814.000000;2.388124
3813.000000;2.447527
3812.000000;2.000653
3811.000000;1.894800
3810.000000;1.928883
3809.000000;2.092525
3808.000000;2.233660
3807.000000;2.089121
3806.000000;1.983138
3805.000000;1.962561
3804.000000;2.035600
3803.000000;2.227754
3802.000000;2.281607
3801.000000;2.032920
3800.000000;1.931049
3799.000000;1.962918
3798.000000;2.180349
3797.000000;2.943843
3796.000000;2.503202
3795.000000;2.187121
3794.000000;2.160658
3793.000000;2.199586
3792.000000;2.454471
3791.000000;2.998624
3790.000000;2.683559
3789.000000;2.423096
3788.000000;2.418348
3787.000000;2.419698
3786.000000;2.305657
3785.000000;2.164760
3784.000000;2.152538
3783.000000;2.200242
3782.000000;2.461722
3781.000000;2.281580
3780.000000;1.952299
3779.000000;1.857302
3778.000000;1.815310
3777.000000;1.858765
3776.000000;1.965345
3775.000000;2.104800
3774.000000;2.206168
3773.000000;2.294777
3772.000000;2.465733
3771.000000;2.551086
3770.000000;2.504703
3769.000000;2.227491
3768.000000;2.074299
3767.000000;1.955867
3766.000000;2.124017
3765.000000;2.913338
3764.000000;1.971448
3763.000000;1.764927
3762.000000;1.883796
3761.000000;1.984379
3760.000000;2.255077
3759.000000;2.579173
3758.000000;2.291036
3757.000000;2.186986
3756.000000;2.315218
3755.000000;2.485549
3754.000000;2.305333
3753.000000;2.140701
3752.000000;2.089078
3751.000000;2.117042
3750.000000;2.214780
3749.000000;2.398341
3748.000000;2.455770
3747.000000;2.289199
3746.000000;2.171748
3745.000000;2.199201
3744.000000;2.499394
3743.000000;2.365002
3742.000000;1.988691
3741.000000;1.842549
3740.000000;1.823323
3739.000000;1.901029
3738.000000;2.081132
3737.000000;2.486292
3736.000000;2.626098
3735.000000;2.267795
3734.000000;2.297777
3733.000000;2.613549
3732.000000;2.410189
3731.000000;2.080390
3730.000000;2.008557
3729.000000;2.080182
3728.000000;2.079393
3727.000000;1.931184
3726.000000;1.840689
3725.000000;1.818158
3724.000000;1.910911
3723.000000;1.964574
3722.000000;2.063263
3721.000000;2.081676
3720.000000;1.745159
3719.000000;1.585041
3718.000000;1.551856
3717.000000;1.684312
3716.000000;2.118728
3715.000000;2.183567
3714.000000;1.870995
3713.000000;1.773548
3712.000000;1.726054
3711.000000;1.711542
3710.000000;1.710942
3709.000000;1.702162
3708.000000;1.758479
3707.000000;1.766967
3706.000000;1.699991
3705.000000;1.696538
3704.000000;1.713286
3703.000000;1.747671
3702.000000;1.847090
3701.000000;2.101477
3700.000000;2.007317
3699.000000;1.989254
3698.000000;2.122547
3697.000000;2.114812
3696.000000;2.168398
3695.000000;2.088351
3694.000000;2.059773
3693.000000;2.171742
3692.000000;2.620187
3691.000000;2.490148
3690.000000;2.201178
3689.000000;2.163313
3688.000000;2.101515
3687.000000;2.034545
3686.000000;2.041327
3685.000000;2.149955
3684.000000;2.317080
3683.000000;2.469236
3682.000000;2.591403
3681.000000;2.697455
3680.000000;2.681734
3679.000000;2.691314
3678.000000;2.677125
3677.000000;2.512729
3676.000000;2.369993
3675.000000;2.383821
3674.000000;2.853557
3673.000000;2.579634
3672.000000;2.085722
3671.000000;1.944743
3670.000000;1.937342
3669.000000;2.059212
3668.000000;2.405152
3667.000000;2.826376
3666.000000;2.493528
3665.000000;2.327799
3664.000000;2.380674
3663.000000;2.447709
3662.000000;2.569217
3661.000000;2.908584
3660.000000;2.727204
3659.000000;2.430490
3658.000000;2.456995
3657.000000;2.555748
3656.000000;2.471192
3655.000000;2.293004
3654.000000;2.139276
3653.000000;2.117876
3652.000000;2.371788
3651.000000;2.395337
3650.000000;2.058354
3649.000000;1.973374
3648.000000;2.074235
3647.000000;2.286837
3646.000000;2.164169
3645.000000;1.959232
3644.000000;1.935232
3643.000000;2.005854
3642.000000;2.253112
3641.000000;2.542548
3640.000000;2.255269
3639.000000;2.055600
3638.000000;2.041827
3637.000000;2.101548
3636.000000;2.345825
3635.000000;2.379414
3634.000000;2.027559
3633.000000;1.847459
3632.000000;1.817892
3631.000000;1.885947
3630.000000;2.153749
3629.000000;2.358984
3628.000000;1.882999
3627.000000;1.790131
3626.000000;1.948356
3625.000000;2.149594
3624.000000;2.552778
3623.000000;2.730849
3622.000000;2.218180
3621.000000;2.031782
3620.000000;2.065953
3619.000000;2.357993
3618.000000;2.269683
3617.000000;1.981855
3616.000000;2.013477
3615.000000;2.159123
3614.000000;1.981081
3613.000000;1.632663
3612.000000;1.431750
3611.000000;1.402852
3610.000000;1.550291
3609.000000;1.870928
3608.000000;2.119115
3607.000000;2.043812
3606.000000;2.022226
3605.000000;2.082731
3604.000000;2.208071
3603.000000;2.365159
3602.000000;2.153923
3601.000000;1.854988
3600.000000;1.633597
3599.000000;1.463062
3598.000000;1.354602
3597.000000;1.344113
3596.000000;1.462367
3595.000000;1.502722
3594.000000;1.351255
3593.000000;1.305734
3592.000000;1.385051
3591.000000;1.583578
3590.000000;2.055795
3589.000000;2.011437
3588.000000;1.724409
3587.000000;1.737178
3586.000000;1.899515
3585.000000;2.247873
3584.000000;2.215877
3583.000000;1.916172
3582.000000;1.801303
3581.000000;1.815688
3580.000000;1.981124
3579.000000;2.337380
3578.000000;2.417361
3577.000000;2.036619
3576.000000;1.802665
3575.000000;1.727528
3574.000000;1.767451
3573.000000;2.078782
3572.000000;2.663449
3571.000000;2.084819
3570.000000;1.913245
3569.000000;1.920053
3568.000000;2.070488
3567.000000;2.536873
3566.000000;2.395948
3565.000000;2.067671
3564.000000;2.047517
3563.000000;2.206529
3562.000000;2.195150
3561.000000;2.089574
3560.000000;2.209437
3559.000000;2.225755
3558.000000;2.353928
3557.000000;2.866660
3556.000000;2.292250
3555.000000;2.039701
3554.000000;2.032469
3553.000000;2.125962
3552.000000;2.407977
3551.000000;2.946932
3550.000000;2.405993
3549.000000;2.175191
3548.000000;2.122791
3547.000000;2.300462
3546.000000;2.809965
3545.000000;2.339103
3544.000000;2.099923
3543.000000;2.086355
3542.000000;2.182366
3541.000000;2.279067
3540.000000;2.239726
3539.000000;2.237402
3538.000000;2.372272
3537.000000;2.446127
3536.000000;2.390120
3535.000000;2.455880
3534.000000;2.367666
3533.000000;2.208586
3532.000000;2.232575
3531.000000;2.420130
3530.000000;2.535113
3529.000000;2.370421
3528.000000;2.229596
3527.000000;2.202312
3526.000000;2.327266
3525.000000;2.583804
3524.000000;2.659399
3523.000000;2.468464
3522.000000;2.221251
3521.000000;2.064588
3520.000000;2.012213
3519.000000;2.057514
3518.000000;2.161270
3517.000000;2.151652
3516.000000;2.057263
3515.000000;2.022656
3514.000000;2.058966
3513.000000;2.159505
3512.000000;2.348276
3511.000000;2.558557
3510.000000;2.695091
3509.000000;2.726479
3508.000000;2.517735
3507.000000;2.283099
3506.000000;2.258816
3505.000000;2.508614
3504.000000;2.093119
3503.000000;1.745611
3502.000000;1.631065
3501.000000;1.696009
3500.000000;2.041073
3499.000000;2.134616
3498.000000;1.857847
3497.000000;1.780950
3496.000000;1.811147
3495.000000;1.937597
3494.000000;2.332875
3493.000000;2.526252
3492.000000;1.991672
3491.000000;1.859346
3490.000000;1.874832
3489.000000;1.988184
3488.000000;2.240248
3487.000000;2.535884
3486.000000;2.331834
3485.000000;2.076488
3484.000000;1.978147
3483.000000;1.966634
3482.000000;1.983395
3481.000000;1.941417
3480.000000;1.833034
3479.000000;1.790617
3478.000000;1.851523
3477.000000;2.093274
3476.000000;2.897237
3475.000000;2.309151
3474.000000;2.043098
3473.000000;2.112418
3472.000000;2.448271
3471.000000;2.394999
3470.000000;2.075279
3469.000000;2.026296
3468.000000;2.056335
3467.000000;2.033836
3466.000000;1.976809
3465.000000;2.125847
3464.000000;2.496001
3463.000000;2.088388
3462.000000;1.851799
3461.000000;1.852791
3460.000000;2.143906
3459.000000;2.261186
3458.000000;1.914925
3457.000000;1.852582
3456.000000;1.941500
3455.000000;2.324874
3454.000000;2.384050
3453.000000;2.028887
3452.000000;1.978583
3451.000000;2.074683
3450.000000;2.388804
3449.000000;2.940929
3448.000000;2.643743
3447.000000;2.629648
3446.000000;2.282713
3445.000000;1.978510
3444.000000;1.885840
3443.000000;1.923446
3442.000000;2.029821
3441.000000;2.195843
3440.000000;2.334040
3439.000000;2.175142
3438.000000;2.036482
3437.000000;2.166807
3436.000000;2.572920
3435.000000;2.178038
3434.000000;1.911152
3433.000000;1.902672
3432.000000;2.073853
3431.000000;2.596699
3430.000000;2.521075
3429.000000;2.179366
3428.000000;2.170709
3427.000000;2.356568
3426.000000;2.367829
3425.000000;2.091541
3424.000000;1.993762
3423.000000;2.056606
3422.000000;2.216425
3421.000000;2.130944
3420.000000;1.935816
3419.000000;1.847410
3418.000000;1.843358
3417.000000;1.892329
3416.000000;1.952801
3415.000000;2.018997
3414.000000;2.132542
3413.000000;2.266678
3412.000000;2.228604
3411.000000;2.105903
3410.000000;2.049407
3409.000000;2.021245
3408.000000;1.966514
3407.000000;1.899599
3406.000000;1.869607
3405.000000;1.908187
3404.000000;2.034726
3403.000000;2.219883
3402.000000;2.263565
3401.000000;2.144776
3400.000000;2.043836
3399.000000;1.990020
3398.000000;1.960326
3397.000000;1.916580
3396.000000;1.856359
3395.000000;1.819883
3394.000000;1.845823
3393.000000;1.974258
3392.000000;2.117529
3391.000000;1.972913
3390.000000;1.831392
3389.000000;1.802974
3388.000000;1.900489
3387.000000;2.179409
3386.000000;2.142035
3385.000000;1.868632
3384.000000;1.819329
3383.000000;1.931534
3382.000000;2.234231
3381.000000;2.296385
3380.000000;2.062146
3379.000000;2.056777
3378.000000;2.307566
3377.000000;2.719359
3376.000000;2.390213
3375.000000;2.097417
3374.000000;1.884373
3373.000000;1.756461
3372.000000;1.731447
3371.000000;1.810767
3370.000000;1.962389
3369.000000;1.850173
3368.000000;1.678372
3367.000000;1.656337
3366.000000;1.801144
3365.000000;2.038126
3364.000000;1.913865
3363.000000;1.890374
3362.000000;2.123338
3361.000000;2.041676
3360.000000;1.794959
3359.000000;1.709861
3358.000000;1.722413
3357.000000;1.811420
3356.000000;1.928881
3355.000000;1.948891
3354.000000;1.859419
3353.000000;1.807884
3352.000000;1.839573
3351.000000;1.871717
3350.000000;1.838017
3349.000000;1.825677
3348.000000;1.897222
3347.000000;2.102470
3346.000000;2.509286
3345.000000;2.209424
3344.000000;1.902903
3343.000000;1.786111
3342.000000;1.757026
3341.000000;1.816224
3340.000000;1.968706
3339.000000;2.233621
3338.000000;2.334699
3337.000000;2.260988
3336.000000;2.318344
3335.000000;2.442484
3334.000000;2.317302
3333.000000;2.153909
3332.000000;2.037994
3331.000000;1.904611
3330.000000;1.848597
3329.000000;1.941160
3328.000000;2.252717
3327.000000;2.765119
3326.000000;2.541324
3325.000000;2.157662
3324.000000;1.884908
3323.000000;1.727565
3322.000000;1.655676
3321.000000;1.656829
3320.000000;1.752023
3319.000000;1.978984
3318.000000;2.605318
3317.000000;2.367938
3316.000000;2.044938
3315.000000;1.930165
3314.000000;1.863401
3313.000000;1.861298
3312.000000;1.864929
3311.000000;1.898900
3310.000000;2.062637
3309.000000;2.811080
3308.000000;2.106339
3307.000000;1.830473
3306.000000;1.822112
3305.000000;2.151187
3304.000000;2.341852
3303.000000;1.804596
3302.000000;1.654307
3301.000000;1.551260
3300.000000;1.483208
3299.000000;1.444929
3298.000000;1.448804
3297.000000;1.490515
3296.000000;1.571136
3295.000000;1.710028
3294.000000;1.913371
3293.000000;2.004843
3292.000000;1.905281
3291.000000;1.776932
3290.000000;1.668298
3289.000000;1.627638
3288.000000;1.687944
3287.000000;1.749064
3286.000000;1.603668
3285.000000;1.485146
3284.000000;1.481861
3283.000000;1.559430
3282.000000;1.655339
3281.000000;1.678761
3280.000000;1.628181
3279.000000;1.588434
3278.000000;1.612248
3277.000000;1.721131
3276.000000;1.838484
3275.000000;1.812661
3274.000000;1.791627
3273.000000;1.979380
3272.000000;1.991862
3271.000000;1.683113
3270.000000;1.591044
3269.000000;1.629888
3268.000000;1.761388
3267.000000;1.838238
3266.000000;1.781143
3265.000000;1.706455
3264.000000;1.662465
3263.000000;1.658749
3262.000000;1.686325
3261.000000;1.730486
3260.000000;1.824451
3259.000000;1.987962
3258.000000;2.046124
3257.000000;1.983306
3256.000000;1.940792
3255.000000;1.923587
3254.000000;1.964233
3253.000000;2.071742
3252.000000;2.330028
3251.000000;3.061462
3250.000000;2.254836
3249.000000;2.068364
3248.000000;1.976601
3247.000000;1.966653
3246.000000;2.081017
3245.000000;2.574937
3244.000000;2.477323
3243.000000;2.013988
3242.000000;1.918978
3241.000000;1.829547
3240.000000;1.756421
3239.000000;1.728905
3238.000000;1.839599
3237.000000;1.959722
3236.000000;1.758677
3235.000000;1.594000
3234.000000;1.548984
3233.000000;1.581462
3232.000000;1.699556
3231.000000;1.914855
3230.000000;2.634812
3229.000000;2.169966
3228.000000;1.855963
3227.000000;1.767241
3226.000000;1.756916
3225.000000;1.742628
3224.000000;1.747086
3223.000000;1.820178
3222.000000;1.894408
3221.000000;1.880736
3220.000000;1.901264
3219.000000;2.034865
3218.000000;2.248490
3217.000000;2.857440
3216.000000;2.922193
3215.000000;2.270134
3214.000000;2.122296
3213.000000;1.995278
3212.000000;1.875195
3211.000000;1.791251
3210.000000;1.792180
3209.000000;1.893267
3208.000000;2.133273
3207.000000;2.636456
3206.000000;2.117872
3205.000000;1.897267
3204.000000;1.917655
3203.000000;2.129400
3202.000000;2.849435
3201.000000;2.217551
3200.000000;1.998311
3199.000000;1.923171
3198.000000;1.926755
3197.000000;1.954584
3196.000000;2.000460
3195.000000;2.076364
3194.000000;2.055237
3193.000000;1.910350
3192.000000;1.823373
3191.000000;1.814270
3190.000000;1.853975
3189.000000;1.883705
3188.000000;1.854693
3187.000000;1.784743
3186.000000;1.743669
3185.000000;1.787713
3184.000000;2.000116
3183.000000;2.309492
3182.000000;2.039797
3181.000000;1.905199
3180.000000;1.969278
3179.000000;2.302292
3178.000000;2.319162
3177.000000;1.901102
3176.000000;1.740926
3175.000000;1.719775
3174.000000;1.802461
3173.000000;1.996689
3172.000000;2.266251
3171.000000;2.284309
3170.000000;2.232387
3169.000000;2.272981
3168.000000;2.462891
3167.000000;2.437141
3166.000000;2.096259
3165.000000;1.953950
3164.000000;1.949740
3163.000000;2.060896
3162.000000;2.619868
3161.000000;2.423089
3160.000000;1.960212
3159.000000;1.903945
3158.000000;1.937378
3157.000000;1.993393
3156.000000;1.859087
3155.000000;1.717899
3154.000000;1.683203
3153.000000;1.754421
3152.000000;1.886967
3151.000000;1.784338
3150.000000;1.591455
3149.000000;1.493516
3148.000000;1.493788
3147.000000;1.599571
3146.000000;1.869135
3145.000000;2.227701
3144.000000;1.832242
3143.000000;1.667431
3142.000000;1.616715
3141.000000;1.655039
3140.000000;1.775343
3139.000000;1.976625
3138.000000;1.948139
3137.000000;1.758881
3136.000000;1.703431
3135.000000;1.760885
3134.000000;1.899267
3133.000000;1.987304
3132.000000;1.951986
3131.000000;1.903975
3130.000000;1.917498
3129.000000;1.980157
3128.000000;2.014840
3127.000000;1.986224
3126.000000;1.946688
3125.000000;1.938618
3124.000000;1.942757
3123.000000;1.877464
3122.000000;1.764715
3121.000000;1.696463
3120.000000;1.703802
3119.000000;1.752846
3118.000000;1.722850
3117.000000;1.630420
3116.000000;1.581012
3115.000000;1.605989
3114.000000;1.702320
3113.000000;2.032249
3112.000000;2.264970
3111.000000;1.757426
3110.000000;1.639000
3109.000000;1.656011
3108.000000;1.818748
3107.000000;2.103981
3106.000000;1.941709
3105.000000;1.671625
3104.000000;1.580192
3103.000000;1.597712
3102.000000;1.731499
3101.000000;1.938364
3100.000000;1.861302
3099.000000;1.715296
3098.000000;1.694072
3097.000000;1.774516
3096.000000;1.957188
3095.000000;2.386144
3094.000000;2.251968
3093.000000;1.878691
3092.000000;1.753131
3091.000000;1.796367
3090.000000;2.141955
3089.000000;2.441458
3088.000000;1.808696
3087.000000;1.695385
3086.000000;1.709663
3085.000000;1.905058
3084.000000;2.215838
3083.000000;2.089117
3082.000000;1.910729
3081.000000;1.883411
3080.000000;1.932978
3079.000000;2.156695
3078.000000;2.540112
3077.000000;2.284295
3076.000000;2.136708
3075.000000;2.217310
3074.000000;2.405550
3073.000000;2.615178
3072.000000;2.448504
3071.000000;2.368616
3070.000000;2.654110
3069.000000;2.723318
3068.000000;2.363968
3067.000000;2.257422
3066.000000;2.064178
3065.000000;1.869338
3064.000000;1.787247
3063.000000;1.818146
3062.000000;2.007881
3061.000000;2.295886
3060.000000;2.003129
3059.000000;1.784386
3058.000000;1.745255
3057.000000;1.860702
3056.000000;2.193585
3055.000000;2.131573
3054.000000;1.836998
3053.000000;1.764062
3052.000000;1.763074
3051.000000;1.832972
3050.000000;1.934738
3049.000000;1.957084
3048.000000;1.916629
3047.000000;1.857036
3046.000000;1.758408
3045.000000;1.698643
3044.000000;1.729213
3043.000000;1.833773
3042.000000;1.915709
3041.000000;1.875825
3040.000000;1.792315
3039.000000;1.751157
3038.000000;1.792235
3037.000000;1.944027
3036.000000;2.176702
3035.000000;2.202983
3034.000000;2.073421
3033.000000;2.003678
3032.000000;2.136663
3031.000000;2.476239
3030.000000;2.075218
3029.000000;1.807260
3028.000000;1.769352
3027.000000;1.833707
3026.000000;1.887723
3025.000000;1.858143
3024.000000;1.835601
3023.000000;1.868306
3022.000000;1.951423
3021.000000;2.053732
3020.000000;2.148099
3019.000000;2.270599
3018.000000;2.579799
3017.000000;2.433211
3016.000000;2.156778
3015.000000;2.094324
3014.000000;2.176911
3013.000000;2.408485
3012.000000;2.812137
3011.000000;2.465188
3010.000000;2.151082
3009.000000;2.025411
3008.000000;2.040528
3007.000000;2.173546
3006.000000;2.359701
3005.000000;2.441533
3004.000000;2.371948
3003.000000;2.318681
3002.000000;2.462138
3001.000000;2.526368
3000.000000;2.270770
2999.000000;2.169432
2998.000000;2.404242
2997.000000;2.636783
2996.000000;2.101350
2995.000000;1.836038
2994.000000;1.744914
2993.000000;1.766859
2992.000000;1.923145
2991.000000;2.339194
2990.000000;2.511117
2989.000000;2.259628
2988.000000;2.317759
2987.000000;2.464570
2986.000000;2.101365
2985.000000;1.896352
2984.000000;1.868412
2983.000000;2.150069
2982.000000;2.694457
2981.000000;1.898910
2980.000000;1.750456
2979.000000;1.766446
2978.000000;1.915502
2977.000000;2.045799
2976.000000;2.020578
2975.000000;2.059498
2974.000000;2.356243
2973.000000;2.566426
2972.000000;2.170406
2971.000000;2.032809
2970.000000;2.053159
2969.000000;2.323691
2968.000000;2.559610
2967.000000;2.155329
2966.000000;1.990817
2965.000000;2.057407
2964.000000;2.525262
2963.000000;2.382562
2962.000000;2.091082
2961.000000;2.130330
2960.000000;2.444838
2959.000000;2.540815
2958.000000;2.318868
2957.000000;2.406509
2956.000000;2.342431
2955.000000;2.126012
2954.000000;2.064832
2953.000000;2.043801
2952.000000;1.976650
2951.000000;1.899232
2950.000000;1.930693
2949.000000;2.035404
2948.000000;1.953577
2947.000000;1.858473
2946.000000;1.997028
2945.000000;2.508244
2944.000000;2.196436
2943.000000;1.863742
2942.000000;1.817776
2941.000000;1.845986
2940.000000;2.017593
2939.000000;2.611255
2938.000000;2.075652
2937.000000;1.773577
2936.000000;1.714439
2935.000000;1.728119
2934.000000;1.795437
2933.000000;1.865457
2932.000000;1.922969
2931.000000;1.997353
2930.000000;2.206955
2929.000000;2.467103
2928.000000;2.190209
2927.000000;2.048783
2926.000000;2.070216
2925.000000;2.159110
2924.000000;2.210542
2923.000000;2.095578
2922.000000;1.895719
2921.000000;1.734346
2920.000000;1.681120
2919.000000;1.749612
2918.000000;1.968318
2917.000000;2.600543
2916.000000;2.412062
2915.000000;2.068408
2914.000000;2.136340
2913.000000;2.431231
2912.000000;2.959291
2911.000000;2.571764
2910.000000;2.136743
2909.000000;1.938309
2908.000000;1.978072
2907.000000;2.407425
2906.000000;2.156445
2905.000000;1.788765
2904.000000;1.685865
2903.000000;1.722335
2902.000000;1.913730
2901.000000;2.320688
2900.000000;2.284646
2899.000000;1.990301
2898.000000;1.896507
2897.000000;1.843677
2896.000000;1.840855
2895.000000;1.924307
2894.000000;2.132013
2893.000000;2.410526
2892.000000;2.326574
2891.000000;2.212303
2890.000000;2.268088
2889.000000;2.220404
2888.000000;2.073033
2887.000000;1.993366
2886.000000;1.960446
2885.000000;1.928950
2884.000000;1.935766
2883.000000;2.026486
2882.000000;2.187074
2881.000000;2.353824
2880.000000;2.228279
2879.000000;2.010387
2878.000000;1.930288
2877.000000;1.999033
2876.000000;2.175771
2875.000000;2.080130
2874.000000;1.861143
2873.000000;1.789046
2872.000000;1.836692
2871.000000;1.982498
2870.000000;2.029506
2869.000000;1.912641
2868.000000;1.873905
2867.000000;1.964207
2866.000000;2.324443
2865.000000;2.294847
2864.000000;1.909778
2863.000000;1.781859
2862.000000;1.779923
2861.000000;1.903177
2860.000000;2.207469
2859.000000;2.950394
2858.000000;2.509450
2857.000000;2.128801
2856.000000;1.968115
2855.000000;1.994576
2854.000000;2.436396
2853.000000;2.312571
2852.000000;1.951425
2851.000000;1.888935
2850.000000;1.933173
2849.000000;2.268034
2848.000000;2.443250
2847.000000;1.852131
2846.000000;1.706341
2845.000000;1.757534
2844.000000;2.051293
2843.000000;2.062392
2842.000000;1.722386
2841.000000;1.657381
2840.000000;1.722520
2839.000000;1.903017
2838.000000;2.236276
2837.000000;2.691944
2836.000000;2.593917
2835.000000;2.267056
2834.000000;1.971005
2833.000000;1.815753
2832.000000;1.812516
2831.000000;1.992216
2830.000000;2.618646
2829.000000;2.405040
2828.000000;2.086841
2827.000000;2.076892
2826.000000;2.052679
2825.000000;1.860862
2824.000000;1.714513
2823.000000;1.706827
2822.000000;1.858365
2821.000000;2.192906
2820.000000;2.186657
2819.000000;1.964090
2818.000000;1.860151
2817.000000;1.807201
2816.000000;1.851045
2815.000000;1.975653
2814.000000;1.961554
2813.000000;1.825086
2812.000000;1.745121
2811.000000;1.707348
2810.000000;1.675761
2809.000000;1.655391
2808.000000;1.675276
2807.000000;1.775212
2806.000000;2.003443
2805.000000;2.138437
2804.000000;1.995723
2803.000000;1.906891
2802.000000;1.849758
2801.000000;1.765651
2800.000000;1.663042
2799.000000;1.574566
2798.000000;1.544904
2797.000000;1.592314
2796.000000;1.703276
2795.000000;1.812705
2794.000000;1.825408
2793.000000;1.738100
2792.000000;1.625519
2791.000000;1.558480
2790.000000;1.565595
2789.000000;1.662598
2788.000000;1.850298
2787.000000;1.908764
2786.000000;1.743465
2785.000000;1.674059
2784.000000;1.721304
2783.000000;1.897253
2782.000000;2.388660
2781.000000;2.283457
2780.000000;1.967681
2779.000000;1.976212
2778.000000;2.151457
2777.000000;2.273887
2776.000000;2.028868
2775.000000;1.884057
2774.000000;1.805203
2773.000000;1.769838
2772.000000;1.799322
2771.000000;2.032598
2770.000000;2.718678
2769.000000;2.198229
2768.000000;1.975982
2767.000000;2.003129
2766.000000;2.205436
2765.000000;2.371859
2764.000000;2.115738
2763.000000;2.050566
2762.000000;2.332313
2761.000000;2.512817
2760.000000;1.955444
2759.000000;1.719472
2758.000000;1.645165
2757.000000;1.701598
2756.000000;1.935049
2755.000000;2.139139
2754.000000;2.014695
2753.000000;1.917973
2752.000000;1.937497
2751.000000;2.029959
2750.000000;2.167823
2749.000000;2.225300
2748.000000;2.168498
2747.000000;2.059289
2746.000000;1.937668
2745.000000;1.812048
2744.000000;1.693481
2743.000000;1.611888
2742.000000;1.579224
2741.000000;1.584469
2740.000000;1.623271
2739.000000;1.727523
2738.000000;2.000609
2737.000000;1.938974
2736.000000;1.639306
2735.000000;1.563786
2734.000000;1.610255
2733.000000;1.940554
2732.000000;2.129111
2731.000000;1.656409
2730.000000;1.512473
2729.000000;1.529938
2728.000000;1.704687
2727.000000;2.132200
2726.000000;2.901102
2725.000000;3.164424
2724.000000;2.289076
2723.000000;2.007658
2722.000000;2.010627
2721.000000;2.214211
2720.000000;2.166168
2719.000000;1.966757
2718.000000;1.925314
2717.000000;2.106994
2716.000000;2.551613
2715.000000;2.334287
2714.000000;2.174177
2713.000000;2.169719
2712.000000;2.059305
2711.000000;1.942326
2710.000000;1.956736
2709.000000;2.218611
2708.000000;2.271520
2707.000000;2.045062
2706.000000;2.058914
2705.000000;2.293086
2704.000000;2.916355
2703.000000;2.709934
2702.000000;2.095987
2701.000000;1.807929
2700.000000;1.640009
2699.000000;1.586498
2698.000000;1.628263
2697.000000;1.785689
2696.000000;2.205183
2695.000000;2.274881
2694.000000;1.890747
2693.000000;1.752759
2692.000000;1.750299
2691.000000;1.842072
2690.000000;1.891907
2689.000000;1.843071
2688.000000;1.883741
2687.000000;2.200925
2686.000000;2.212920
2685.000000;1.829102
2684.000000;1.791977
2683.000000;1.888784
2682.000000;1.737529
2681.000000;1.533323
2680.000000;1.462380
2679.000000;1.493655
2678.000000;1.582803
2677.000000;1.683180
2676.000000;1.778003
2675.000000;1.889307
2674.000000;2.028941
2673.000000;2.113992
2672.000000;2.100960
2671.000000;2.038058
2670.000000;2.078769
2669.000000;2.490007
2668.000000;2.276025
2667.000000;1.909936
2666.000000;1.805358
2665.000000;1.776492
2664.000000;1.779955
2663.000000;1.847965
2662.000000;2.028022
2661.000000;1.908630
2660.000000;1.651948
2659.000000;1.566801
2658.000000;1.627165
2657.000000;1.927102
2656.000000;2.164920
2655.000000;1.848241
2654.000000;1.836664
2653.000000;2.115398
2652.000000;2.123287
2651.000000;1.859510
2650.000000;1.832749
2649.000000;2.188544
2648.000000;2.295040
2647.000000;1.794043
2646.000000;1.621195
2645.000000;1.635200
2644.000000;1.702349
2643.000000;1.634289
2642.000000;1.517780
2641.000000;1.483944
2640.000000;1.505481
2639.000000;1.566547
2638.000000;1.592319
2637.000000;1.535658
2636.000000;1.513845
2635.000000;1.637843
2634.000000;1.827447
2633.000000;1.862982
2632.000000;1.948383
2631.000000;2.184995
2630.000000;2.111097
2629.000000;1.726238
2628.000000;1.465750
2627.000000;1.354965
2626.000000;1.333195
2625.000000;1.347541
2624.000000;1.396149
2623.000000;1.507518
2622.000000;1.658002
2621.000000;1.755706
2620.000000;1.978402
2619.000000;2.224117
2618.000000;1.784986
2617.000000;1.562569
2616.000000;1.527824
2615.000000;1.555559
2614.000000;1.583712
2613.000000;1.554735
2612.000000;1.507363
2611.000000;1.500074
2610.000000;1.545531
2609.000000;1.653359
2608.000000;1.736246
2607.000000;1.879078
2606.000000;2.131901
2605.000000;1.840019
2604.000000;1.612791
2603.000000;1.665061
2602.000000;1.990038
2601.000000;1.876351
2600.000000;1.586251
2599.000000;1.609745
2598.000000;1.963152
2597.000000;2.265731
2596.000000;1.920237
2595.000000;1.910124
2594.000000;2.033127
2593.000000;2.131616
2592.000000;2.088868
2591.000000;1.935095
2590.000000;1.866542
2589.000000;1.872423
2588.000000;1.947056
2587.000000;2.032711
2586.000000;2.092648
2585.000000;1.924637
2584.000000;1.647178
2583.000000;1.521405
2582.000000;1.535314
2581.000000;1.753475
2580.000000;2.105152
2579.000000;1.812576
2578.000000;1.635567
2577.000000;1.635393
2576.000000;1.759150
2575.000000;2.020788
2574.000000;1.989697
2573.000000;1.786320
2572.000000;1.665384
2571.000000;1.624363
2570.000000;1.667929
2569.000000;1.845418
2568.000000;2.246366
2567.000000;2.268652
2566.000000;2.109556
2565.000000;2.148958
2564.000000;2.073021
2563.000000;2.091672
2562.000000;2.229626
2561.000000;2.407686
2560.000000;2.526993
2559.000000;2.141820
2558.000000;1.856789
2557.000000;1.738035
2556.000000;1.755765
2555.000000;1.882077
2554.000000;1.871707
2553.000000;1.774020
2552.000000;1.781640
2551.000000;1.919416
2550.000000;2.164114
2549.000000;2.014831
2548.000000;1.699649
2547.000000;1.532047
2546.000000;1.481026
2545.000000;1.563928
2544.000000;1.819020
2543.000000;2.153315
2542.000000;2.149560
2541.000000;2.090028
2540.000000;2.021960
2539.000000;2.096785
2538.000000;2.684983
2537.000000;2.354889
2536.000000;2.072854
2535.000000;2.242844
2534.000000;2.760168
2533.000000;2.531831
2532.000000;2.038313
2531.000000;1.827209
2530.000000;1.780273
2529.000000;1.871157
2528.000000;2.076575
2527.000000;2.217444
2526.000000;2.117648
2525.000000;2.035361
2524.000000;1.968181
2523.000000;1.898015
2522.000000;1.888324
2521.000000;1.861401
2520.000000;1.744692
2519.000000;1.654221
2518.000000;1.664818
2517.000000;1.761899
2516.000000;1.844742
2515.000000;1.852455
2514.000000;1.938507
2513.000000;1.892310
2512.000000;1.739080
2511.000000;1.693082
2510.000000;1.808967
2509.000000;2.362838
2508.000000;2.284564
2507.000000;1.917672
2506.000000;1.877481
2505.000000;1.831555
2504.000000;1.785963
2503.000000;1.788923
2502.000000;1.772832
2501.000000;1.739264
2500.000000;1.784648
2499.000000;2.122584
2498.000000;2.580557
2497.000000;2.082472
2496.000000;2.198421
2495.000000;2.297869
2494.000000;2.055880
2493.000000;2.182356
2492.000000;2.325469
2491.000000;1.941888
2490.000000;1.729885
2489.000000;1.689193
2488.000000;1.775008
2487.000000;2.289054
2486.000000;2.291284
2485.000000;1.780188
2484.000000;1.675468
2483.000000;1.694160
2482.000000;1.889380
2481.000000;2.242447
2480.000000;1.940240
2479.000000;1.685092
2478.000000;1.593639
2477.000000;1.604285
2476.000000;1.717998
2475.000000;1.747314
2474.000000;1.619942
2473.000000;1.541891
2472.000000;1.548688
2471.000000;1.649142
2470.000000;1.870307
2469.000000;1.973461
2468.000000;1.867453
2467.000000;1.889905
2466.000000;2.330067
2465.000000;2.584082
2464.000000;1.925941
2463.000000;1.760563
2462.000000;1.691433
2461.000000;1.717464
2460.000000;1.850516
2459.000000;1.976093
2458.000000;1.923062
2457.000000;2.041027
2456.000000;2.347604
2455.000000;1.912754
2454.000000;1.706772
2453.000000;1.805572
2452.000000;2.341719
2451.000000;2.104067
2450.000000;1.782686
2449.000000;1.728086
2448.000000;1.749971
2447.000000;1.831669
2446.000000;2.085567
2445.000000;2.362109
2444.000000;1.877837
2443.000000;1.675259
2442.000000;1.636756
2441.000000;1.734518
2440.000000;1.976552
2439.000000;1.927917
2438.000000;1.705909
2437.000000;1.632833
2436.000000;1.638875
2435.000000;1.648252
2434.000000;1.638916
2433.000000;1.642278
2432.000000;1.662979
2431.000000;1.690285
2430.000000;1.751715
2429.000000;1.890601
2428.000000;1.960942
2427.000000;1.781305
2426.000000;1.616736
2425.000000;1.544857
2424.000000;1.557991
2423.000000;1.647497
2422.000000;1.736114
2421.000000;1.735255
2420.000000;1.705518
2419.000000;1.698433
2418.000000;1.708975
2417.000000;1.751756
2416.000000;1.829860
2415.000000;2.126218
2414.000000;2.454704
2413.000000;1.984901
2412.000000;1.858598
2411.000000;1.965416
2410.000000;2.230997
2409.000000;1.956411
2408.000000;1.645583
2407.000000;1.531019
2406.000000;1.517381
2405.000000;1.601191
2404.000000;1.780131
2403.000000;2.019566
2402.000000;1.978338
2401.000000;1.798365
2400.000000;1.706356
2399.000000;1.670942
2398.000000;1.684611
2397.000000;1.718635
2396.000000;1.700926
2395.000000;1.643234
2394.000000;1.597345
2393.000000;1.546222
2392.000000;1.498226
2391.000000;1.505634
2390.000000;1.605045
2389.000000;1.833403
2388.000000;2.116208
2387.000000;2.171852
2386.000000;2.104702
2385.000000;1.954234
2384.000000;1.823043
2383.000000;1.772641
2382.000000;2.056795
2381.000000;2.200093
2380.000000;1.626730
2379.000000;1.387889
2378.000000;1.306369
2377.000000;1.230523
2376.000000;1.173766
2375.000000;1.033534
2374.000000;1.394524
2373.000000;1.766834
2372.000000;1.808588
2371.000000;2.266550
2370.000000;1.981143
2369.000000;1.847408
2368.000000;1.805342
2367.000000;1.846520
2366.000000;1.847715
2365.000000;1.816720
2364.000000;1.786681
2363.000000;1.770982
2362.000000;1.827317
2361.000000;1.867272
2360.000000;1.725391
2359.000000;1.598870
2358.000000;1.602177
2357.000000;1.774690
2356.000000;2.342332
2355.000000;2.511346
2354.000000;2.204280
2353.000000;2.610937
2352.000000;2.596128
2351.000000;2.291785
2350.000000;2.144544
2349.000000;2.140256
2348.000000;2.100068
2347.000000;1.861939
2346.000000;1.738904
2345.000000;1.660671
2344.000000;1.517211
2343.000000;1.428326
2342.000000;1.449316
2341.000000;1.591736
2340.000000;1.803173
2339.000000;1.687368
2338.000000;1.470175
2337.000000;1.362772
2336.000000;1.356799
2335.000000;1.455115
2334.000000;1.560660
2333.000000;1.496186
2332.000000;1.398063
2331.000000;1.363233
2330.000000;1.398379
2329.000000;1.516554
2328.000000;1.768147
2327.000000;1.996133
2326.000000;1.776435
2325.000000;1.553206
2324.000000;1.435308
2323.000000;1.430018
2322.000000;1.543314
2321.000000;1.815321
2320.000000;1.742235
2319.000000;1.789071
2318.000000;1.229117
2317.000000;1.257183
2316.000000;1.357157
2315.000000;1.365672
2314.000000;1.518237
2313.000000;1.438906
2312.000000;1.237647
2311.000000;1.118527
2310.000000;1.049131
2309.000000;1.079024
2308.000000;1.231407
2307.000000;1.234958
2306.000000;1.140007
2305.000000;1.225131
2304.000000;1.599162
2303.000000;1.984238
2302.000000;1.698659
2301.000000;1.651375
2300.000000;1.611756
2299.000000;1.538098
2298.000000;1.489748
2297.000000;1.515833
2296.000000;1.506915
2295.000000;1.404187
2294.000000;1.329411
2293.000000;1.338115
2292.000000;1.449121
2291.000000;1.716243
2290.000000;2.007547
2289.000000;1.920404
2288.000000;1.981803
2287.000000;2.005714
2286.000000;1.884473
2285.000000;1.963102
2284.000000;2.247224
2283.000000;1.827631
2282.000000;1.539160
2281.000000;1.444955
2280.000000;1.500741
2279.000000;1.689311
2278.000000;1.687422
2277.000000;1.485556
2276.000000;1.423182
2275.000000;1.500278
2274.000000;1.749337
2273.000000;1.835648
2272.000000;1.669791
2271.000000;1.627336
2270.000000;1.667772
2269.000000;1.822454
2268.000000;2.174085
2267.000000;1.776690
2266.000000;1.506478
2265.000000;1.458258
2264.000000;1.521534
2263.000000;1.684931
2262.000000;1.992980
2261.000000;2.102392
2260.000000;1.877272
2259.000000;1.771797
2258.000000;1.699608
2257.000000;1.639915
2256.000000;1.611730
2255.000000;1.642620
2254.000000;1.783167
2253.000000;2.208590
2252.000000;2.315231
2251.000000;1.886731
2250.000000;1.941893
2249.000000;2.248137
2248.000000;1.958465
2247.000000;1.617061
2246.000000;1.520556
2245.000000;1.523487
2244.000000;1.612708
2243.000000;1.774738
2242.000000;1.906376
2241.000000;1.800490
2240.000000;1.665260
2239.000000;1.593206
2238.000000;1.564328
2237.000000;1.599092
2236.000000;1.741567
2235.000000;2.014447
2234.000000;1.790416
2233.000000;1.576044
2232.000000;1.523211
2231.000000;1.590109
2230.000000;1.771803
2229.000000;2.135192
2228.000000;2.060824
2227.000000;1.684824
2226.000000;1.600471
2225.000000;1.645471
2224.000000;1.731735
2223.000000;1.824307
2222.000000;2.025684
2221.000000;2.309086
2220.000000;2.320039
2219.000000;2.379158
2218.000000;2.463224
2217.000000;2.304970
2216.000000;2.656577
2215.000000;1.964979
2214.000000;1.588143
2213.000000;1.484560
2212.000000;1.544074
2211.000000;1.818434
2210.000000;2.465277
2209.000000;1.874504
2208.000000;1.687998
2207.000000;1.680016
2206.000000;1.751793
2205.000000;1.884637
2204.000000;2.064951
2203.000000;2.163950
2202.000000;1.959407
2201.000000;1.799074
2200.000000;1.876620
2199.000000;2.301171
2198.000000;1.930403
2197.000000;1.616543
2196.000000;1.582645
2195.000000;1.700649
2194.000000;1.840238
2193.000000;1.757118
2192.000000;1.698433
2191.000000;1.776621
2190.000000;1.856577
2189.000000;1.691524
2188.000000;1.541802
2187.000000;1.536670
2186.000000;1.667869
2185.000000;1.867073
2184.000000;1.886560
2183.000000;1.880982
2182.000000;1.964458
2181.000000;2.101507
2180.000000;2.159984
2179.000000;1.841193
2178.000000;1.700310
2177.000000;1.843784
2176.000000;2.650716
2175.000000;1.763570
2174.000000;1.597367
2173.000000;1.633222
2172.000000;1.923102
2171.000000;2.501414
2170.000000;2.410841
2169.000000;2.504901
2168.000000;2.608187
2167.000000;2.252307
2166.000000;1.889251
2165.000000;1.709499
2164.000000;1.751926
2163.000000;1.949563
2162.000000;1.742371
2161.000000;1.545009
2160.000000;1.585423
2159.000000;1.817070
2158.000000;2.832462
2157.000000;2.224031
2156.000000;1.938539
2155.000000;1.841952
2154.000000;1.820649
2153.000000;1.805585
2152.000000;1.650788
2151.000000;1.526792
2150.000000;1.516755
2149.000000;1.630403
2148.000000;1.987507
2147.000000;2.625431
2146.000000;1.836617
2145.000000;1.678074
2144.000000;1.598815
2143.000000;1.598222
2142.000000;1.664293
2141.000000;1.826097
2140.000000;2.241269
2139.000000;2.410565
2138.000000;1.917455
2137.000000;1.666565
2136.000000;1.518206
2135.000000;1.485650
2134.000000;1.553275
2133.000000;1.692255
2132.000000;1.893150
2131.000000;2.167798
2130.000000;3.181749
2129.000000;2.468154
2128.000000;2.074052
2127.000000;1.913607
2126.000000;1.776871
2125.000000;1.610996
2124.000000;1.519438
2123.000000;1.554669
2122.000000;1.731684
2121.000000;1.833660
2120.000000;1.706129
2119.000000;1.742144
2118.000000;1.935192
2117.000000;1.899275
2116.000000;1.699904
2115.000000;1.629229
2114.000000;1.619725
2113.000000;1.670028
2112.000000;1.777051
2111.000000;1.965288
2110.000000;2.129404
2109.000000;2.091217
2108.000000;1.998637
2107.000000;1.860615
2106.000000;1.702633
2105.000000;1.588623
2104.000000;1.547202
2103.000000;1.623574
2102.000000;1.870008
2101.000000;2.559317
2100.000000;2.425647
2099.000000;2.293393
2098.000000;2.256912
2097.000000;2.312470
2096.000000;2.187274
2095.000000;1.818698
2094.000000;1.695064
2093.000000;1.755983
2092.000000;2.022068
2091.000000;2.287204
2090.000000;2.010366
2089.000000;1.950523
2088.000000;1.913177
2087.000000;1.820280
2086.000000;1.776960
2085.000000;2.235376
2084.000000;2.015266
2083.000000;1.508293
2082.000000;1.352661
2081.000000;1.297609
2080.000000;1.349163
2079.000000;1.486544
2078.000000;1.714480
2077.000000;1.854169
2076.000000;1.725798
2075.000000;1.666843
2074.000000;1.773622
2073.000000;2.134298
2072.000000;1.916106
2071.000000;1.678683
2070.000000;1.626338
2069.000000;1.702534
2068.000000;1.935318
2067.000000;2.484464
2066.000000;2.215559
2065.000000;1.883867
2064.000000;1.835051
2063.000000;1.893547
2062.000000;1.788287
2061.000000;1.663301
2060.000000;1.698426
2059.000000;2.109370
2058.000000;2.106741
2057.000000;1.702573
2056.000000;1.670324
2055.000000;1.834863
2054.000000;2.093847
2053.000000;1.780385
2052.000000;1.587634
2051.000000;1.542848
2050.000000;1.591006
2049.000000;1.791068
2048.000000;2.233277
2047.000000;1.741513
2046.000000;1.527505
2045.000000;1.470160
2044.000000;1.454035
2043.000000;1.449734
2042.000000;1.490816
2041.000000;1.583645
2040.000000;1.640644
2039.000000;1.628420
2038.000000;1.664506
2037.000000;1.833368
2036.000000;2.149097
2035.000000;2.226498
2034.000000;2.141597
2033.000000;2.055904
2032.000000;1.967292
2031.000000;2.041324
2030.000000;2.548904
2029.000000;2.326267
2028.000000;1.974987
2027.000000;1.862825
2026.000000;1.658481
2025.000000;1.507358
2024.000000;1.454652
2023.000000;1.445295
2022.000000;1.429568
2021.000000;1.471869
2020.000000;1.657545
2019.000000;1.826229
2018.000000;1.585288
2017.000000;1.426256
2016.000000;1.377157
2015.000000;1.444611
2014.000000;1.738275
2013.000000;1.804055
2012.000000;1.369254
2011.000000;1.249736
2010.000000;1.264971
2009.000000;1.420393
2008.000000;1.573296
2007.000000;1.453957
2006.000000;1.359778
2005.000000;1.412019
2004.000000;1.627026
2003.000000;1.798881
2002.000000;1.658213
2001.000000;1.561956
2000.000000;1.548763
1999.000000;1.608833
1998.000000;1.768541
1997.000000;2.188177
1996.000000;2.539933
1995.000000;2.162186
1994.000000;2.095472
1993.000000;2.156990
1992.000000;1.974191
1991.000000;1.616878
1990.000000;1.423223
1989.000000;1.379835
1988.000000;1.487728
1987.000000;1.771333
1986.000000;1.768306
1985.000000;1.511455
1984.000000;1.442399
1983.000000;1.506232
1982.000000;1.696626
1981.000000;2.108488
1980.000000;2.371455
1979.000000;1.816739
1978.000000;1.554318
1977.000000;1.460987
1976.000000;1.514320
1975.000000;1.727806
1974.000000;1.884718
1973.000000;1.704891
1972.000000;1.598170
1971.000000;1.644479
1970.000000;1.969279
1969.000000;1.970137
1968.000000;1.579941
1967.000000;1.421080
1966.000000;1.412261
1965.000000;1.554168
1964.000000;2.040237
1963.000000;1.911819
1962.000000;1.553141
1961.000000;1.482136
1960.000000;1.556259
1959.000000;1.768608
1958.000000;2.012525
1957.000000;1.986224
1956.000000;1.894213
1955.000000;1.881032
1954.000000;2.000128
1953.000000;1.988103
1952.000000;1.738898
1951.000000;1.589669
1950.000000;1.555936
1949.000000;1.827426
1948.000000;1.895017
1947.000000;1.481404
1946.000000;1.347803
1945.000000;1.399934
1944.000000;1.711129
1943.000000;1.965844
1942.000000;1.642472
1941.000000;1.592695
1940.000000;1.849531
1939.000000;1.953039
1938.000000;1.631506
1937.000000;1.608168
1936.000000;1.776604
1935.000000;1.545680
1934.000000;1.340666
1933.000000;1.306634
1932.000000;1.382654
1931.000000;1.580695
1930.000000;1.887617
1929.000000;1.665143
1928.000000;1.408448
1927.000000;1.360642
1926.000000;1.441840
1925.000000;1.651383
1924.000000;1.993929
1923.000000;1.939775
1922.000000;1.691229
1921.000000;1.573464
1920.000000;1.511286
1919.000000;1.531287
1918.000000;1.667694
1917.000000;2.289325
1916.000000;2.015033
1915.000000;1.640343
1914.000000;1.568724
1913.000000;1.657520
1912.000000;2.082939
1911.000000;1.861058
1910.000000;1.631519
1909.000000;1.666821
1908.000000;1.714219
1907.000000;1.627175
1906.000000;1.569325
1905.000000;1.589803
1904.000000;1.629497
1903.000000;1.510872
1902.000000;1.333235
1901.000000;1.248408
1900.000000;1.253631
1899.000000;1.299069
1898.000000;1.332993
1897.000000;1.388761
1896.000000;1.572893
1895.000000;2.154344
1894.000000;1.902235
1893.000000;1.584966
1892.000000;1.597290
1891.000000;1.692955
1890.000000;2.051197
1889.000000;2.234925
1888.000000;1.710744
1887.000000;1.502503
1886.000000;1.496842
1885.000000;1.660365
1884.000000;1.565077
1883.000000;1.322142
1882.000000;1.243186
1881.000000;1.299001
1880.000000;1.499121
1879.000000;1.957258
1878.000000;1.987353
1877.000000;1.558051
1876.000000;1.394304
1875.000000;1.339997
1874.000000;1.387703
1873.000000;1.537186
1872.000000;1.620850
1871.000000;1.450293
1870.000000;1.284496
1869.000000;1.216918
1868.000000;1.246957
1867.000000;1.363321
1866.000000;1.487492
1865.000000;1.500008
1864.000000;1.413408
1863.000000;1.347232
1862.000000;1.378796
1861.000000;1.563530
1860.000000;1.761224
1859.000000;1.672448
1858.000000;1.592048
1857.000000;1.517785
1856.000000;1.403959
1855.000000;1.322724
1854.000000;1.321477
1853.000000;1.411693
1852.000000;1.577186
1851.000000;1.669225
1850.000000;1.563046
1849.000000;1.484454
1848.000000;1.522277
1847.000000;1.629143
1846.000000;1.617192
1845.000000;1.514632
1844.000000;1.476803
1843.000000;1.685696
1842.000000;2.105053
1841.000000;1.725701
1840.000000;1.537658
1839.000000;1.577344
1838.000000;1.784027
1837.000000;1.918904
1836.000000;1.796080
1835.000000;1.679489
1834.000000;1.494278
1833.000000;1.384744
1832.000000;1.425382
1831.000000;1.503649
1830.000000;1.393691
1829.000000;1.292646
1828.000000;1.326895
1827.000000;1.453370
1826.000000;1.573102
1825.000000;1.596454
1824.000000;1.642598
1823.000000;1.836697
1822.000000;1.885548
1821.000000;1.698088
1820.000000;1.672131
1819.000000;1.591018
1818.000000;1.436732
1817.000000;1.376519
1816.000000;1.545829
1815.000000;1.837612
1814.000000;1.527503
1813.000000;1.325854
1812.000000;1.391187
1811.000000;1.770299
1810.000000;1.608571
1809.000000;1.271722
1808.000000;1.159666
1807.000000;1.141063
1806.000000;1.210632
1805.000000;1.342551
1804.000000;1.415616
1803.000000;1.365568
1802.000000;1.330539
1801.000000;1.351875
1800.000000;1.407467
1799.000000;1.498165
1798.000000;1.663902
1797.000000;1.968982
1796.000000;1.962699
1795.000000;1.730108
1794.000000;1.675086
1793.000000;1.762855
1792.000000;2.113239
1791.000000;1.893451
1790.000000;1.528596
1789.000000;1.434679
1788.000000;1.409375
1787.000000;1.423479
1786.000000;1.457517
1785.000000;1.516102
1784.000000;1.590061
1783.000000;1.594705
1782.000000;1.489026
1781.000000;1.408848
1780.000000;1.423712
1779.000000;1.567553
1778.000000;1.863458
1777.000000;1.737910
1776.000000;1.522477
1775.000000;1.497209
1774.000000;1.637431
1773.000000;1.877851
1772.000000;1.694289
1771.000000;1.463690
1770.000000;1.404127
1769.000000;1.462017
1768.000000;1.643435
1767.000000;1.889716
1766.000000;1.983506
1765.000000;1.742354
1764.000000;1.523805
1763.000000;1.401652
1762.000000;1.418483
1761.000000;1.904460
1760.000000;1.915209
1759.000000;1.463064
1758.000000;1.433475
1757.000000;1.468671
1756.000000;1.614589
1755.000000;1.898949
1754.000000;1.786147
1753.000000;1.580822
1752.000000;1.541129
1751.000000;1.649075
1750.000000;1.879919
1749.000000;1.986800
1748.000000;2.023819
1747.000000;2.052317
1746.000000;1.875020
1745.000000;1.741158
1744.000000;1.699226
1743.000000;1.797779
1742.000000;1.996479
1741.000000;1.742038
1740.000000;1.463141
1739.000000;1.396450
1738.000000;1.541188
1737.000000;1.808531
1736.000000;1.786710
1735.000000;1.649725
1734.000000;1.548513
1733.000000;1.510674
1732.000000;1.569466
1731.000000;1.601105
1730.000000;1.555525
1729.000000;1.529515
1728.000000;1.570112
1727.000000;1.597635
1726.000000;1.576245
1725.000000;1.624364
1724.000000;1.888789
1723.000000;2.104009
1722.000000;1.926301
1721.000000;1.924350
1720.000000;1.762682
1719.000000;1.481951
1718.000000;1.313954
1717.000000;1.305402
1716.000000;1.433652
1715.000000;1.876411
1714.000000;2.164854
1713.000000;1.472525
1712.000000;1.311239
1711.000000;1.355164
1710.000000;1.466576
1709.000000;1.474213
1708.000000;1.437749
1707.000000;1.528865
1706.000000;1.677446
1705.000000;1.850616
1704.000000;1.900190
1703.000000;1.938716
1702.000000;2.027579
1701.000000;2.086703
1700.000000;1.838153
1699.000000;1.622060
1698.000000;1.677853
1697.000000;1.733478
1696.000000;1.637788
1695.000000;1.642588
1694.000000;1.825670
1693.000000;1.852968
1692.000000;1.579282
1691.000000;1.469134
1690.000000;1.515153
1689.000000;1.618654
1688.000000;1.642647
1687.000000;1.769156
1686.000000;1.903514
1685.000000;1.645362
1684.000000;1.511149
1683.000000;1.532213
1682.000000;1.675720
1681.000000;1.950641
1680.000000;1.946388
1679.000000;1.722712
1678.000000;1.664827
1677.000000;1.923728
1676.000000;1.999734
1675.000000;1.417451
1674.000000;1.205196
1673.000000;1.252195
1672.000000;1.494341
1671.000000;1.998053
1670.000000;1.855880
1669.000000;1.373943
1668.000000;1.139367
1667.000000;1.119372
1666.000000;1.261444
1665.000000;1.609486
1664.000000;1.994809
1663.000000;1.524271
1662.000000;1.332400
1661.000000;1.320389
1660.000000;1.547104
1659.000000;2.059355
1658.000000;1.636958
1657.000000;1.379372
1656.000000;1.328307
1655.000000;1.378903
1654.000000;1.503145
1653.000000;1.801508
1652.000000;1.819836
1651.000000;1.557499
1650.000000;1.537909
1649.000000;1.567032
1648.000000;1.877449
1647.000000;1.918664
1646.000000;1.494395
1645.000000;1.403570
1644.000000;1.508632
1643.000000;1.642110
1642.000000;1.908571
1641.000000;2.447236
1640.000000;1.598044
1639.000000;1.309387
1638.000000;1.220272
1637.000000;1.212512
1636.000000;1.301038
1635.000000;1.463086
1634.000000;1.608020
1633.000000;1.509353
1632.000000;1.427698
1631.000000;1.439851
1630.000000;1.523891
1629.000000;1.734063
1628.000000;1.999504
1627.000000;1.673891
1626.000000;1.425668
1625.000000;1.337234
1624.000000;1.352325
1623.000000;1.661480
1622.000000;1.641164
1621.000000;1.320514
1620.000000;1.278420
1619.000000;1.379513
1618.000000;1.552405
1617.000000;1.709567
1616.000000;1.717605
1615.000000;1.654037
1614.000000;1.619344
1613.000000;1.833121
1612.000000;2.302810
1611.000000;1.745394
1610.000000;1.631605
1609.000000;1.789022
1608.000000;1.715691
1607.000000;1.574774
1606.000000;1.612154
1605.000000;1.712913
1604.000000;1.579268
1603.000000;1.521488
1602.000000;1.741323
1601.000000;1.730125
1600.000000;1.484376
1599.000000;1.455698
1598.000000;1.597106
1597.000000;2.046381
1596.000000;2.042545
1595.000000;1.782831
1594.000000;2.035152
1593.000000;2.353518
1592.000000;1.921436
1591.000000;1.828617
1590.000000;1.948427
1589.000000;2.192286
1588.000000;2.546649
1587.000000;2.023776
1586.000000;1.780600
1585.000000;1.723258
1584.000000;1.618014
1583.000000;1.431071
1582.000000;1.320947
1581.000000;1.304407
1580.000000;1.550523
1579.000000;1.889667
1578.000000;1.461536
1577.000000;1.326723
1576.000000;1.415816
1575.000000;1.637894
1574.000000;1.691273
1573.000000;1.470522
1572.000000;1.344455
1571.000000;1.300147
1570.000000;1.383454
1569.000000;1.382385
1568.000000;1.304151
1567.000000;1.322470
1566.000000;1.478118
1565.000000;1.907942
1564.000000;1.728940
1563.000000;1.443529
1562.000000;1.396517
1561.000000;1.405861
1560.000000;1.441060
1559.000000;1.450739
1558.000000;1.507876
1557.000000;1.579842
1556.000000;1.550982
1555.000000;1.505232
1554.000000;1.477328
1553.000000;1.475357
1552.000000;1.487761
1551.000000;1.506486
1550.000000;1.515067
1549.000000;1.473489
1548.000000;1.409239
1547.000000;1.367251
1546.000000;1.368861
1545.000000;1.344038
1544.000000;1.232783
1543.000000;1.140360
1542.000000;1.105178
1541.000000;1.124831
1540.000000;1.216446
1539.000000;1.297578
1538.000000;1.305147
1537.000000;1.327702
1536.000000;1.380774
1535.000000;1.428798
1534.000000;1.433676
1533.000000;1.348262
1532.000000;1.273658
1531.000000;1.268597
1530.000000;1.285061
1529.000000;1.306969
1528.000000;1.366462
1527.000000;1.471991
1526.000000;1.497836
1525.000000;1.383519
1524.000000;1.284337
1523.000000;1.257614
1522.000000;1.254071
1521.000000;1.217823
1520.000000;1.181397
1519.000000;1.181010
1518.000000;1.230011
1517.000000;1.359367
1516.000000;1.498722
1515.000000;1.434372
1514.000000;1.310812
1513.000000;1.193789
1512.000000;1.138403
1511.000000;1.173242
1510.000000;1.421248
1509.000000;1.982745
1508.000000;1.612834
1507.000000;1.437276
1506.000000;1.471775
1505.000000;1.464372
1504.000000;1.507115
1503.000000;1.597584
1502.000000;1.563032
1501.000000;1.436378
1500.000000;1.362440
1499.000000;1.332848
1498.000000;1.354234
1497.000000;1.456303
1496.000000;1.589166
1495.000000;1.575674
1494.000000;1.470137
1493.000000;1.406076
1492.000000;1.448901
1491.000000;1.488704
1490.000000;1.342935
1489.000000;1.291623
1488.000000;1.352557
1487.000000;1.310508
1486.000000;1.201194
1485.000000;1.144373
1484.000000;1.164137
1483.000000;1.256443
1482.000000;1.427551
1481.000000;1.787419
1480.000000;2.021856
1479.000000;1.609036
1478.000000;1.409549
1477.000000;1.346935
1476.000000;1.365029
1475.000000;1.362577
1474.000000;1.304319
1473.000000;1.252919
1472.000000;1.219417
1471.000000;1.227721
1470.000000;1.256988
1469.000000;1.291713
1468.000000;1.332810
1467.000000;1.539482
1466.000000;1.897186
1465.000000;1.444883
1464.000000;1.197339
1463.000000;1.216524
1462.000000;1.320628
1461.000000;1.423054
1460.000000;1.429479
1459.000000;1.374400
1458.000000;1.312631
1457.000000;1.397388
1456.000000;1.777329
1455.000000;1.656635
1454.000000;1.394760
1453.000000;1.352475
1452.000000;1.469913
1451.000000;1.925207
1450.000000;1.768730
1449.000000;1.370698
1448.000000;1.266192
1447.000000;1.327499
1446.000000;1.554779
1445.000000;1.534453
1444.000000;1.284679
1443.000000;1.176649
1442.000000;1.147228
1441.000000;1.169802
1440.000000;1.250882
1439.000000;1.399744
1438.000000;1.470990
1437.000000;1.408095
1436.000000;1.523416
1435.000000;1.589986
1434.000000;1.385046
1433.000000;1.279107
1432.000000;1.262163
1431.000000;1.289745
1430.000000;1.345790
1429.000000;1.409419
1428.000000;1.457494
1427.000000;1.412565
1426.000000;1.310985
1425.000000;1.256866
1424.000000;1.273272
1423.000000;1.342560
1422.000000;1.453601
1421.000000;1.605597
1420.000000;1.891361
1419.000000;1.781308
1418.000000;1.368778
1417.000000;1.238095
1416.000000;1.261130
1415.000000;1.403294
1414.000000;1.795691
1413.000000;1.901821
1412.000000;1.522566
1411.000000;1.342961
1410.000000;1.249210
1409.000000;1.231635
1408.000000;1.301570
1407.000000;1.455207
1406.000000;1.676141
1405.000000;1.826544
1404.000000;2.042082
1403.000000;2.133765
1402.000000;1.507656
1401.000000;1.223060
1400.000000;1.146698
1399.000000;1.220013
1398.000000;1.414715
1397.000000;1.572733
1396.000000;1.699169
1395.000000;1.966429
1394.000000;2.049549
1393.000000;1.802535
1392.000000;1.749356
1391.000000;1.991153
1390.000000;1.854587
1389.000000;1.392106
1388.000000;1.222584
1387.000000;1.231535
1386.000000;1.398305
1385.000000;1.856261
1384.000000;2.266872
1383.000000;1.805394
1382.000000;1.608149
1381.000000;1.514965
1380.000000;1.497632
1379.000000;1.553971
1378.000000;1.625780
1377.000000;1.683274
1376.000000;1.740343
1375.000000;1.810682
1374.000000;1.898910
1373.000000;1.839692
1372.000000;1.556791
1371.000000;1.347738
1370.000000;1.277514
1369.000000;1.343800
1368.000000;1.524577
1367.000000;1.513683
1366.000000;1.318714
1365.000000;1.233980
1364.000000;1.262104
1363.000000;1.325601
1362.000000;1.408103
1361.000000;1.845835
1360.000000;1.740215
1359.000000;1.249948
1358.000000;1.161198
1357.000000;1.258097
1356.000000;1.530187
1355.000000;1.549519
1354.000000;1.501810
1353.000000;1.616028
1352.000000;1.605609
1351.000000;1.624861
1350.000000;1.549700
1349.000000;1.332194
1348.000000;1.199060
1347.000000;1.199052
1346.000000;1.301759
1345.000000;1.340656
1344.000000;1.278551
1343.000000;1.266831
1342.000000;1.330206
1341.000000;1.461508
1340.000000;1.634928
1339.000000;1.566901
1338.000000;1.346749
1337.000000;1.237820
1336.000000;1.244772
1335.000000;1.553998
1334.000000;1.726868
1333.000000;1.267643
1332.000000;1.137573
1331.000000;1.115655
1330.000000;1.154988
1329.000000;1.240372
1328.000000;1.380480
1327.000000;1.514561
1326.000000;1.460434
1325.000000;1.367452
1324.000000;1.293503
1323.000000;1.252316
1322.000000;1.271111
1321.000000;1.328204
1320.000000;1.331298
1319.000000;1.234987
1318.000000;1.165039
1317.000000;1.226648
1316.000000;1.516051
1315.000000;1.524122
1314.000000;1.178930
1313.000000;1.074220
1312.000000;1.094643
1311.000000;1.233882
1310.000000;1.565928
1309.000000;1.561186
1308.000000;1.295796
1307.000000;1.310305
1306.000000;1.520321
1305.000000;2.108061
1304.000000;2.160629
1303.000000;2.011378
1302.000000;2.137673
1301.000000;1.700901
1300.000000;1.463805
1299.000000;1.385214
1298.000000;1.389834
1297.000000;1.496217
1296.000000;2.062955
1295.000000;1.741328
1294.000000;1.357348
1293.000000;1.282056
1292.000000;1.385406
1291.000000;1.468370
1290.000000;1.320676
1289.000000;1.260316
1288.000000;1.481602
1287.000000;1.922226
1286.000000;1.300088
1285.000000;1.095465
1284.000000;1.069059
1283.000000;1.189303
1282.000000;1.415988
1281.000000;1.467084
1280.000000;1.420171
1279.000000;1.522684
1278.000000;1.804867
1277.000000;1.761193
1276.000000;1.504175
1275.000000;1.399789
1274.000000;1.376984
1273.000000;1.386512
1272.000000;1.389890
1271.000000;1.414611
1270.000000;1.589590
1269.000000;2.098737
1268.000000;1.478076
1267.000000;1.219211
1266.000000;1.190112
1265.000000;1.299956
1264.000000;1.565369
1263.000000;1.670685
1262.000000;1.501271
1261.000000;1.443996
1260.000000;1.490578
1259.000000;1.582126
1258.000000;1.637653
1257.000000;1.693444
1256.000000;1.835518
1255.000000;1.784804
1254.000000;1.550046
1253.000000;1.460955
1252.000000;1.513553
1251.000000;1.688454
1250.000000;1.998495
1249.000000;2.281757
1248.000000;1.809173
1247.000000;1.465846
1246.000000;1.324175
1245.000000;1.333408
1244.000000;1.558086
1243.000000;1.585307
1242.000000;1.341460
1241.000000;1.266546
1240.000000;1.308626
1239.000000;1.347574
1238.000000;1.298494
1237.000000;1.200395
1236.000000;1.109133
1235.000000;1.063795
1234.000000;1.089783
1233.000000;1.200589
1232.000000;1.434204
1231.000000;1.852248
1230.000000;1.735808
1229.000000;1.390504
1228.000000;1.280686
1227.000000;1.302696
1226.000000;1.417256
1225.000000;1.502132
1224.000000;1.561641
1223.000000;2.119689
1222.000000;1.752178
1221.000000;1.321547
1220.000000;1.240600
1219.000000;1.247059
1218.000000;1.313985
1217.000000;1.322379
1216.000000;1.246576
1215.000000;1.207014
1214.000000;1.288208
1213.000000;1.509290
1212.000000;1.502409
1211.000000;1.323505
1210.000000;1.182995
1209.000000;1.108583
1208.000000;1.145268
1207.000000;1.318572
1206.000000;1.396489
1205.000000;1.193145
1204.000000;1.101841
1203.000000;1.117570
1202.000000;1.398155
1201.000000;1.766723
1200.000000;1.255728
