Criado como novo conjunto de dados;"2706_e01_daniel.spp","54544.6 Secs"
cm-1;Abs
10000.000000;0.662684
9999.000000;0.661857
9998.000000;0.661031
9997.000000;0.660207
9996.000000;0.659385
9995.000000;0.658563
9994.000000;0.657745
9993.000000;0.656924
9992.000000;0.656118
9991.000000;0.655051
9990.000000;0.654465
9989.000000;0.654745
9988.000000;0.655556
9987.000000;0.656196
9986.000000;0.656147
9985.000000;0.655493
9984.000000;0.654778
9983.000000;0.654454
9982.000000;0.654453
9981.000000;0.654375
9980.000000;0.654013
9979.000000;0.653557
9978.000000;0.653258
9977.000000;0.653111
9976.000000;0.652963
9975.000000;0.652815
9974.000000;0.652866
9973.000000;0.653259
9972.000000;0.653861
9971.000000;0.654293
9970.000000;0.654202
9969.000000;0.653585
9968.000000;0.652843
9967.000000;0.652404
9966.000000;0.652306
9965.000000;0.652244
9964.000000;0.652020
9963.000000;0.651782
9962.000000;0.651754
9961.000000;0.651920
9960.000000;0.652127
9959.000000;0.652337
9958.000000;0.652577
9957.000000;0.652728
9956.000000;0.652606
9955.000000;0.652238
9954.000000;0.651867
9953.000000;0.651634
9952.000000;0.651442
9951.000000;0.651190
9950.000000;0.650966
9949.000000;0.650843
9948.000000;0.650635
9947.000000;0.650108
9946.000000;0.649413
9945.000000;0.649049
9944.000000;0.649296
9943.000000;0.649844
9942.000000;0.650160
9941.000000;0.650134
9940.000000;0.650169
9939.000000;0.650620
9938.000000;0.651343
9937.000000;0.651884
9936.000000;0.651981
9935.000000;0.651718
9934.000000;0.651288
9933.000000;0.650777
9932.000000;0.650231
9931.000000;0.649764
9930.000000;0.649488
9929.000000;0.649373
9928.000000;0.649262
9927.000000;0.649018
9926.000000;0.648644
9925.000000;0.648284
9924.000000;0.648140
9923.000000;0.648339
9922.000000;0.648803
9921.000000;0.649267
9920.000000;0.649470
9919.000000;0.649389
9918.000000;0.649214
9917.000000;0.649088
9916.000000;0.648896
9915.000000;0.648419
9914.000000;0.647665
9913.000000;0.646966
9912.000000;0.646661
9911.000000;0.646785
9910.000000;0.647124
9909.000000;0.647516
9908.000000;0.647936
9907.000000;0.648293
9906.000000;0.648351
9905.000000;0.647937
9904.000000;0.647124
9903.000000;0.646156
9902.000000;0.645282
9901.000000;0.644740
9900.000000;0.644705
9899.000000;0.645097
9898.000000;0.645527
9897.000000;0.645669
9896.000000;0.645631
9895.000000;0.645755
9894.000000;0.646071
9893.000000;0.646208
9892.000000;0.645898
9891.000000;0.645355
9890.000000;0.645007
9889.000000;0.645009
9888.000000;0.645172
9887.000000;0.645247
9886.000000;0.645102
9885.000000;0.644692
9884.000000;0.644068
9883.000000;0.643461
9882.000000;0.643191
9881.000000;0.643389
9880.000000;0.643844
9879.000000;0.644202
9878.000000;0.644291
9877.000000;0.644234
9876.000000;0.644251
9875.000000;0.644384
9874.000000;0.644470
9873.000000;0.644349
9872.000000;0.644070
9871.000000;0.643835
9870.000000;0.643758
9869.000000;0.643739
9868.000000;0.643585
9867.000000;0.643228
9866.000000;0.642805
9865.000000;0.642549
9864.000000;0.642630
9863.000000;0.643014
9862.000000;0.643457
9861.000000;0.643655
9860.000000;0.643491
9859.000000;0.643136
9858.000000;0.642864
9857.000000;0.642789
9856.000000;0.642811
9855.000000;0.642779
9854.000000;0.642657
9853.000000;0.642495
9852.000000;0.642328
9851.000000;0.642176
9850.000000;0.642119
9849.000000;0.642274
9848.000000;0.642647
9847.000000;0.643043
9846.000000;0.643194
9845.000000;0.643005
9844.000000;0.642618
9843.000000;0.642200
9842.000000;0.641762
9841.000000;0.641242
9840.000000;0.640737
9839.000000;0.640510
9838.000000;0.640700
9837.000000;0.641111
9836.000000;0.641363
9835.000000;0.641262
9834.000000;0.640938
9833.000000;0.640637
9832.000000;0.640464
9831.000000;0.640357
9830.000000;0.640245
9829.000000;0.640121
9828.000000;0.639965
9827.000000;0.639709
9826.000000;0.639359
9825.000000;0.639086
9824.000000;0.639088
9823.000000;0.639340
9822.000000;0.639553
9821.000000;0.639450
9820.000000;0.639048
9819.000000;0.638629
9818.000000;0.638488
9817.000000;0.638721
9816.000000;0.639189
9815.000000;0.639621
9814.000000;0.639767
9813.000000;0.639568
9812.000000;0.639203
9811.000000;0.638922
9810.000000;0.638838
9809.000000;0.638879
9808.000000;0.638930
9807.000000;0.638931
9806.000000;0.638849
9805.000000;0.638630
9804.000000;0.638263
9803.000000;0.637846
9802.000000;0.637558
9801.000000;0.637537
9800.000000;0.637787
9799.000000;0.638151
9798.000000;0.638385
9797.000000;0.638313
9796.000000;0.637965
9795.000000;0.637556
9794.000000;0.637259
9793.000000;0.637035
9792.000000;0.636698
9791.000000;0.636150
9790.000000;0.635538
9789.000000;0.635144
9788.000000;0.635138
9787.000000;0.635453
9786.000000;0.635880
9785.000000;0.636272
9784.000000;0.636603
9783.000000;0.636866
9782.000000;0.636965
9781.000000;0.636769
9780.000000;0.636269
9779.000000;0.635655
9778.000000;0.635196
9777.000000;0.635053
9776.000000;0.635173
9775.000000;0.635369
9774.000000;0.635492
9773.000000;0.635558
9772.000000;0.635653
9771.000000;0.635748
9770.000000;0.635682
9769.000000;0.635398
9768.000000;0.635094
9767.000000;0.635015
9766.000000;0.635106
9765.000000;0.635037
9764.000000;0.634621
9763.000000;0.634103
9762.000000;0.633902
9761.000000;0.634107
9760.000000;0.634364
9759.000000;0.634279
9758.000000;0.633826
9757.000000;0.633306
9756.000000;0.632994
9755.000000;0.632929
9754.000000;0.633021
9753.000000;0.633223
9752.000000;0.633537
9751.000000;0.633894
9750.000000;0.634149
9749.000000;0.634187
9748.000000;0.634019
9747.000000;0.633725
9746.000000;0.633358
9745.000000;0.632933
9744.000000;0.632522
9743.000000;0.632298
9742.000000;0.632420
9741.000000;0.632841
9740.000000;0.633254
9739.000000;0.633319
9738.000000;0.632959
9737.000000;0.632414
9736.000000;0.631984
9735.000000;0.631783
9734.000000;0.631752
9733.000000;0.631787
9732.000000;0.631768
9731.000000;0.631537
9730.000000;0.631027
9729.000000;0.630425
9728.000000;0.630098
9727.000000;0.630289
9726.000000;0.630931
9725.000000;0.631723
9724.000000;0.632324
9723.000000;0.632485
9722.000000;0.632139
9721.000000;0.631429
9720.000000;0.630618
9719.000000;0.629947
9718.000000;0.629608
9717.000000;0.629743
9716.000000;0.630295
9715.000000;0.630871
9714.000000;0.630993
9713.000000;0.630595
9712.000000;0.630087
9711.000000;0.629862
9710.000000;0.629912
9709.000000;0.630028
9708.000000;0.630133
9707.000000;0.630206
9706.000000;0.630090
9705.000000;0.629676
9704.000000;0.629213
9703.000000;0.629116
9702.000000;0.629468
9701.000000;0.629930
9700.000000;0.630155
9699.000000;0.630094
9698.000000;0.629861
9697.000000;0.629557
9696.000000;0.629265
9695.000000;0.629026
9694.000000;0.628758
9693.000000;0.628373
9692.000000;0.628016
9691.000000;0.627965
9690.000000;0.628226
9689.000000;0.628439
9688.000000;0.628316
9687.000000;0.627986
9686.000000;0.627746
9685.000000;0.627663
9684.000000;0.627600
9683.000000;0.627473
9682.000000;0.627281
9681.000000;0.626990
9680.000000;0.626601
9679.000000;0.626295
9678.000000;0.626296
9677.000000;0.626596
9676.000000;0.626955
9675.000000;0.627153
9674.000000;0.627118
9673.000000;0.626860
9672.000000;0.626431
9671.000000;0.625974
9670.000000;0.625674
9669.000000;0.625616
9668.000000;0.625769
9667.000000;0.626049
9666.000000;0.626317
9665.000000;0.626373
9664.000000;0.626134
9663.000000;0.625798
9662.000000;0.625710
9661.000000;0.625995
9660.000000;0.626462
9659.000000;0.626849
9658.000000;0.627045
9657.000000;0.627042
9656.000000;0.626829
9655.000000;0.626440
9654.000000;0.626022
9653.000000;0.625771
9652.000000;0.625789
9651.000000;0.625996
9650.000000;0.626141
9649.000000;0.625920
9648.000000;0.625249
9647.000000;0.624431
9646.000000;0.623956
9645.000000;0.624038
9644.000000;0.624419
9643.000000;0.624641
9642.000000;0.624468
9641.000000;0.624002
9640.000000;0.623512
9639.000000;0.623223
9638.000000;0.623194
9637.000000;0.623306
9636.000000;0.623409
9635.000000;0.623517
9634.000000;0.623788
9633.000000;0.624246
9632.000000;0.624627
9631.000000;0.624610
9630.000000;0.624151
9629.000000;0.623483
9628.000000;0.622847
9627.000000;0.622352
9626.000000;0.622068
9625.000000;0.622073
9624.000000;0.622364
9623.000000;0.622814
9622.000000;0.623289
9621.000000;0.623698
9620.000000;0.623926
9619.000000;0.623791
9618.000000;0.623202
9617.000000;0.622316
9616.000000;0.621485
9615.000000;0.621034
9614.000000;0.621085
9613.000000;0.621529
9612.000000;0.622107
9611.000000;0.622540
9610.000000;0.622666
9609.000000;0.622489
9608.000000;0.622127
9607.000000;0.621729
9606.000000;0.621433
9605.000000;0.621332
9604.000000;0.621403
9603.000000;0.621521
9602.000000;0.621602
9601.000000;0.621715
9600.000000;0.621968
9599.000000;0.622258
9598.000000;0.622260
9597.000000;0.621753
9596.000000;0.620929
9595.000000;0.620273
9594.000000;0.620091
9593.000000;0.620237
9592.000000;0.620323
9591.000000;0.620156
9590.000000;0.619899
9589.000000;0.619827
9588.000000;0.620018
9587.000000;0.620300
9586.000000;0.620414
9585.000000;0.620200
9584.000000;0.619692
9583.000000;0.619139
9582.000000;0.618885
9581.000000;0.619120
9580.000000;0.619695
9579.000000;0.620222
9578.000000;0.620407
9577.000000;0.620244
9576.000000;0.619904
9575.000000;0.619532
9574.000000;0.619202
9573.000000;0.618973
9572.000000;0.618877
9571.000000;0.618875
9570.000000;0.618920
9569.000000;0.619053
9568.000000;0.619338
9567.000000;0.619690
9566.000000;0.619871
9565.000000;0.619708
9564.000000;0.619266
9563.000000;0.618766
9562.000000;0.618396
9561.000000;0.618221
9560.000000;0.618212
9559.000000;0.618270
9558.000000;0.618258
9557.000000;0.618130
9556.000000;0.618024
9555.000000;0.618150
9554.000000;0.618535
9553.000000;0.618960
9552.000000;0.619182
9551.000000;0.619165
9550.000000;0.619052
9549.000000;0.618933
9548.000000;0.618741
9547.000000;0.618382
9546.000000;0.617883
9545.000000;0.617363
9544.000000;0.616899
9543.000000;0.616491
9542.000000;0.616161
9541.000000;0.616014
9540.000000;0.616130
9539.000000;0.616450
9538.000000;0.616803
9537.000000;0.617056
9536.000000;0.617169
9535.000000;0.617132
9534.000000;0.616904
9533.000000;0.616479
9532.000000;0.615982
9531.000000;0.615627
9530.000000;0.615560
9529.000000;0.615731
9528.000000;0.615905
9527.000000;0.615835
9526.000000;0.615477
9525.000000;0.615052
9524.000000;0.614849
9523.000000;0.614933
9522.000000;0.615094
9521.000000;0.615099
9520.000000;0.614956
9519.000000;0.614848
9518.000000;0.614854
9517.000000;0.614866
9516.000000;0.614768
9515.000000;0.614596
9514.000000;0.614452
9513.000000;0.614336
9512.000000;0.614164
9511.000000;0.613919
9510.000000;0.613711
9509.000000;0.613661
9508.000000;0.613776
9507.000000;0.613962
9506.000000;0.614133
9505.000000;0.614302
9504.000000;0.614523
9503.000000;0.614766
9502.000000;0.614877
9501.000000;0.614740
9500.000000;0.614450
9499.000000;0.614251
9498.000000;0.614249
9497.000000;0.614284
9496.000000;0.614149
9495.000000;0.613860
9494.000000;0.613607
9493.000000;0.613464
9492.000000;0.613299
9491.000000;0.613010
9490.000000;0.612733
9489.000000;0.612719
9488.000000;0.613024
9487.000000;0.613421
9486.000000;0.613598
9485.000000;0.613402
9484.000000;0.612923
9483.000000;0.612395
9482.000000;0.612033
9481.000000;0.611886
9480.000000;0.611825
9479.000000;0.611687
9478.000000;0.611447
9477.000000;0.611230
9476.000000;0.611156
9475.000000;0.611242
9474.000000;0.611438
9473.000000;0.611697
9472.000000;0.611961
9471.000000;0.612119
9470.000000;0.612079
9469.000000;0.611876
9468.000000;0.611667
9467.000000;0.611584
9466.000000;0.611602
9465.000000;0.611592
9464.000000;0.611494
9463.000000;0.611406
9462.000000;0.611470
9461.000000;0.611654
9460.000000;0.611718
9459.000000;0.611459
9458.000000;0.610984
9457.000000;0.610639
9456.000000;0.610633
9455.000000;0.610818
9454.000000;0.610895
9453.000000;0.610753
9452.000000;0.610506
9451.000000;0.610275
9450.000000;0.610085
9449.000000;0.609973
9448.000000;0.610008
9447.000000;0.610148
9446.000000;0.610196
9445.000000;0.610026
9444.000000;0.609754
9443.000000;0.609591
9442.000000;0.609561
9441.000000;0.609495
9440.000000;0.609269
9439.000000;0.608954
9438.000000;0.608715
9437.000000;0.608634
9436.000000;0.608655
9435.000000;0.608665
9434.000000;0.608608
9433.000000;0.608566
9432.000000;0.608686
9431.000000;0.608962
9430.000000;0.609140
9429.000000;0.608968
9428.000000;0.608545
9427.000000;0.608258
9426.000000;0.608330
9425.000000;0.608529
9424.000000;0.608456
9423.000000;0.608019
9422.000000;0.607516
9421.000000;0.607282
9420.000000;0.607383
9419.000000;0.607656
9418.000000;0.607920
9417.000000;0.608082
9416.000000;0.608125
9415.000000;0.608056
9414.000000;0.607879
9413.000000;0.607605
9412.000000;0.607280
9411.000000;0.607007
9410.000000;0.606880
9409.000000;0.606888
9408.000000;0.606914
9407.000000;0.606851
9406.000000;0.606705
9405.000000;0.606584
9404.000000;0.606591
9403.000000;0.606714
9402.000000;0.606825
9401.000000;0.606785
9400.000000;0.606597
9399.000000;0.606426
9398.000000;0.606411
9397.000000;0.606483
9396.000000;0.606427
9395.000000;0.606155
9394.000000;0.605825
9393.000000;0.605646
9392.000000;0.605628
9391.000000;0.605613
9390.000000;0.605510
9389.000000;0.605405
9388.000000;0.605422
9387.000000;0.605572
9386.000000;0.605771
9385.000000;0.605933
9384.000000;0.605996
9383.000000;0.605892
9382.000000;0.605600
9381.000000;0.605197
9380.000000;0.604821
9379.000000;0.604538
9378.000000;0.604291
9377.000000;0.603980
9376.000000;0.603600
9375.000000;0.603262
9374.000000;0.603105
9373.000000;0.603182
9372.000000;0.603428
9371.000000;0.603717
9370.000000;0.603944
9369.000000;0.604081
9368.000000;0.604148
9367.000000;0.604145
9366.000000;0.604014
9365.000000;0.603676
9364.000000;0.603135
9363.000000;0.602540
9362.000000;0.602110
9361.000000;0.601969
9360.000000;0.602050
9359.000000;0.602182
9358.000000;0.602264
9357.000000;0.602356
9356.000000;0.602587
9355.000000;0.602987
9354.000000;0.603400
9353.000000;0.603583
9352.000000;0.603411
9351.000000;0.603000
9350.000000;0.602609
9349.000000;0.602403
9348.000000;0.602336
9347.000000;0.602276
9346.000000;0.602190
9345.000000;0.602131
9344.000000;0.602095
9343.000000;0.602005
9342.000000;0.601845
9341.000000;0.601704
9340.000000;0.601647
9339.000000;0.601622
9338.000000;0.601552
9337.000000;0.601438
9336.000000;0.601296
9335.000000;0.601079
9334.000000;0.600790
9333.000000;0.600599
9332.000000;0.600713
9331.000000;0.601095
9330.000000;0.601450
9329.000000;0.601504
9328.000000;0.601251
9327.000000;0.600876
9326.000000;0.600577
9325.000000;0.600477
9324.000000;0.600609
9323.000000;0.600872
9322.000000;0.601058
9321.000000;0.601020
9320.000000;0.600818
9319.000000;0.600611
9318.000000;0.600452
9317.000000;0.600257
9316.000000;0.599986
9315.000000;0.599750
9314.000000;0.599695
9313.000000;0.599834
9312.000000;0.600030
9311.000000;0.600137
9310.000000;0.600105
9309.000000;0.599973
9308.000000;0.599774
9307.000000;0.599492
9306.000000;0.599101
9305.000000;0.598650
9304.000000;0.598277
9303.000000;0.598127
9302.000000;0.598242
9301.000000;0.598513
9300.000000;0.598736
9299.000000;0.598733
9298.000000;0.598483
9297.000000;0.598148
9296.000000;0.597936
9295.000000;0.597923
9294.000000;0.598014
9293.000000;0.598091
9292.000000;0.598124
9291.000000;0.598125
9290.000000;0.598061
9289.000000;0.597890
9288.000000;0.597666
9287.000000;0.597521
9286.000000;0.597532
9285.000000;0.597651
9284.000000;0.597754
9283.000000;0.597734
9282.000000;0.597549
9281.000000;0.597267
9280.000000;0.597054
9279.000000;0.597051
9278.000000;0.597225
9277.000000;0.597395
9276.000000;0.597441
9275.000000;0.597434
9274.000000;0.597503
9273.000000;0.597629
9272.000000;0.597642
9271.000000;0.597406
9270.000000;0.596964
9269.000000;0.596483
9268.000000;0.596122
9267.000000;0.595950
9266.000000;0.595946
9265.000000;0.596011
9264.000000;0.596014
9263.000000;0.595865
9262.000000;0.595587
9261.000000;0.595310
9260.000000;0.595166
9259.000000;0.595187
9258.000000;0.595298
9257.000000;0.595415
9256.000000;0.595532
9255.000000;0.595693
9254.000000;0.595901
9253.000000;0.596086
9252.000000;0.596180
9251.000000;0.596166
9250.000000;0.596022
9249.000000;0.595693
9248.000000;0.595195
9247.000000;0.594706
9246.000000;0.594453
9245.000000;0.594464
9244.000000;0.594509
9243.000000;0.594344
9242.000000;0.593974
9241.000000;0.593635
9240.000000;0.593556
9239.000000;0.593793
9238.000000;0.594213
9237.000000;0.594577
9236.000000;0.594662
9235.000000;0.594414
9234.000000;0.593991
9233.000000;0.593593
9232.000000;0.593279
9231.000000;0.593022
9230.000000;0.592895
9229.000000;0.593034
9228.000000;0.593368
9227.000000;0.593588
9226.000000;0.593501
9225.000000;0.593315
9224.000000;0.593399
9223.000000;0.593798
9222.000000;0.594145
9221.000000;0.594068
9220.000000;0.593547
9219.000000;0.592848
9218.000000;0.592257
9217.000000;0.591921
9216.000000;0.591856
9215.000000;0.591997
9214.000000;0.592269
9213.000000;0.592640
9212.000000;0.593066
9211.000000;0.593382
9210.000000;0.593354
9209.000000;0.592921
9208.000000;0.592310
9207.000000;0.591828
9206.000000;0.591575
9205.000000;0.591427
9204.000000;0.591274
9203.000000;0.591162
9202.000000;0.591198
9201.000000;0.591382
9200.000000;0.591584
9199.000000;0.591655
9198.000000;0.591565
9197.000000;0.591437
9196.000000;0.591435
9195.000000;0.591575
9194.000000;0.591674
9193.000000;0.591530
9192.000000;0.591142
9191.000000;0.590719
9190.000000;0.590476
9189.000000;0.590466
9188.000000;0.590589
9187.000000;0.590707
9186.000000;0.590743
9185.000000;0.590716
9184.000000;0.590701
9183.000000;0.590723
9182.000000;0.590705
9181.000000;0.590569
9180.000000;0.590382
9179.000000;0.590308
9178.000000;0.590401
9177.000000;0.590520
9176.000000;0.590502
9175.000000;0.590336
9174.000000;0.590112
9173.000000;0.589867
9172.000000;0.589579
9171.000000;0.589279
9170.000000;0.589052
9169.000000;0.588913
9168.000000;0.588802
9167.000000;0.588717
9166.000000;0.588751
9165.000000;0.588933
9164.000000;0.589115
9163.000000;0.589136
9162.000000;0.589026
9161.000000;0.588960
9160.000000;0.588994
9159.000000;0.588985
9158.000000;0.588800
9157.000000;0.588486
9156.000000;0.588208
9155.000000;0.588053
9154.000000;0.587978
9153.000000;0.587892
9152.000000;0.587723
9151.000000;0.587454
9150.000000;0.587148
9149.000000;0.586939
9148.000000;0.586925
9147.000000;0.587068
9146.000000;0.587238
9145.000000;0.587347
9144.000000;0.587378
9143.000000;0.587323
9142.000000;0.587174
9141.000000;0.586990
9140.000000;0.586878
9139.000000;0.586890
9138.000000;0.586976
9137.000000;0.587057
9136.000000;0.587102
9135.000000;0.587105
9134.000000;0.587061
9133.000000;0.586999
9132.000000;0.586987
9131.000000;0.587043
9130.000000;0.587063
9129.000000;0.586920
9128.000000;0.586614
9127.000000;0.586295
9126.000000;0.586115
9125.000000;0.586074
9124.000000;0.586026
9123.000000;0.585825
9122.000000;0.585487
9121.000000;0.585200
9120.000000;0.585139
9119.000000;0.585298
9118.000000;0.585529
9117.000000;0.585725
9116.000000;0.585895
9115.000000;0.586031
9114.000000;0.586019
9113.000000;0.585761
9112.000000;0.585327
9111.000000;0.584899
9110.000000;0.584611
9109.000000;0.584502
9108.000000;0.584574
9107.000000;0.584774
9106.000000;0.584944
9105.000000;0.584903
9104.000000;0.584646
9103.000000;0.584353
9102.000000;0.584198
9101.000000;0.584185
9100.000000;0.584221
9099.000000;0.584254
9098.000000;0.584272
9097.000000;0.584247
9096.000000;0.584146
9095.000000;0.583981
9094.000000;0.583771
9093.000000;0.583482
9092.000000;0.583094
9091.000000;0.582731
9090.000000;0.582625
9089.000000;0.582891
9088.000000;0.583375
9087.000000;0.583778
9086.000000;0.583912
9085.000000;0.583799
9084.000000;0.583554
9083.000000;0.583262
9082.000000;0.582983
9081.000000;0.582807
9080.000000;0.582791
9079.000000;0.582860
9078.000000;0.582839
9077.000000;0.582619
9076.000000;0.582257
9075.000000;0.581898
9074.000000;0.581627
9073.000000;0.581448
9072.000000;0.581347
9071.000000;0.581306
9070.000000;0.581254
9069.000000;0.581104
9068.000000;0.580872
9067.000000;0.580730
9066.000000;0.580873
9065.000000;0.581311
9064.000000;0.581811
9063.000000;0.582063
9062.000000;0.581925
9061.000000;0.581519
9060.000000;0.581098
9059.000000;0.580831
9058.000000;0.580716
9057.000000;0.580666
9056.000000;0.580623
9055.000000;0.580573
9054.000000;0.580513
9053.000000;0.580457
9052.000000;0.580443
9051.000000;0.580479
9050.000000;0.580482
9049.000000;0.580355
9048.000000;0.580121
9047.000000;0.579918
9046.000000;0.579844
9045.000000;0.579859
9044.000000;0.579871
9043.000000;0.579854
9042.000000;0.579838
9041.000000;0.579838
9040.000000;0.579845
9039.000000;0.579871
9038.000000;0.579925
9037.000000;0.579962
9036.000000;0.579909
9035.000000;0.579752
9034.000000;0.579551
9033.000000;0.579355
9032.000000;0.579163
9031.000000;0.578974
9030.000000;0.578840
9029.000000;0.578810
9028.000000;0.578872
9027.000000;0.578961
9026.000000;0.579032
9025.000000;0.579087
9024.000000;0.579125
9023.000000;0.579101
9022.000000;0.578962
9021.000000;0.578718
9020.000000;0.578453
9019.000000;0.578246
9018.000000;0.578093
9017.000000;0.577919
9016.000000;0.577683
9015.000000;0.577456
9014.000000;0.577380
9013.000000;0.577538
9012.000000;0.577868
9011.000000;0.578180
9010.000000;0.578282
9009.000000;0.578112
9008.000000;0.577777
9007.000000;0.577472
9006.000000;0.577328
9005.000000;0.577359
9004.000000;0.577511
9003.000000;0.577732
9002.000000;0.577931
9001.000000;0.577947
9000.000000;0.577647
8999.000000;0.577109
8998.000000;0.576625
8997.000000;0.576444
8996.000000;0.576539
8995.000000;0.576650
8994.000000;0.576568
8993.000000;0.576328
8992.000000;0.576140
8991.000000;0.576156
8990.000000;0.576303
8989.000000;0.576339
8988.000000;0.576101
8987.000000;0.575704
8986.000000;0.575456
8985.000000;0.575547
8984.000000;0.575850
8983.000000;0.576093
8982.000000;0.576152
8981.000000;0.576119
8980.000000;0.576094
8979.000000;0.576045
8978.000000;0.575913
8977.000000;0.575735
8976.000000;0.575588
8975.000000;0.575475
8974.000000;0.575353
8973.000000;0.575234
8972.000000;0.575164
8971.000000;0.575121
8970.000000;0.575014
8969.000000;0.574809
8968.000000;0.574582
8967.000000;0.574425
8966.000000;0.574353
8965.000000;0.574357
8964.000000;0.574458
8963.000000;0.574671
8962.000000;0.574919
8961.000000;0.575078
8960.000000;0.575091
8959.000000;0.575006
8958.000000;0.574878
8957.000000;0.574690
8956.000000;0.574397
8955.000000;0.574042
8954.000000;0.573764
8953.000000;0.573679
8952.000000;0.573782
8951.000000;0.573972
8950.000000;0.574154
8949.000000;0.574289
8948.000000;0.574345
8947.000000;0.574264
8946.000000;0.573989
8945.000000;0.573536
8944.000000;0.573023
8943.000000;0.572622
8942.000000;0.572455
8941.000000;0.572500
8940.000000;0.572606
8939.000000;0.572642
8938.000000;0.572620
8937.000000;0.572644
8936.000000;0.572755
8935.000000;0.572868
8934.000000;0.572881
8933.000000;0.572781
8932.000000;0.572613
8931.000000;0.572401
8930.000000;0.572185
8929.000000;0.572055
8928.000000;0.572088
8927.000000;0.572240
8926.000000;0.572385
8925.000000;0.572443
8924.000000;0.572437
8923.000000;0.572411
8922.000000;0.572371
8921.000000;0.572312
8920.000000;0.572253
8919.000000;0.572218
8918.000000;0.572221
8917.000000;0.572262
8916.000000;0.572298
8915.000000;0.572213
8914.000000;0.571896
8913.000000;0.571380
8912.000000;0.570875
8911.000000;0.570600
8910.000000;0.570604
8909.000000;0.570762
8908.000000;0.570903
8907.000000;0.570933
8906.000000;0.570873
8905.000000;0.570821
8904.000000;0.570851
8903.000000;0.570945
8902.000000;0.571027
8901.000000;0.571073
8900.000000;0.571136
8899.000000;0.571229
8898.000000;0.571249
8897.000000;0.571088
8896.000000;0.570773
8895.000000;0.570447
8894.000000;0.570220
8893.000000;0.570109
8892.000000;0.570088
8891.000000;0.570126
8890.000000;0.570161
8889.000000;0.570104
8888.000000;0.569924
8887.000000;0.569715
8886.000000;0.569623
8885.000000;0.569722
8884.000000;0.569948
8883.000000;0.570145
8882.000000;0.570186
8881.000000;0.570064
8880.000000;0.569871
8879.000000;0.569695
8878.000000;0.569520
8877.000000;0.569273
8876.000000;0.568949
8875.000000;0.568665
8874.000000;0.568565
8873.000000;0.568665
8872.000000;0.568813
8871.000000;0.568800
8870.000000;0.568522
8869.000000;0.568079
8868.000000;0.567722
8867.000000;0.567662
8866.000000;0.567913
8865.000000;0.568307
8864.000000;0.568654
8863.000000;0.568870
8862.000000;0.568948
8861.000000;0.568865
8860.000000;0.568587
8859.000000;0.568172
8858.000000;0.567802
8857.000000;0.567646
8856.000000;0.567710
8855.000000;0.567840
8854.000000;0.567870
8853.000000;0.567751
8852.000000;0.567549
8851.000000;0.567349
8850.000000;0.567204
8849.000000;0.567130
8848.000000;0.567129
8847.000000;0.567190
8846.000000;0.567268
8845.000000;0.567285
8844.000000;0.567167
8843.000000;0.566918
8842.000000;0.566644
8841.000000;0.566478
8840.000000;0.566472
8839.000000;0.566582
8838.000000;0.566726
8837.000000;0.566848
8836.000000;0.566919
8835.000000;0.566951
8834.000000;0.567009
8833.000000;0.567152
8832.000000;0.567310
8831.000000;0.567306
8830.000000;0.567058
8829.000000;0.566701
8828.000000;0.566424
8827.000000;0.566239
8826.000000;0.566032
8825.000000;0.565812
8824.000000;0.565746
8823.000000;0.565906
8822.000000;0.566122
8821.000000;0.566186
8820.000000;0.566115
8819.000000;0.566084
8818.000000;0.566168
8817.000000;0.566273
8816.000000;0.566319
8815.000000;0.566340
8814.000000;0.566387
8813.000000;0.566428
8812.000000;0.566376
8811.000000;0.566167
8810.000000;0.565784
8809.000000;0.565283
8808.000000;0.564827
8807.000000;0.564606
8806.000000;0.564668
8805.000000;0.564863
8804.000000;0.564998
8803.000000;0.565004
8802.000000;0.564909
8801.000000;0.564742
8800.000000;0.564531
8799.000000;0.564365
8798.000000;0.564332
8797.000000;0.564390
8796.000000;0.564405
8795.000000;0.564328
8794.000000;0.564261
8793.000000;0.564307
8792.000000;0.564436
8791.000000;0.564556
8790.000000;0.564662
8789.000000;0.564829
8788.000000;0.565070
8787.000000;0.565263
8786.000000;0.565235
8785.000000;0.564919
8784.000000;0.564421
8783.000000;0.563955
8782.000000;0.563701
8781.000000;0.563673
8780.000000;0.563741
8779.000000;0.563766
8778.000000;0.563716
8777.000000;0.563646
8776.000000;0.563604
8775.000000;0.563597
8774.000000;0.563619
8773.000000;0.563676
8772.000000;0.563771
8771.000000;0.563898
8770.000000;0.564023
8769.000000;0.564086
8768.000000;0.564041
8767.000000;0.563931
8766.000000;0.563858
8765.000000;0.563846
8764.000000;0.563780
8763.000000;0.563569
8762.000000;0.563332
8761.000000;0.563295
8760.000000;0.563506
8759.000000;0.563764
8758.000000;0.563847
8757.000000;0.563746
8756.000000;0.563601
8755.000000;0.563498
8754.000000;0.563419
8753.000000;0.563315
8752.000000;0.563166
8751.000000;0.562982
8750.000000;0.562828
8749.000000;0.562795
8748.000000;0.562910
8747.000000;0.563086
8746.000000;0.563221
8745.000000;0.563299
8744.000000;0.563341
8743.000000;0.563306
8742.000000;0.563123
8741.000000;0.562839
8740.000000;0.562628
8739.000000;0.562617
8738.000000;0.562757
8737.000000;0.562897
8736.000000;0.562929
8735.000000;0.562847
8734.000000;0.562696
8733.000000;0.562512
8732.000000;0.562316
8731.000000;0.562136
8730.000000;0.562026
8729.000000;0.562044
8728.000000;0.562190
8727.000000;0.562381
8726.000000;0.562519
8725.000000;0.562561
8724.000000;0.562529
8723.000000;0.562471
8722.000000;0.562417
8721.000000;0.562352
8720.000000;0.562213
8719.000000;0.561946
8718.000000;0.561599
8717.000000;0.561315
8716.000000;0.561201
8715.000000;0.561237
8714.000000;0.561336
8713.000000;0.561450
8712.000000;0.561552
8711.000000;0.561577
8710.000000;0.561485
8709.000000;0.561356
8708.000000;0.561328
8707.000000;0.561428
8706.000000;0.561549
8705.000000;0.561586
8704.000000;0.561533
8703.000000;0.561423
8702.000000;0.561283
8701.000000;0.561166
8700.000000;0.561160
8699.000000;0.561300
8698.000000;0.561503
8697.000000;0.561649
8696.000000;0.561682
8695.000000;0.561635
8694.000000;0.561591
8693.000000;0.561637
8692.000000;0.561795
8691.000000;0.561949
8690.000000;0.561905
8689.000000;0.561598
8688.000000;0.561186
8687.000000;0.560909
8686.000000;0.560868
8685.000000;0.560975
8684.000000;0.561081
8683.000000;0.561101
8682.000000;0.561025
8681.000000;0.560882
8680.000000;0.560710
8679.000000;0.560548
8678.000000;0.560436
8677.000000;0.560398
8676.000000;0.560421
8675.000000;0.560437
8674.000000;0.560376
8673.000000;0.560236
8672.000000;0.560093
8671.000000;0.560020
8670.000000;0.560017
8669.000000;0.560038
8668.000000;0.560047
8667.000000;0.560017
8666.000000;0.559911
8665.000000;0.559715
8664.000000;0.559478
8663.000000;0.559285
8662.000000;0.559179
8661.000000;0.559126
8660.000000;0.559056
8659.000000;0.558924
8658.000000;0.558732
8657.000000;0.558527
8656.000000;0.558382
8655.000000;0.558349
8654.000000;0.558408
8653.000000;0.558474
8652.000000;0.558480
8651.000000;0.558460
8650.000000;0.558494
8649.000000;0.558567
8648.000000;0.558528
8647.000000;0.558256
8646.000000;0.557837
8645.000000;0.557502
8644.000000;0.557388
8643.000000;0.557428
8642.000000;0.557500
8641.000000;0.557577
8640.000000;0.557669
8639.000000;0.557694
8638.000000;0.557519
8637.000000;0.557136
8636.000000;0.556717
8635.000000;0.556456
8634.000000;0.556422
8633.000000;0.556537
8632.000000;0.556670
8631.000000;0.556731
8630.000000;0.556728
8629.000000;0.556727
8628.000000;0.556737
8627.000000;0.556648
8626.000000;0.556343
8625.000000;0.555864
8624.000000;0.555414
8623.000000;0.555165
8622.000000;0.555113
8621.000000;0.555112
8620.000000;0.555020
8619.000000;0.554804
8618.000000;0.554552
8617.000000;0.554390
8616.000000;0.554375
8615.000000;0.554454
8614.000000;0.554552
8613.000000;0.554646
8612.000000;0.554722
8611.000000;0.554694
8610.000000;0.554474
8609.000000;0.554114
8608.000000;0.553785
8607.000000;0.553595
8606.000000;0.553509
8605.000000;0.553457
8604.000000;0.553436
8603.000000;0.553467
8602.000000;0.553514
8601.000000;0.553500
8600.000000;0.553367
8599.000000;0.553100
8598.000000;0.552745
8597.000000;0.552415
8596.000000;0.552214
8595.000000;0.552121
8594.000000;0.552024
8593.000000;0.551872
8592.000000;0.551729
8591.000000;0.551651
8590.000000;0.551600
8589.000000;0.551529
8588.000000;0.551457
8587.000000;0.551403
8586.000000;0.551301
8585.000000;0.551104
8584.000000;0.550891
8583.000000;0.550798
8582.000000;0.550837
8581.000000;0.550889
8580.000000;0.550864
8579.000000;0.550783
8578.000000;0.550714
8577.000000;0.550682
8576.000000;0.550662
8575.000000;0.550610
8574.000000;0.550485
8573.000000;0.550273
8572.000000;0.550017
8571.000000;0.549788
8570.000000;0.549614
8569.000000;0.549473
8568.000000;0.549340
8567.000000;0.549211
8566.000000;0.549077
8565.000000;0.548919
8564.000000;0.548749
8563.000000;0.548625
8562.000000;0.548579
8561.000000;0.548555
8560.000000;0.548452
8559.000000;0.548247
8558.000000;0.548034
8557.000000;0.547903
8556.000000;0.547818
8555.000000;0.547664
8554.000000;0.547417
8553.000000;0.547209
8552.000000;0.547174
8551.000000;0.547283
8550.000000;0.547377
8549.000000;0.547347
8548.000000;0.547216
8547.000000;0.547062
8546.000000;0.546930
8545.000000;0.546830
8544.000000;0.546766
8543.000000;0.546722
8542.000000;0.546664
8541.000000;0.546567
8540.000000;0.546444
8539.000000;0.546317
8538.000000;0.546213
8537.000000;0.546144
8536.000000;0.546085
8535.000000;0.545975
8534.000000;0.545779
8533.000000;0.545554
8532.000000;0.545391
8531.000000;0.545303
8530.000000;0.545218
8529.000000;0.545074
8528.000000;0.544872
8527.000000;0.544635
8526.000000;0.544389
8525.000000;0.544192
8524.000000;0.544106
8523.000000;0.544113
8522.000000;0.544115
8521.000000;0.544041
8520.000000;0.543911
8519.000000;0.543783
8518.000000;0.543687
8517.000000;0.543626
8516.000000;0.543574
8515.000000;0.543463
8514.000000;0.543234
8513.000000;0.542934
8512.000000;0.542685
8511.000000;0.542545
8510.000000;0.542461
8509.000000;0.542392
8508.000000;0.542382
8507.000000;0.542462
8506.000000;0.542549
8505.000000;0.542530
8504.000000;0.542396
8503.000000;0.542222
8502.000000;0.542051
8501.000000;0.541877
8500.000000;0.541694
8499.000000;0.541502
8498.000000;0.541296
8497.000000;0.541098
8496.000000;0.540983
8495.000000;0.540994
8494.000000;0.541064
8493.000000;0.541078
8492.000000;0.541008
8491.000000;0.540911
8490.000000;0.540817
8489.000000;0.540688
8488.000000;0.540493
8487.000000;0.540284
8486.000000;0.540146
8485.000000;0.540095
8484.000000;0.540066
8483.000000;0.539986
8482.000000;0.539859
8481.000000;0.539749
8480.000000;0.539691
8479.000000;0.539633
8478.000000;0.539508
8477.000000;0.539332
8476.000000;0.539184
8475.000000;0.539092
8474.000000;0.538996
8473.000000;0.538851
8472.000000;0.538686
8471.000000;0.538556
8470.000000;0.538470
8469.000000;0.538402
8468.000000;0.538334
8467.000000;0.538250
8466.000000;0.538154
8465.000000;0.538088
8464.000000;0.538098
8463.000000;0.538132
8462.000000;0.538059
8461.000000;0.537829
8460.000000;0.537567
8459.000000;0.537444
8458.000000;0.537475
8457.000000;0.537528
8456.000000;0.537482
8455.000000;0.537322
8454.000000;0.537106
8453.000000;0.536899
8452.000000;0.536734
8451.000000;0.536597
8450.000000;0.536455
8449.000000;0.536309
8448.000000;0.536206
8447.000000;0.536163
8446.000000;0.536124
8445.000000;0.536024
8444.000000;0.535887
8443.000000;0.535800
8442.000000;0.535806
8441.000000;0.535849
8440.000000;0.535816
8439.000000;0.535642
8438.000000;0.535375
8437.000000;0.535151
8436.000000;0.535052
8435.000000;0.535014
8434.000000;0.534920
8433.000000;0.534773
8432.000000;0.534693
8431.000000;0.534724
8430.000000;0.534745
8429.000000;0.534636
8428.000000;0.534442
8427.000000;0.534286
8426.000000;0.534203
8425.000000;0.534147
8424.000000;0.534106
8423.000000;0.534097
8422.000000;0.534081
8421.000000;0.533974
8420.000000;0.533759
8419.000000;0.533508
8418.000000;0.533308
8417.000000;0.533204
8416.000000;0.533187
8415.000000;0.533186
8414.000000;0.533101
8413.000000;0.532901
8412.000000;0.532683
8411.000000;0.532572
8410.000000;0.532572
8409.000000;0.532581
8408.000000;0.532521
8407.000000;0.532395
8406.000000;0.532231
8405.000000;0.532042
8404.000000;0.531862
8403.000000;0.531740
8402.000000;0.531694
8401.000000;0.531684
8400.000000;0.531655
8399.000000;0.531555
8398.000000;0.531355
8397.000000;0.531090
8396.000000;0.530867
8395.000000;0.530788
8394.000000;0.530859
8393.000000;0.531014
8392.000000;0.531181
8391.000000;0.531307
8390.000000;0.531321
8389.000000;0.531172
8388.000000;0.530891
8387.000000;0.530584
8386.000000;0.530361
8385.000000;0.530279
8384.000000;0.530325
8383.000000;0.530412
8382.000000;0.530421
8381.000000;0.530289
8380.000000;0.530059
8379.000000;0.529805
8378.000000;0.529571
8377.000000;0.529387
8376.000000;0.529301
8375.000000;0.529320
8374.000000;0.529361
8373.000000;0.529336
8372.000000;0.529258
8371.000000;0.529182
8370.000000;0.529107
8369.000000;0.528990
8368.000000;0.528838
8367.000000;0.528690
8366.000000;0.528531
8365.000000;0.528321
8364.000000;0.528109
8363.000000;0.528001
8362.000000;0.528020
8361.000000;0.528071
8360.000000;0.528048
8359.000000;0.527933
8358.000000;0.527766
8357.000000;0.527607
8356.000000;0.527517
8355.000000;0.527508
8354.000000;0.527489
8353.000000;0.527357
8352.000000;0.527151
8351.000000;0.527028
8350.000000;0.527056
8349.000000;0.527122
8348.000000;0.527071
8347.000000;0.526881
8346.000000;0.526648
8345.000000;0.526449
8344.000000;0.526293
8343.000000;0.526170
8342.000000;0.526084
8341.000000;0.526036
8340.000000;0.526000
8339.000000;0.525940
8338.000000;0.525848
8337.000000;0.525768
8336.000000;0.525745
8335.000000;0.525737
8334.000000;0.525629
8333.000000;0.525389
8332.000000;0.525157
8331.000000;0.525102
8330.000000;0.525203
8329.000000;0.525274
8328.000000;0.525205
8327.000000;0.525074
8326.000000;0.524998
8325.000000;0.524962
8324.000000;0.524875
8323.000000;0.524713
8322.000000;0.524529
8321.000000;0.524368
8320.000000;0.524231
8319.000000;0.524114
8318.000000;0.524033
8317.000000;0.523993
8316.000000;0.523956
8315.000000;0.523860
8314.000000;0.523676
8313.000000;0.523451
8312.000000;0.523282
8311.000000;0.523206
8310.000000;0.523157
8309.000000;0.523055
8308.000000;0.522935
8307.000000;0.522912
8306.000000;0.523021
8305.000000;0.523164
8304.000000;0.523231
8303.000000;0.523211
8302.000000;0.523143
8301.000000;0.523033
8300.000000;0.522878
8299.000000;0.522721
8298.000000;0.522619
8297.000000;0.522554
8296.000000;0.522443
8295.000000;0.522234
8294.000000;0.521969
8293.000000;0.521737
8292.000000;0.521605
8291.000000;0.521587
8290.000000;0.521643
8289.000000;0.521707
8288.000000;0.521700
8287.000000;0.521580
8286.000000;0.521381
8285.000000;0.521204
8284.000000;0.521129
8283.000000;0.521131
8282.000000;0.521108
8281.000000;0.521003
8280.000000;0.520863
8279.000000;0.520760
8278.000000;0.520690
8277.000000;0.520590
8276.000000;0.520429
8275.000000;0.520240
8274.000000;0.520071
8273.000000;0.519955
8272.000000;0.519897
8271.000000;0.519854
8270.000000;0.519750
8269.000000;0.519561
8268.000000;0.519364
8267.000000;0.519260
8266.000000;0.519273
8265.000000;0.519362
8264.000000;0.519504
8263.000000;0.519687
8262.000000;0.519837
8261.000000;0.519843
8260.000000;0.519676
8259.000000;0.519428
8258.000000;0.519225
8257.000000;0.519130
8256.000000;0.519129
8255.000000;0.519136
8254.000000;0.519041
8253.000000;0.518809
8252.000000;0.518540
8251.000000;0.518356
8250.000000;0.518259
8249.000000;0.518163
8248.000000;0.518042
8247.000000;0.517938
8246.000000;0.517843
8245.000000;0.517691
8244.000000;0.517503
8243.000000;0.517411
8242.000000;0.517463
8241.000000;0.517526
8240.000000;0.517447
8239.000000;0.517259
8238.000000;0.517119
8237.000000;0.517108
8236.000000;0.517166
8235.000000;0.517197
8234.000000;0.517150
8233.000000;0.517035
8232.000000;0.516902
8231.000000;0.516822
8230.000000;0.516815
8229.000000;0.516824
8228.000000;0.516772
8227.000000;0.516645
8226.000000;0.516478
8225.000000;0.516315
8224.000000;0.516192
8223.000000;0.516138
8222.000000;0.516144
8221.000000;0.516164
8220.000000;0.516166
8219.000000;0.516154
8218.000000;0.516105
8217.000000;0.515955
8216.000000;0.515699
8215.000000;0.515441
8214.000000;0.515301
8213.000000;0.515274
8212.000000;0.515251
8211.000000;0.515150
8210.000000;0.514988
8209.000000;0.514839
8208.000000;0.514780
8207.000000;0.514836
8206.000000;0.514941
8205.000000;0.514966
8204.000000;0.514835
8203.000000;0.514611
8202.000000;0.514420
8201.000000;0.514320
8200.000000;0.514288
8199.000000;0.514291
8198.000000;0.514297
8197.000000;0.514251
8196.000000;0.514094
8195.000000;0.513852
8194.000000;0.513625
8193.000000;0.513498
8192.000000;0.513469
8191.000000;0.513480
8190.000000;0.513474
8189.000000;0.513432
8188.000000;0.513369
8187.000000;0.513307
8186.000000;0.513241
8185.000000;0.513138
8184.000000;0.512987
8183.000000;0.512830
8182.000000;0.512711
8181.000000;0.512636
8180.000000;0.512603
8179.000000;0.512627
8178.000000;0.512697
8177.000000;0.512738
8176.000000;0.512673
8175.000000;0.512504
8174.000000;0.512274
8173.000000;0.512002
8172.000000;0.511732
8171.000000;0.511583
8170.000000;0.511657
8169.000000;0.511867
8168.000000;0.511993
8167.000000;0.511914
8166.000000;0.511724
8165.000000;0.511570
8164.000000;0.511477
8163.000000;0.511389
8162.000000;0.511301
8161.000000;0.511259
8160.000000;0.511263
8159.000000;0.511258
8158.000000;0.511201
8157.000000;0.511093
8156.000000;0.510944
8155.000000;0.510760
8154.000000;0.510562
8153.000000;0.510400
8152.000000;0.510311
8151.000000;0.510299
8150.000000;0.510341
8149.000000;0.510394
8148.000000;0.510401
8147.000000;0.510319
8146.000000;0.510160
8145.000000;0.510001
8144.000000;0.509934
8143.000000;0.509998
8142.000000;0.510136
8141.000000;0.510223
8140.000000;0.510155
8139.000000;0.509929
8138.000000;0.509638
8137.000000;0.509393
8136.000000;0.509263
8135.000000;0.509262
8134.000000;0.509338
8133.000000;0.509380
8132.000000;0.509282
8131.000000;0.509053
8130.000000;0.508828
8129.000000;0.508734
8128.000000;0.508760
8127.000000;0.508795
8126.000000;0.508766
8125.000000;0.508684
8124.000000;0.508581
8123.000000;0.508465
8122.000000;0.508345
8121.000000;0.508259
8120.000000;0.508230
8119.000000;0.508231
8118.000000;0.508225
8117.000000;0.508206
8116.000000;0.508187
8115.000000;0.508158
8114.000000;0.508077
8113.000000;0.507904
8112.000000;0.507656
8111.000000;0.507419
8110.000000;0.507304
8109.000000;0.507349
8108.000000;0.507460
8107.000000;0.507494
8106.000000;0.507411
8105.000000;0.507313
8104.000000;0.507302
8103.000000;0.507339
8102.000000;0.507293
8101.000000;0.507117
8100.000000;0.506923
8099.000000;0.506862
8098.000000;0.506949
8097.000000;0.507050
8096.000000;0.507018
8095.000000;0.506834
8094.000000;0.506604
8093.000000;0.506437
8092.000000;0.506334
8091.000000;0.506220
8090.000000;0.506063
8089.000000;0.505930
8088.000000;0.505899
8087.000000;0.505951
8086.000000;0.505989
8085.000000;0.505948
8084.000000;0.505856
8083.000000;0.505780
8082.000000;0.505756
8081.000000;0.505771
8080.000000;0.505792
8079.000000;0.505777
8078.000000;0.505693
8077.000000;0.505543
8076.000000;0.505366
8075.000000;0.505200
8074.000000;0.505061
8073.000000;0.504954
8072.000000;0.504881
8071.000000;0.504848
8070.000000;0.504862
8069.000000;0.504926
8068.000000;0.505006
8067.000000;0.505007
8066.000000;0.504856
8065.000000;0.504622
8064.000000;0.504483
8063.000000;0.504536
8062.000000;0.504664
8061.000000;0.504672
8060.000000;0.504519
8059.000000;0.504335
8058.000000;0.504232
8057.000000;0.504179
8056.000000;0.504085
8055.000000;0.503927
8054.000000;0.503748
8053.000000;0.503577
8052.000000;0.503424
8051.000000;0.503327
8050.000000;0.503328
8049.000000;0.503404
8048.000000;0.503462
8047.000000;0.503433
8046.000000;0.503345
8045.000000;0.503289
8044.000000;0.503306
8043.000000;0.503350
8042.000000;0.503331
8041.000000;0.503211
8040.000000;0.503023
8039.000000;0.502832
8038.000000;0.502674
8037.000000;0.502559
8036.000000;0.502488
8035.000000;0.502452
8034.000000;0.502427
8033.000000;0.502391
8032.000000;0.502357
8031.000000;0.502342
8030.000000;0.502331
8029.000000;0.502283
8028.000000;0.502198
8027.000000;0.502129
8026.000000;0.502108
8025.000000;0.502109
8024.000000;0.502094
8023.000000;0.502061
8022.000000;0.502022
8021.000000;0.501958
8020.000000;0.501844
8019.000000;0.501714
8018.000000;0.501632
8017.000000;0.501607
8016.000000;0.501584
8015.000000;0.501533
8014.000000;0.501500
8013.000000;0.501530
8012.000000;0.501578
8011.000000;0.501541
8010.000000;0.501374
8009.000000;0.501142
8008.000000;0.500947
8007.000000;0.500836
8006.000000;0.500791
8005.000000;0.500779
8004.000000;0.500782
8003.000000;0.500782
8002.000000;0.500746
8001.000000;0.500634
8000.000000;0.500449
7999.000000;0.500254
7998.000000;0.500124
7997.000000;0.500072
7996.000000;0.500042
7995.000000;0.499986
7994.000000;0.499927
7993.000000;0.499912
7992.000000;0.499923
7991.000000;0.499873
7990.000000;0.499719
7989.000000;0.499531
7988.000000;0.499426
7987.000000;0.499455
7986.000000;0.499576
7985.000000;0.499722
7984.000000;0.499840
7983.000000;0.499881
7982.000000;0.499802
7981.000000;0.499620
7980.000000;0.499416
7979.000000;0.499265
7978.000000;0.499169
7977.000000;0.499086
7976.000000;0.499006
7975.000000;0.498949
7974.000000;0.498913
7973.000000;0.498864
7972.000000;0.498789
7971.000000;0.498728
7970.000000;0.498731
7969.000000;0.498791
7968.000000;0.498843
7967.000000;0.498817
7966.000000;0.498696
7965.000000;0.498513
7964.000000;0.498322
7963.000000;0.498165
7962.000000;0.498059
7961.000000;0.498008
7960.000000;0.498013
7959.000000;0.498052
7958.000000;0.498079
7957.000000;0.498042
7956.000000;0.497930
7955.000000;0.497780
7954.000000;0.497641
7953.000000;0.497548
7952.000000;0.497504
7951.000000;0.497490
7950.000000;0.497458
7949.000000;0.497351
7948.000000;0.497152
7947.000000;0.496921
7946.000000;0.496757
7945.000000;0.496710
7944.000000;0.496736
7943.000000;0.496736
7942.000000;0.496656
7941.000000;0.496536
7940.000000;0.496465
7939.000000;0.496485
7938.000000;0.496549
7937.000000;0.496567
7936.000000;0.496490
7935.000000;0.496336
7934.000000;0.496157
7933.000000;0.496012
7932.000000;0.495941
7931.000000;0.495942
7930.000000;0.495950
7929.000000;0.495894
7928.000000;0.495771
7927.000000;0.495650
7926.000000;0.495589
7925.000000;0.495575
7924.000000;0.495572
7923.000000;0.495588
7922.000000;0.495637
7921.000000;0.495671
7920.000000;0.495618
7919.000000;0.495479
7918.000000;0.495336
7917.000000;0.495249
7916.000000;0.495190
7915.000000;0.495111
7914.000000;0.495030
7913.000000;0.494996
7912.000000;0.495012
7911.000000;0.495020
7910.000000;0.494974
7909.000000;0.494878
7908.000000;0.494765
7907.000000;0.494664
7906.000000;0.494585
7905.000000;0.494518
7904.000000;0.494440
7903.000000;0.494353
7902.000000;0.494296
7901.000000;0.494306
7900.000000;0.494356
7899.000000;0.494365
7898.000000;0.494267
7897.000000;0.494063
7896.000000;0.493818
7895.000000;0.493627
7894.000000;0.493557
7893.000000;0.493599
7892.000000;0.493678
7891.000000;0.493725
7890.000000;0.493734
7889.000000;0.493720
7888.000000;0.493671
7887.000000;0.493569
7886.000000;0.493450
7885.000000;0.493379
7884.000000;0.493349
7883.000000;0.493278
7882.000000;0.493126
7881.000000;0.492948
7880.000000;0.492824
7879.000000;0.492757
7878.000000;0.492700
7877.000000;0.492629
7876.000000;0.492559
7875.000000;0.492517
7874.000000;0.492517
7873.000000;0.492557
7872.000000;0.492596
7871.000000;0.492575
7870.000000;0.492483
7869.000000;0.492370
7868.000000;0.492273
7867.000000;0.492172
7866.000000;0.492050
7865.000000;0.491957
7864.000000;0.491945
7863.000000;0.491983
7862.000000;0.491983
7861.000000;0.491916
7860.000000;0.491825
7859.000000;0.491737
7858.000000;0.491648
7857.000000;0.491580
7856.000000;0.491588
7855.000000;0.491675
7854.000000;0.491751
7853.000000;0.491730
7852.000000;0.491627
7851.000000;0.491530
7850.000000;0.491485
7849.000000;0.491466
7848.000000;0.491426
7847.000000;0.491362
7846.000000;0.491300
7845.000000;0.491249
7844.000000;0.491178
7843.000000;0.491060
7842.000000;0.490918
7841.000000;0.490826
7840.000000;0.490824
7839.000000;0.490877
7838.000000;0.490911
7837.000000;0.490899
7836.000000;0.490847
7835.000000;0.490754
7834.000000;0.490613
7833.000000;0.490462
7832.000000;0.490373
7831.000000;0.490372
7830.000000;0.490401
7829.000000;0.490386
7828.000000;0.490307
7827.000000;0.490202
7826.000000;0.490116
7825.000000;0.490076
7824.000000;0.490082
7823.000000;0.490096
7822.000000;0.490061
7821.000000;0.489950
7820.000000;0.489795
7819.000000;0.489651
7818.000000;0.489557
7817.000000;0.489526
7816.000000;0.489548
7815.000000;0.489575
7814.000000;0.489543
7813.000000;0.489424
7812.000000;0.489254
7811.000000;0.489097
7810.000000;0.488991
7809.000000;0.488940
7808.000000;0.488929
7807.000000;0.488929
7806.000000;0.488901
7805.000000;0.488813
7804.000000;0.488676
7803.000000;0.488535
7802.000000;0.488440
7801.000000;0.488408
7800.000000;0.488407
7799.000000;0.488380
7798.000000;0.488300
7797.000000;0.488206
7796.000000;0.488162
7795.000000;0.488181
7794.000000;0.488214
7793.000000;0.488206
7792.000000;0.488153
7791.000000;0.488079
7790.000000;0.487997
7789.000000;0.487896
7788.000000;0.487767
7787.000000;0.487633
7786.000000;0.487542
7785.000000;0.487538
7784.000000;0.487608
7783.000000;0.487670
7782.000000;0.487645
7781.000000;0.487544
7780.000000;0.487448
7779.000000;0.487411
7778.000000;0.487399
7777.000000;0.487354
7776.000000;0.487263
7775.000000;0.487154
7774.000000;0.487053
7773.000000;0.486967
7772.000000;0.486891
7771.000000;0.486816
7770.000000;0.486740
7769.000000;0.486689
7768.000000;0.486698
7767.000000;0.486759
7766.000000;0.486794
7765.000000;0.486732
7764.000000;0.486588
7763.000000;0.486451
7762.000000;0.486388
7761.000000;0.486373
7760.000000;0.486311
7759.000000;0.486153
7758.000000;0.485960
7757.000000;0.485852
7756.000000;0.485868
7755.000000;0.485912
7754.000000;0.485856
7753.000000;0.485688
7752.000000;0.485524
7751.000000;0.485459
7750.000000;0.485463
7749.000000;0.485439
7748.000000;0.485345
7747.000000;0.485228
7746.000000;0.485160
7745.000000;0.485173
7744.000000;0.485243
7743.000000;0.485308
7742.000000;0.485303
7741.000000;0.485211
7740.000000;0.485069
7739.000000;0.484936
7738.000000;0.484851
7737.000000;0.484823
7736.000000;0.484821
7735.000000;0.484792
7734.000000;0.484696
7733.000000;0.484560
7732.000000;0.484460
7731.000000;0.484435
7730.000000;0.484445
7729.000000;0.484421
7728.000000;0.484340
7727.000000;0.484237
7726.000000;0.484168
7725.000000;0.484162
7724.000000;0.484206
7723.000000;0.484251
7722.000000;0.484252
7721.000000;0.484206
7720.000000;0.484144
7719.000000;0.484070
7718.000000;0.483958
7717.000000;0.483798
7716.000000;0.483629
7715.000000;0.483507
7714.000000;0.483462
7713.000000;0.483487
7712.000000;0.483546
7711.000000;0.483578
7710.000000;0.483534
7709.000000;0.483433
7708.000000;0.483334
7707.000000;0.483253
7706.000000;0.483146
7705.000000;0.482989
7704.000000;0.482835
7703.000000;0.482756
7702.000000;0.482750
7701.000000;0.482761
7700.000000;0.482746
7699.000000;0.482702
7698.000000;0.482645
7697.000000;0.482594
7696.000000;0.482561
7695.000000;0.482520
7694.000000;0.482433
7693.000000;0.482310
7692.000000;0.482228
7691.000000;0.482230
7690.000000;0.482261
7689.000000;0.482235
7688.000000;0.482135
7687.000000;0.482010
7686.000000;0.481888
7685.000000;0.481770
7684.000000;0.481682
7683.000000;0.481660
7682.000000;0.481692
7681.000000;0.481722
7680.000000;0.481719
7679.000000;0.481697
7678.000000;0.481658
7677.000000;0.481580
7676.000000;0.481450
7675.000000;0.481296
7674.000000;0.481153
7673.000000;0.481052
7672.000000;0.481021
7671.000000;0.481056
7670.000000;0.481094
7669.000000;0.481052
7668.000000;0.480923
7667.000000;0.480795
7666.000000;0.480741
7665.000000;0.480741
7664.000000;0.480719
7663.000000;0.480640
7662.000000;0.480535
7661.000000;0.480457
7660.000000;0.480432
7659.000000;0.480442
7658.000000;0.480445
7657.000000;0.480400
7656.000000;0.480299
7655.000000;0.480166
7654.000000;0.480037
7653.000000;0.479945
7652.000000;0.479906
7651.000000;0.479900
7650.000000;0.479866
7649.000000;0.479763
7648.000000;0.479627
7647.000000;0.479556
7646.000000;0.479603
7645.000000;0.479710
7644.000000;0.479774
7643.000000;0.479752
7642.000000;0.479701
7641.000000;0.479698
7640.000000;0.479746
7639.000000;0.479769
7638.000000;0.479699
7637.000000;0.479552
7636.000000;0.479410
7635.000000;0.479324
7634.000000;0.479272
7633.000000;0.479209
7632.000000;0.479146
7631.000000;0.479134
7630.000000;0.479189
7629.000000;0.479250
7628.000000;0.479236
7627.000000;0.479119
7626.000000;0.478947
7625.000000;0.478802
7624.000000;0.478725
7623.000000;0.478691
7622.000000;0.478639
7621.000000;0.478542
7620.000000;0.478442
7619.000000;0.478397
7618.000000;0.478412
7617.000000;0.478433
7616.000000;0.478417
7615.000000;0.478372
7614.000000;0.478333
7613.000000;0.478310
7612.000000;0.478285
7611.000000;0.478248
7610.000000;0.478216
7609.000000;0.478210
7608.000000;0.478224
7607.000000;0.478238
7606.000000;0.478242
7605.000000;0.478240
7604.000000;0.478208
7603.000000;0.478102
7602.000000;0.477929
7601.000000;0.477766
7600.000000;0.477686
7599.000000;0.477664
7598.000000;0.477616
7597.000000;0.477516
7596.000000;0.477416
7595.000000;0.477361
7594.000000;0.477323
7593.000000;0.477267
7592.000000;0.477211
7591.000000;0.477198
7590.000000;0.477218
7589.000000;0.477230
7588.000000;0.477220
7587.000000;0.477207
7586.000000;0.477208
7585.000000;0.477211
7584.000000;0.477192
7583.000000;0.477121
7582.000000;0.476980
7581.000000;0.476796
7580.000000;0.476646
7579.000000;0.476600
7578.000000;0.476661
7577.000000;0.476773
7576.000000;0.476872
7575.000000;0.476916
7574.000000;0.476895
7573.000000;0.476843
7572.000000;0.476815
7571.000000;0.476823
7570.000000;0.476807
7569.000000;0.476721
7568.000000;0.476590
7567.000000;0.476476
7566.000000;0.476398
7565.000000;0.476340
7564.000000;0.476306
7563.000000;0.476304
7562.000000;0.476298
7561.000000;0.476235
7560.000000;0.476119
7559.000000;0.476009
7558.000000;0.475938
7557.000000;0.475884
7556.000000;0.475844
7555.000000;0.475864
7554.000000;0.475966
7553.000000;0.476087
7552.000000;0.476131
7551.000000;0.476063
7550.000000;0.475930
7549.000000;0.475808
7548.000000;0.475736
7547.000000;0.475703
7546.000000;0.475682
7545.000000;0.475666
7544.000000;0.475668
7543.000000;0.475690
7542.000000;0.475713
7541.000000;0.475729
7540.000000;0.475761
7539.000000;0.475817
7538.000000;0.475845
7537.000000;0.475777
7536.000000;0.475628
7535.000000;0.475489
7534.000000;0.475432
7533.000000;0.475434
7532.000000;0.475434
7531.000000;0.475415
7530.000000;0.475414
7529.000000;0.475457
7528.000000;0.475518
7527.000000;0.475546
7526.000000;0.475513
7525.000000;0.475445
7524.000000;0.475389
7523.000000;0.475352
7522.000000;0.475303
7521.000000;0.475220
7520.000000;0.475128
7519.000000;0.475058
7518.000000;0.475015
7517.000000;0.474998
7516.000000;0.475027
7515.000000;0.475117
7514.000000;0.475232
7513.000000;0.475301
7512.000000;0.475286
7511.000000;0.475197
7510.000000;0.475063
7509.000000;0.474932
7508.000000;0.474871
7507.000000;0.474926
7506.000000;0.475061
7505.000000;0.475181
7504.000000;0.475226
7503.000000;0.475215
7502.000000;0.475196
7501.000000;0.475182
7500.000000;0.475156
7499.000000;0.475117
7498.000000;0.475080
7497.000000;0.475061
7496.000000;0.475051
7495.000000;0.475013
7494.000000;0.474915
7493.000000;0.474774
7492.000000;0.474664
7491.000000;0.474624
7490.000000;0.474624
7489.000000;0.474610
7488.000000;0.474595
7487.000000;0.474644
7486.000000;0.474767
7485.000000;0.474883
7484.000000;0.474913
7483.000000;0.474873
7482.000000;0.474837
7481.000000;0.474843
7480.000000;0.474854
7479.000000;0.474807
7478.000000;0.474679
7477.000000;0.474524
7476.000000;0.474431
7475.000000;0.474456
7474.000000;0.474578
7473.000000;0.474719
7472.000000;0.474807
7471.000000;0.474807
7470.000000;0.474724
7469.000000;0.474602
7468.000000;0.474515
7467.000000;0.474506
7466.000000;0.474562
7465.000000;0.474633
7464.000000;0.474692
7463.000000;0.474728
7462.000000;0.474724
7461.000000;0.474673
7460.000000;0.474609
7459.000000;0.474580
7458.000000;0.474584
7457.000000;0.474585
7456.000000;0.474574
7455.000000;0.474571
7454.000000;0.474571
7453.000000;0.474534
7452.000000;0.474446
7451.000000;0.474346
7450.000000;0.474280
7449.000000;0.474273
7448.000000;0.474347
7447.000000;0.474518
7446.000000;0.474738
7445.000000;0.474894
7444.000000;0.474911
7443.000000;0.474827
7442.000000;0.474750
7441.000000;0.474742
7440.000000;0.474770
7439.000000;0.474762
7438.000000;0.474687
7437.000000;0.474593
7436.000000;0.474568
7435.000000;0.474645
7434.000000;0.474769
7433.000000;0.474866
7432.000000;0.474930
7431.000000;0.474996
7430.000000;0.475062
7429.000000;0.475092
7428.000000;0.475101
7427.000000;0.475149
7426.000000;0.475258
7425.000000;0.475374
7424.000000;0.475452
7423.000000;0.475491
7422.000000;0.475482
7421.000000;0.475372
7420.000000;0.475160
7419.000000;0.474958
7418.000000;0.474895
7417.000000;0.474976
7416.000000;0.475088
7415.000000;0.475132
7414.000000;0.475121
7413.000000;0.475138
7412.000000;0.475236
7411.000000;0.475376
7410.000000;0.475460
7409.000000;0.475429
7408.000000;0.475348
7407.000000;0.475334
7406.000000;0.475417
7405.000000;0.475493
7404.000000;0.475468
7403.000000;0.475377
7402.000000;0.475338
7401.000000;0.475404
7400.000000;0.475519
7399.000000;0.475598
7398.000000;0.475617
7397.000000;0.475628
7396.000000;0.475707
7395.000000;0.475875
7394.000000;0.476057
7393.000000;0.476152
7392.000000;0.476138
7391.000000;0.476080
7390.000000;0.476032
7389.000000;0.475983
7388.000000;0.475921
7387.000000;0.475890
7386.000000;0.475939
7385.000000;0.476055
7384.000000;0.476188
7383.000000;0.476310
7382.000000;0.476406
7381.000000;0.476444
7380.000000;0.476421
7379.000000;0.476400
7378.000000;0.476444
7377.000000;0.476519
7376.000000;0.476524
7375.000000;0.476430
7374.000000;0.476333
7373.000000;0.476359
7372.000000;0.476544
7371.000000;0.476809
7370.000000;0.477013
7369.000000;0.477044
7368.000000;0.476918
7367.000000;0.476780
7366.000000;0.476764
7365.000000;0.476862
7364.000000;0.476970
7363.000000;0.477021
7362.000000;0.477036
7361.000000;0.477060
7360.000000;0.477110
7359.000000;0.477193
7358.000000;0.477302
7357.000000;0.477389
7356.000000;0.477403
7355.000000;0.477368
7354.000000;0.477367
7353.000000;0.477438
7352.000000;0.477536
7351.000000;0.477616
7350.000000;0.477682
7349.000000;0.477737
7348.000000;0.477755
7347.000000;0.477733
7346.000000;0.477725
7345.000000;0.477778
7344.000000;0.477889
7343.000000;0.478040
7342.000000;0.478211
7341.000000;0.478352
7340.000000;0.478402
7339.000000;0.478387
7338.000000;0.478427
7337.000000;0.478592
7336.000000;0.478802
7335.000000;0.478925
7334.000000;0.478926
7333.000000;0.478865
7332.000000;0.478809
7331.000000;0.478812
7330.000000;0.478927
7329.000000;0.479135
7328.000000;0.479319
7327.000000;0.479384
7326.000000;0.479387
7325.000000;0.479449
7324.000000;0.479582
7323.000000;0.479690
7322.000000;0.479740
7321.000000;0.479810
7320.000000;0.479958
7319.000000;0.480136
7318.000000;0.480256
7317.000000;0.480287
7316.000000;0.480258
7315.000000;0.480210
7314.000000;0.480196
7313.000000;0.480272
7312.000000;0.480454
7311.000000;0.480708
7310.000000;0.480992
7309.000000;0.481271
7308.000000;0.481495
7307.000000;0.481603
7306.000000;0.481600
7305.000000;0.481569
7304.000000;0.481593
7303.000000;0.481695
7302.000000;0.481854
7301.000000;0.482032
7300.000000;0.482178
7299.000000;0.482263
7298.000000;0.482345
7297.000000;0.482541
7296.000000;0.482881
7295.000000;0.483221
7294.000000;0.483380
7293.000000;0.483351
7292.000000;0.483317
7291.000000;0.483445
7290.000000;0.483724
7289.000000;0.484007
7288.000000;0.484168
7287.000000;0.484214
7286.000000;0.484271
7285.000000;0.484466
7284.000000;0.484804
7283.000000;0.485165
7282.000000;0.485415
7281.000000;0.485530
7280.000000;0.485606
7279.000000;0.485752
7278.000000;0.485987
7277.000000;0.486243
7276.000000;0.486448
7275.000000;0.486585
7274.000000;0.486692
7273.000000;0.486817
7272.000000;0.486989
7271.000000;0.487223
7270.000000;0.487532
7269.000000;0.487898
7268.000000;0.488240
7267.000000;0.488469
7266.000000;0.488590
7265.000000;0.488730
7264.000000;0.489012
7263.000000;0.489415
7262.000000;0.489801
7261.000000;0.490071
7260.000000;0.490272
7259.000000;0.490513
7258.000000;0.490838
7257.000000;0.491190
7256.000000;0.491495
7255.000000;0.491734
7254.000000;0.491944
7253.000000;0.492173
7252.000000;0.492444
7251.000000;0.492761
7250.000000;0.493127
7249.000000;0.493549
7248.000000;0.494015
7247.000000;0.494501
7246.000000;0.495006
7245.000000;0.495543
7244.000000;0.496062
7243.000000;0.496433
7242.000000;0.496579
7241.000000;0.496618
7240.000000;0.496787
7239.000000;0.497193
7238.000000;0.497714
7237.000000;0.498176
7236.000000;0.498564
7235.000000;0.498990
7234.000000;0.499501
7233.000000;0.499976
7232.000000;0.500263
7231.000000;0.500378
7230.000000;0.500530
7229.000000;0.500941
7228.000000;0.501633
7227.000000;0.502403
7226.000000;0.503004
7225.000000;0.503348
7224.000000;0.503558
7223.000000;0.503825
7222.000000;0.504233
7221.000000;0.504715
7220.000000;0.505165
7219.000000;0.505554
7218.000000;0.505944
7217.000000;0.506382
7216.000000;0.506859
7215.000000;0.507344
7214.000000;0.507843
7213.000000;0.508360
7212.000000;0.508840
7211.000000;0.509203
7210.000000;0.509456
7209.000000;0.509741
7208.000000;0.510219
7207.000000;0.510918
7206.000000;0.511714
7205.000000;0.512444
7204.000000;0.513024
7203.000000;0.513475
7202.000000;0.513901
7201.000000;0.514414
7200.000000;0.515039
7199.000000;0.515683
7198.000000;0.516225
7197.000000;0.516647
7196.000000;0.517058
7195.000000;0.517558
7194.000000;0.518141
7193.000000;0.518735
7192.000000;0.519302
7191.000000;0.519850
7190.000000;0.520394
7189.000000;0.520932
7188.000000;0.521459
7187.000000;0.521981
7186.000000;0.522538
7185.000000;0.523207
7184.000000;0.524030
7183.000000;0.524903
7182.000000;0.525621
7181.000000;0.526093
7180.000000;0.526469
7179.000000;0.526986
7178.000000;0.527727
7177.000000;0.528586
7176.000000;0.529418
7175.000000;0.530139
7174.000000;0.530731
7173.000000;0.531247
7172.000000;0.531812
7171.000000;0.532528
7170.000000;0.533359
7169.000000;0.534167
7168.000000;0.534868
7167.000000;0.535522
7166.000000;0.536225
7165.000000;0.536990
7164.000000;0.537735
7163.000000;0.538365
7162.000000;0.538864
7161.000000;0.539359
7160.000000;0.540067
7159.000000;0.541077
7158.000000;0.542198
7157.000000;0.543093
7156.000000;0.543604
7155.000000;0.543901
7154.000000;0.544294
7153.000000;0.544928
7152.000000;0.545690
7151.000000;0.546391
7150.000000;0.546989
7149.000000;0.547630
7148.000000;0.548466
7147.000000;0.549458
7146.000000;0.550370
7145.000000;0.550988
7144.000000;0.551343
7143.000000;0.551693
7142.000000;0.552271
7141.000000;0.553066
7140.000000;0.553829
7139.000000;0.554305
7138.000000;0.554478
7137.000000;0.554583
7136.000000;0.554862
7135.000000;0.555372
7134.000000;0.556043
7133.000000;0.556825
7132.000000;0.557680
7131.000000;0.558512
7130.000000;0.559232
7129.000000;0.559883
7128.000000;0.560546
7127.000000;0.561145
7126.000000;0.561488
7125.000000;0.561568
7124.000000;0.561651
7123.000000;0.561988
7122.000000;0.562562
7121.000000;0.563160
7120.000000;0.563547
7119.000000;0.563556
7118.000000;0.563172
7117.000000;0.562660
7116.000000;0.562426
7115.000000;0.562655
7114.000000;0.563213
7113.000000;0.563963
7112.000000;0.564887
7111.000000;0.565802
7110.000000;0.566241
7109.000000;0.565913
7108.000000;0.565128
7107.000000;0.564482
7106.000000;0.564239
7105.000000;0.564231
7104.000000;0.564254
7103.000000;0.564242
7102.000000;0.564083
7101.000000;0.563601
7100.000000;0.562777
7099.000000;0.561819
7098.000000;0.560971
7097.000000;0.560381
7096.000000;0.560134
7095.000000;0.560199
7094.000000;0.560351
7093.000000;0.560305
7092.000000;0.559978
7091.000000;0.559510
7090.000000;0.559032
7089.000000;0.558492
7088.000000;0.557706
7087.000000;0.556544
7086.000000;0.555124
7085.000000;0.553847
7084.000000;0.553092
7083.000000;0.552797
7082.000000;0.552454
7081.000000;0.551630
7080.000000;0.550394
7079.000000;0.549141
7078.000000;0.548185
7077.000000;0.547601
7076.000000;0.547248
7075.000000;0.546759
7074.000000;0.545719
7073.000000;0.544097
7072.000000;0.542327
7071.000000;0.540780
7070.000000;0.539371
7069.000000;0.537936
7068.000000;0.536697
7067.000000;0.535990
7066.000000;0.535619
7065.000000;0.534902
7064.000000;0.533337
7063.000000;0.530979
7062.000000;0.528258
7061.000000;0.525742
7060.000000;0.523933
7059.000000;0.522893
7058.000000;0.522076
7057.000000;0.520862
7056.000000;0.519247
7055.000000;0.517684
7054.000000;0.516343
7053.000000;0.514934
7052.000000;0.513264
7051.000000;0.511473
7050.000000;0.509643
7049.000000;0.507585
7048.000000;0.505197
7047.000000;0.502654
7046.000000;0.500117
7045.000000;0.497603
7044.000000;0.495332
7043.000000;0.493779
7042.000000;0.493017
7041.000000;0.492272
7040.000000;0.490525
7039.000000;0.487518
7038.000000;0.483953
7037.000000;0.480757
7036.000000;0.478333
7035.000000;0.476430
7034.000000;0.474519
7033.000000;0.472264
7032.000000;0.469761
7031.000000;0.467332
7030.000000;0.465123
7029.000000;0.462989
7028.000000;0.460738
7027.000000;0.458331
7026.000000;0.455870
7025.000000;0.453586
7024.000000;0.451777
7023.000000;0.450467
7022.000000;0.449102
7021.000000;0.446990
7020.000000;0.444197
7019.000000;0.441617
7018.000000;0.439903
7017.000000;0.438639
7016.000000;0.436828
7015.000000;0.434016
7014.000000;0.430712
7013.000000;0.427794
7012.000000;0.425675
7011.000000;0.423948
7010.000000;0.421678
7009.000000;0.418294
7008.000000;0.414334
7007.000000;0.411008
7006.000000;0.408789
7005.000000;0.406759
7004.000000;0.403711
7003.000000;0.399678
7002.000000;0.395812
7001.000000;0.392888
7000.000000;0.390583
6999.000000;0.388245
6998.000000;0.385786
6997.000000;0.383568
6996.000000;0.381779
6995.000000;0.380217
6994.000000;0.378451
6993.000000;0.376046
6992.000000;0.372881
6991.000000;0.369381
6990.000000;0.366226
6989.000000;0.363704
6988.000000;0.361591
6987.000000;0.359615
6986.000000;0.357658
6985.000000;0.355415
6984.000000;0.352332
6983.000000;0.348233
6982.000000;0.343757
6981.000000;0.339846
6980.000000;0.336932
6979.000000;0.334782
6978.000000;0.332872
6977.000000;0.330711
6976.000000;0.328106
6975.000000;0.325402
6974.000000;0.323221
6973.000000;0.321630
6972.000000;0.319798
6971.000000;0.316897
6970.000000;0.313161
6969.000000;0.309575
6968.000000;0.306651
6967.000000;0.303986
6966.000000;0.301045
6965.000000;0.297965
6964.000000;0.295377
6963.000000;0.293630
6962.000000;0.292341
6961.000000;0.290644
6960.000000;0.287905
6959.000000;0.284284
6958.000000;0.280610
6957.000000;0.277620
6956.000000;0.275364
6955.000000;0.273352
6954.000000;0.271121
6953.000000;0.268572
6952.000000;0.265873
6951.000000;0.263216
6950.000000;0.260660
6949.000000;0.258095
6948.000000;0.255432
6947.000000;0.252845
6946.000000;0.250644
6945.000000;0.248819
6944.000000;0.246912
6943.000000;0.244507
6942.000000;0.241687
6941.000000;0.238827
6940.000000;0.236105
6939.000000;0.233455
6938.000000;0.230845
6937.000000;0.228339
6936.000000;0.225937
6935.000000;0.223611
6934.000000;0.221482
6933.000000;0.219775
6932.000000;0.218558
6931.000000;0.217591
6930.000000;0.216389
6929.000000;0.214473
6928.000000;0.211739
6927.000000;0.208638
6926.000000;0.205805
6925.000000;0.203470
6924.000000;0.201373
6923.000000;0.199275
6922.000000;0.197263
6921.000000;0.195428
6920.000000;0.193571
6919.000000;0.191451
6918.000000;0.189134
6917.000000;0.186917
6916.000000;0.185119
6915.000000;0.184042
6914.000000;0.183787
6913.000000;0.183796
6912.000000;0.182941
6911.000000;0.180534
6910.000000;0.177135
6909.000000;0.174026
6908.000000;0.171938
6907.000000;0.170594
6906.000000;0.169362
6905.000000;0.168009
6904.000000;0.166790
6903.000000;0.166015
6902.000000;0.165596
6901.000000;0.165005
6900.000000;0.163710
6899.000000;0.161617
6898.000000;0.158984
6897.000000;0.156057
6896.000000;0.153074
6895.000000;0.150581
6894.000000;0.149223
6893.000000;0.149004
6892.000000;0.149123
6891.000000;0.148830
6890.000000;0.148106
6889.000000;0.147254
6888.000000;0.146238
6887.000000;0.144853
6886.000000;0.143300
6885.000000;0.142106
6884.000000;0.141475
6883.000000;0.141005
6882.000000;0.140005
6881.000000;0.138017
6880.000000;0.135270
6879.000000;0.132723
6878.000000;0.131377
6877.000000;0.131292
6876.000000;0.131512
6875.000000;0.131141
6874.000000;0.130204
6873.000000;0.129293
6872.000000;0.128751
6871.000000;0.128438
6870.000000;0.127924
6869.000000;0.126674
6868.000000;0.124468
6867.000000;0.121968
6866.000000;0.120440
6865.000000;0.120449
6864.000000;0.121172
6863.000000;0.121476
6862.000000;0.121248
6861.000000;0.121117
6860.000000;0.121211
6859.000000;0.120903
6858.000000;0.119675
6857.000000;0.117705
6856.000000;0.115654
6855.000000;0.114277
6854.000000;0.114074
6853.000000;0.114761
6852.000000;0.115160
6851.000000;0.114216
6850.000000;0.112239
6849.000000;0.110697
6848.000000;0.110656
6847.000000;0.111765
6846.000000;0.112836
6845.000000;0.113029
6844.000000;0.112390
6843.000000;0.111567
6842.000000;0.111180
6841.000000;0.111330
6840.000000;0.111609
6839.000000;0.111665
6838.000000;0.111624
6837.000000;0.111781
6836.000000;0.112057
6835.000000;0.112097
6834.000000;0.111773
6833.000000;0.111338
6832.000000;0.111143
6831.000000;0.111422
6830.000000;0.112218
6829.000000;0.113178
6828.000000;0.113611
6827.000000;0.113177
6826.000000;0.112393
6825.000000;0.112027
6824.000000;0.112073
6823.000000;0.111834
6822.000000;0.111024
6821.000000;0.110316
6820.000000;0.110578
6819.000000;0.111907
6818.000000;0.113588
6817.000000;0.114807
6816.000000;0.115262
6815.000000;0.115248
6814.000000;0.115307
6813.000000;0.115745
6812.000000;0.116389
6811.000000;0.116850
6810.000000;0.116954
6809.000000;0.116839
6808.000000;0.116773
6807.000000;0.117029
6806.000000;0.117764
6805.000000;0.118764
6804.000000;0.119407
6803.000000;0.119206
6802.000000;0.118410
6801.000000;0.117802
6800.000000;0.117944
6799.000000;0.118888
6798.000000;0.120461
6797.000000;0.122406
6796.000000;0.124207
6795.000000;0.125263
6794.000000;0.125446
6793.000000;0.125243
6792.000000;0.125204
6791.000000;0.125493
6790.000000;0.126118
6789.000000;0.127201
6788.000000;0.128651
6787.000000;0.129857
6786.000000;0.130180
6785.000000;0.129743
6784.000000;0.129357
6783.000000;0.129587
6782.000000;0.130194
6781.000000;0.130627
6780.000000;0.130756
6779.000000;0.130857
6778.000000;0.131106
6777.000000;0.131419
6776.000000;0.131793
6775.000000;0.132481
6774.000000;0.133656
6773.000000;0.135031
6772.000000;0.136021
6771.000000;0.136274
6770.000000;0.135977
6769.000000;0.135706
6768.000000;0.136034
6767.000000;0.137140
6766.000000;0.138651
6765.000000;0.139885
6764.000000;0.140482
6763.000000;0.140795
6762.000000;0.141469
6761.000000;0.142622
6760.000000;0.143693
6759.000000;0.144196
6758.000000;0.144375
6757.000000;0.144840
6756.000000;0.145709
6755.000000;0.146476
6754.000000;0.146781
6753.000000;0.146988
6752.000000;0.147782
6751.000000;0.149276
6750.000000;0.150789
6749.000000;0.151544
6748.000000;0.151481
6747.000000;0.151258
6746.000000;0.151481
6745.000000;0.152111
6744.000000;0.152677
6743.000000;0.152944
6742.000000;0.153164
6741.000000;0.153667
6740.000000;0.154420
6739.000000;0.155133
6738.000000;0.155701
6737.000000;0.156341
6736.000000;0.157308
6735.000000;0.158549
6734.000000;0.159715
6733.000000;0.160447
6732.000000;0.160676
6731.000000;0.160682
6730.000000;0.160904
6729.000000;0.161620
6728.000000;0.162762
6727.000000;0.163986
6726.000000;0.164954
6725.000000;0.165573
6724.000000;0.166008
6723.000000;0.166459
6722.000000;0.166942
6721.000000;0.167337
6720.000000;0.167651
6719.000000;0.168105
6718.000000;0.168884
6717.000000;0.169888
6716.000000;0.170869
6715.000000;0.171777
6714.000000;0.172778
6713.000000;0.173903
6712.000000;0.174894
6711.000000;0.175512
6710.000000;0.175843
6709.000000;0.176140
6708.000000;0.176491
6707.000000;0.176810
6706.000000;0.177104
6705.000000;0.177524
6704.000000;0.178145
6703.000000;0.178833
6702.000000;0.179447
6701.000000;0.180044
6700.000000;0.180780
6699.000000;0.181667
6698.000000;0.182536
6697.000000;0.183235
6696.000000;0.183748
6695.000000;0.184178
6694.000000;0.184601
6693.000000;0.185059
6692.000000;0.185623
6691.000000;0.186384
6690.000000;0.187337
6689.000000;0.188318
6688.000000;0.189148
6687.000000;0.189809
6686.000000;0.190415
6685.000000;0.191025
6684.000000;0.191566
6683.000000;0.191978
6682.000000;0.192331
6681.000000;0.192763
6680.000000;0.193333
6679.000000;0.194014
6678.000000;0.194770
6677.000000;0.195575
6676.000000;0.196384
6675.000000;0.197147
6674.000000;0.197863
6673.000000;0.198549
6672.000000;0.199180
6671.000000;0.199705
6670.000000;0.200135
6669.000000;0.200551
6668.000000;0.201005
6667.000000;0.201463
6666.000000;0.201877
6665.000000;0.202272
6664.000000;0.202721
6663.000000;0.203257
6662.000000;0.203867
6661.000000;0.204545
6660.000000;0.205293
6659.000000;0.206040
6658.000000;0.206649
6657.000000;0.207050
6656.000000;0.207368
6655.000000;0.207824
6654.000000;0.208517
6653.000000;0.209324
6652.000000;0.210054
6651.000000;0.210633
6650.000000;0.211137
6649.000000;0.211691
6648.000000;0.212389
6647.000000;0.213243
6646.000000;0.214128
6645.000000;0.214817
6644.000000;0.215175
6643.000000;0.215338
6642.000000;0.215595
6641.000000;0.216086
6640.000000;0.216667
6639.000000;0.217121
6638.000000;0.217415
6637.000000;0.217702
6636.000000;0.218139
6635.000000;0.218758
6634.000000;0.219476
6633.000000;0.220139
6632.000000;0.220611
6631.000000;0.220881
6630.000000;0.221118
6629.000000;0.221542
6628.000000;0.222231
6627.000000;0.223065
6626.000000;0.223857
6625.000000;0.224490
6624.000000;0.224939
6623.000000;0.225230
6622.000000;0.225445
6621.000000;0.225722
6620.000000;0.226193
6619.000000;0.226891
6618.000000;0.227713
6617.000000;0.228490
6616.000000;0.229103
6615.000000;0.229561
6614.000000;0.229962
6613.000000;0.230384
6612.000000;0.230822
6611.000000;0.231238
6610.000000;0.231639
6609.000000;0.232090
6608.000000;0.232644
6607.000000;0.233299
6606.000000;0.234014
6605.000000;0.234723
6604.000000;0.235325
6603.000000;0.235713
6602.000000;0.235879
6601.000000;0.235965
6600.000000;0.236176
6599.000000;0.236601
6598.000000;0.237177
6597.000000;0.237807
6596.000000;0.238459
6595.000000;0.239135
6594.000000;0.239788
6593.000000;0.240338
6592.000000;0.240762
6591.000000;0.241110
6590.000000;0.241461
6589.000000;0.241873
6588.000000;0.242378
6587.000000;0.242950
6586.000000;0.243503
6585.000000;0.243962
6584.000000;0.244360
6583.000000;0.244790
6582.000000;0.245278
6581.000000;0.245759
6580.000000;0.246204
6579.000000;0.246677
6578.000000;0.247220
6577.000000;0.247741
6576.000000;0.248114
6575.000000;0.248349
6574.000000;0.248587
6573.000000;0.248926
6572.000000;0.249341
6571.000000;0.249771
6570.000000;0.250207
6569.000000;0.250678
6568.000000;0.251184
6567.000000;0.251680
6566.000000;0.252110
6565.000000;0.252452
6564.000000;0.252760
6563.000000;0.253127
6562.000000;0.253599
6561.000000;0.254133
6560.000000;0.254672
6559.000000;0.255210
6558.000000;0.255740
6557.000000;0.256183
6556.000000;0.256464
6555.000000;0.256660
6554.000000;0.256968
6553.000000;0.257490
6552.000000;0.258130
6551.000000;0.258717
6550.000000;0.259183
6549.000000;0.259558
6548.000000;0.259891
6547.000000;0.260219
6546.000000;0.260578
6545.000000;0.260983
6544.000000;0.261407
6543.000000;0.261819
6542.000000;0.262226
6541.000000;0.262639
6540.000000;0.263056
6539.000000;0.263481
6538.000000;0.263943
6537.000000;0.264444
6536.000000;0.264930
6535.000000;0.265332
6534.000000;0.265641
6533.000000;0.265898
6532.000000;0.266151
6531.000000;0.266442
6530.000000;0.266818
6529.000000;0.267299
6528.000000;0.267843
6527.000000;0.268376
6526.000000;0.268848
6525.000000;0.269234
6524.000000;0.269512
6523.000000;0.269678
6522.000000;0.269790
6521.000000;0.269968
6520.000000;0.270318
6519.000000;0.270851
6518.000000;0.271454
6517.000000;0.271954
6516.000000;0.272265
6515.000000;0.272475
6514.000000;0.272767
6513.000000;0.273223
6512.000000;0.273746
6511.000000;0.274199
6510.000000;0.274560
6509.000000;0.274901
6508.000000;0.275258
6507.000000;0.275587
6506.000000;0.275856
6505.000000;0.276121
6504.000000;0.276481
6503.000000;0.276977
6502.000000;0.277532
6501.000000;0.277993
6500.000000;0.278275
6499.000000;0.278451
6498.000000;0.278689
6497.000000;0.279058
6496.000000;0.279458
6495.000000;0.279765
6494.000000;0.280001
6493.000000;0.280296
6492.000000;0.280700
6491.000000;0.281120
6490.000000;0.281429
6489.000000;0.281599
6488.000000;0.281723
6487.000000;0.281931
6486.000000;0.282300
6485.000000;0.282794
6484.000000;0.283281
6483.000000;0.283645
6482.000000;0.283884
6481.000000;0.284092
6480.000000;0.284345
6479.000000;0.284645
6478.000000;0.284950
6477.000000;0.285231
6476.000000;0.285502
6475.000000;0.285808
6474.000000;0.286178
6473.000000;0.286558
6472.000000;0.286838
6471.000000;0.286985
6470.000000;0.287113
6469.000000;0.287372
6468.000000;0.287784
6467.000000;0.288235
6466.000000;0.288633
6465.000000;0.288981
6464.000000;0.289305
6463.000000;0.289589
6462.000000;0.289819
6461.000000;0.290031
6460.000000;0.290273
6459.000000;0.290550
6458.000000;0.290849
6457.000000;0.291174
6456.000000;0.291528
6455.000000;0.291878
6454.000000;0.292167
6453.000000;0.292362
6452.000000;0.292497
6451.000000;0.292656
6450.000000;0.292931
6449.000000;0.293339
6448.000000;0.293788
6447.000000;0.294152
6446.000000;0.294394
6445.000000;0.294587
6444.000000;0.294827
6443.000000;0.295135
6442.000000;0.295462
6441.000000;0.295741
6440.000000;0.295937
6439.000000;0.296077
6438.000000;0.296245
6437.000000;0.296514
6436.000000;0.296869
6435.000000;0.297220
6434.000000;0.297493
6433.000000;0.297679
6432.000000;0.297813
6431.000000;0.297939
6430.000000;0.298117
6429.000000;0.298392
6428.000000;0.298742
6427.000000;0.299096
6426.000000;0.299414
6425.000000;0.299707
6424.000000;0.299968
6423.000000;0.300144
6422.000000;0.300224
6421.000000;0.300295
6420.000000;0.300459
6419.000000;0.300729
6418.000000;0.301044
6417.000000;0.301355
6416.000000;0.301655
6415.000000;0.301944
6414.000000;0.302218
6413.000000;0.302463
6412.000000;0.302654
6411.000000;0.302763
6410.000000;0.302829
6409.000000;0.302960
6408.000000;0.303220
6407.000000;0.303548
6406.000000;0.303824
6405.000000;0.304008
6404.000000;0.304161
6403.000000;0.304355
6402.000000;0.304610
6401.000000;0.304915
6400.000000;0.305241
6399.000000;0.305531
6398.000000;0.305740
6397.000000;0.305891
6396.000000;0.306052
6395.000000;0.306234
6394.000000;0.306383
6393.000000;0.306472
6392.000000;0.306554
6391.000000;0.306698
6390.000000;0.306910
6389.000000;0.307149
6388.000000;0.307388
6387.000000;0.307618
6386.000000;0.307832
6385.000000;0.308022
6384.000000;0.308207
6383.000000;0.308416
6382.000000;0.308652
6381.000000;0.308882
6380.000000;0.309074
6379.000000;0.309224
6378.000000;0.309346
6377.000000;0.309448
6376.000000;0.309531
6375.000000;0.309618
6374.000000;0.309757
6373.000000;0.309977
6372.000000;0.310237
6371.000000;0.310452
6370.000000;0.310589
6369.000000;0.310705
6368.000000;0.310866
6367.000000;0.311064
6366.000000;0.311243
6365.000000;0.311392
6364.000000;0.311544
6363.000000;0.311708
6362.000000;0.311843
6361.000000;0.311935
6360.000000;0.312029
6359.000000;0.312172
6358.000000;0.312354
6357.000000;0.312542
6356.000000;0.312731
6355.000000;0.312926
6354.000000;0.313107
6353.000000;0.313250
6352.000000;0.313374
6351.000000;0.313519
6350.000000;0.313684
6349.000000;0.313827
6348.000000;0.313929
6347.000000;0.314020
6346.000000;0.314133
6345.000000;0.314259
6344.000000;0.314370
6343.000000;0.314462
6342.000000;0.314555
6341.000000;0.314669
6340.000000;0.314812
6339.000000;0.314985
6338.000000;0.315169
6337.000000;0.315323
6336.000000;0.315413
6335.000000;0.315462
6334.000000;0.315536
6333.000000;0.315677
6332.000000;0.315846
6331.000000;0.315968
6330.000000;0.316013
6329.000000;0.316030
6328.000000;0.316096
6327.000000;0.316245
6326.000000;0.316435
6325.000000;0.316585
6324.000000;0.316652
6323.000000;0.316687
6322.000000;0.316800
6321.000000;0.317039
6320.000000;0.317313
6319.000000;0.317482
6318.000000;0.317510
6317.000000;0.317505
6316.000000;0.317585
6315.000000;0.317758
6314.000000;0.317948
6313.000000;0.318105
6312.000000;0.318242
6311.000000;0.318381
6310.000000;0.318497
6309.000000;0.318550
6308.000000;0.318529
6307.000000;0.318483
6306.000000;0.318495
6305.000000;0.318619
6304.000000;0.318825
6303.000000;0.319027
6302.000000;0.319159
6301.000000;0.319229
6300.000000;0.319280
6299.000000;0.319325
6298.000000;0.319345
6297.000000;0.319343
6296.000000;0.319361
6295.000000;0.319439
6294.000000;0.319576
6293.000000;0.319734
6292.000000;0.319863
6291.000000;0.319930
6290.000000;0.319944
6289.000000;0.319959
6288.000000;0.320027
6287.000000;0.320147
6286.000000;0.320275
6285.000000;0.320385
6284.000000;0.320491
6283.000000;0.320607
6282.000000;0.320724
6281.000000;0.320816
6280.000000;0.320875
6279.000000;0.320920
6278.000000;0.320984
6277.000000;0.321087
6276.000000;0.321217
6275.000000;0.321325
6274.000000;0.321364
6273.000000;0.321338
6272.000000;0.321306
6271.000000;0.321322
6270.000000;0.321395
6269.000000;0.321487
6268.000000;0.321547
6267.000000;0.321555
6266.000000;0.321535
6265.000000;0.321544
6264.000000;0.321623
6263.000000;0.321764
6262.000000;0.321915
6261.000000;0.322029
6260.000000;0.322082
6259.000000;0.322067
6258.000000;0.321996
6257.000000;0.321928
6256.000000;0.321941
6255.000000;0.322069
6254.000000;0.322256
6253.000000;0.322403
6252.000000;0.322469
6251.000000;0.322498
6250.000000;0.322565
6249.000000;0.322679
6248.000000;0.322770
6247.000000;0.322765
6246.000000;0.322673
6245.000000;0.322583
6244.000000;0.322566
6243.000000;0.322610
6242.000000;0.322667
6241.000000;0.322732
6240.000000;0.322832
6239.000000;0.322959
6238.000000;0.323056
6237.000000;0.323085
6236.000000;0.323073
6235.000000;0.323065
6234.000000;0.323079
6233.000000;0.323112
6232.000000;0.323167
6231.000000;0.323244
6230.000000;0.323322
6229.000000;0.323373
6228.000000;0.323395
6227.000000;0.323414
6226.000000;0.323444
6225.000000;0.323468
6224.000000;0.323457
6223.000000;0.323410
6222.000000;0.323370
6221.000000;0.323393
6220.000000;0.323488
6219.000000;0.323593
6218.000000;0.323634
6217.000000;0.323613
6216.000000;0.323601
6215.000000;0.323648
6214.000000;0.323724
6213.000000;0.323766
6212.000000;0.323758
6211.000000;0.323754
6210.000000;0.323807
6209.000000;0.323917
6208.000000;0.324033
6207.000000;0.324101
6206.000000;0.324113
6205.000000;0.324113
6204.000000;0.324155
6203.000000;0.324242
6202.000000;0.324321
6201.000000;0.324341
6200.000000;0.324302
6199.000000;0.324246
6198.000000;0.324210
6197.000000;0.324215
6196.000000;0.324267
6195.000000;0.324348
6194.000000;0.324422
6193.000000;0.324454
6192.000000;0.324444
6191.000000;0.324416
6190.000000;0.324390
6189.000000;0.324366
6188.000000;0.324335
6187.000000;0.324297
6186.000000;0.324268
6185.000000;0.324280
6184.000000;0.324346
6183.000000;0.324432
6182.000000;0.324473
6181.000000;0.324432
6180.000000;0.324343
6179.000000;0.324271
6178.000000;0.324243
6177.000000;0.324242
6176.000000;0.324249
6175.000000;0.324269
6174.000000;0.324311
6173.000000;0.324371
6172.000000;0.324440
6171.000000;0.324518
6170.000000;0.324593
6169.000000;0.324642
6168.000000;0.324644
6167.000000;0.324609
6166.000000;0.324568
6165.000000;0.324551
6164.000000;0.324560
6163.000000;0.324571
6162.000000;0.324549
6161.000000;0.324483
6160.000000;0.324409
6159.000000;0.324393
6158.000000;0.324464
6157.000000;0.324575
6156.000000;0.324637
6155.000000;0.324602
6154.000000;0.324519
6153.000000;0.324482
6152.000000;0.324540
6151.000000;0.324641
6150.000000;0.324692
6149.000000;0.324653
6148.000000;0.324577
6147.000000;0.324543
6146.000000;0.324573
6145.000000;0.324626
6144.000000;0.324661
6143.000000;0.324673
6142.000000;0.324681
6141.000000;0.324683
6140.000000;0.324664
6139.000000;0.324623
6138.000000;0.324586
6137.000000;0.324576
6136.000000;0.324587
6135.000000;0.324591
6134.000000;0.324580
6133.000000;0.324584
6132.000000;0.324628
6131.000000;0.324689
6130.000000;0.324707
6129.000000;0.324661
6128.000000;0.324589
6127.000000;0.324544
6126.000000;0.324532
6125.000000;0.324528
6124.000000;0.324528
6123.000000;0.324558
6122.000000;0.324622
6121.000000;0.324689
6120.000000;0.324729
6119.000000;0.324744
6118.000000;0.324743
6117.000000;0.324716
6116.000000;0.324655
6115.000000;0.324591
6114.000000;0.324570
6113.000000;0.324597
6112.000000;0.324634
6111.000000;0.324644
6110.000000;0.324632
6109.000000;0.324622
6108.000000;0.324617
6107.000000;0.324594
6106.000000;0.324537
6105.000000;0.324469
6104.000000;0.324430
6103.000000;0.324450
6102.000000;0.324522
6101.000000;0.324612
6100.000000;0.324683
6099.000000;0.324716
6098.000000;0.324711
6097.000000;0.324686
6096.000000;0.324660
6095.000000;0.324638
6094.000000;0.324614
6093.000000;0.324582
6092.000000;0.324560
6091.000000;0.324572
6090.000000;0.324618
6089.000000;0.324668
6088.000000;0.324697
6087.000000;0.324711
6086.000000;0.324733
6085.000000;0.324759
6084.000000;0.324768
6083.000000;0.324759
6082.000000;0.324764
6081.000000;0.324805
6080.000000;0.324859
6079.000000;0.324878
6078.000000;0.324847
6077.000000;0.324793
6076.000000;0.324746
6075.000000;0.324711
6074.000000;0.324685
6073.000000;0.324673
6072.000000;0.324691
6071.000000;0.324735
6070.000000;0.324776
6069.000000;0.324775
6068.000000;0.324720
6067.000000;0.324648
6066.000000;0.324619
6065.000000;0.324656
6064.000000;0.324713
6063.000000;0.324725
6062.000000;0.324689
6061.000000;0.324666
6060.000000;0.324710
6059.000000;0.324794
6058.000000;0.324843
6057.000000;0.324818
6056.000000;0.324750
6055.000000;0.324697
6054.000000;0.324673
6053.000000;0.324658
6052.000000;0.324637
6051.000000;0.324631
6050.000000;0.324677
6049.000000;0.324783
6048.000000;0.324910
6047.000000;0.324999
6046.000000;0.325021
6045.000000;0.324992
6044.000000;0.324954
6043.000000;0.324929
6042.000000;0.324916
6041.000000;0.324906
6040.000000;0.324906
6039.000000;0.324928
6038.000000;0.324966
6037.000000;0.324996
6036.000000;0.324987
6035.000000;0.324938
6034.000000;0.324885
6033.000000;0.324869
6032.000000;0.324897
6031.000000;0.324934
6030.000000;0.324937
6029.000000;0.324904
6028.000000;0.324866
6027.000000;0.324852
6026.000000;0.324860
6025.000000;0.324868
6024.000000;0.324867
6023.000000;0.324867
6022.000000;0.324883
6021.000000;0.324916
6020.000000;0.324955
6019.000000;0.324996
6018.000000;0.325038
6017.000000;0.325073
6016.000000;0.325088
6015.000000;0.325091
6014.000000;0.325113
6013.000000;0.325174
6012.000000;0.325251
6011.000000;0.325299
6010.000000;0.325312
6009.000000;0.325324
6008.000000;0.325362
6007.000000;0.325407
6006.000000;0.325419
6005.000000;0.325391
6004.000000;0.325343
6003.000000;0.325281
6002.000000;0.325209
6001.000000;0.325153
6000.000000;0.325152
5999.000000;0.325204
5998.000000;0.325260
5997.000000;0.325282
5996.000000;0.325286
5995.000000;0.325310
5994.000000;0.325358
5993.000000;0.325393
5992.000000;0.325393
5991.000000;0.325374
5990.000000;0.325371
5989.000000;0.325393
5988.000000;0.325416
5987.000000;0.325412
5986.000000;0.325388
5985.000000;0.325384
5984.000000;0.325434
5983.000000;0.325518
5982.000000;0.325580
5981.000000;0.325579
5980.000000;0.325542
5979.000000;0.325535
5978.000000;0.325594
5977.000000;0.325685
5976.000000;0.325735
5975.000000;0.325715
5974.000000;0.325676
5973.000000;0.325704
5972.000000;0.325825
5971.000000;0.325975
5970.000000;0.326066
5969.000000;0.326075
5968.000000;0.326059
5967.000000;0.326075
5966.000000;0.326116
5965.000000;0.326129
5964.000000;0.326091
5963.000000;0.326033
5962.000000;0.326005
5961.000000;0.326021
5960.000000;0.326052
5959.000000;0.326060
5958.000000;0.326040
5957.000000;0.326019
5956.000000;0.326029
5955.000000;0.326078
5954.000000;0.326141
5953.000000;0.326190
5952.000000;0.326218
5951.000000;0.326229
5950.000000;0.326229
5949.000000;0.326219
5948.000000;0.326212
5947.000000;0.326229
5946.000000;0.326278
5945.000000;0.326344
5944.000000;0.326411
5943.000000;0.326474
5942.000000;0.326537
5941.000000;0.326588
5940.000000;0.326612
5939.000000;0.326618
5938.000000;0.326642
5937.000000;0.326714
5936.000000;0.326819
5935.000000;0.326905
5934.000000;0.326941
5933.000000;0.326941
5932.000000;0.326947
5931.000000;0.326985
5930.000000;0.327042
5929.000000;0.327091
5928.000000;0.327119
5927.000000;0.327140
5926.000000;0.327178
5925.000000;0.327238
5924.000000;0.327291
5923.000000;0.327299
5922.000000;0.327260
5921.000000;0.327210
5920.000000;0.327197
5919.000000;0.327234
5918.000000;0.327293
5917.000000;0.327332
5916.000000;0.327327
5915.000000;0.327285
5914.000000;0.327234
5913.000000;0.327203
5912.000000;0.327216
5911.000000;0.327271
5910.000000;0.327342
5909.000000;0.327395
5908.000000;0.327414
5907.000000;0.327415
5906.000000;0.327429
5905.000000;0.327466
5904.000000;0.327510
5903.000000;0.327540
5902.000000;0.327563
5901.000000;0.327598
5900.000000;0.327644
5899.000000;0.327678
5898.000000;0.327696
5897.000000;0.327728
5896.000000;0.327803
5895.000000;0.327901
5894.000000;0.327964
5893.000000;0.327955
5892.000000;0.327894
5891.000000;0.327828
5890.000000;0.327785
5889.000000;0.327765
5888.000000;0.327765
5887.000000;0.327786
5886.000000;0.327821
5885.000000;0.327845
5884.000000;0.327839
5883.000000;0.327814
5882.000000;0.327810
5881.000000;0.327858
5880.000000;0.327946
5879.000000;0.328025
5878.000000;0.328067
5877.000000;0.328090
5876.000000;0.328140
5875.000000;0.328234
5874.000000;0.328344
5873.000000;0.328416
5872.000000;0.328428
5871.000000;0.328402
5870.000000;0.328381
5869.000000;0.328379
5868.000000;0.328374
5867.000000;0.328345
5866.000000;0.328313
5865.000000;0.328316
5864.000000;0.328355
5863.000000;0.328400
5862.000000;0.328430
5861.000000;0.328466
5860.000000;0.328525
5859.000000;0.328578
5858.000000;0.328583
5857.000000;0.328548
5856.000000;0.328524
5855.000000;0.328548
5854.000000;0.328600
5853.000000;0.328646
5852.000000;0.328689
5851.000000;0.328757
5850.000000;0.328848
5849.000000;0.328927
5848.000000;0.328960
5847.000000;0.328954
5846.000000;0.328935
5845.000000;0.328923
5844.000000;0.328922
5843.000000;0.328936
5842.000000;0.328962
5841.000000;0.328984
5840.000000;0.328985
5839.000000;0.328978
5838.000000;0.328989
5837.000000;0.329019
5836.000000;0.329039
5835.000000;0.329036
5834.000000;0.329045
5833.000000;0.329108
5832.000000;0.329219
5831.000000;0.329326
5830.000000;0.329389
5829.000000;0.329409
5828.000000;0.329412
5827.000000;0.329416
5826.000000;0.329434
5825.000000;0.329464
5824.000000;0.329493
5823.000000;0.329522
5822.000000;0.329578
5821.000000;0.329678
5820.000000;0.329780
5819.000000;0.329809
5818.000000;0.329755
5817.000000;0.329696
5816.000000;0.329712
5815.000000;0.329795
5814.000000;0.329880
5813.000000;0.329933
5812.000000;0.329969
5811.000000;0.330009
5810.000000;0.330045
5809.000000;0.330077
5808.000000;0.330119
5807.000000;0.330174
5806.000000;0.330220
5805.000000;0.330228
5804.000000;0.330206
5803.000000;0.330184
5802.000000;0.330184
5801.000000;0.330197
5800.000000;0.330192
5799.000000;0.330154
5798.000000;0.330113
5797.000000;0.330131
5796.000000;0.330239
5795.000000;0.330401
5794.000000;0.330537
5793.000000;0.330592
5792.000000;0.330570
5791.000000;0.330515
5790.000000;0.330476
5789.000000;0.330483
5788.000000;0.330535
5787.000000;0.330616
5786.000000;0.330716
5785.000000;0.330839
5784.000000;0.330962
5783.000000;0.331036
5782.000000;0.331023
5781.000000;0.330954
5780.000000;0.330900
5779.000000;0.330894
5778.000000;0.330896
5777.000000;0.330856
5776.000000;0.330788
5775.000000;0.330757
5774.000000;0.330804
5773.000000;0.330898
5772.000000;0.330959
5771.000000;0.330947
5770.000000;0.330901
5769.000000;0.330901
5768.000000;0.330979
5767.000000;0.331086
5766.000000;0.331159
5765.000000;0.331189
5764.000000;0.331200
5763.000000;0.331199
5762.000000;0.331171
5761.000000;0.331124
5760.000000;0.331097
5759.000000;0.331107
5758.000000;0.331123
5757.000000;0.331106
5756.000000;0.331068
5755.000000;0.331055
5754.000000;0.331098
5753.000000;0.331176
5752.000000;0.331247
5751.000000;0.331282
5750.000000;0.331283
5749.000000;0.331271
5748.000000;0.331272
5747.000000;0.331294
5746.000000;0.331331
5745.000000;0.331365
5744.000000;0.331376
5743.000000;0.331358
5742.000000;0.331324
5741.000000;0.331295
5740.000000;0.331281
5739.000000;0.331271
5738.000000;0.331251
5737.000000;0.331237
5736.000000;0.331251
5735.000000;0.331298
5734.000000;0.331357
5733.000000;0.331406
5732.000000;0.331436
5731.000000;0.331446
5730.000000;0.331443
5729.000000;0.331449
5728.000000;0.331475
5727.000000;0.331505
5726.000000;0.331512
5725.000000;0.331496
5724.000000;0.331488
5723.000000;0.331503
5722.000000;0.331519
5721.000000;0.331504
5720.000000;0.331456
5719.000000;0.331405
5718.000000;0.331384
5717.000000;0.331400
5716.000000;0.331429
5715.000000;0.331430
5714.000000;0.331386
5713.000000;0.331331
5712.000000;0.331320
5711.000000;0.331365
5710.000000;0.331416
5709.000000;0.331420
5708.000000;0.331390
5707.000000;0.331388
5706.000000;0.331453
5705.000000;0.331552
5704.000000;0.331609
5703.000000;0.331586
5702.000000;0.331517
5701.000000;0.331473
5700.000000;0.331497
5699.000000;0.331568
5698.000000;0.331639
5697.000000;0.331685
5696.000000;0.331712
5695.000000;0.331735
5694.000000;0.331763
5693.000000;0.331790
5692.000000;0.331807
5691.000000;0.331797
5690.000000;0.331760
5689.000000;0.331727
5688.000000;0.331737
5687.000000;0.331790
5686.000000;0.331835
5685.000000;0.331832
5684.000000;0.331801
5683.000000;0.331796
5682.000000;0.331834
5681.000000;0.331865
5680.000000;0.331828
5679.000000;0.331729
5678.000000;0.331649
5677.000000;0.331662
5676.000000;0.331762
5675.000000;0.331883
5674.000000;0.331978
5673.000000;0.332056
5672.000000;0.332137
5671.000000;0.332211
5670.000000;0.332259
5669.000000;0.332286
5668.000000;0.332312
5667.000000;0.332349
5666.000000;0.332400
5665.000000;0.332472
5664.000000;0.332545
5663.000000;0.332577
5662.000000;0.332552
5661.000000;0.332530
5660.000000;0.332587
5659.000000;0.332721
5658.000000;0.332850
5657.000000;0.332917
5656.000000;0.332948
5655.000000;0.333006
5654.000000;0.333112
5653.000000;0.333237
5652.000000;0.333329
5651.000000;0.333358
5650.000000;0.333334
5649.000000;0.333315
5648.000000;0.333357
5647.000000;0.333471
5646.000000;0.333609
5645.000000;0.333724
5644.000000;0.333807
5643.000000;0.333883
5642.000000;0.333982
5641.000000;0.334119
5640.000000;0.334281
5639.000000;0.334421
5638.000000;0.334508
5637.000000;0.334567
5636.000000;0.334651
5635.000000;0.334766
5634.000000;0.334867
5633.000000;0.334936
5632.000000;0.335016
5631.000000;0.335150
5630.000000;0.335314
5629.000000;0.335449
5628.000000;0.335527
5627.000000;0.335574
5626.000000;0.335635
5625.000000;0.335744
5624.000000;0.335914
5623.000000;0.336116
5622.000000;0.336300
5621.000000;0.336438
5620.000000;0.336556
5619.000000;0.336694
5618.000000;0.336856
5617.000000;0.337014
5616.000000;0.337147
5615.000000;0.337256
5614.000000;0.337350
5613.000000;0.337440
5612.000000;0.337543
5611.000000;0.337672
5610.000000;0.337828
5609.000000;0.338010
5608.000000;0.338220
5607.000000;0.338441
5606.000000;0.338632
5605.000000;0.338763
5604.000000;0.338851
5603.000000;0.338940
5602.000000;0.339059
5601.000000;0.339213
5600.000000;0.339395
5599.000000;0.339589
5598.000000;0.339782
5597.000000;0.339975
5596.000000;0.340186
5595.000000;0.340406
5594.000000;0.340590
5593.000000;0.340713
5592.000000;0.340813
5591.000000;0.340942
5590.000000;0.341089
5589.000000;0.341203
5588.000000;0.341284
5587.000000;0.341403
5586.000000;0.341605
5585.000000;0.341849
5584.000000;0.342051
5583.000000;0.342185
5582.000000;0.342304
5581.000000;0.342470
5580.000000;0.342679
5579.000000;0.342866
5578.000000;0.342978
5577.000000;0.343046
5576.000000;0.343162
5575.000000;0.343376
5574.000000;0.343626
5573.000000;0.343817
5572.000000;0.343934
5571.000000;0.344047
5570.000000;0.344200
5569.000000;0.344353
5568.000000;0.344466
5567.000000;0.344569
5566.000000;0.344719
5565.000000;0.344918
5564.000000;0.345117
5563.000000;0.345278
5562.000000;0.345404
5561.000000;0.345510
5560.000000;0.345606
5559.000000;0.345715
5558.000000;0.345862
5557.000000;0.346032
5556.000000;0.346181
5555.000000;0.346295
5554.000000;0.346408
5553.000000;0.346553
5552.000000;0.346711
5551.000000;0.346840
5550.000000;0.346933
5549.000000;0.347031
5548.000000;0.347173
5547.000000;0.347362
5546.000000;0.347554
5545.000000;0.347703
5544.000000;0.347800
5543.000000;0.347886
5542.000000;0.348006
5541.000000;0.348159
5540.000000;0.348296
5539.000000;0.348385
5538.000000;0.348444
5537.000000;0.348519
5536.000000;0.348640
5535.000000;0.348809
5534.000000;0.349015
5533.000000;0.349228
5532.000000;0.349397
5531.000000;0.349491
5530.000000;0.349530
5529.000000;0.349566
5528.000000;0.349627
5527.000000;0.349707
5526.000000;0.349817
5525.000000;0.349981
5524.000000;0.350188
5523.000000;0.350369
5522.000000;0.350461
5521.000000;0.350480
5520.000000;0.350499
5519.000000;0.350577
5518.000000;0.350720
5517.000000;0.350902
5516.000000;0.351102
5515.000000;0.351293
5514.000000;0.351442
5513.000000;0.351517
5512.000000;0.351532
5511.000000;0.351560
5510.000000;0.351682
5509.000000;0.351898
5508.000000;0.352118
5507.000000;0.352257
5506.000000;0.352329
5505.000000;0.352415
5504.000000;0.352532
5503.000000;0.352621
5502.000000;0.352652
5501.000000;0.352682
5500.000000;0.352762
5499.000000;0.352855
5498.000000;0.352902
5497.000000;0.352959
5496.000000;0.353149
5495.000000;0.353485
5494.000000;0.353813
5493.000000;0.353979
5492.000000;0.354002
5491.000000;0.354037
5490.000000;0.354177
5489.000000;0.354351
5488.000000;0.354441
5487.000000;0.354434
5486.000000;0.354437
5485.000000;0.354552
5484.000000;0.354768
5483.000000;0.354989
5482.000000;0.355129
5481.000000;0.355169
5480.000000;0.355149
5479.000000;0.355155
5478.000000;0.355279
5477.000000;0.355545
5476.000000;0.355840
5475.000000;0.355986
5474.000000;0.355924
5473.000000;0.355806
5472.000000;0.355825
5471.000000;0.356004
5470.000000;0.356213
5469.000000;0.356349
5468.000000;0.356431
5467.000000;0.356536
5466.000000;0.356703
5465.000000;0.356932
5464.000000;0.357206
5463.000000;0.357481
5462.000000;0.357682
5461.000000;0.357755
5460.000000;0.357752
5459.000000;0.357805
5458.000000;0.357997
5457.000000;0.358268
5456.000000;0.358479
5455.000000;0.358556
5454.000000;0.358567
5453.000000;0.358651
5452.000000;0.358877
5451.000000;0.359171
5450.000000;0.359406
5449.000000;0.359556
5448.000000;0.359721
5447.000000;0.359984
5446.000000;0.360291
5445.000000;0.360537
5444.000000;0.360722
5443.000000;0.360928
5442.000000;0.361162
5441.000000;0.361314
5440.000000;0.361316
5439.000000;0.361278
5438.000000;0.361390
5437.000000;0.361702
5436.000000;0.362071
5435.000000;0.362318
5434.000000;0.362407
5433.000000;0.362489
5432.000000;0.362738
5431.000000;0.363167
5430.000000;0.363620
5429.000000;0.363925
5428.000000;0.364053
5427.000000;0.364149
5426.000000;0.364376
5425.000000;0.364743
5424.000000;0.365102
5423.000000;0.365326
5422.000000;0.365448
5421.000000;0.365599
5420.000000;0.365832
5419.000000;0.366076
5418.000000;0.366280
5417.000000;0.366523
5416.000000;0.366897
5415.000000;0.367358
5414.000000;0.367769
5413.000000;0.368093
5412.000000;0.368445
5411.000000;0.368924
5410.000000;0.369460
5409.000000;0.369911
5408.000000;0.370217
5407.000000;0.370435
5406.000000;0.370645
5405.000000;0.370898
5404.000000;0.371214
5403.000000;0.371577
5402.000000;0.371953
5401.000000;0.372340
5400.000000;0.372782
5399.000000;0.373307
5398.000000;0.373903
5397.000000;0.374541
5396.000000;0.375184
5395.000000;0.375758
5394.000000;0.376175
5393.000000;0.376437
5392.000000;0.376693
5391.000000;0.377109
5390.000000;0.377710
5389.000000;0.378388
5388.000000;0.379050
5387.000000;0.379678
5386.000000;0.380284
5385.000000;0.380862
5384.000000;0.381407
5383.000000;0.381943
5382.000000;0.382506
5381.000000;0.383138
5380.000000;0.383886
5379.000000;0.384765
5378.000000;0.385706
5377.000000;0.386580
5376.000000;0.387320
5375.000000;0.388004
5374.000000;0.388789
5373.000000;0.389743
5372.000000;0.390760
5371.000000;0.391675
5370.000000;0.392438
5369.000000;0.393166
5368.000000;0.394038
5367.000000;0.395137
5366.000000;0.396393
5365.000000;0.397657
5364.000000;0.398826
5363.000000;0.399898
5362.000000;0.400952
5361.000000;0.402070
5360.000000;0.403279
5359.000000;0.404547
5358.000000;0.405857
5357.000000;0.407243
5356.000000;0.408745
5355.000000;0.410311
5354.000000;0.411817
5353.000000;0.413192
5352.000000;0.414525
5351.000000;0.415954
5350.000000;0.417477
5349.000000;0.418963
5348.000000;0.420374
5347.000000;0.421877
5346.000000;0.423690
5345.000000;0.425840
5344.000000;0.428081
5343.000000;0.430115
5342.000000;0.431890
5341.000000;0.433587
5340.000000;0.435351
5339.000000;0.437163
5338.000000;0.438938
5337.000000;0.440714
5336.000000;0.442700
5335.000000;0.445042
5334.000000;0.447593
5333.000000;0.449983
5332.000000;0.451931
5331.000000;0.453476
5330.000000;0.454876
5329.000000;0.456331
5328.000000;0.457895
5327.000000;0.459571
5326.000000;0.461351
5325.000000;0.463111
5324.000000;0.464601
5323.000000;0.465658
5322.000000;0.466375
5321.000000;0.466950
5320.000000;0.467369
5319.000000;0.467316
5318.000000;0.466412
5317.000000;0.464573
5316.000000;0.462162
5315.000000;0.459755
5314.000000;0.457538
5313.000000;0.454875
5312.000000;0.450678
5311.000000;0.444319
5310.000000;0.436052
5309.000000;0.426542
5308.000000;0.416348
5307.000000;0.405782
5306.000000;0.394770
5305.000000;0.382768
5304.000000;0.369174
5303.000000;0.353985
5302.000000;0.338155
5301.000000;0.323601
5300.000000;0.312830
5299.000000;0.308082
5298.000000;0.311296
5297.000000;0.324656
5296.000000;0.348865
5295.000000;0.382097
5294.000000;0.423043
5293.000000;0.471039
5292.000000;0.521537
5291.000000;0.567166
5290.000000;0.603911
5289.000000;0.632006
5288.000000;0.654096
5287.000000;0.675993
5286.000000;0.703808
5285.000000;0.735597
5284.000000;0.760843
5283.000000;0.775882
5282.000000;0.791612
5281.000000;0.817350
5280.000000;0.847299
5279.000000;0.868682
5278.000000;0.877323
5277.000000;0.877220
5276.000000;0.872155
5275.000000;0.868451
5274.000000;0.876417
5273.000000;0.898257
5272.000000;0.919766
5271.000000;0.924473
5270.000000;0.915725
5269.000000;0.909825
5268.000000;0.913414
5267.000000;0.922052
5266.000000;0.932127
5265.000000;0.943242
5264.000000;0.953967
5263.000000;0.963120
5262.000000;0.971737
5261.000000;0.977663
5260.000000;0.974351
5259.000000;0.963072
5258.000000;0.957322
5257.000000;0.967575
5256.000000;0.988470
5255.000000;1.003959
5254.000000;1.002544
5253.000000;0.985905
5252.000000;0.965712
5251.000000;0.955110
5250.000000;0.959443
5249.000000;0.968903
5248.000000;0.966753
5247.000000;0.953028
5246.000000;0.945468
5245.000000;0.954544
5244.000000;0.970740
5243.000000;0.977255
5242.000000;0.971048
5241.000000;0.961205
5240.000000;0.952164
5239.000000;0.942687
5238.000000;0.934101
5237.000000;0.928424
5236.000000;0.924628
5235.000000;0.925158
5234.000000;0.938452
5233.000000;0.964926
5232.000000;0.984225
5231.000000;0.975078
5230.000000;0.948913
5229.000000;0.931243
5228.000000;0.927982
5227.000000;0.929236
5226.000000;0.930122
5225.000000;0.937074
5224.000000;0.954738
5223.000000;0.976281
5222.000000;0.989718
5221.000000;0.989363
5220.000000;0.978158
5219.000000;0.963861
5218.000000;0.955331
5217.000000;0.956668
5216.000000;0.963079
5215.000000;0.965849
5214.000000;0.962673
5213.000000;0.958306
5212.000000;0.955005
5211.000000;0.949735
5210.000000;0.941148
5209.000000;0.935162
5208.000000;0.939980
5207.000000;0.957165
5206.000000;0.980613
5205.000000;0.998829
5204.000000;1.000309
5203.000000;0.987312
5202.000000;0.975091
5201.000000;0.972529
5200.000000;0.973478
5199.000000;0.967840
5198.000000;0.957751
5197.000000;0.954196
5196.000000;0.960513
5195.000000;0.968959
5194.000000;0.971529
5193.000000;0.969225
5192.000000;0.968655
5191.000000;0.973730
5190.000000;0.982219
5189.000000;0.986246
5188.000000;0.978641
5187.000000;0.963496
5186.000000;0.954578
5185.000000;0.960067
5184.000000;0.973724
5183.000000;0.981230
5182.000000;0.977025
5181.000000;0.969885
5180.000000;0.966858
5179.000000;0.965773
5178.000000;0.962567
5177.000000;0.956267
5176.000000;0.949781
5175.000000;0.947672
5174.000000;0.953736
5173.000000;0.968100
5172.000000;0.983105
5171.000000;0.985997
5170.000000;0.971136
5169.000000;0.947782
5168.000000;0.931417
5167.000000;0.931127
5166.000000;0.945378
5165.000000;0.964133
5164.000000;0.975899
5163.000000;0.977065
5162.000000;0.972709
5161.000000;0.966877
5160.000000;0.958971
5159.000000;0.951088
5158.000000;0.949325
5157.000000;0.955889
5156.000000;0.965700
5155.000000;0.972020
5154.000000;0.973565
5153.000000;0.972968
5152.000000;0.970892
5151.000000;0.966703
5150.000000;0.961153
5149.000000;0.954285
5148.000000;0.944295
5147.000000;0.932061
5146.000000;0.923954
5145.000000;0.925957
5144.000000;0.936481
5143.000000;0.947120
5142.000000;0.952122
5141.000000;0.955868
5140.000000;0.964903
5139.000000;0.976267
5138.000000;0.979880
5137.000000;0.972343
5136.000000;0.962823
5135.000000;0.961683
5134.000000;0.969221
5133.000000;0.976828
5132.000000;0.978116
5131.000000;0.976321
5130.000000;0.976873
5129.000000;0.978100
5128.000000;0.974771
5127.000000;0.969057
5126.000000;0.970108
5125.000000;0.980809
5124.000000;0.991587
5123.000000;0.991450
5122.000000;0.983525
5121.000000;0.980224
5120.000000;0.986048
5119.000000;0.991959
5118.000000;0.984204
5117.000000;0.962187
5116.000000;0.940494
5115.000000;0.932629
5114.000000;0.941834
5113.000000;0.959640
5112.000000;0.972960
5111.000000;0.977729
5110.000000;0.980796
5109.000000;0.988694
5108.000000;0.999347
5107.000000;1.003864
5106.000000;0.995864
5105.000000;0.979054
5104.000000;0.962566
5103.000000;0.952477
5102.000000;0.950625
5101.000000;0.954198
5100.000000;0.955187
5099.000000;0.948434
5098.000000;0.939132
5097.000000;0.935419
5096.000000;0.939765
5095.000000;0.949359
5094.000000;0.959130
5093.000000;0.966095
5092.000000;0.970949
5091.000000;0.974601
5090.000000;0.975774
5089.000000;0.972396
5088.000000;0.964688
5087.000000;0.954757
5086.000000;0.944139
5085.000000;0.934139
5084.000000;0.927454
5083.000000;0.928235
5082.000000;0.939275
5081.000000;0.956678
5080.000000;0.969267
5079.000000;0.969095
5078.000000;0.959933
5077.000000;0.949346
5076.000000;0.938639
5075.000000;0.925627
5074.000000;0.913211
5073.000000;0.909806
5072.000000;0.919877
5071.000000;0.938012
5070.000000;0.952749
5069.000000;0.956032
5068.000000;0.950851
5067.000000;0.943762
5066.000000;0.934784
5065.000000;0.923513
5064.000000;0.916814
5063.000000;0.923012
5062.000000;0.940083
5061.000000;0.953006
5060.000000;0.949884
5059.000000;0.937691
5058.000000;0.931127
5057.000000;0.934517
5056.000000;0.940347
5055.000000;0.941196
5054.000000;0.938057
5053.000000;0.935445
5052.000000;0.934235
5051.000000;0.931223
5050.000000;0.924712
5049.000000;0.917677
5048.000000;0.913976
5047.000000;0.913518
5046.000000;0.911062
5045.000000;0.901563
5044.000000;0.887636
5043.000000;0.877605
5042.000000;0.876856
5041.000000;0.883997
5040.000000;0.894389
5039.000000;0.904260
5038.000000;0.909444
5037.000000;0.905187
5036.000000;0.892737
5035.000000;0.881199
5034.000000;0.877416
5033.000000;0.877642
5032.000000;0.873790
5031.000000;0.866300
5030.000000;0.863221
5029.000000;0.867884
5028.000000;0.874460
5027.000000;0.875276
5026.000000;0.868306
5025.000000;0.856060
5024.000000;0.842065
5023.000000;0.830679
5022.000000;0.825700
5021.000000;0.827148
5020.000000;0.831734
5019.000000;0.836379
5018.000000;0.838635
5017.000000;0.834304
5016.000000;0.820988
5015.000000;0.804319
5014.000000;0.793147
5013.000000;0.790839
5012.000000;0.795480
5011.000000;0.804841
5010.000000;0.816854
5009.000000;0.825135
5008.000000;0.821028
5007.000000;0.805152
5006.000000;0.788841
5005.000000;0.780398
5004.000000;0.777532
5003.000000;0.773778
5002.000000;0.767801
5001.000000;0.763318
5000.000000;0.761881
4999.000000;0.759706
4998.000000;0.750857
4997.000000;0.733232
4996.000000;0.712213
4995.000000;0.697131
4994.000000;0.693974
4993.000000;0.700018
4992.000000;0.704414
4991.000000;0.698982
4990.000000;0.688252
4989.000000;0.681730
4988.000000;0.681586
4987.000000;0.682458
4986.000000;0.678791
4985.000000;0.669942
4984.000000;0.658472
4983.000000;0.646728
4982.000000;0.636079
4981.000000;0.626776
4980.000000;0.618602
4979.000000;0.612582
4978.000000;0.610115
4977.000000;0.609145
4976.000000;0.603890
4975.000000;0.591879
4974.000000;0.578765
4973.000000;0.571477
4972.000000;0.570055
4971.000000;0.568820
4970.000000;0.562779
4969.000000;0.551939
4968.000000;0.540070
4967.000000;0.530431
4966.000000;0.523271
4965.000000;0.515641
4964.000000;0.504029
4963.000000;0.489205
4962.000000;0.477133
4961.000000;0.473290
4960.000000;0.476807
4959.000000;0.480599
4958.000000;0.477361
4957.000000;0.466021
4956.000000;0.451518
4955.000000;0.439249
4954.000000;0.431176
4953.000000;0.425142
4952.000000;0.417092
4951.000000;0.405579
4950.000000;0.393785
4949.000000;0.385984
4948.000000;0.382854
4947.000000;0.380924
4946.000000;0.376358
4945.000000;0.368394
4944.000000;0.358712
4943.000000;0.349401
4942.000000;0.341938
4941.000000;0.336189
4940.000000;0.330251
4939.000000;0.322387
4938.000000;0.312908
4937.000000;0.303346
4936.000000;0.294278
4935.000000;0.284918
4934.000000;0.274460
4933.000000;0.262903
4932.000000;0.250913
4931.000000;0.239650
4930.000000;0.230366
4929.000000;0.223287
4928.000000;0.217216
4927.000000;0.210923
4926.000000;0.204385
4925.000000;0.197789
4924.000000;0.190191
4923.000000;0.180685
4922.000000;0.170632
4921.000000;0.162799
4920.000000;0.158009
4919.000000;0.154112
4918.000000;0.148280
4917.000000;0.139652
4916.000000;0.129540
4915.000000;0.119371
4914.000000;0.109425
4913.000000;0.099420
4912.000000;0.089431
4911.000000;0.080155
4910.000000;0.072376
4909.000000;0.066041
4908.000000;0.059981
4907.000000;0.052799
4906.000000;0.044076
4905.000000;0.034665
4904.000000;0.025975
4903.000000;0.018930
4902.000000;0.012961
4901.000000;0.006028
4900.000000;-0.003420
4899.000000;-0.014294
4898.000000;-0.023535
4897.000000;-0.029405
4896.000000;-0.033542
4895.000000;-0.038977
4894.000000;-0.046585
4893.000000;-0.054673
4892.000000;-0.061624
4891.000000;-0.067556
4890.000000;-0.073214
4889.000000;-0.078318
4888.000000;-0.082098
4887.000000;-0.085031
4886.000000;-0.088921
4885.000000;-0.094966
4884.000000;-0.102298
4883.000000;-0.108801
4882.000000;-0.113016
4881.000000;-0.115104
4880.000000;-0.116419
4879.000000;-0.118403
4878.000000;-0.121703
4877.000000;-0.126044
4876.000000;-0.130887
4875.000000;-0.136153
4874.000000;-0.141945
4873.000000;-0.147555
4872.000000;-0.151426
4871.000000;-0.152603
4870.000000;-0.151769
4869.000000;-0.150393
4868.000000;-0.149304
4867.000000;-0.148731
4866.000000;-0.149161
4865.000000;-0.151028
4864.000000;-0.153597
4863.000000;-0.155159
4862.000000;-0.154807
4861.000000;-0.153421
4860.000000;-0.152402
4859.000000;-0.151893
4858.000000;-0.150899
4857.000000;-0.148924
4856.000000;-0.146818
4855.000000;-0.145728
4854.000000;-0.145532
4853.000000;-0.144879
4852.000000;-0.142761
4851.000000;-0.139450
4850.000000;-0.135849
4849.000000;-0.132478
4848.000000;-0.129370
4847.000000;-0.126543
4846.000000;-0.124041
4845.000000;-0.121780
4844.000000;-0.119813
4843.000000;-0.118412
4842.000000;-0.117312
4841.000000;-0.115300
4840.000000;-0.111413
4839.000000;-0.106344
4838.000000;-0.101826
4837.000000;-0.098670
4836.000000;-0.096262
4835.000000;-0.093897
4834.000000;-0.091540
4833.000000;-0.089138
4832.000000;-0.086248
4831.000000;-0.082828
4830.000000;-0.079529
4829.000000;-0.076683
4828.000000;-0.073710
4827.000000;-0.070101
4826.000000;-0.066346
4825.000000;-0.063290
4824.000000;-0.061013
4823.000000;-0.058952
4822.000000;-0.056701
4821.000000;-0.054105
4820.000000;-0.050848
4819.000000;-0.046630
4818.000000;-0.041740
4817.000000;-0.037041
4816.000000;-0.033358
4815.000000;-0.030977
4814.000000;-0.029494
4813.000000;-0.027975
4812.000000;-0.025541
4811.000000;-0.022063
4810.000000;-0.018208
4809.000000;-0.014709
4808.000000;-0.011715
4807.000000;-0.008933
4806.000000;-0.006103
4805.000000;-0.003128
4804.000000;-0.000066
4803.000000;0.002789
4802.000000;0.005084
4801.000000;0.006972
4800.000000;0.009208
4799.000000;0.012344
4798.000000;0.015945
4797.000000;0.018949
4796.000000;0.020834
4795.000000;0.022176
4794.000000;0.024025
4793.000000;0.026858
4792.000000;0.030206
4791.000000;0.033268
4790.000000;0.035818
4789.000000;0.038348
4788.000000;0.041272
4787.000000;0.044263
4786.000000;0.046643
4785.000000;0.048291
4784.000000;0.049781
4783.000000;0.051669
4782.000000;0.054034
4781.000000;0.056717
4780.000000;0.059537
4779.000000;0.062138
4778.000000;0.064091
4777.000000;0.065461
4776.000000;0.066952
4775.000000;0.069178
4774.000000;0.072004
4773.000000;0.074845
4772.000000;0.077404
4771.000000;0.079802
4770.000000;0.082095
4769.000000;0.084067
4768.000000;0.085558
4767.000000;0.086746
4766.000000;0.087998
4765.000000;0.089534
4764.000000;0.091305
4763.000000;0.093149
4762.000000;0.095020
4761.000000;0.097037
4760.000000;0.099314
4759.000000;0.101778
4758.000000;0.104240
4757.000000;0.106626
4756.000000;0.108969
4755.000000;0.111195
4754.000000;0.113083
4753.000000;0.114548
4752.000000;0.115828
4751.000000;0.117242
4750.000000;0.118841
4749.000000;0.120402
4748.000000;0.121731
4747.000000;0.122901
4746.000000;0.124210
4745.000000;0.125893
4744.000000;0.127868
4743.000000;0.129782
4742.000000;0.131367
4741.000000;0.132731
4740.000000;0.134185
4739.000000;0.135833
4738.000000;0.137478
4737.000000;0.138958
4736.000000;0.140433
4735.000000;0.142251
4734.000000;0.144531
4733.000000;0.146928
4732.000000;0.148809
4731.000000;0.149783
4730.000000;0.150138
4729.000000;0.150659
4728.000000;0.151897
4727.000000;0.153673
4726.000000;0.155375
4725.000000;0.156672
4724.000000;0.157759
4723.000000;0.158966
4722.000000;0.160369
4721.000000;0.161817
4720.000000;0.163146
4719.000000;0.164279
4718.000000;0.165262
4717.000000;0.166265
4716.000000;0.167460
4715.000000;0.168849
4714.000000;0.170297
4713.000000;0.171713
4712.000000;0.173081
4711.000000;0.174337
4710.000000;0.175378
4709.000000;0.176212
4708.000000;0.176978
4707.000000;0.177800
4706.000000;0.178745
4705.000000;0.179889
4704.000000;0.181241
4703.000000;0.182570
4702.000000;0.183566
4701.000000;0.184254
4700.000000;0.185071
4699.000000;0.186386
4698.000000;0.188088
4697.000000;0.189757
4696.000000;0.191141
4695.000000;0.192314
4694.000000;0.193452
4693.000000;0.194575
4692.000000;0.195564
4691.000000;0.196338
4690.000000;0.196982
4689.000000;0.197673
4688.000000;0.198487
4687.000000;0.199345
4686.000000;0.200197
4685.000000;0.201155
4684.000000;0.202302
4683.000000;0.203469
4682.000000;0.204394
4681.000000;0.205094
4680.000000;0.205815
4679.000000;0.206627
4678.000000;0.207320
4677.000000;0.207802
4676.000000;0.208343
4675.000000;0.209261
4674.000000;0.210515
4673.000000;0.211782
4672.000000;0.212834
4671.000000;0.213669
4670.000000;0.214385
4669.000000;0.215059
4668.000000;0.215750
4667.000000;0.216506
4666.000000;0.217376
4665.000000;0.218417
4664.000000;0.219609
4663.000000;0.220719
4662.000000;0.221424
4661.000000;0.221681
4660.000000;0.221862
4659.000000;0.222406
4658.000000;0.223392
4657.000000;0.224536
4656.000000;0.225511
4655.000000;0.226179
4654.000000;0.226615
4653.000000;0.227046
4652.000000;0.227688
4651.000000;0.228529
4650.000000;0.229309
4649.000000;0.229832
4648.000000;0.230250
4647.000000;0.230888
4646.000000;0.231839
4645.000000;0.232868
4644.000000;0.233714
4643.000000;0.234348
4642.000000;0.234907
4641.000000;0.235491
4640.000000;0.236096
4639.000000;0.236680
4638.000000;0.237231
4637.000000;0.237818
4636.000000;0.238562
4635.000000;0.239514
4634.000000;0.240521
4633.000000;0.241305
4632.000000;0.241735
4631.000000;0.241967
4630.000000;0.242275
4629.000000;0.242770
4628.000000;0.243370
4627.000000;0.244002
4626.000000;0.244700
4625.000000;0.245441
4624.000000;0.246024
4623.000000;0.246272
4622.000000;0.246329
4621.000000;0.246562
4620.000000;0.247110
4619.000000;0.247711
4618.000000;0.248096
4617.000000;0.248413
4616.000000;0.249050
4615.000000;0.250101
4614.000000;0.251210
4613.000000;0.251973
4612.000000;0.252315
4611.000000;0.252414
4610.000000;0.252434
4609.000000;0.252466
4608.000000;0.252637
4607.000000;0.253107
4606.000000;0.253922
4605.000000;0.254902
4604.000000;0.255701
4603.000000;0.256033
4602.000000;0.255924
4601.000000;0.255717
4600.000000;0.255768
4599.000000;0.256166
4598.000000;0.256793
4597.000000;0.257548
4596.000000;0.258382
4595.000000;0.259151
4594.000000;0.259695
4593.000000;0.260069
4592.000000;0.260493
4591.000000;0.260982
4590.000000;0.261252
4589.000000;0.261153
4588.000000;0.261034
4587.000000;0.261418
4586.000000;0.262373
4585.000000;0.263398
4584.000000;0.263973
4583.000000;0.264062
4582.000000;0.264036
4581.000000;0.264222
4580.000000;0.264622
4579.000000;0.265033
4578.000000;0.265327
4577.000000;0.265576
4576.000000;0.265943
4575.000000;0.266510
4574.000000;0.267198
4573.000000;0.267837
4572.000000;0.268247
4571.000000;0.268306
4570.000000;0.268018
4569.000000;0.267547
4568.000000;0.267175
4567.000000;0.267182
4566.000000;0.267713
4565.000000;0.268626
4564.000000;0.269465
4563.000000;0.269745
4562.000000;0.269441
4561.000000;0.269111
4560.000000;0.269358
4559.000000;0.270177
4558.000000;0.270965
4557.000000;0.271182
4556.000000;0.270887
4555.000000;0.270597
4554.000000;0.270752
4553.000000;0.271364
4552.000000;0.272056
4551.000000;0.272375
4550.000000;0.272200
4549.000000;0.271867
4548.000000;0.271838
4547.000000;0.272235
4546.000000;0.272793
4545.000000;0.273235
4544.000000;0.273528
4543.000000;0.273755
4542.000000;0.273929
4541.000000;0.274053
4540.000000;0.274202
4539.000000;0.274406
4538.000000;0.274576
4537.000000;0.274662
4536.000000;0.274794
4535.000000;0.275125
4534.000000;0.275575
4533.000000;0.275853
4532.000000;0.275744
4531.000000;0.275338
4530.000000;0.275002
4529.000000;0.275116
4528.000000;0.275739
4527.000000;0.276486
4526.000000;0.276839
4525.000000;0.276654
4524.000000;0.276268
4523.000000;0.276072
4522.000000;0.276128
4521.000000;0.276268
4520.000000;0.276401
4519.000000;0.276561
4518.000000;0.276746
4517.000000;0.276891
4516.000000;0.276984
4515.000000;0.277061
4514.000000;0.277132
4513.000000;0.277223
4512.000000;0.277448
4511.000000;0.277900
4510.000000;0.278467
4509.000000;0.278892
4508.000000;0.279048
4507.000000;0.279070
4506.000000;0.279189
4505.000000;0.279487
4504.000000;0.279835
4503.000000;0.280021
4502.000000;0.279922
4501.000000;0.279587
4500.000000;0.279208
4499.000000;0.279011
4498.000000;0.279136
4497.000000;0.279524
4496.000000;0.279914
4495.000000;0.280036
4494.000000;0.279893
4493.000000;0.279789
4492.000000;0.279982
4491.000000;0.280380
4490.000000;0.280692
4489.000000;0.280802
4488.000000;0.280801
4487.000000;0.280707
4486.000000;0.280416
4485.000000;0.280003
4484.000000;0.279808
4483.000000;0.280096
4482.000000;0.280743
4481.000000;0.281368
4480.000000;0.281654
4479.000000;0.281519
4478.000000;0.281144
4477.000000;0.280901
4476.000000;0.281074
4475.000000;0.281528
4474.000000;0.281841
4473.000000;0.281900
4472.000000;0.282098
4471.000000;0.282722
4470.000000;0.283382
4469.000000;0.283404
4468.000000;0.282724
4467.000000;0.281997
4466.000000;0.281800
4465.000000;0.282048
4464.000000;0.282301
4463.000000;0.282369
4462.000000;0.282418
4461.000000;0.282626
4460.000000;0.282943
4459.000000;0.283160
4458.000000;0.283080
4457.000000;0.282623
4456.000000;0.281905
4455.000000;0.281262
4454.000000;0.281082
4453.000000;0.281495
4452.000000;0.282209
4451.000000;0.282686
4450.000000;0.282566
4449.000000;0.281945
4448.000000;0.281234
4447.000000;0.280787
4446.000000;0.280700
4445.000000;0.280873
4444.000000;0.281185
4443.000000;0.281608
4442.000000;0.282178
4441.000000;0.282814
4440.000000;0.283158
4439.000000;0.282806
4438.000000;0.281846
4437.000000;0.281022
4436.000000;0.281095
4435.000000;0.282071
4434.000000;0.283239
4433.000000;0.283927
4432.000000;0.283985
4431.000000;0.283598
4430.000000;0.283011
4429.000000;0.282519
4428.000000;0.282308
4427.000000;0.282155
4426.000000;0.281641
4425.000000;0.280900
4424.000000;0.280766
4423.000000;0.281772
4422.000000;0.283232
4421.000000;0.283807
4420.000000;0.282984
4419.000000;0.281600
4418.000000;0.280797
4417.000000;0.280824
4416.000000;0.281011
4415.000000;0.280649
4414.000000;0.279746
4413.000000;0.278979
4412.000000;0.278958
4411.000000;0.279558
4410.000000;0.279993
4409.000000;0.279651
4408.000000;0.278751
4407.000000;0.277972
4406.000000;0.277591
4405.000000;0.277313
4404.000000;0.276935
4403.000000;0.276748
4402.000000;0.277055
4401.000000;0.277530
4400.000000;0.277401
4399.000000;0.276284
4398.000000;0.274600
4397.000000;0.273128
4396.000000;0.272331
4395.000000;0.272202
4394.000000;0.272511
4393.000000;0.272975
4392.000000;0.273306
4391.000000;0.273410
4390.000000;0.273538
4389.000000;0.273900
4388.000000;0.274029
4387.000000;0.272953
4386.000000;0.270426
4385.000000;0.267722
4384.000000;0.266616
4383.000000;0.267585
4382.000000;0.269345
4381.000000;0.270176
4380.000000;0.269452
4379.000000;0.267742
4378.000000;0.265819
4377.000000;0.263996
4376.000000;0.262238
4375.000000;0.260524
4374.000000;0.259036
4373.000000;0.258052
4372.000000;0.257622
4371.000000;0.257399
4370.000000;0.257008
4369.000000;0.256530
4368.000000;0.256288
4367.000000;0.256139
4366.000000;0.255413
4365.000000;0.253798
4364.000000;0.251914
4363.000000;0.250673
4362.000000;0.250321
4361.000000;0.250377
4360.000000;0.250273
4359.000000;0.249717
4358.000000;0.248562
4357.000000;0.246756
4356.000000;0.244535
4355.000000;0.242520
4354.000000;0.241522
4353.000000;0.242130
4352.000000;0.244144
4351.000000;0.246267
4350.000000;0.246786
4349.000000;0.245016
4348.000000;0.241913
4347.000000;0.238977
4346.000000;0.236823
4345.000000;0.235109
4344.000000;0.233495
4343.000000;0.232100
4342.000000;0.231117
4341.000000;0.230505
4340.000000;0.230096
4339.000000;0.229631
4338.000000;0.228662
4337.000000;0.226763
4336.000000;0.223981
4335.000000;0.220911
4334.000000;0.218304
4333.000000;0.216746
4332.000000;0.216506
4331.000000;0.217238
4330.000000;0.217805
4329.000000;0.216912
4328.000000;0.214238
4327.000000;0.210748
4326.000000;0.207737
4325.000000;0.205819
4324.000000;0.204976
4323.000000;0.205211
4322.000000;0.206552
4321.000000;0.208269
4320.000000;0.208738
4319.000000;0.206908
4318.000000;0.203775
4317.000000;0.201504
4316.000000;0.200943
4315.000000;0.200797
4314.000000;0.199713
4313.000000;0.198376
4312.000000;0.198274
4311.000000;0.198806
4310.000000;0.197251
4309.000000;0.192281
4308.000000;0.186100
4307.000000;0.182013
4306.000000;0.181190
4305.000000;0.182599
4304.000000;0.184805
4303.000000;0.186693
4302.000000;0.187170
4301.000000;0.185745
4300.000000;0.183454
4299.000000;0.181815
4298.000000;0.180535
4297.000000;0.177536
4296.000000;0.172024
4295.000000;0.166502
4294.000000;0.164821
4293.000000;0.168654
4292.000000;0.175985
4291.000000;0.182835
4290.000000;0.186342
4289.000000;0.185873
4288.000000;0.182068
4287.000000;0.176528
4286.000000;0.172262
4285.000000;0.172475
4284.000000;0.178006
4283.000000;0.186361
4282.000000;0.193524
4281.000000;0.197148
4280.000000;0.198091
4279.000000;0.198595
4278.000000;0.199825
4277.000000;0.201784
4276.000000;0.204544
4275.000000;0.208566
4274.000000;0.214052
4273.000000;0.220614
4272.000000;0.227554
4271.000000;0.234021
4270.000000;0.239035
4269.000000;0.242040
4268.000000;0.243412
4267.000000;0.244155
4266.000000;0.245175
4265.000000;0.247016
4264.000000;0.250400
4263.000000;0.256800
4262.000000;0.267748
4261.000000;0.282733
4260.000000;0.297598
4259.000000;0.306221
4258.000000;0.306033
4257.000000;0.301477
4256.000000;0.299945
4255.000000;0.305791
4254.000000;0.318415
4253.000000;0.333760
4252.000000;0.347777
4251.000000;0.359901
4250.000000;0.372652
4249.000000;0.386918
4248.000000;0.398636
4247.000000;0.402726
4246.000000;0.400736
4245.000000;0.400222
4244.000000;0.406097
4243.000000;0.416349
4242.000000;0.427077
4241.000000;0.438759
4240.000000;0.454844
4239.000000;0.475179
4238.000000;0.493722
4237.000000;0.504440
4236.000000;0.508068
4235.000000;0.510087
4234.000000;0.514971
4233.000000;0.524488
4232.000000;0.538144
4231.000000;0.553611
4230.000000;0.568149
4229.000000;0.580065
4228.000000;0.588189
4227.000000;0.591748
4226.000000;0.592400
4225.000000;0.594303
4224.000000;0.600484
4223.000000;0.610788
4222.000000;0.625384
4221.000000;0.647054
4220.000000;0.674990
4219.000000;0.697829
4218.000000;0.700876
4217.000000;0.687806
4216.000000;0.679636
4215.000000;0.689573
4214.000000;0.713415
4213.000000;0.737836
4212.000000;0.755085
4211.000000;0.767651
4210.000000;0.779280
4209.000000;0.790137
4208.000000;0.800657
4207.000000;0.813245
4206.000000;0.826656
4205.000000;0.833830
4204.000000;0.830982
4203.000000;0.826546
4202.000000;0.835642
4201.000000;0.866492
4200.000000;0.910616
4199.000000;0.943071
4198.000000;0.945879
4197.000000;0.932609
4196.000000;0.925969
4195.000000;0.929886
4194.000000;0.934122
4193.000000;0.934422
4192.000000;0.939406
4191.000000;0.957105
4190.000000;0.984014
4189.000000;1.010890
4188.000000;1.034488
4187.000000;1.054934
4186.000000;1.068298
4185.000000;1.072627
4184.000000;1.073089
4183.000000;1.073457
4182.000000;1.071214
4181.000000;1.066224
4180.000000;1.066759
4179.000000;1.079419
4178.000000;1.097974
4177.000000;1.110098
4176.000000;1.113143
4175.000000;1.114196
4174.000000;1.118893
4173.000000;1.131372
4172.000000;1.160457
4171.000000;1.214766
4170.000000;1.288353
4169.000000;1.353545
4168.000000;1.385660
4167.000000;1.399910
4166.000000;1.421716
4165.000000;1.440115
4164.000000;1.422597
4163.000000;1.372187
4162.000000;1.329850
4161.000000;1.330036
4160.000000;1.384526
4159.000000;1.486130
4158.000000;1.581133
4157.000000;1.576357
4156.000000;1.509775
4155.000000;1.460784
4154.000000;1.439792
4153.000000;1.435351
4152.000000;1.429810
4151.000000;1.408657
4150.000000;1.378070
4149.000000;1.373838
4148.000000;1.434731
4147.000000;1.569830
4146.000000;1.660832
4145.000000;1.599750
4144.000000;1.537687
4143.000000;1.516848
4142.000000;1.511941
4141.000000;1.519274
4140.000000;1.552958
4139.000000;1.616221
4138.000000;1.676189
4137.000000;1.662170
4136.000000;1.581512
4135.000000;1.510633
4134.000000;1.469095
4133.000000;1.443380
4132.000000;1.438772
4131.000000;1.475231
4130.000000;1.556824
4129.000000;1.663028
4128.000000;1.756014
4127.000000;1.825806
4126.000000;1.792300
4125.000000;1.661869
4124.000000;1.595666
4123.000000;1.624014
4122.000000;1.688651
4121.000000;1.773940
4120.000000;1.975754
4119.000000;1.964079
4118.000000;1.809611
4117.000000;1.848174
4116.000000;1.916398
4115.000000;1.753061
4114.000000;1.626266
4113.000000;1.565329
4112.000000;1.581778
4111.000000;1.701033
4110.000000;1.866907
4109.000000;1.852975
4108.000000;1.680715
4107.000000;1.549098
4106.000000;1.490012
4105.000000;1.482435
4104.000000;1.499062
4103.000000;1.542524
4102.000000;1.641617
4101.000000;1.816274
4100.000000;2.069973
4099.000000;2.391788
4098.000000;2.034976
4097.000000;1.767050
4096.000000;1.705014
4095.000000;1.724011
4094.000000;1.753955
4093.000000;1.764393
4092.000000;1.788260
4091.000000;1.752032
4090.000000;1.688112
4089.000000;1.761659
4088.000000;2.064141
4087.000000;2.103549
4086.000000;1.885265
4085.000000;1.841454
4084.000000;1.924972
4083.000000;2.192577
4082.000000;2.309606
4081.000000;2.141682
4080.000000;2.175800
4079.000000;2.024553
4078.000000;1.831160
4077.000000;1.895321
4076.000000;1.891301
4075.000000;1.761594
4074.000000;1.802901
4073.000000;1.946229
4072.000000;2.033172
4071.000000;2.010454
4070.000000;2.116137
4069.000000;2.145666
4068.000000;1.973605
4067.000000;2.176019
4066.000000;2.175188
4065.000000;1.723619
4064.000000;1.560328
4063.000000;1.535104
4062.000000;1.577964
4061.000000;1.670824
4060.000000;1.819187
4059.000000;1.968582
4058.000000;2.021001
4057.000000;2.016901
4056.000000;1.932963
4055.000000;1.854789
4054.000000;1.862347
4053.000000;1.900610
4052.000000;1.889814
4051.000000;1.845484
4050.000000;1.840839
4049.000000;1.904003
4048.000000;2.117971
4047.000000;2.361654
4046.000000;2.045780
4045.000000;1.803054
4044.000000;1.709228
4043.000000;1.721930
4042.000000;1.824006
4041.000000;1.891011
4040.000000;1.893977
4039.000000;1.945238
4038.000000;2.224072
4037.000000;2.445904
4036.000000;2.177099
4035.000000;2.225044
4034.000000;2.269311
4033.000000;2.282832
4032.000000;2.418236
4031.000000;2.341404
4030.000000;2.113296
4029.000000;2.082110
4028.000000;2.421889
4027.000000;2.443688
4026.000000;2.139888
4025.000000;2.250695
4024.000000;2.035072
4023.000000;1.825232
4022.000000;1.785648
4021.000000;1.821010
4020.000000;1.889655
4019.000000;1.907619
4018.000000;1.819764
4017.000000;1.721948
4016.000000;1.698750
4015.000000;1.776064
4014.000000;2.012622
4013.000000;2.045175
4012.000000;1.803890
4011.000000;1.715633
4010.000000;1.750568
4009.000000;1.826896
4008.000000;1.894233
4007.000000;2.028596
4006.000000;2.344078
4005.000000;2.370552
4004.000000;2.066705
4003.000000;1.943896
4002.000000;1.928567
4001.000000;2.032769
4000.000000;2.133804
3999.000000;1.976737
3998.000000;1.809626
3997.000000;1.752932
3996.000000;1.801066
3995.000000;1.986187
3994.000000;2.212605
3993.000000;2.051722
3992.000000;1.863539
3991.000000;1.795682
3990.000000;1.774840
3989.000000;1.794643
3988.000000;1.901083
3987.000000;2.206069
3986.000000;2.290151
3985.000000;2.091057
3984.000000;2.040089
3983.000000;2.054345
3982.000000;2.113482
3981.000000;2.176950
3980.000000;2.087128
3979.000000;1.982317
3978.000000;1.910417
3977.000000;1.861866
3976.000000;1.910341
3975.000000;2.082069
3974.000000;2.292525
3973.000000;2.323383
3972.000000;2.348520
3971.000000;2.206042
3970.000000;1.954592
3969.000000;1.934565
3968.000000;2.220637
3967.000000;2.201750
3966.000000;1.969706
3965.000000;2.018443
3964.000000;2.211150
3963.000000;2.567556
3962.000000;2.560272
3961.000000;2.413348
3960.000000;2.536225
3959.000000;2.565252
3958.000000;2.341731
3957.000000;2.144172
3956.000000;1.990835
3955.000000;2.062548
3954.000000;2.508729
3953.000000;2.555515
3952.000000;2.585948
3951.000000;2.079484
3950.000000;1.842180
3949.000000;1.832882
3948.000000;1.936197
3947.000000;2.022945
3946.000000;1.964683
3945.000000;1.991975
3944.000000;2.399224
3943.000000;2.764109
3942.000000;2.366474
3941.000000;2.479641
3940.000000;2.407616
3939.000000;2.544653
3938.000000;2.602296
3937.000000;2.456745
3936.000000;2.454786
3935.000000;1.985444
3934.000000;1.728826
3933.000000;1.648771
3932.000000;1.645935
3931.000000;1.650305
3930.000000;1.645466
3929.000000;1.693960
3928.000000;1.820872
3927.000000;2.018477
3926.000000;2.242776
3925.000000;2.186241
3924.000000;1.958653
3923.000000;1.796134
3922.000000;1.695387
3921.000000;1.658885
3920.000000;1.702382
3919.000000;1.848453
3918.000000;2.105682
3917.000000;2.312469
3916.000000;2.190112
3915.000000;2.019431
3914.000000;1.994380
3913.000000;2.016393
3912.000000;2.005977
3911.000000;2.156973
3910.000000;2.188788
3909.000000;2.029878
3908.000000;2.063605
3907.000000;2.375361
3906.000000;2.730945
3905.000000;2.383393
3904.000000;2.169673
3903.000000;2.190845
3902.000000;2.348641
3901.000000;1.908814
3900.000000;1.616667
3899.000000;1.529780
3898.000000;1.532734
3897.000000;1.564880
3896.000000;1.709819
3895.000000;2.082711
3894.000000;2.212202
3893.000000;1.941685
3892.000000;1.876811
3891.000000;2.024466
3890.000000;2.398323
3889.000000;2.191715
3888.000000;1.789299
3887.000000;1.594050
3886.000000;1.564934
3885.000000;1.738255
3884.000000;2.015622
3883.000000;1.885526
3882.000000;1.698975
3881.000000;1.625125
3880.000000;1.694195
3879.000000;1.878379
3878.000000;1.822284
3877.000000;1.692006
3876.000000;1.799941
3875.000000;2.075652
3874.000000;1.804707
3873.000000;1.603160
3872.000000;1.663365
3871.000000;1.929194
3870.000000;1.857537
3869.000000;1.717423
3868.000000;1.606322
3867.000000;1.529917
3866.000000;1.484124
3865.000000;1.488988
3864.000000;1.586368
3863.000000;1.780656
3862.000000;2.208254
3861.000000;1.885946
3860.000000;1.579173
3859.000000;1.609356
3858.000000;1.755368
3857.000000;1.857616
3856.000000;1.869079
3855.000000;1.996652
3854.000000;2.181818
3853.000000;2.192716
3852.000000;2.195280
3851.000000;2.106011
3850.000000;1.982007
3849.000000;1.913979
3848.000000;2.130638
3847.000000;2.176894
3846.000000;1.772355
3845.000000;1.687224
3844.000000;1.693765
3843.000000;1.705704
3842.000000;1.694750
3841.000000;1.824861
3840.000000;1.998095
3839.000000;1.667488
3838.000000;1.658309
3837.000000;1.818632
3836.000000;1.663505
3835.000000;1.694858
3834.000000;1.874618
3833.000000;1.842870
3832.000000;1.960643
3831.000000;2.097149
3830.000000;2.251037
3829.000000;2.166544
3828.000000;2.074758
3827.000000;2.052289
3826.000000;2.008963
3825.000000;1.982042
3824.000000;2.083912
3823.000000;2.193235
3822.000000;2.033956
3821.000000;1.938432
3820.000000;2.027176
3819.000000;2.342444
3818.000000;2.545408
3817.000000;2.281402
3816.000000;2.137551
3815.000000;2.019978
3814.000000;1.916666
3813.000000;1.901938
3812.000000;1.939083
3811.000000;1.919508
3810.000000;1.990281
3809.000000;2.401385
3808.000000;2.687155
3807.000000;2.079630
3806.000000;1.906432
3805.000000;1.871112
3804.000000;1.859130
3803.000000;2.089356
3802.000000;2.079898
3801.000000;1.880157
3800.000000;2.245980
3799.000000;2.231739
3798.000000;1.989951
3797.000000;2.052389
3796.000000;2.542666
3795.000000;2.313655
3794.000000;1.837539
3793.000000;1.664155
3792.000000;1.682524
3791.000000;1.852925
3790.000000;1.990941
3789.000000;2.021832
3788.000000;2.116035
3787.000000;2.232849
3786.000000;2.091205
3785.000000;2.022884
3784.000000;2.202263
3783.000000;2.277997
3782.000000;2.173337
3781.000000;2.384523
3780.000000;2.446460
3779.000000;2.270213
3778.000000;2.356977
3777.000000;2.293111
3776.000000;1.949155
3775.000000;1.719246
3774.000000;1.667578
3773.000000;1.774488
3772.000000;1.995940
3771.000000;1.927229
3770.000000;1.678962
3769.000000;1.545900
3768.000000;1.482896
3767.000000;1.487150
3766.000000;1.548810
3765.000000;1.809772
3764.000000;2.214653
3763.000000;1.821552
3762.000000;1.753781
3761.000000;1.915141
3760.000000;1.883196
3759.000000;1.596912
3758.000000;1.496015
3757.000000;1.532923
3756.000000;1.357175
3755.000000;1.186605
3754.000000;1.218686
3753.000000;1.354145
3752.000000;1.525809
3751.000000;1.744419
3750.000000;1.913598
3749.000000;1.867879
3748.000000;1.864631
3747.000000;2.120463
3746.000000;1.560552
3745.000000;1.236675
3744.000000;1.280042
3743.000000;1.580955
3742.000000;1.945800
3741.000000;2.019587
3740.000000;1.871303
3739.000000;1.757924
3738.000000;1.782342
3737.000000;1.898630
3736.000000;2.151225
3735.000000;2.560097
3734.000000;2.378707
3733.000000;2.252437
3732.000000;2.175939
3731.000000;2.618012
3730.000000;2.140892
3729.000000;1.611295
3728.000000;1.506627
3727.000000;1.456934
3726.000000;1.498109
3725.000000;1.575168
3724.000000;1.577153
3723.000000;1.569373
3722.000000;1.573240
3721.000000;1.654314
3720.000000;1.907493
3719.000000;1.652577
3718.000000;1.484098
3717.000000;1.604357
3716.000000;1.809904
3715.000000;2.142432
3714.000000;2.042447
3713.000000;1.694487
3712.000000;1.587009
3711.000000;1.639114
3710.000000;1.870049
3709.000000;2.099932
3708.000000;2.095425
3707.000000;2.018368
3706.000000;1.809925
3705.000000;1.775792
3704.000000;1.807749
3703.000000;1.853393
3702.000000;1.921411
3701.000000;2.118434
3700.000000;2.165076
3699.000000;1.938527
3698.000000;1.967308
3697.000000;2.215217
3696.000000;2.612271
3695.000000;2.423470
3694.000000;1.913656
3693.000000;1.637377
3692.000000;1.485219
3691.000000;1.452975
3690.000000;1.466881
3689.000000;1.602047
3688.000000;2.097521
3687.000000;2.451533
3686.000000;2.446350
3685.000000;2.357517
3684.000000;2.044972
3683.000000;1.906717
3682.000000;1.853595
3681.000000;1.890721
3680.000000;1.796476
3679.000000;1.823264
3678.000000;2.006091
3677.000000;2.118373
3676.000000;2.043428
3675.000000;2.193743
3674.000000;1.771246
3673.000000;1.385207
3672.000000;1.266797
3671.000000;1.179262
3670.000000;1.223907
3669.000000;1.342851
3668.000000;1.484757
3667.000000;1.572130
3666.000000;1.777676
3665.000000;2.157104
3664.000000;1.883745
3663.000000;1.697328
3662.000000;1.628840
3661.000000;1.615641
3660.000000;1.713906
3659.000000;1.969108
3658.000000;2.235157
3657.000000;2.127619
3656.000000;2.007872
3655.000000;2.039118
3654.000000;2.364391
3653.000000;2.288588
3652.000000;2.054795
3651.000000;2.200585
3650.000000;2.365243
3649.000000;2.060913
3648.000000;1.884240
3647.000000;1.835088
3646.000000;1.775555
3645.000000;1.746679
3644.000000;1.853704
3643.000000;2.084091
3642.000000;2.013819
3641.000000;1.851091
3640.000000;1.908720
3639.000000;1.874725
3638.000000;1.700088
3637.000000;1.644445
3636.000000;1.736627
3635.000000;2.083201
3634.000000;2.309304
3633.000000;2.067202
3632.000000;1.939240
3631.000000;1.792143
3630.000000;1.612942
3629.000000;1.520502
3628.000000;1.577443
3627.000000;1.709217
3626.000000;2.108549
3625.000000;2.262756
3624.000000;1.758799
3623.000000;1.805754
3622.000000;1.984004
3621.000000;2.074814
3620.000000;1.942037
3619.000000;1.620226
3618.000000;1.476041
3617.000000;1.464000
3616.000000;1.699539
3615.000000;1.867093
3614.000000;1.477980
3613.000000;1.342559
3612.000000;1.437034
3611.000000;1.584153
3610.000000;1.528605
3609.000000;1.479997
3608.000000;1.614809
3607.000000;2.019533
3606.000000;2.906523
3605.000000;2.271060
3604.000000;2.016765
3603.000000;1.867468
3602.000000;1.840863
3601.000000;1.951306
3600.000000;1.986072
3599.000000;2.003053
3598.000000;2.408280
3597.000000;2.786242
3596.000000;2.018637
3595.000000;1.841212
3594.000000;1.795162
3593.000000;1.835784
3592.000000;1.893310
3591.000000;1.890420
3590.000000;2.061953
3589.000000;2.093811
3588.000000;1.854131
3587.000000;1.888420
3586.000000;2.209497
3585.000000;2.218801
3584.000000;2.028882
3583.000000;1.988455
3582.000000;1.915764
3581.000000;1.903235
3580.000000;2.186939
3579.000000;2.789943
3578.000000;2.560603
3577.000000;2.195164
3576.000000;1.847254
3575.000000;1.855404
3574.000000;2.274661
3573.000000;1.878999
3572.000000;1.575174
3571.000000;1.548695
3570.000000;1.637089
3569.000000;1.785652
3568.000000;1.769002
3567.000000;1.608752
3566.000000;1.525938
3565.000000;1.630188
3564.000000;1.818593
3563.000000;1.609936
3562.000000;1.457756
3561.000000;1.464825
3560.000000;1.551068
3559.000000;1.714096
3558.000000;1.996834
3557.000000;2.839892
3556.000000;2.382456
3555.000000;2.071716
3554.000000;2.204073
3553.000000;2.066498
3552.000000;1.720492
3551.000000;1.567386
3550.000000;1.590244
3549.000000;1.772698
3548.000000;2.150679
3547.000000;2.412292
3546.000000;2.332117
3545.000000;2.443104
3544.000000;2.749674
3543.000000;2.501249
3542.000000;2.012266
3541.000000;1.871709
3540.000000;1.943237
3539.000000;1.861324
3538.000000;1.666258
3537.000000;1.665300
3536.000000;2.038548
3535.000000;2.123159
3534.000000;1.720053
3533.000000;1.609604
3532.000000;1.620889
3531.000000;1.771216
3530.000000;2.069059
3529.000000;2.245762
3528.000000;1.995826
3527.000000;1.761639
3526.000000;1.672048
3525.000000;1.853219
3524.000000;2.188557
3523.000000;1.882660
3522.000000;1.761227
3521.000000;1.956527
3520.000000;2.356946
3519.000000;2.027971
3518.000000;1.815494
3517.000000;1.830001
3516.000000;1.909208
3515.000000;2.228802
3514.000000;2.697485
3513.000000;2.262008
3512.000000;1.983589
3511.000000;1.854688
3510.000000;1.759096
3509.000000;1.675964
3508.000000;1.604482
3507.000000;1.591043
3506.000000;1.682472
3505.000000;1.817659
3504.000000;1.761135
3503.000000;1.721025
3502.000000;1.805849
3501.000000;1.939229
3500.000000;2.028007
3499.000000;2.174814
3498.000000;2.727321
3497.000000;2.389360
3496.000000;2.143528
3495.000000;2.399859
3494.000000;2.300747
3493.000000;1.957107
3492.000000;1.927962
3491.000000;2.028467
3490.000000;2.087433
3489.000000;2.133373
3488.000000;2.096984
3487.000000;1.866460
3486.000000;1.655084
3485.000000;1.592558
3484.000000;1.697453
3483.000000;2.062552
3482.000000;2.021295
3481.000000;1.788168
3480.000000;2.112320
3479.000000;2.131317
3478.000000;1.648139
3477.000000;1.508586
3476.000000;1.525162
3475.000000;1.653325
3474.000000;1.924039
3473.000000;2.253704
3472.000000;2.263870
3471.000000;2.039741
3470.000000;1.819834
3469.000000;1.728190
3468.000000;1.780550
3467.000000;1.996162
3466.000000;2.100085
3465.000000;1.863430
3464.000000;1.745545
3463.000000;1.753737
3462.000000;1.877551
3461.000000;2.260793
3460.000000;2.408108
3459.000000;2.057202
3458.000000;2.117049
3457.000000;2.164747
3456.000000;2.039796
3455.000000;2.004606
3454.000000;1.973420
3453.000000;2.053023
3452.000000;1.984905
3451.000000;1.763788
3450.000000;1.772199
3449.000000;1.981750
3448.000000;1.913127
3447.000000;1.753233
3446.000000;1.653992
3445.000000;1.573301
3444.000000;1.618442
3443.000000;1.785593
3442.000000;1.827743
3441.000000;1.756259
3440.000000;1.779406
3439.000000;1.823098
3438.000000;1.842359
3437.000000;1.881155
3436.000000;2.056200
3435.000000;2.054842
3434.000000;1.716246
3433.000000;1.544491
3432.000000;1.474326
3431.000000;1.424705
3430.000000;1.379098
3429.000000;1.374710
3428.000000;1.449254
3427.000000;1.607595
3426.000000;1.712499
3425.000000;1.796504
3424.000000;2.159228
3423.000000;1.923181
3422.000000;1.555010
3421.000000;1.428551
3420.000000;1.420303
3419.000000;1.491484
3418.000000;1.562294
3417.000000;1.600786
3416.000000;1.657005
3415.000000;1.752660
3414.000000;1.852618
3413.000000;1.858387
3412.000000;1.771101
3411.000000;1.722679
3410.000000;1.803266
3409.000000;2.209299
3408.000000;2.002717
3407.000000;1.513798
3406.000000;1.307105
3405.000000;1.248103
3404.000000;1.325568
3403.000000;1.579215
3402.000000;2.213884
3401.000000;1.970040
3400.000000;1.554026
3399.000000;1.476478
3398.000000;1.442918
3397.000000;1.420832
3396.000000;1.406953
3395.000000;1.537371
3394.000000;2.084848
3393.000000;2.000372
3392.000000;1.627355
3391.000000;1.467065
3390.000000;1.344497
3389.000000;1.309237
3388.000000;1.359387
3387.000000;1.493897
3386.000000;1.669123
3385.000000;1.800176
3384.000000;1.853062
3383.000000;1.706678
3382.000000;1.499673
3381.000000;1.423995
3380.000000;1.501461
3379.000000;1.602686
3378.000000;1.547073
3377.000000;1.514027
3376.000000;1.520127
3375.000000;1.496628
3374.000000;1.548244
3373.000000;1.810609
3372.000000;2.545228
3371.000000;3.239594
3370.000000;2.195809
3369.000000;1.698274
3368.000000;1.446219
3367.000000;1.348297
3366.000000;1.355718
3365.000000;1.474545
3364.000000;1.682973
3363.000000;1.766172
3362.000000;1.617655
3361.000000;1.477861
3360.000000;1.405027
3359.000000;1.398111
3358.000000;1.466420
3357.000000;1.595445
3356.000000;1.722347
3355.000000;1.740879
3354.000000;1.677132
3353.000000;1.590630
3352.000000;1.502308
3351.000000;1.461510
3350.000000;1.545871
3349.000000;1.926020
3348.000000;2.110037
3347.000000;1.723571
3346.000000;1.559311
3345.000000;1.473989
3344.000000;1.460298
3343.000000;1.553225
3342.000000;1.908903
3341.000000;2.210418
3340.000000;1.860897
3339.000000;1.991094
3338.000000;1.929490
3337.000000;1.522684
3336.000000;1.421823
3335.000000;1.509522
3334.000000;1.701644
3333.000000;1.864066
3332.000000;1.725014
3331.000000;1.566061
3330.000000;1.550813
3329.000000;1.643308
3328.000000;1.991573
3327.000000;2.515347
3326.000000;1.963082
3325.000000;1.786880
3324.000000;1.684569
3323.000000;1.575289
3322.000000;1.510220
3321.000000;1.521243
3320.000000;1.590734
3319.000000;1.762803
3318.000000;2.328365
3317.000000;2.166640
3316.000000;1.843292
3315.000000;1.863233
3314.000000;1.833733
3313.000000;1.908249
3312.000000;2.202425
3311.000000;1.715209
3310.000000;1.428389
3309.000000;1.406606
3308.000000;1.534197
3307.000000;1.910242
3306.000000;2.259715
3305.000000;1.737428
3304.000000;1.626947
3303.000000;1.652244
3302.000000;1.529469
3301.000000;1.371659
3300.000000;1.322993
3299.000000;1.401085
3298.000000;1.802032
3297.000000;2.179468
3296.000000;1.627889
3295.000000;1.499642
3294.000000;1.493623
3293.000000;1.537801
3292.000000;1.581031
3291.000000;1.584108
3290.000000;1.572551
3289.000000;1.519080
3288.000000;1.446355
3287.000000;1.381182
3286.000000;1.342732
3285.000000;1.339875
3284.000000;1.385241
3283.000000;1.503904
3282.000000;1.716150
3281.000000;1.795722
3280.000000;1.674455
3279.000000;1.609724
3278.000000;1.637436
3277.000000;1.729750
3276.000000;1.712448
3275.000000;1.730714
3274.000000;1.830306
3273.000000;1.712980
3272.000000;1.594811
3271.000000;1.559014
3270.000000;1.579042
3269.000000;1.746536
3268.000000;1.955805
3267.000000;1.863441
3266.000000;1.791015
3265.000000;1.806946
3264.000000;1.773280
3263.000000;1.869401
3262.000000;2.288042
3261.000000;2.054222
3260.000000;1.950621
3259.000000;2.198782
3258.000000;1.909212
3257.000000;1.693272
3256.000000;1.675932
3255.000000;1.739792
3254.000000;1.682820
3253.000000;1.563728
3252.000000;1.537054
3251.000000;1.708358
3250.000000;2.058364
3249.000000;1.832367
3248.000000;1.706236
3247.000000;1.812816
3246.000000;1.883576
3245.000000;1.838296
3244.000000;1.782044
3243.000000;1.716969
3242.000000;1.678428
3241.000000;1.720793
3240.000000;1.850210
3239.000000;1.893519
3238.000000;1.685543
3237.000000;1.444366
3236.000000;1.283244
3235.000000;1.219810
3234.000000;1.255297
3233.000000;1.382016
3232.000000;1.517048
3231.000000;1.666126
3230.000000;1.814206
3229.000000;1.643266
3228.000000;1.599092
3227.000000;1.704801
3226.000000;1.683559
3225.000000;1.612309
3224.000000;1.623039
3223.000000;1.596393
3222.000000;1.411030
3221.000000;1.300554
3220.000000;1.348280
3219.000000;1.519514
3218.000000;1.665438
3217.000000;1.642136
3216.000000;1.574252
3215.000000;1.621704
3214.000000;1.772933
3213.000000;1.618318
3212.000000;1.380682
3211.000000;1.304188
3210.000000;1.364869
3209.000000;1.615146
3208.000000;1.958126
3207.000000;1.691007
3206.000000;1.527914
3205.000000;1.607648
3204.000000;1.750597
3203.000000;1.591111
3202.000000;1.490603
3201.000000;1.556398
3200.000000;1.620290
3199.000000;1.611686
3198.000000;1.737691
3197.000000;1.888121
3196.000000;2.061630
3195.000000;2.412027
3194.000000;1.729728
3193.000000;1.540875
3192.000000;1.564684
3191.000000;1.579546
3190.000000;1.452104
3189.000000;1.292913
3188.000000;1.238939
3187.000000;1.324836
3186.000000;1.570301
3185.000000;1.850361
3184.000000;1.853655
3183.000000;1.723180
3182.000000;1.745824
3181.000000;2.147221
3180.000000;1.968162
3179.000000;1.756967
3178.000000;1.816316
3177.000000;1.800810
3176.000000;1.939055
3175.000000;1.961933
3174.000000;1.556323
3173.000000;1.394692
3172.000000;1.364893
3171.000000;1.423783
3170.000000;1.534139
3169.000000;1.509913
3168.000000;1.434853
3167.000000;1.491538
3166.000000;1.749283
3165.000000;2.083140
3164.000000;1.973169
3163.000000;1.779615
3162.000000;1.636940
3161.000000;1.571550
3160.000000;1.557686
3159.000000;1.545860
3158.000000;1.485795
3157.000000;1.409614
3156.000000;1.384260
3155.000000;1.399126
3154.000000;1.389190
3153.000000;1.345098
3152.000000;1.336328
3151.000000;1.419895
3150.000000;1.591522
3149.000000;1.732393
3148.000000;1.683562
3147.000000;1.508238
3146.000000;1.402126
3145.000000;1.394967
3144.000000;1.404358
3143.000000;1.386089
3142.000000;1.380889
3141.000000;1.398219
3140.000000;1.460234
3139.000000;1.585707
3138.000000;1.791637
3137.000000;1.982340
3136.000000;1.829214
3135.000000;1.747124
3134.000000;2.136652
3133.000000;2.373153
3132.000000;1.884250
3131.000000;1.779815
3130.000000;1.773301
3129.000000;1.686173
3128.000000;1.541239
3127.000000;1.531519
3126.000000;1.704545
3125.000000;1.642527
3124.000000;1.451111
3123.000000;1.423976
3122.000000;1.546516
3121.000000;1.749281
3120.000000;1.859716
3119.000000;2.111226
3118.000000;2.243823
3117.000000;1.754631
3116.000000;1.612999
3115.000000;1.650382
3114.000000;1.750312
3113.000000;1.659075
3112.000000;1.575433
3111.000000;1.608232
3110.000000;1.663586
3109.000000;1.753583
3108.000000;1.821611
3107.000000;1.759959
3106.000000;1.698819
3105.000000;1.648558
3104.000000;1.632628
3103.000000;1.690565
3102.000000;1.782587
3101.000000;1.716416
3100.000000;1.537586
3099.000000;1.475279
3098.000000;1.560791
3097.000000;1.616946
3096.000000;1.540860
3095.000000;1.543835
3094.000000;1.655075
3093.000000;1.756088
3092.000000;1.818805
3091.000000;1.920318
3090.000000;1.953773
3089.000000;1.902139
3088.000000;1.905312
3087.000000;2.052766
3086.000000;2.067319
3085.000000;1.743441
3084.000000;1.551283
3083.000000;1.507956
3082.000000;1.596468
3081.000000;1.745056
3080.000000;1.787332
3079.000000;1.665585
3078.000000;1.528584
3077.000000;1.483372
3076.000000;1.552195
3075.000000;1.752805
3074.000000;1.965984
3073.000000;1.826271
3072.000000;1.655996
3071.000000;1.587114
3070.000000;1.594479
3069.000000;1.634825
3068.000000;1.640728
3067.000000;1.625601
3066.000000;1.695162
3065.000000;1.892857
3064.000000;1.802872
3063.000000;1.629183
3062.000000;1.804508
3061.000000;2.253634
3060.000000;1.738796
3059.000000;1.620712
3058.000000;1.743774
3057.000000;2.048099
3056.000000;1.910720
3055.000000;1.774584
3054.000000;1.758448
3053.000000;1.577659
3052.000000;1.445289
3051.000000;1.432147
3050.000000;1.545823
3049.000000;1.796878
3048.000000;2.237168
3047.000000;2.623045
3046.000000;2.309060
3045.000000;1.994637
3044.000000;1.816834
3043.000000;1.830833
3042.000000;2.045543
3041.000000;2.555512
3040.000000;2.560332
3039.000000;2.172249
3038.000000;2.033593
3037.000000;2.024901
3036.000000;2.021336
3035.000000;1.816266
3034.000000;1.679775
3033.000000;1.670486
3032.000000;1.985632
3031.000000;2.152930
3030.000000;1.563917
3029.000000;1.420087
3028.000000;1.421801
3027.000000;1.541198
3026.000000;1.687481
3025.000000;1.742566
3024.000000;1.721539
3023.000000;1.674745
3022.000000;1.622162
3021.000000;1.612045
3020.000000;1.669270
3019.000000;1.785308
3018.000000;1.910763
3017.000000;2.101722
3016.000000;2.114226
3015.000000;1.804027
3014.000000;1.679752
3013.000000;1.738224
3012.000000;1.972378
3011.000000;2.106130
3010.000000;1.924179
3009.000000;1.794536
3008.000000;1.729149
3007.000000;1.782843
3006.000000;1.978170
3005.000000;2.224807
3004.000000;2.181490
3003.000000;1.995438
3002.000000;1.973624
3001.000000;2.126404
3000.000000;2.255408
2999.000000;2.034740
2998.000000;1.735813
2997.000000;1.613380
2996.000000;1.603428
2995.000000;1.555106
2994.000000;1.522712
2993.000000;1.586101
2992.000000;1.729959
2991.000000;1.964040
2990.000000;2.710056
2989.000000;2.076738
2988.000000;1.872419
2987.000000;1.855747
2986.000000;1.852158
2985.000000;1.929322
2984.000000;2.162917
2983.000000;2.057569
2982.000000;1.840058
2981.000000;1.748485
2980.000000;1.678907
2979.000000;1.615010
2978.000000;1.584735
2977.000000;1.607189
2976.000000;1.646780
2975.000000;1.657378
2974.000000;1.620184
2973.000000;1.578485
2972.000000;1.592119
2971.000000;1.603930
2970.000000;1.607547
2969.000000;1.724959
2968.000000;1.837271
2967.000000;1.744862
2966.000000;1.702960
2965.000000;1.724534
2964.000000;1.756816
2963.000000;1.850121
2962.000000;2.016806
2961.000000;2.291888
2960.000000;2.244793
2959.000000;2.092556
2958.000000;2.037093
2957.000000;2.030808
2956.000000;2.103598
2955.000000;2.137748
2954.000000;1.868734
2953.000000;1.639989
2952.000000;1.534262
2951.000000;1.542911
2950.000000;1.658932
2949.000000;2.030320
2948.000000;2.388594
2947.000000;2.001818
2946.000000;1.964183
2945.000000;2.031095
2944.000000;2.278460
2943.000000;2.054446
2942.000000;1.856573
2941.000000;1.974250
2940.000000;2.522843
2939.000000;2.078015
2938.000000;1.859557
2937.000000;1.904495
2936.000000;2.984404
2935.000000;1.883681
2934.000000;1.540344
2933.000000;1.412435
2932.000000;1.414357
2931.000000;1.576229
2930.000000;2.011217
2929.000000;2.116196
2928.000000;1.819613
2927.000000;1.842279
2926.000000;1.986127
2925.000000;2.105599
2924.000000;1.988026
2923.000000;1.756806
2922.000000;1.635744
2921.000000;1.667185
2920.000000;1.795104
2919.000000;1.882546
2918.000000;1.943437
2917.000000;1.925946
2916.000000;1.775701
2915.000000;1.705600
2914.000000;1.790724
2913.000000;2.075028
2912.000000;2.779309
2911.000000;2.474218
2910.000000;2.228674
2909.000000;2.094493
2908.000000;1.974406
2907.000000;1.957453
2906.000000;2.104195
2905.000000;2.636934
2904.000000;2.313807
2903.000000;2.069933
2902.000000;2.020948
2901.000000;2.097895
2900.000000;2.352037
2899.000000;2.502687
2898.000000;2.237018
2897.000000;2.272407
2896.000000;2.042332
2895.000000;1.767691
2894.000000;1.735321
2893.000000;1.866873
2892.000000;2.004187
2891.000000;2.312895
2890.000000;2.524217
2889.000000;2.124557
2888.000000;1.984456
2887.000000;1.921365
2886.000000;2.010177
2885.000000;2.355794
2884.000000;2.128569
2883.000000;1.963845
2882.000000;2.003825
2881.000000;2.227509
2880.000000;2.049334
2879.000000;1.882227
2878.000000;1.853253
2877.000000;1.784806
2876.000000;1.684888
2875.000000;1.648437
2874.000000;1.667598
2873.000000;1.691381
2872.000000;1.688902
2871.000000;1.692878
2870.000000;1.751026
2869.000000;1.671919
2868.000000;1.507687
2867.000000;1.502046
2866.000000;1.636783
2865.000000;1.918812
2864.000000;2.177099
2863.000000;1.935207
2862.000000;1.820220
2861.000000;2.385714
2860.000000;2.139333
2859.000000;1.846588
2858.000000;2.060804
2857.000000;2.471301
2856.000000;1.992646
2855.000000;1.865836
2854.000000;1.880497
2853.000000;1.848411
2852.000000;1.809623
2851.000000;1.785286
2850.000000;1.755778
2849.000000;1.717909
2848.000000;1.723560
2847.000000;1.859435
2846.000000;2.031979
2845.000000;1.919866
2844.000000;2.193133
2843.000000;2.690687
2842.000000;1.908734
2841.000000;1.775745
2840.000000;1.718943
2839.000000;1.786212
2838.000000;1.825694
2837.000000;1.794067
2836.000000;1.871122
2835.000000;1.946110
2834.000000;1.888809
2833.000000;2.263268
2832.000000;2.042488
2831.000000;1.668134
2830.000000;1.617987
2829.000000;1.771479
2828.000000;2.408805
2827.000000;2.328374
2826.000000;2.035485
2825.000000;1.978118
2824.000000;2.049497
2823.000000;1.970368
2822.000000;1.843672
2821.000000;1.785043
2820.000000;1.843107
2819.000000;2.078251
2818.000000;1.832556
2817.000000;1.603882
2816.000000;1.551184
2815.000000;1.553264
2814.000000;1.598310
2813.000000;1.705955
2812.000000;1.992885
2811.000000;2.257796
2810.000000;1.855680
2809.000000;1.616131
2808.000000;1.563107
2807.000000;1.665422
2806.000000;1.905310
2805.000000;2.228307
2804.000000;2.273206
2803.000000;1.960201
2802.000000;1.700363
2801.000000;1.584500
2800.000000;1.595243
2799.000000;1.677686
2798.000000;1.778640
2797.000000;1.933603
2796.000000;1.731872
2795.000000;1.484865
2794.000000;1.432780
2793.000000;1.622759
2792.000000;2.033753
2791.000000;2.196752
2790.000000;2.366754
2789.000000;1.758894
2788.000000;1.627728
2787.000000;1.624505
2786.000000;1.709009
2785.000000;1.944591
2784.000000;2.181548
2783.000000;1.999986
2782.000000;1.831729
2781.000000;1.754608
2780.000000;1.729367
2779.000000;1.712202
2778.000000;1.720911
2777.000000;1.924246
2776.000000;2.066139
2775.000000;1.780387
2774.000000;1.758193
2773.000000;1.955510
2772.000000;2.069330
2771.000000;1.837539
2770.000000;1.679401
2769.000000;1.814379
2768.000000;2.742161
2767.000000;1.755168
2766.000000;1.697631
2765.000000;1.966873
2764.000000;2.195099
2763.000000;1.935786
2762.000000;2.169008
2761.000000;2.216145
2760.000000;2.010310
2759.000000;1.843019
2758.000000;1.787680
2757.000000;1.625703
2756.000000;1.456934
2755.000000;1.473152
2754.000000;1.625681
2753.000000;1.636176
2752.000000;1.552075
2751.000000;1.534878
2750.000000;1.615192
2749.000000;1.655567
2748.000000;1.564545
2747.000000;1.571716
2746.000000;1.714911
2745.000000;2.078052
2744.000000;1.856944
2743.000000;1.642460
2742.000000;1.651205
2741.000000;1.853654
2740.000000;2.147365
2739.000000;2.230908
2738.000000;2.475774
2737.000000;2.229926
2736.000000;2.106655
2735.000000;1.952894
2734.000000;1.809840
2733.000000;2.117066
2732.000000;2.019365
2731.000000;1.572062
2730.000000;1.473447
2729.000000;1.486366
2728.000000;1.800832
2727.000000;2.157442
2726.000000;1.779482
2725.000000;1.722912
2724.000000;1.870108
2723.000000;1.834301
2722.000000;1.693776
2721.000000;1.667981
2720.000000;1.763270
2719.000000;1.939080
2718.000000;2.068641
2717.000000;2.396003
2716.000000;2.345081
2715.000000;1.886573
2714.000000;1.686594
2713.000000;1.621411
2712.000000;1.753217
2711.000000;2.229764
2710.000000;2.313862
2709.000000;1.925470
2708.000000;1.907310
2707.000000;1.906766
2706.000000;2.013577
2705.000000;2.257912
2704.000000;2.665402
2703.000000;2.301795
2702.000000;1.805299
2701.000000;1.573155
2700.000000;1.489852
2699.000000;1.530036
2698.000000;1.887483
2697.000000;2.079065
2696.000000;1.791761
2695.000000;1.750712
2694.000000;1.658437
2693.000000;1.488307
2692.000000;1.394709
2691.000000;1.460311
2690.000000;1.709125
2689.000000;1.738240
2688.000000;1.553917
2687.000000;1.486201
2686.000000;1.576059
2685.000000;1.809002
2684.000000;1.868411
2683.000000;1.742769
2682.000000;1.585434
2681.000000;1.519744
2680.000000;1.563022
2679.000000;1.746099
2678.000000;2.055706
2677.000000;2.363209
2676.000000;1.910021
2675.000000;1.538249
2674.000000;1.434993
2673.000000;1.502228
2672.000000;1.829504
2671.000000;2.324364
2670.000000;2.218402
2669.000000;1.966786
2668.000000;1.945827
2667.000000;1.718790
2666.000000;1.465591
2665.000000;1.444287
2664.000000;1.608741
2663.000000;1.765249
2662.000000;1.927238
2661.000000;2.440187
2660.000000;2.300087
2659.000000;1.977056
2658.000000;1.758757
2657.000000;1.630422
2656.000000;1.627773
2655.000000;1.772656
2654.000000;1.936085
2653.000000;1.752844
2652.000000;1.547645
2651.000000;1.525933
2650.000000;1.605588
2649.000000;1.651459
2648.000000;1.737357
2647.000000;1.535745
2646.000000;1.311652
2645.000000;1.240319
2644.000000;1.226429
2643.000000;1.250974
2642.000000;1.341329
2641.000000;1.500650
2640.000000;1.448246
2639.000000;1.288647
2638.000000;1.227086
2637.000000;1.233493
2636.000000;1.309117
2635.000000;1.600213
2634.000000;1.913121
2633.000000;1.645334
2632.000000;1.910008
2631.000000;2.227165
2630.000000;1.908701
2629.000000;1.561562
2628.000000;1.407793
2627.000000;1.453277
2626.000000;1.541123
2625.000000;1.584213
2624.000000;1.588789
2623.000000;1.511745
2622.000000;1.604204
2621.000000;1.917824
2620.000000;1.577911
2619.000000;1.430238
2618.000000;1.556646
2617.000000;1.680805
2616.000000;1.712302
2615.000000;1.590871
2614.000000;1.567069
2613.000000;1.630646
2612.000000;1.545115
2611.000000;1.373228
2610.000000;1.321380
2609.000000;1.448755
2608.000000;1.643225
2607.000000;1.614993
2606.000000;1.587609
2605.000000;1.652688
2604.000000;1.732499
2603.000000;1.693451
2602.000000;1.600528
2601.000000;1.524072
2600.000000;1.478389
2599.000000;1.471227
2598.000000;1.495022
2597.000000;1.532435
2596.000000;1.505411
2595.000000;1.462572
2594.000000;1.534235
2593.000000;1.684280
2592.000000;1.708122
2591.000000;1.578641
2590.000000;1.509652
2589.000000;1.624876
2588.000000;1.638912
2587.000000;1.454770
2586.000000;1.411802
2585.000000;1.466284
2584.000000;1.549555
2583.000000;1.776525
2582.000000;1.699264
2581.000000;1.413720
2580.000000;1.352719
2579.000000;1.452747
2578.000000;1.636719
2577.000000;1.682183
2576.000000;1.621210
2575.000000;1.777175
2574.000000;1.808242
2573.000000;1.569250
2572.000000;1.547719
2571.000000;1.722770
2570.000000;1.888806
2569.000000;1.700165
2568.000000;1.558910
2567.000000;1.555840
2566.000000;1.687585
2565.000000;1.838437
2564.000000;1.820550
2563.000000;1.692818
2562.000000;1.581376
2561.000000;1.551877
2560.000000;1.690822
2559.000000;2.345290
2558.000000;1.925149
2557.000000;1.600583
2556.000000;1.430988
2555.000000;1.347203
2554.000000;1.384815
2553.000000;1.519464
2552.000000;1.535819
2551.000000;1.415214
2550.000000;1.389995
2549.000000;1.456989
2548.000000;1.621954
2547.000000;2.063693
2546.000000;3.189100
2545.000000;2.537365
2544.000000;1.991010
2543.000000;1.727739
2542.000000;1.769929
2541.000000;2.099521
2540.000000;2.475785
2539.000000;2.114340
2538.000000;2.030873
2537.000000;2.238315
2536.000000;2.342722
2535.000000;2.500481
2534.000000;2.526135
2533.000000;2.007623
2532.000000;1.820148
2531.000000;1.724337
2530.000000;1.610364
2529.000000;1.597405
2528.000000;1.769466
2527.000000;2.268003
2526.000000;2.297350
2525.000000;1.770436
2524.000000;1.540944
2523.000000;1.455743
2522.000000;1.494627
2521.000000;1.654175
2520.000000;1.884855
2519.000000;2.105141
2518.000000;2.323978
2517.000000;1.901740
2516.000000;1.552344
2515.000000;1.437804
2514.000000;1.474776
2513.000000;1.657355
2512.000000;1.618544
2511.000000;1.485329
2510.000000;1.529665
2509.000000;1.674152
2508.000000;1.708526
2507.000000;1.565066
2506.000000;1.517428
2505.000000;1.671819
2504.000000;1.977292
2503.000000;2.050319
2502.000000;1.994438
2501.000000;1.879138
2500.000000;2.111944
2499.000000;2.169090
2498.000000;1.813522
2497.000000;1.843186
2496.000000;1.881924
2495.000000;2.023234
2494.000000;1.828616
2493.000000;1.585868
2492.000000;1.859655
2491.000000;2.166780
2490.000000;1.606250
2489.000000;1.479625
2488.000000;1.518904
2487.000000;1.606419
2486.000000;1.605947
2485.000000;1.571565
2484.000000;1.640226
2483.000000;1.792520
2482.000000;1.895923
2481.000000;1.937042
2480.000000;2.187066
2479.000000;2.092254
2478.000000;1.865334
2477.000000;1.909385
2476.000000;1.931791
2475.000000;1.895411
2474.000000;1.886514
2473.000000;1.720171
2472.000000;1.624112
2471.000000;1.667396
2470.000000;1.695304
2469.000000;1.697181
2468.000000;1.932137
2467.000000;2.515676
2466.000000;2.473324
2465.000000;2.133238
2464.000000;1.783126
2463.000000;1.588560
2462.000000;1.561973
2461.000000;1.680689
2460.000000;2.003014
2459.000000;2.436138
2458.000000;2.024390
2457.000000;1.753386
2456.000000;1.571998
2455.000000;1.409012
2454.000000;1.324906
2453.000000;1.301932
2452.000000;1.320527
2451.000000;1.377223
2450.000000;1.430111
2449.000000;1.419067
2448.000000;1.402456
2447.000000;1.420370
2446.000000;1.446535
2445.000000;1.465193
2444.000000;1.484087
2443.000000;1.537479
2442.000000;1.714197
2441.000000;1.972450
2440.000000;1.952406
2439.000000;1.938025
2438.000000;2.039801
2437.000000;2.047091
2436.000000;1.790529
2435.000000;1.515353
2434.000000;1.385593
2433.000000;1.386504
2432.000000;1.526961
2431.000000;1.823176
2430.000000;1.876255
2429.000000;1.729539
2428.000000;1.692085
2427.000000;1.672974
2426.000000;1.620828
2425.000000;1.528186
2424.000000;1.460975
2423.000000;1.492230
2422.000000;1.710766
2421.000000;1.936503
2420.000000;1.708303
2419.000000;1.643687
2418.000000;1.757829
2417.000000;1.908997
2416.000000;2.066290
2415.000000;1.924969
2414.000000;1.673315
2413.000000;1.805890
2412.000000;2.183871
2411.000000;1.711917
2410.000000;1.492239
2409.000000;1.498240
2408.000000;1.593235
2407.000000;1.959916
2406.000000;2.131003
2405.000000;1.580379
2404.000000;1.363824
2403.000000;1.325669
2402.000000;1.412545
2401.000000;1.545992
2400.000000;1.552959
2399.000000;1.536071
2398.000000;1.477159
2397.000000;1.368623
2396.000000;1.339947
2395.000000;1.379584
2394.000000;1.400488
2393.000000;1.410718
2392.000000;1.502171
2391.000000;1.596370
2390.000000;1.564033
2389.000000;1.598819
2388.000000;1.652489
2387.000000;1.529621
2386.000000;1.401278
2385.000000;1.355478
2384.000000;1.330963
2383.000000;1.304692
2382.000000;1.277213
2381.000000;1.222912
2380.000000;1.216244
2379.000000;1.366770
2378.000000;1.628166
2377.000000;1.587489
2376.000000;1.472381
2375.000000;1.704085
2374.000000;1.784352
2373.000000;1.385290
2372.000000;1.228365
2371.000000;1.334496
2370.000000;1.687490
2369.000000;1.453789
2368.000000;1.236104
2367.000000;1.355707
2366.000000;1.700997
2365.000000;1.463934
2364.000000;1.290312
2363.000000;1.547055
2362.000000;2.031398
2361.000000;1.466251
2360.000000;1.527748
2359.000000;1.756315
2358.000000;1.279073
2357.000000;1.074012
2356.000000;1.119727
2355.000000;1.384897
2354.000000;1.603803
2353.000000;1.777766
2352.000000;1.791191
2351.000000;1.486312
2350.000000;1.388653
2349.000000;1.493854
2348.000000;1.563725
2347.000000;1.293421
2346.000000;1.125880
2345.000000;1.157931
2344.000000;1.323378
2343.000000;1.379229
2342.000000;1.314328
2341.000000;1.445242
2340.000000;1.466505
2339.000000;1.264039
2338.000000;1.242999
2337.000000;1.457865
2336.000000;1.819490
2335.000000;1.569791
2334.000000;1.432828
2333.000000;1.679563
2332.000000;1.736572
2331.000000;1.455783
2330.000000;1.390508
2329.000000;1.447600
2328.000000;1.770635
2327.000000;1.431052
2326.000000;1.046815
2325.000000;0.964154
2324.000000;1.000109
2323.000000;1.153217
2322.000000;1.291986
2321.000000;1.342089
2320.000000;1.710721
2319.000000;1.547268
2318.000000;1.128413
2317.000000;0.951134
2316.000000;0.905542
2315.000000;0.964758
2314.000000;1.178264
2313.000000;1.613639
2312.000000;1.405435
2311.000000;1.191016
2310.000000;1.191718
2309.000000;1.273820
2308.000000;1.251330
2307.000000;1.094861
2306.000000;1.023051
2305.000000;1.011913
2304.000000;1.014951
2303.000000;1.018818
2302.000000;1.040973
2301.000000;1.082525
2300.000000;1.108494
2299.000000;1.118543
2298.000000;1.125780
2297.000000;1.122417
2296.000000;1.128825
2295.000000;1.171877
2294.000000;1.229427
2293.000000;1.249065
2292.000000;1.294541
2291.000000;1.442406
2290.000000;1.576342
2289.000000;1.679667
2288.000000;1.659644
2287.000000;1.389117
2286.000000;1.262755
2285.000000;1.281168
2284.000000;1.507085
2283.000000;1.978251
2282.000000;1.722026
2281.000000;1.541229
2280.000000;1.511892
2279.000000;1.519404
2278.000000;1.584688
2277.000000;1.937280
2276.000000;2.241960
2275.000000;1.586184
2274.000000;1.347876
2273.000000;1.311044
2272.000000;1.435126
2271.000000;1.731024
2270.000000;1.867593
2269.000000;1.650321
2268.000000;1.529092
2267.000000;1.692836
2266.000000;2.178339
2265.000000;1.822461
2264.000000;1.651128
2263.000000;1.799496
2262.000000;1.916576
2261.000000;1.849996
2260.000000;1.743288
2259.000000;1.678080
2258.000000;1.625638
2257.000000;1.607267
2256.000000;1.582892
2255.000000;1.576270
2254.000000;1.544663
2253.000000;1.519048
2252.000000;1.457438
2251.000000;1.355570
2250.000000;1.273289
2249.000000;1.258019
2248.000000;1.700913
2247.000000;1.846985
2246.000000;1.248577
2245.000000;1.152403
2244.000000;1.187308
2243.000000;1.359907
2242.000000;1.583581
2241.000000;1.588099
2240.000000;1.557469
2239.000000;1.395637
2238.000000;1.295587
2237.000000;1.287014
2236.000000;1.201560
2235.000000;1.117291
2234.000000;1.160903
2233.000000;1.410004
2232.000000;1.614206
2231.000000;1.430322
2230.000000;1.424583
2229.000000;1.467735
2228.000000;1.465719
2227.000000;1.396715
2226.000000;1.263446
2225.000000;1.241129
2224.000000;1.433433
2223.000000;1.964280
2222.000000;1.786808
2221.000000;1.517573
2220.000000;1.467379
2219.000000;1.600582
2218.000000;1.965682
2217.000000;1.536800
2216.000000;1.310570
2215.000000;1.366597
2214.000000;1.526065
2213.000000;1.750594
2212.000000;2.054318
2211.000000;2.048434
2210.000000;1.687894
2209.000000;1.496322
2208.000000;1.439357
2207.000000;1.522604
2206.000000;1.809045
2205.000000;1.806762
2204.000000;1.474530
2203.000000;1.327675
2202.000000;1.292886
2201.000000;1.348653
2200.000000;1.536791
2199.000000;1.710015
2198.000000;1.686626
2197.000000;1.654972
2196.000000;1.601828
2195.000000;1.528205
2194.000000;1.460703
2193.000000;1.425289
2192.000000;1.458802
2191.000000;1.518798
2190.000000;1.526221
2189.000000;1.476275
2188.000000;1.430353
2187.000000;1.413918
2186.000000;1.424006
2185.000000;1.433432
2184.000000;1.439922
2183.000000;1.483548
2182.000000;1.539578
2181.000000;1.491953
2180.000000;1.422295
2179.000000;1.422758
2178.000000;1.447507
2177.000000;1.425888
2176.000000;1.326763
2175.000000;1.245253
2174.000000;1.268686
2173.000000;1.475153
2172.000000;1.565048
2171.000000;1.313254
2170.000000;1.200601
2169.000000;1.192136
2168.000000;1.387544
2167.000000;1.894186
2166.000000;1.624373
2165.000000;1.467899
2164.000000;1.757001
2163.000000;2.124553
2162.000000;1.930357
2161.000000;1.719285
2160.000000;1.585457
2159.000000;1.465880
2158.000000;1.362029
2157.000000;1.313267
2156.000000;1.337118
2155.000000;1.430632
2154.000000;1.650965
2153.000000;1.965756
2152.000000;1.868471
2151.000000;1.750073
2150.000000;1.810291
2149.000000;1.814748
2148.000000;1.677403
2147.000000;1.579465
2146.000000;1.740276
2145.000000;2.180279
2144.000000;1.816247
2143.000000;1.553810
2142.000000;1.672192
2141.000000;2.118605
2140.000000;1.846951
2139.000000;1.511724
2138.000000;1.415570
2137.000000;1.417942
2136.000000;1.505502
2135.000000;1.540194
2134.000000;1.555664
2133.000000;1.640769
2132.000000;1.714797
2131.000000;1.742814
2130.000000;1.738344
2129.000000;1.804245
2128.000000;1.784227
2127.000000;1.600778
2126.000000;1.513607
2125.000000;1.532552
2124.000000;1.588837
2123.000000;1.678773
2122.000000;1.818764
2121.000000;1.760670
2120.000000;1.574489
2119.000000;1.648087
2118.000000;1.712850
2117.000000;1.499008
2116.000000;1.493058
2115.000000;1.620558
2114.000000;1.490709
2113.000000;1.393305
2112.000000;1.389218
2111.000000;1.444054
2110.000000;1.872714
2109.000000;1.758813
2108.000000;1.308434
2107.000000;1.193818
2106.000000;1.209068
2105.000000;1.364262
2104.000000;1.730019
2103.000000;2.053008
2102.000000;1.815990
2101.000000;1.580759
2100.000000;1.372190
2099.000000;1.244092
2098.000000;1.235188
2097.000000;1.349549
2096.000000;1.530797
2095.000000;1.568349
2094.000000;1.525293
2093.000000;1.506037
2092.000000;1.492067
2091.000000;1.532678
2090.000000;1.699344
2089.000000;1.768946
2088.000000;1.544673
2087.000000;1.379803
2086.000000;1.284787
2085.000000;1.229623
2084.000000;1.208732
2083.000000;1.261386
2082.000000;1.459362
2081.000000;1.530296
2080.000000;1.355865
2079.000000;1.286437
2078.000000;1.312408
2077.000000;1.368251
2076.000000;1.490053
2075.000000;1.578944
2074.000000;1.445400
2073.000000;1.395190
2072.000000;1.500455
2071.000000;1.679578
2070.000000;1.895035
2069.000000;1.768482
2068.000000;1.580709
2067.000000;1.621145
2066.000000;1.819497
2065.000000;1.820355
2064.000000;1.702832
2063.000000;1.669514
2062.000000;1.634938
2061.000000;1.554162
2060.000000;1.596303
2059.000000;1.985771
2058.000000;1.717682
2057.000000;1.325805
2056.000000;1.197369
2055.000000;1.146619
2054.000000;1.166831
2053.000000;1.265781
2052.000000;1.456136
2051.000000;1.633628
2050.000000;1.525830
2049.000000;1.331389
2048.000000;1.232137
2047.000000;1.243835
2046.000000;1.374571
2045.000000;1.484373
2044.000000;1.463329
2043.000000;1.501850
2042.000000;1.721955
2041.000000;2.223178
2040.000000;1.779571
2039.000000;1.444164
2038.000000;1.398753
2037.000000;1.606065
2036.000000;2.141181
2035.000000;1.902418
2034.000000;1.660822
2033.000000;1.630644
2032.000000;1.612105
2031.000000;1.627893
2030.000000;1.644472
2029.000000;1.529780
2028.000000;1.329598
2027.000000;1.169756
2026.000000;1.087302
2025.000000;1.099798
2024.000000;1.225011
2023.000000;1.426250
2022.000000;1.522748
2021.000000;1.455129
2020.000000;1.463912
2019.000000;1.632530
2018.000000;1.586482
2017.000000;1.379101
2016.000000;1.323747
2015.000000;1.345195
2014.000000;1.492587
2013.000000;1.872214
2012.000000;1.642107
2011.000000;1.346081
2010.000000;1.315320
2009.000000;1.511089
2008.000000;1.671282
2007.000000;1.435435
2006.000000;1.361570
2005.000000;1.403060
2004.000000;1.601374
2003.000000;1.922766
2002.000000;1.602405
2001.000000;1.407854
2000.000000;1.427596
1999.000000;1.663530
1998.000000;1.741826
1997.000000;1.376343
1996.000000;1.197434
1995.000000;1.149864
1994.000000;1.164996
1993.000000;1.231916
1992.000000;1.355176
1991.000000;1.438346
1990.000000;1.415848
1989.000000;1.477528
1988.000000;1.795066
1987.000000;2.159559
1986.000000;1.847229
1985.000000;1.733580
1984.000000;1.646919
1983.000000;1.554983
1982.000000;1.529650
1981.000000;1.577048
1980.000000;1.519031
1979.000000;1.346376
1978.000000;1.271675
1977.000000;1.334976
1976.000000;1.633261
1975.000000;1.958349
1974.000000;1.615487
1973.000000;1.580491
1972.000000;1.860406
1971.000000;1.519975
1970.000000;1.260789
1969.000000;1.249791
1968.000000;1.382028
1967.000000;1.578002
1966.000000;1.642011
1965.000000;1.590033
1964.000000;1.648864
1963.000000;1.855113
1962.000000;1.692981
1961.000000;1.441709
1960.000000;1.295893
1959.000000;1.240056
1958.000000;1.283774
1957.000000;1.450539
1956.000000;1.838357
1955.000000;1.646676
1954.000000;1.421855
1953.000000;1.672143
1952.000000;1.705074
1951.000000;1.441621
1950.000000;1.446090
1949.000000;1.547721
1948.000000;1.572022
1947.000000;1.499918
1946.000000;1.498645
1945.000000;1.563404
1944.000000;1.565517
1943.000000;1.661536
1942.000000;2.048710
1941.000000;1.901580
1940.000000;1.692063
1939.000000;1.861652
1938.000000;2.084241
1937.000000;1.708826
1936.000000;1.650362
1935.000000;1.994304
1934.000000;2.457774
1933.000000;2.344354
1932.000000;1.612941
1931.000000;1.324484
1930.000000;1.287638
1929.000000;1.408489
1928.000000;1.667570
1927.000000;1.929232
1926.000000;2.195125
1925.000000;2.077140
1924.000000;1.666698
1923.000000;1.458774
1922.000000;1.422388
1921.000000;1.654017
1920.000000;2.106260
1919.000000;1.773091
1918.000000;1.676528
1917.000000;1.812696
1916.000000;1.471153
1915.000000;1.228002
1914.000000;1.197197
1913.000000;1.322297
1912.000000;1.624268
1911.000000;1.919939
1910.000000;1.757316
1909.000000;1.731248
1908.000000;2.027487
1907.000000;1.751660
1906.000000;1.332888
1905.000000;1.158805
1904.000000;1.156921
1903.000000;1.310372
1902.000000;1.404344
1901.000000;1.388091
1900.000000;1.482827
1899.000000;1.549837
1898.000000;1.457182
1897.000000;1.326378
1896.000000;1.281396
1895.000000;1.347243
1894.000000;1.716681
1893.000000;2.058896
1892.000000;1.842460
1891.000000;2.248700
1890.000000;1.880226
1889.000000;1.629211
1888.000000;1.849169
1887.000000;2.095913
1886.000000;1.691497
1885.000000;1.716042
1884.000000;2.381366
1883.000000;2.368102
1882.000000;1.903239
1881.000000;1.470947
1880.000000;1.446951
1879.000000;1.621742
1878.000000;1.394864
1877.000000;1.293214
1876.000000;1.256198
1875.000000;1.069984
1874.000000;0.973784
1873.000000;1.044231
1872.000000;1.298531
1871.000000;1.776315
1870.000000;2.323822
1869.000000;2.346350
1868.000000;1.856006
1867.000000;1.442346
1866.000000;1.166784
1865.000000;1.063207
1864.000000;1.115280
1863.000000;1.374760
1862.000000;1.807166
1861.000000;1.471754
1860.000000;1.389470
1859.000000;1.503751
1858.000000;1.320947
1857.000000;1.217224
1856.000000;1.243568
1855.000000;1.279301
1854.000000;1.309281
1853.000000;1.327942
1852.000000;1.307586
1851.000000;1.285661
1850.000000;1.439245
1849.000000;1.898267
1848.000000;1.633820
1847.000000;1.366004
1846.000000;1.399493
1845.000000;1.674189
1844.000000;2.211899
1843.000000;2.258843
1842.000000;1.864648
1841.000000;1.679398
1840.000000;2.194181
1839.000000;1.607306
1838.000000;1.153724
1837.000000;1.066138
1836.000000;1.154774
1835.000000;1.404356
1834.000000;1.735613
1833.000000;1.799658
1832.000000;1.874951
1831.000000;2.586791
1830.000000;1.577462
1829.000000;1.258894
1828.000000;1.263272
1827.000000;1.622256
1826.000000;2.177050
1825.000000;1.814322
1824.000000;1.704167
1823.000000;1.686875
1822.000000;1.861713
1821.000000;1.699382
1820.000000;1.808118
1819.000000;1.932665
1818.000000;1.532709
1817.000000;1.497265
1816.000000;1.749283
1815.000000;1.816374
1814.000000;1.601430
1813.000000;1.746814
1812.000000;2.131345
1811.000000;1.727181
1810.000000;1.489908
1809.000000;1.503349
1808.000000;1.677435
1807.000000;1.607480
1806.000000;1.388682
1805.000000;1.320174
1804.000000;1.412994
1803.000000;1.586501
1802.000000;1.575260
1801.000000;1.534306
1800.000000;1.514465
1799.000000;1.409734
1798.000000;1.281942
1797.000000;1.174281
1796.000000;1.138770
1795.000000;1.195571
1794.000000;1.243720
1793.000000;1.213927
1792.000000;1.236941
1791.000000;1.511152
1790.000000;1.679931
1789.000000;1.507119
1788.000000;1.691730
1787.000000;1.515089
1786.000000;1.329685
1785.000000;1.486777
1784.000000;1.824166
1783.000000;1.750401
1782.000000;1.460049
1781.000000;1.354013
1780.000000;1.397493
1779.000000;1.515394
1778.000000;1.566360
1777.000000;1.435218
1776.000000;1.266062
1775.000000;1.212248
1774.000000;1.307337
1773.000000;1.452690
1772.000000;1.434348
1771.000000;1.402254
1770.000000;1.752341
1769.000000;1.792978
1768.000000;1.307487
1767.000000;1.175861
1766.000000;1.151722
1765.000000;1.200363
1764.000000;1.277459
1763.000000;1.318122
1762.000000;1.294608
1761.000000;1.211854
1760.000000;1.106581
1759.000000;1.028999
1758.000000;1.011251
1757.000000;1.055835
1756.000000;1.158316
1755.000000;1.394518
1754.000000;1.639898
1753.000000;1.344771
1752.000000;1.193521
1751.000000;1.185664
1750.000000;1.184988
1749.000000;1.199532
1748.000000;1.296514
1747.000000;1.594059
1746.000000;1.545894
1745.000000;1.180917
1744.000000;1.060670
1743.000000;1.082358
1742.000000;1.090691
1741.000000;0.980684
1740.000000;0.892426
1739.000000;0.894048
1738.000000;1.008191
1737.000000;1.232803
1736.000000;1.491523
1735.000000;1.702661
1734.000000;1.974461
1733.000000;1.939134
1732.000000;1.556244
1731.000000;1.310989
1730.000000;1.155088
1729.000000;1.105872
1728.000000;1.124841
1727.000000;1.102361
1726.000000;1.091291
1725.000000;1.236062
1724.000000;1.699993
1723.000000;1.759980
1722.000000;1.676408
1721.000000;1.745065
1720.000000;1.616667
1719.000000;1.495953
1718.000000;1.402998
1717.000000;1.412319
1716.000000;1.358543
1715.000000;1.185663
1714.000000;1.142340
1713.000000;1.192036
1712.000000;1.260821
1711.000000;1.293944
1710.000000;1.327777
1709.000000;1.481587
1708.000000;1.291305
1707.000000;0.994208
1706.000000;0.895301
1705.000000;0.950886
1704.000000;1.200093
1703.000000;1.688720
1702.000000;1.813581
1701.000000;1.552514
1700.000000;1.478683
1699.000000;1.548293
1698.000000;1.702838
1697.000000;1.853203
1696.000000;1.616800
1695.000000;1.233743
1694.000000;1.088076
1693.000000;1.109653
1692.000000;1.210124
1691.000000;1.361637
1690.000000;1.518652
1689.000000;1.612434
1688.000000;1.699892
1687.000000;1.734305
1686.000000;1.756348
1685.000000;1.760312
1684.000000;1.824255
1683.000000;1.978844
1682.000000;1.600779
1681.000000;1.465535
1680.000000;1.532177
1679.000000;1.841687
1678.000000;1.723963
1677.000000;1.424339
1676.000000;1.370026
1675.000000;1.432748
1674.000000;1.603146
1673.000000;2.004176
1672.000000;2.001407
1671.000000;1.668326
1670.000000;1.784589
1669.000000;1.897670
1668.000000;1.461401
1667.000000;1.305357
1666.000000;1.140455
1665.000000;1.039590
1664.000000;1.080647
1663.000000;1.290434
1662.000000;1.789297
1661.000000;2.006560
1660.000000;1.629267
1659.000000;1.409596
1658.000000;1.266066
1657.000000;1.233279
1656.000000;1.264368
1655.000000;1.331031
1654.000000;1.362229
1653.000000;1.770291
1652.000000;1.532611
1651.000000;1.040722
1650.000000;0.964919
1649.000000;0.977452
1648.000000;1.010397
1647.000000;1.041817
1646.000000;1.135534
1645.000000;1.357303
1644.000000;1.379714
1643.000000;1.155123
1642.000000;0.974506
1641.000000;0.883455
1640.000000;0.897221
1639.000000;1.064602
1638.000000;1.533971
1637.000000;1.583582
1636.000000;1.193229
1635.000000;1.150810
1634.000000;1.294655
1633.000000;1.534562
1632.000000;1.446936
1631.000000;1.266084
1630.000000;1.222787
1629.000000;1.269311
1628.000000;1.351998
1627.000000;1.467617
1626.000000;1.827875
1625.000000;1.468157
1624.000000;1.147801
1623.000000;1.101592
1622.000000;1.371123
1621.000000;1.723962
1620.000000;1.395525
1619.000000;1.394374
1618.000000;1.421288
1617.000000;1.339753
1616.000000;1.537921
1615.000000;1.357006
1614.000000;1.208490
1613.000000;1.426431
1612.000000;1.735342
1611.000000;1.165591
1610.000000;1.013482
1609.000000;1.080703
1608.000000;1.475315
1607.000000;1.583419
1606.000000;1.193302
1605.000000;1.113694
1604.000000;1.007298
1603.000000;0.888846
1602.000000;0.801554
1601.000000;0.803394
1600.000000;0.914667
1599.000000;1.292685
1598.000000;1.633621
1597.000000;1.296781
1596.000000;1.249556
1595.000000;1.365104
1594.000000;1.491626
1593.000000;1.435990
1592.000000;1.228644
1591.000000;1.086725
1590.000000;1.066504
1589.000000;1.171176
1588.000000;1.442417
1587.000000;1.350199
1586.000000;1.059547
1585.000000;0.971931
1584.000000;1.043852
1583.000000;1.259000
1582.000000;1.571223
1581.000000;1.895962
1580.000000;2.019314
1579.000000;1.627072
1578.000000;1.277884
1577.000000;1.095026
1576.000000;1.139692
1575.000000;1.180821
1574.000000;1.038350
1573.000000;1.104553
1572.000000;1.334401
1571.000000;1.603568
1570.000000;1.325346
1569.000000;1.035904
1568.000000;0.939865
1567.000000;0.963718
1566.000000;1.029757
1565.000000;1.072032
1564.000000;1.089993
1563.000000;1.097163
1562.000000;1.102821
1561.000000;1.201556
1560.000000;1.451792
1559.000000;1.462981
1558.000000;1.172427
1557.000000;1.278703
1556.000000;1.484166
1555.000000;1.214571
1554.000000;1.092148
1553.000000;1.142251
1552.000000;1.312788
1551.000000;1.433328
1550.000000;1.414452
1549.000000;1.478153
1548.000000;1.812285
1547.000000;1.770293
1546.000000;1.602760
1545.000000;1.795834
1544.000000;1.811170
1543.000000;1.803251
1542.000000;1.901758
1541.000000;1.942640
1540.000000;2.287879
1539.000000;1.719544
1538.000000;1.555157
1537.000000;1.576997
1536.000000;1.615462
1535.000000;1.589410
1534.000000;1.453586
1533.000000;1.338885
1532.000000;1.349819
1531.000000;1.509570
1530.000000;1.725003
1529.000000;1.602623
1528.000000;1.412328
1527.000000;1.367338
1526.000000;1.370154
1525.000000;1.311401
1524.000000;1.222326
1523.000000;1.191867
1522.000000;1.329346
1521.000000;1.610793
1520.000000;1.495260
1519.000000;1.435631
1518.000000;1.458467
1517.000000;1.271637
1516.000000;1.069650
1515.000000;1.010280
1514.000000;1.110638
1513.000000;1.372781
1512.000000;1.822209
1511.000000;1.962986
1510.000000;1.403555
1509.000000;1.214213
1508.000000;1.206347
1507.000000;1.233459
1506.000000;1.185890
1505.000000;1.174461
1504.000000;1.205941
1503.000000;1.201430
1502.000000;1.201110
1501.000000;1.206535
1500.000000;1.228414
1499.000000;1.308363
1498.000000;1.388912
1497.000000;1.408810
1496.000000;1.776131
1495.000000;1.679236
1494.000000;1.254512
1493.000000;1.245580
1492.000000;1.283825
1491.000000;1.303696
1490.000000;1.285638
1489.000000;1.361516
1488.000000;1.732103
1487.000000;1.606233
1486.000000;1.358379
1485.000000;1.260019
1484.000000;1.161701
1483.000000;1.099253
1482.000000;1.117564
1481.000000;1.275468
1480.000000;1.443052
1479.000000;1.421620
1478.000000;1.580707
1477.000000;1.836316
1476.000000;1.554487
1475.000000;1.270005
1474.000000;1.375290
1473.000000;1.541125
1472.000000;1.003973
1471.000000;0.867228
1470.000000;0.917501
1469.000000;1.182675
1468.000000;1.288931
1467.000000;1.044539
1466.000000;0.994946
1465.000000;1.014556
1464.000000;1.072566
1463.000000;1.142022
1462.000000;1.267853
1461.000000;1.158293
1460.000000;0.927934
1459.000000;0.824646
1458.000000;0.833317
1457.000000;0.958653
1456.000000;1.261447
1455.000000;1.370139
1454.000000;1.310354
1453.000000;1.388887
1452.000000;1.597293
1451.000000;1.390817
1450.000000;1.239390
1449.000000;1.373965
1448.000000;1.917175
1447.000000;1.763657
1446.000000;1.850042
1445.000000;1.629794
1444.000000;1.101757
1443.000000;0.963895
1442.000000;0.948161
1441.000000;0.967979
1440.000000;0.959628
1439.000000;1.012319
1438.000000;1.210503
1437.000000;1.516152
1436.000000;1.557831
1435.000000;1.826620
1434.000000;1.546834
1433.000000;1.167020
1432.000000;1.118248
1431.000000;1.109965
1430.000000;0.961966
1429.000000;0.920695
1428.000000;1.056265
1427.000000;1.437434
1426.000000;1.715707
1425.000000;1.398055
1424.000000;1.378473
1423.000000;1.244196
1422.000000;1.138141
1421.000000;1.148856
1420.000000;1.184140
1419.000000;1.226438
1418.000000;1.268116
1417.000000;1.313454
1416.000000;1.394501
1415.000000;1.841868
1414.000000;1.676354
1413.000000;1.132518
1412.000000;1.043189
1411.000000;1.064262
1410.000000;1.425235
1409.000000;1.665002
1408.000000;1.198855
1407.000000;1.043169
1406.000000;0.973343
1405.000000;0.913621
1404.000000;0.900525
1403.000000;0.954132
1402.000000;1.046402
1401.000000;1.130526
1400.000000;1.235969
1399.000000;1.286544
1398.000000;1.157357
1397.000000;1.072965
1396.000000;1.082038
1395.000000;1.150051
1394.000000;1.251097
1393.000000;1.328632
1392.000000;1.263105
1391.000000;1.181246
1390.000000;1.229761
1389.000000;1.391291
1388.000000;1.519954
1387.000000;1.434924
1386.000000;1.293631
1385.000000;1.247532
1384.000000;1.281366
1383.000000;1.344866
1382.000000;1.597687
1381.000000;1.793543
1380.000000;1.226268
1379.000000;0.974720
1378.000000;0.916687
1377.000000;0.970786
1376.000000;1.093056
1375.000000;1.164505
1374.000000;1.180980
1373.000000;1.278041
1372.000000;1.518171
1371.000000;2.018813
1370.000000;2.203924
1369.000000;1.793938
1368.000000;1.682422
1367.000000;1.536451
1366.000000;1.393272
1365.000000;1.375777
1364.000000;1.459761
1363.000000;1.409299
1362.000000;1.347451
1361.000000;1.492465
1360.000000;1.563543
1359.000000;1.251451
1358.000000;1.040726
1357.000000;0.986533
1356.000000;1.054092
1355.000000;1.151397
1354.000000;1.200333
1353.000000;1.207845
1352.000000;1.243786
1351.000000;1.320532
1350.000000;1.382863
1349.000000;1.476770
1348.000000;1.718379
1347.000000;1.540972
1346.000000;1.453221
1345.000000;1.523338
1344.000000;1.438859
1343.000000;1.272934
1342.000000;1.231142
1341.000000;1.393438
1340.000000;1.635383
1339.000000;1.380518
1338.000000;1.190248
1337.000000;1.167682
1336.000000;1.256915
1335.000000;1.218933
1334.000000;1.149709
1333.000000;1.252362
1332.000000;1.564152
1331.000000;1.949119
1330.000000;1.813292
1329.000000;1.361979
1328.000000;1.078740
1327.000000;1.004749
1326.000000;1.076752
1325.000000;1.239849
1324.000000;1.376089
1323.000000;1.404697
1322.000000;1.341656
1321.000000;1.321761
1320.000000;1.442192
1319.000000;1.746280
1318.000000;1.641732
1317.000000;1.447357
1316.000000;1.339881
1315.000000;1.199252
1314.000000;1.061484
1313.000000;1.022173
1312.000000;1.162911
1311.000000;1.345893
1310.000000;1.115295
1309.000000;0.944031
1308.000000;0.859508
1307.000000;0.813677
1306.000000;0.785290
1305.000000;0.765833
1304.000000;0.784406
1303.000000;0.899734
1302.000000;0.960549
1301.000000;0.875130
1300.000000;0.865942
1299.000000;0.936124
1298.000000;1.010970
1297.000000;1.146533
1296.000000;1.451890
1295.000000;1.070116
1294.000000;0.869692
1293.000000;0.858654
1292.000000;0.890972
1291.000000;0.857399
1290.000000;0.805081
1289.000000;0.804775
1288.000000;0.878179
1287.000000;1.042512
1286.000000;1.040669
1285.000000;0.800589
1284.000000;0.713850
1283.000000;0.772437
1282.000000;0.828147
1281.000000;0.790723
1280.000000;0.844778
1279.000000;1.043292
1278.000000;1.428084
1277.000000;1.976388
1276.000000;1.665788
1275.000000;1.288370
1274.000000;1.072846
1273.000000;0.972788
1272.000000;0.978584
1271.000000;1.061375
1270.000000;1.138624
1269.000000;1.076581
1268.000000;1.022757
1267.000000;1.120115
1266.000000;1.416871
1265.000000;1.645122
1264.000000;1.212362
1263.000000;0.965227
1262.000000;0.880162
1261.000000;0.925276
1260.000000;1.090195
1259.000000;1.217336
1258.000000;1.165855
1257.000000;1.180260
1256.000000;1.239334
1255.000000;1.112828
1254.000000;0.876229
1253.000000;0.784125
1252.000000;0.810592
1251.000000;0.872882
1250.000000;0.955181
1249.000000;1.032594
1248.000000;1.008120
1247.000000;0.954639
1246.000000;0.987309
1245.000000;1.178709
1244.000000;1.561886
1243.000000;1.392351
1242.000000;1.164599
1241.000000;1.062348
1240.000000;1.062621
1239.000000;1.233934
1238.000000;1.661415
1237.000000;2.431523
1236.000000;1.346136
1235.000000;1.030280
1234.000000;0.949016
1233.000000;1.017939
1232.000000;1.197427
1231.000000;1.317226
1230.000000;1.234537
1229.000000;1.136977
1228.000000;1.138881
1227.000000;1.211064
1226.000000;1.161102
1225.000000;1.119243
1224.000000;1.197785
1223.000000;1.278251
1222.000000;1.199263
1221.000000;1.125278
1220.000000;1.162808
1219.000000;1.104439
1218.000000;1.025153
1217.000000;1.228625
1216.000000;1.409976
1215.000000;1.049984
1214.000000;0.941880
1213.000000;0.999109
1212.000000;1.162860
1211.000000;1.704304
1210.000000;1.444080
1209.000000;1.220837
1208.000000;1.451593
1207.000000;1.437525
1206.000000;1.204437
1205.000000;1.500477
1204.000000;1.658367
1203.000000;1.415887
1202.000000;1.222840
1201.000000;0.867240
1200.000000;0.781843
