Criado como novo conjunto de dados;"2706_e01_daniel.spp","24483.0 Secs"
cm-1;Abs
10000.000000;0.790228
9999.000000;0.789544
9998.000000;0.789153
9997.000000;0.789114
9996.000000;0.789380
9995.000000;0.789793
9994.000000;0.790054
9993.000000;0.789899
9992.000000;0.789396
9991.000000;0.788935
9990.000000;0.788838
9989.000000;0.789021
9988.000000;0.789138
9987.000000;0.788968
9986.000000;0.788585
9985.000000;0.788239
9984.000000;0.788158
9983.000000;0.788401
9982.000000;0.788772
9981.000000;0.788909
9980.000000;0.788613
9979.000000;0.788087
9978.000000;0.787731
9977.000000;0.787722
9976.000000;0.787918
9975.000000;0.788169
9974.000000;0.788495
9973.000000;0.788894
9972.000000;0.789151
9971.000000;0.789047
9970.000000;0.788651
9969.000000;0.788253
9968.000000;0.788035
9967.000000;0.787942
9966.000000;0.787875
9965.000000;0.787833
9964.000000;0.787839
9963.000000;0.787838
9962.000000;0.787736
9961.000000;0.787496
9960.000000;0.787168
9959.000000;0.786868
9958.000000;0.786756
9957.000000;0.786948
9956.000000;0.787413
9955.000000;0.787971
9954.000000;0.788411
9953.000000;0.788600
9952.000000;0.788521
9951.000000;0.788319
9950.000000;0.788275
9949.000000;0.788551
9948.000000;0.788895
9947.000000;0.788750
9946.000000;0.787798
9945.000000;0.786281
9944.000000;0.784701
9943.000000;0.783348
9942.000000;0.782323
9941.000000;0.781850
9940.000000;0.782245
9939.000000;0.783475
9938.000000;0.785020
9937.000000;0.786289
9936.000000;0.787083
9935.000000;0.787548
9934.000000;0.787825
9933.000000;0.787866
9932.000000;0.787523
9931.000000;0.786698
9930.000000;0.785479
9929.000000;0.784178
9928.000000;0.783168
9927.000000;0.782611
9926.000000;0.782421
9925.000000;0.782471
9924.000000;0.782707
9923.000000;0.783025
9922.000000;0.783253
9921.000000;0.783357
9920.000000;0.783508
9919.000000;0.783795
9918.000000;0.784066
9917.000000;0.784170
9916.000000;0.784202
9915.000000;0.784280
9914.000000;0.784240
9913.000000;0.783807
9912.000000;0.783009
9911.000000;0.782175
9910.000000;0.781553
9909.000000;0.781130
9908.000000;0.780812
9907.000000;0.780580
9906.000000;0.780489
9905.000000;0.780654
9904.000000;0.781175
9903.000000;0.781895
9902.000000;0.782323
9901.000000;0.782056
9900.000000;0.781268
9899.000000;0.780546
9898.000000;0.780265
9897.000000;0.780348
9896.000000;0.780597
9895.000000;0.780938
9894.000000;0.781294
9893.000000;0.781526
9892.000000;0.781624
9891.000000;0.781742
9890.000000;0.781919
9889.000000;0.781997
9888.000000;0.781897
9887.000000;0.781706
9886.000000;0.781376
9885.000000;0.780643
9884.000000;0.779493
9883.000000;0.778458
9882.000000;0.778171
9881.000000;0.778728
9880.000000;0.779693
9879.000000;0.780587
9878.000000;0.781189
9877.000000;0.781465
9876.000000;0.781463
9875.000000;0.781268
9874.000000;0.780919
9873.000000;0.780368
9872.000000;0.779622
9871.000000;0.778836
9870.000000;0.778192
9869.000000;0.777770
9868.000000;0.777650
9867.000000;0.777959
9866.000000;0.778653
9865.000000;0.779383
9864.000000;0.779823
9863.000000;0.780065
9862.000000;0.780410
9861.000000;0.780834
9860.000000;0.780909
9859.000000;0.780309
9858.000000;0.779160
9857.000000;0.777856
9856.000000;0.776725
9855.000000;0.775962
9854.000000;0.775692
9853.000000;0.775898
9852.000000;0.776362
9851.000000;0.776829
9850.000000;0.777234
9849.000000;0.777682
9848.000000;0.778195
9847.000000;0.778563
9846.000000;0.778522
9845.000000;0.778096
9844.000000;0.777659
9843.000000;0.777558
9842.000000;0.777692
9841.000000;0.777588
9840.000000;0.776934
9839.000000;0.775930
9838.000000;0.775088
9837.000000;0.774791
9836.000000;0.775083
9835.000000;0.775721
9834.000000;0.776291
9833.000000;0.776403
9832.000000;0.775966
9831.000000;0.775277
9830.000000;0.774770
9829.000000;0.774676
9828.000000;0.774906
9827.000000;0.775179
9826.000000;0.775222
9825.000000;0.774961
9824.000000;0.774621
9823.000000;0.774551
9822.000000;0.774862
9821.000000;0.775308
9820.000000;0.775563
9819.000000;0.775511
9818.000000;0.775210
9817.000000;0.774772
9816.000000;0.774421
9815.000000;0.774478
9814.000000;0.775024
9813.000000;0.775696
9812.000000;0.776038
9811.000000;0.776018
9810.000000;0.775943
9809.000000;0.775950
9808.000000;0.775848
9807.000000;0.775487
9806.000000;0.775008
9805.000000;0.774621
9804.000000;0.774327
9803.000000;0.774020
9802.000000;0.773719
9801.000000;0.773559
9800.000000;0.773603
9799.000000;0.773732
9798.000000;0.773735
9797.000000;0.773468
9796.000000;0.772960
9795.000000;0.772386
9794.000000;0.771916
9793.000000;0.771636
9792.000000;0.771610
9791.000000;0.771894
9790.000000;0.772372
9789.000000;0.772685
9788.000000;0.772494
9787.000000;0.771831
9786.000000;0.771088
9785.000000;0.770680
9784.000000;0.770801
9783.000000;0.771408
9782.000000;0.772257
9781.000000;0.772975
9780.000000;0.773252
9779.000000;0.773050
9778.000000;0.772570
9777.000000;0.772039
9776.000000;0.771615
9775.000000;0.771407
9774.000000;0.771415
9773.000000;0.771454
9772.000000;0.771319
9771.000000;0.771053
9770.000000;0.770898
9769.000000;0.770985
9768.000000;0.771207
9767.000000;0.771398
9766.000000;0.771483
9765.000000;0.771417
9764.000000;0.771158
9763.000000;0.770757
9762.000000;0.770298
9761.000000;0.769723
9760.000000;0.768892
9759.000000;0.767926
9758.000000;0.767291
9757.000000;0.767358
9756.000000;0.767970
9755.000000;0.768595
9754.000000;0.768869
9753.000000;0.768858
9752.000000;0.768785
9751.000000;0.768678
9750.000000;0.768387
9749.000000;0.767919
9748.000000;0.767594
9747.000000;0.767739
9746.000000;0.768245
9745.000000;0.768592
9744.000000;0.768433
9743.000000;0.768024
9742.000000;0.767919
9741.000000;0.768311
9740.000000;0.768875
9739.000000;0.769192
9738.000000;0.769085
9737.000000;0.768562
9736.000000;0.767756
9735.000000;0.767002
9734.000000;0.766713
9733.000000;0.766981
9732.000000;0.767457
9731.000000;0.767774
9730.000000;0.767948
9729.000000;0.768198
9728.000000;0.768513
9727.000000;0.768591
9726.000000;0.768173
9725.000000;0.767273
9724.000000;0.766132
9723.000000;0.765080
9722.000000;0.764419
9721.000000;0.764252
9720.000000;0.764418
9719.000000;0.764675
9718.000000;0.764995
9717.000000;0.765565
9716.000000;0.766520
9715.000000;0.767704
9714.000000;0.768709
9713.000000;0.769132
9712.000000;0.768843
9711.000000;0.768058
9710.000000;0.767146
9709.000000;0.766338
9708.000000;0.765673
9707.000000;0.765189
9706.000000;0.765004
9705.000000;0.765133
9704.000000;0.765348
9703.000000;0.765386
9702.000000;0.765260
9701.000000;0.765220
9700.000000;0.765430
9699.000000;0.765799
9698.000000;0.766105
9697.000000;0.766196
9696.000000;0.766085
9695.000000;0.765924
9694.000000;0.765860
9693.000000;0.765857
9692.000000;0.765733
9691.000000;0.765419
9690.000000;0.765086
9689.000000;0.764893
9688.000000;0.764719
9687.000000;0.764352
9686.000000;0.763860
9685.000000;0.763540
9684.000000;0.763487
9683.000000;0.763449
9682.000000;0.763206
9681.000000;0.762870
9680.000000;0.762674
9679.000000;0.762636
9678.000000;0.762608
9677.000000;0.762571
9676.000000;0.762682
9675.000000;0.763028
9674.000000;0.763505
9673.000000;0.763932
9672.000000;0.764170
9671.000000;0.764106
9670.000000;0.763659
9669.000000;0.762905
9668.000000;0.762144
9667.000000;0.761721
9666.000000;0.761741
9665.000000;0.762005
9664.000000;0.762250
9663.000000;0.762421
9662.000000;0.762655
9661.000000;0.762994
9660.000000;0.763241
9659.000000;0.763188
9658.000000;0.762948
9657.000000;0.762880
9656.000000;0.763157
9655.000000;0.763517
9654.000000;0.763557
9653.000000;0.763191
9652.000000;0.762688
9651.000000;0.762302
9650.000000;0.762025
9649.000000;0.761735
9648.000000;0.761434
9647.000000;0.761248
9646.000000;0.761251
9645.000000;0.761388
9644.000000;0.761532
9643.000000;0.761530
9642.000000;0.761274
9641.000000;0.760833
9640.000000;0.760484
9639.000000;0.760454
9638.000000;0.760607
9637.000000;0.760527
9636.000000;0.760017
9635.000000;0.759380
9634.000000;0.759087
9633.000000;0.759232
9632.000000;0.759529
9631.000000;0.759776
9630.000000;0.760085
9629.000000;0.760547
9628.000000;0.760901
9627.000000;0.760751
9626.000000;0.760063
9625.000000;0.759236
9624.000000;0.758685
9623.000000;0.758491
9622.000000;0.758490
9621.000000;0.758525
9620.000000;0.758546
9619.000000;0.758556
9618.000000;0.758585
9617.000000;0.758662
9616.000000;0.758764
9615.000000;0.758826
9614.000000;0.758845
9613.000000;0.758903
9612.000000;0.759010
9611.000000;0.759013
9610.000000;0.758777
9609.000000;0.758418
9608.000000;0.758192
9607.000000;0.758176
9606.000000;0.758231
9605.000000;0.758286
9604.000000;0.758442
9603.000000;0.758694
9602.000000;0.758754
9601.000000;0.758384
9600.000000;0.757789
9599.000000;0.757435
9598.000000;0.757493
9597.000000;0.757709
9596.000000;0.757834
9595.000000;0.757918
9594.000000;0.758088
9593.000000;0.758252
9592.000000;0.758257
9591.000000;0.758157
9590.000000;0.758106
9589.000000;0.758062
9588.000000;0.757857
9587.000000;0.757544
9586.000000;0.757424
9585.000000;0.757633
9584.000000;0.757906
9583.000000;0.757885
9582.000000;0.757528
9581.000000;0.757083
9580.000000;0.756727
9579.000000;0.756395
9578.000000;0.755963
9577.000000;0.755511
9576.000000;0.755342
9575.000000;0.755726
9574.000000;0.756591
9573.000000;0.757478
9572.000000;0.757866
9571.000000;0.757616
9570.000000;0.757040
9569.000000;0.756551
9568.000000;0.756299
9567.000000;0.756157
9566.000000;0.755963
9565.000000;0.755666
9564.000000;0.755307
9563.000000;0.754957
9562.000000;0.754682
9561.000000;0.754510
9560.000000;0.754457
9559.000000;0.754560
9558.000000;0.754831
9557.000000;0.755132
9556.000000;0.755202
9555.000000;0.754926
9554.000000;0.754530
9553.000000;0.754387
9552.000000;0.754647
9551.000000;0.755141
9550.000000;0.755638
9549.000000;0.756048
9548.000000;0.756343
9547.000000;0.756407
9546.000000;0.756085
9545.000000;0.755376
9544.000000;0.754502
9543.000000;0.753811
9542.000000;0.753554
9541.000000;0.753721
9540.000000;0.754032
9539.000000;0.754157
9538.000000;0.753968
9537.000000;0.753592
9536.000000;0.753241
9535.000000;0.753073
9534.000000;0.753183
9533.000000;0.753591
9532.000000;0.754121
9531.000000;0.754410
9530.000000;0.754181
9529.000000;0.753523
9528.000000;0.752816
9527.000000;0.752369
9526.000000;0.752228
9525.000000;0.752308
9524.000000;0.752580
9523.000000;0.753039
9522.000000;0.753547
9521.000000;0.753853
9520.000000;0.753764
9519.000000;0.753269
9518.000000;0.752503
9517.000000;0.751683
9516.000000;0.751071
9515.000000;0.750895
9514.000000;0.751189
9513.000000;0.751706
9512.000000;0.752091
9511.000000;0.752168
9510.000000;0.752034
9509.000000;0.751866
9508.000000;0.751727
9507.000000;0.751580
9506.000000;0.751407
9505.000000;0.751203
9504.000000;0.750898
9503.000000;0.750410
9502.000000;0.749831
9501.000000;0.749484
9500.000000;0.749695
9499.000000;0.750482
9498.000000;0.751478
9497.000000;0.752164
9496.000000;0.752237
9495.000000;0.751810
9494.000000;0.751271
9493.000000;0.750913
9492.000000;0.750688
9491.000000;0.750362
9490.000000;0.749882
9489.000000;0.749508
9488.000000;0.749518
9487.000000;0.749867
9486.000000;0.750225
9485.000000;0.750314
9484.000000;0.750121
9483.000000;0.749780
9482.000000;0.749358
9481.000000;0.748851
9480.000000;0.748308
9479.000000;0.747842
9478.000000;0.747518
9477.000000;0.747321
9476.000000;0.747280
9475.000000;0.747529
9474.000000;0.748148
9473.000000;0.748954
9472.000000;0.749566
9471.000000;0.749742
9470.000000;0.749579
9469.000000;0.749350
9468.000000;0.749189
9467.000000;0.749016
9466.000000;0.748729
9465.000000;0.748368
9464.000000;0.748071
9463.000000;0.747937
9462.000000;0.747970
9461.000000;0.748105
9460.000000;0.748262
9459.000000;0.748399
9458.000000;0.748516
9457.000000;0.748566
9456.000000;0.748420
9455.000000;0.747998
9454.000000;0.747459
9453.000000;0.747115
9452.000000;0.747118
9451.000000;0.747290
9450.000000;0.747354
9449.000000;0.747252
9448.000000;0.747149
9447.000000;0.747183
9446.000000;0.747324
9445.000000;0.747465
9444.000000;0.747520
9443.000000;0.747421
9442.000000;0.747146
9441.000000;0.746808
9440.000000;0.746633
9439.000000;0.746752
9438.000000;0.747044
9437.000000;0.747226
9436.000000;0.747109
9435.000000;0.746740
9434.000000;0.746341
9433.000000;0.746119
9432.000000;0.746105
9431.000000;0.746149
9430.000000;0.746080
9429.000000;0.745868
9428.000000;0.745627
9427.000000;0.745472
9426.000000;0.745426
9425.000000;0.745447
9424.000000;0.745485
9423.000000;0.745477
9422.000000;0.745362
9421.000000;0.745158
9420.000000;0.745000
9419.000000;0.745008
9418.000000;0.745128
9417.000000;0.745162
9416.000000;0.744998
9415.000000;0.744750
9414.000000;0.744650
9413.000000;0.744789
9412.000000;0.745022
9411.000000;0.745105
9410.000000;0.744935
9409.000000;0.744624
9408.000000;0.744374
9407.000000;0.744298
9406.000000;0.744355
9405.000000;0.744430
9404.000000;0.744468
9403.000000;0.744531
9402.000000;0.744734
9401.000000;0.745108
9400.000000;0.745497
9399.000000;0.745645
9398.000000;0.745426
9397.000000;0.744972
9396.000000;0.744556
9395.000000;0.744322
9394.000000;0.744157
9393.000000;0.743817
9392.000000;0.743207
9391.000000;0.742547
9390.000000;0.742262
9389.000000;0.742609
9388.000000;0.743372
9387.000000;0.743977
9386.000000;0.743996
9385.000000;0.743540
9384.000000;0.743079
9383.000000;0.742902
9382.000000;0.742846
9381.000000;0.742574
9380.000000;0.742017
9379.000000;0.741474
9378.000000;0.741308
9377.000000;0.741595
9376.000000;0.742089
9375.000000;0.742492
9374.000000;0.742726
9373.000000;0.742912
9372.000000;0.743103
9371.000000;0.743136
9370.000000;0.742809
9369.000000;0.742137
9368.000000;0.741375
9367.000000;0.740817
9366.000000;0.740650
9365.000000;0.740917
9364.000000;0.741478
9363.000000;0.742009
9362.000000;0.742215
9361.000000;0.742098
9360.000000;0.741906
9359.000000;0.741789
9358.000000;0.741622
9357.000000;0.741236
9356.000000;0.740713
9355.000000;0.740295
9354.000000;0.740087
9353.000000;0.739976
9352.000000;0.739832
9351.000000;0.739696
9350.000000;0.739725
9349.000000;0.740001
9348.000000;0.740414
9347.000000;0.740727
9346.000000;0.740773
9345.000000;0.740611
9344.000000;0.740466
9343.000000;0.740500
9342.000000;0.740692
9341.000000;0.740900
9340.000000;0.740960
9339.000000;0.740730
9338.000000;0.740177
9337.000000;0.739496
9336.000000;0.739038
9335.000000;0.738995
9334.000000;0.739214
9333.000000;0.739401
9332.000000;0.739447
9331.000000;0.739465
9330.000000;0.739567
9329.000000;0.739702
9328.000000;0.739714
9327.000000;0.739462
9326.000000;0.738918
9325.000000;0.738255
9324.000000;0.737780
9323.000000;0.737675
9322.000000;0.737807
9321.000000;0.737897
9320.000000;0.737875
9319.000000;0.737950
9318.000000;0.738309
9317.000000;0.738866
9316.000000;0.739356
9315.000000;0.739576
9314.000000;0.739519
9313.000000;0.739323
9312.000000;0.739154
9311.000000;0.739076
9310.000000;0.739005
9309.000000;0.738808
9308.000000;0.738456
9307.000000;0.738047
9306.000000;0.737703
9305.000000;0.737496
9304.000000;0.737440
9303.000000;0.737475
9302.000000;0.737489
9301.000000;0.737420
9300.000000;0.737357
9299.000000;0.737433
9298.000000;0.737609
9297.000000;0.737676
9296.000000;0.737485
9295.000000;0.737099
9294.000000;0.736670
9293.000000;0.736297
9292.000000;0.736052
9291.000000;0.736022
9290.000000;0.736221
9289.000000;0.736513
9288.000000;0.736724
9287.000000;0.736827
9286.000000;0.736915
9285.000000;0.737016
9284.000000;0.737020
9283.000000;0.736809
9282.000000;0.736396
9281.000000;0.735924
9280.000000;0.735545
9279.000000;0.735321
9278.000000;0.735213
9277.000000;0.735151
9276.000000;0.735094
9275.000000;0.735057
9274.000000;0.735091
9273.000000;0.735259
9272.000000;0.735568
9271.000000;0.735887
9270.000000;0.735980
9269.000000;0.735701
9268.000000;0.735177
9267.000000;0.734707
9266.000000;0.734496
9265.000000;0.734514
9264.000000;0.734627
9263.000000;0.734740
9262.000000;0.734795
9261.000000;0.734754
9260.000000;0.734658
9259.000000;0.734649
9258.000000;0.734831
9257.000000;0.735134
9256.000000;0.735355
9255.000000;0.735308
9254.000000;0.734923
9253.000000;0.734277
9252.000000;0.733587
9251.000000;0.733136
9250.000000;0.733079
9249.000000;0.733321
9248.000000;0.733602
9247.000000;0.733708
9246.000000;0.733593
9245.000000;0.733367
9244.000000;0.733204
9243.000000;0.733202
9242.000000;0.733281
9241.000000;0.733263
9240.000000;0.733108
9239.000000;0.732988
9238.000000;0.733051
9237.000000;0.733182
9236.000000;0.733150
9235.000000;0.732943
9234.000000;0.732781
9233.000000;0.732796
9232.000000;0.732876
9231.000000;0.732888
9230.000000;0.732899
9229.000000;0.733026
9228.000000;0.733191
9227.000000;0.733194
9226.000000;0.733007
9225.000000;0.732820
9224.000000;0.732777
9223.000000;0.732786
9222.000000;0.732654
9221.000000;0.732339
9220.000000;0.731977
9219.000000;0.731730
9218.000000;0.731648
9217.000000;0.731677
9216.000000;0.731715
9215.000000;0.731688
9214.000000;0.731592
9213.000000;0.731498
9212.000000;0.731481
9211.000000;0.731533
9210.000000;0.731550
9209.000000;0.731407
9208.000000;0.731074
9207.000000;0.730665
9206.000000;0.730368
9205.000000;0.730302
9204.000000;0.730396
9203.000000;0.730436
9202.000000;0.730253
9201.000000;0.729885
9200.000000;0.729551
9199.000000;0.729485
9198.000000;0.729768
9197.000000;0.730266
9196.000000;0.730713
9195.000000;0.730901
9194.000000;0.730831
9193.000000;0.730650
9192.000000;0.730443
9191.000000;0.730151
9190.000000;0.729737
9189.000000;0.729325
9188.000000;0.729077
9187.000000;0.728993
9186.000000;0.728966
9185.000000;0.728994
9184.000000;0.729166
9183.000000;0.729444
9182.000000;0.729628
9181.000000;0.729608
9180.000000;0.729489
9179.000000;0.729388
9178.000000;0.729278
9177.000000;0.729127
9176.000000;0.729055
9175.000000;0.729156
9174.000000;0.729268
9173.000000;0.729123
9172.000000;0.728706
9171.000000;0.728295
9170.000000;0.728143
9169.000000;0.728262
9168.000000;0.728542
9167.000000;0.728899
9166.000000;0.729258
9165.000000;0.729508
9164.000000;0.729551
9163.000000;0.729367
9162.000000;0.728992
9161.000000;0.728525
9160.000000;0.728124
9159.000000;0.727921
9158.000000;0.727900
9157.000000;0.727942
9156.000000;0.727971
9155.000000;0.727972
9154.000000;0.727883
9153.000000;0.727626
9152.000000;0.727263
9151.000000;0.726971
9150.000000;0.726835
9149.000000;0.726781
9148.000000;0.726768
9147.000000;0.726881
9146.000000;0.727140
9145.000000;0.727363
9144.000000;0.727358
9143.000000;0.727155
9142.000000;0.726921
9141.000000;0.726753
9140.000000;0.726686
9139.000000;0.726796
9138.000000;0.727095
9137.000000;0.727367
9136.000000;0.727294
9135.000000;0.726821
9134.000000;0.726228
9133.000000;0.725813
9132.000000;0.725597
9131.000000;0.725416
9130.000000;0.725184
9129.000000;0.724988
9128.000000;0.724959
9127.000000;0.725141
9126.000000;0.725459
9125.000000;0.725776
9124.000000;0.725958
9123.000000;0.725949
9122.000000;0.725797
9121.000000;0.725627
9120.000000;0.725551
9119.000000;0.725582
9118.000000;0.725625
9117.000000;0.725573
9116.000000;0.725415
9115.000000;0.725213
9114.000000;0.725001
9113.000000;0.724765
9112.000000;0.724538
9111.000000;0.724437
9110.000000;0.724538
9109.000000;0.724778
9108.000000;0.725022
9107.000000;0.725207
9106.000000;0.725330
9105.000000;0.725350
9104.000000;0.725197
9103.000000;0.724874
9102.000000;0.724492
9101.000000;0.724171
9100.000000;0.723942
9099.000000;0.723753
9098.000000;0.723562
9097.000000;0.723412
9096.000000;0.723411
9095.000000;0.723597
9094.000000;0.723820
9093.000000;0.723826
9092.000000;0.723516
9091.000000;0.723085
9090.000000;0.722853
9089.000000;0.722986
9088.000000;0.723410
9087.000000;0.723908
9086.000000;0.724253
9085.000000;0.724308
9084.000000;0.724098
9083.000000;0.723769
9082.000000;0.723414
9081.000000;0.722975
9080.000000;0.722384
9079.000000;0.721757
9078.000000;0.721329
9077.000000;0.721228
9076.000000;0.721394
9075.000000;0.721690
9074.000000;0.721994
9073.000000;0.722206
9072.000000;0.722294
9071.000000;0.722344
9070.000000;0.722466
9069.000000;0.722615
9068.000000;0.722608
9067.000000;0.722330
9066.000000;0.721842
9065.000000;0.721254
9064.000000;0.720629
9063.000000;0.720070
9062.000000;0.719790
9061.000000;0.719969
9060.000000;0.720552
9059.000000;0.721260
9058.000000;0.721803
9057.000000;0.722059
9056.000000;0.722096
9055.000000;0.722076
9054.000000;0.722101
9053.000000;0.722120
9052.000000;0.721984
9051.000000;0.721611
9050.000000;0.721069
9049.000000;0.720509
9048.000000;0.720064
9047.000000;0.719801
9046.000000;0.719725
9045.000000;0.719762
9044.000000;0.719806
9043.000000;0.719812
9042.000000;0.719839
9041.000000;0.719977
9040.000000;0.720251
9039.000000;0.720589
9038.000000;0.720857
9037.000000;0.720926
9036.000000;0.720798
9035.000000;0.720635
9034.000000;0.720595
9033.000000;0.720613
9032.000000;0.720474
9031.000000;0.720129
9030.000000;0.719822
9029.000000;0.719805
9028.000000;0.720026
9027.000000;0.720223
9026.000000;0.720256
9025.000000;0.720193
9024.000000;0.720115
9023.000000;0.719972
9022.000000;0.719674
9021.000000;0.719251
9020.000000;0.718860
9019.000000;0.718679
9018.000000;0.718791
9017.000000;0.719122
9016.000000;0.719478
9015.000000;0.719665
9014.000000;0.719594
9013.000000;0.719273
9012.000000;0.718768
9011.000000;0.718210
9010.000000;0.717777
9009.000000;0.717576
9008.000000;0.717571
9007.000000;0.717685
9006.000000;0.717929
9005.000000;0.718334
9004.000000;0.718779
9003.000000;0.719014
9002.000000;0.718879
9001.000000;0.718452
9000.000000;0.717959
8999.000000;0.717628
8998.000000;0.717602
8997.000000;0.717861
8996.000000;0.718200
8995.000000;0.718356
8994.000000;0.718267
8993.000000;0.718126
8992.000000;0.718130
8991.000000;0.718232
8990.000000;0.718196
8989.000000;0.717853
8988.000000;0.717246
8987.000000;0.716571
8986.000000;0.716051
8985.000000;0.715844
8984.000000;0.715966
8983.000000;0.716309
8982.000000;0.716724
8981.000000;0.717109
8980.000000;0.717387
8979.000000;0.717494
8978.000000;0.717428
8977.000000;0.717298
8976.000000;0.717226
8975.000000;0.717217
8974.000000;0.717176
8973.000000;0.717038
8972.000000;0.716820
8971.000000;0.716584
8970.000000;0.716390
8969.000000;0.716291
8968.000000;0.716288
8967.000000;0.716281
8966.000000;0.716150
8965.000000;0.715897
8964.000000;0.715638
8963.000000;0.715455
8962.000000;0.715320
8961.000000;0.715216
8960.000000;0.715237
8959.000000;0.715465
8958.000000;0.715823
8957.000000;0.716113
8956.000000;0.716219
8955.000000;0.716182
8954.000000;0.716094
8953.000000;0.715982
8952.000000;0.715814
8951.000000;0.715561
8950.000000;0.715230
8949.000000;0.714891
8948.000000;0.714671
8947.000000;0.714682
8946.000000;0.714909
8945.000000;0.715202
8944.000000;0.715406
8943.000000;0.715461
8942.000000;0.715365
8941.000000;0.715090
8940.000000;0.714628
8939.000000;0.714100
8938.000000;0.713738
8937.000000;0.713697
8936.000000;0.713910
8935.000000;0.714152
8934.000000;0.714245
8933.000000;0.714186
8932.000000;0.714107
8931.000000;0.714136
8930.000000;0.714297
8929.000000;0.714503
8928.000000;0.714637
8927.000000;0.714636
8926.000000;0.714517
8925.000000;0.714340
8924.000000;0.714163
8923.000000;0.714026
8922.000000;0.713952
8921.000000;0.713947
8920.000000;0.713984
8919.000000;0.714010
8918.000000;0.713963
8917.000000;0.713796
8916.000000;0.713493
8915.000000;0.713078
8914.000000;0.712628
8913.000000;0.712257
8912.000000;0.712080
8911.000000;0.712149
8910.000000;0.712407
8909.000000;0.712728
8908.000000;0.713009
8907.000000;0.713228
8906.000000;0.713392
8905.000000;0.713473
8904.000000;0.713437
8903.000000;0.713314
8902.000000;0.713175
8901.000000;0.713014
8900.000000;0.712735
8899.000000;0.712327
8898.000000;0.711971
8897.000000;0.711891
8896.000000;0.712084
8895.000000;0.712315
8894.000000;0.712381
8893.000000;0.712289
8892.000000;0.712131
8891.000000;0.711906
8890.000000;0.711570
8889.000000;0.711216
8888.000000;0.711036
8887.000000;0.711095
8886.000000;0.711231
8885.000000;0.711233
8884.000000;0.711072
8883.000000;0.710894
8882.000000;0.710845
8881.000000;0.710965
8880.000000;0.711208
8879.000000;0.711481
8878.000000;0.711661
8877.000000;0.711633
8876.000000;0.711373
8875.000000;0.710987
8874.000000;0.710643
8873.000000;0.710478
8872.000000;0.710525
8871.000000;0.710714
8870.000000;0.710918
8869.000000;0.711021
8868.000000;0.710965
8867.000000;0.710761
8866.000000;0.710477
8865.000000;0.710225
8864.000000;0.710124
8863.000000;0.710214
8862.000000;0.710418
8861.000000;0.710610
8860.000000;0.710713
8859.000000;0.710707
8858.000000;0.710583
8857.000000;0.710357
8856.000000;0.710127
8855.000000;0.710006
8854.000000;0.709977
8853.000000;0.709904
8852.000000;0.709741
8851.000000;0.709648
8850.000000;0.709792
8849.000000;0.710092
8848.000000;0.710292
8847.000000;0.710254
8846.000000;0.710073
8845.000000;0.709903
8844.000000;0.709788
8843.000000;0.709697
8842.000000;0.709620
8841.000000;0.709559
8840.000000;0.709495
8839.000000;0.709443
8838.000000;0.709474
8837.000000;0.709605
8836.000000;0.709736
8835.000000;0.709745
8834.000000;0.709622
8833.000000;0.709424
8832.000000;0.709166
8831.000000;0.708838
8830.000000;0.708507
8829.000000;0.708291
8828.000000;0.708222
8827.000000;0.708212
8826.000000;0.708176
8825.000000;0.708135
8824.000000;0.708166
8823.000000;0.708318
8822.000000;0.708575
8821.000000;0.708848
8820.000000;0.709002
8819.000000;0.708965
8818.000000;0.708823
8817.000000;0.708728
8816.000000;0.708703
8815.000000;0.708622
8814.000000;0.708446
8813.000000;0.708341
8812.000000;0.708475
8811.000000;0.708752
8810.000000;0.708897
8809.000000;0.708761
8808.000000;0.708462
8807.000000;0.708184
8806.000000;0.707985
8805.000000;0.707808
8804.000000;0.707601
8803.000000;0.707343
8802.000000;0.707024
8801.000000;0.706698
8800.000000;0.706523
8799.000000;0.706658
8798.000000;0.707081
8797.000000;0.707568
8796.000000;0.707886
8795.000000;0.707977
8794.000000;0.707936
8793.000000;0.707831
8792.000000;0.707636
8791.000000;0.707328
8790.000000;0.707004
8789.000000;0.706836
8788.000000;0.706898
8787.000000;0.707091
8786.000000;0.707241
8785.000000;0.707253
8784.000000;0.707158
8783.000000;0.707019
8782.000000;0.706850
8781.000000;0.706635
8780.000000;0.706406
8779.000000;0.706261
8778.000000;0.706277
8777.000000;0.706422
8776.000000;0.706581
8775.000000;0.706655
8774.000000;0.706635
8773.000000;0.706591
8772.000000;0.706605
8771.000000;0.706705
8770.000000;0.706829
8769.000000;0.706865
8768.000000;0.706745
8767.000000;0.706535
8766.000000;0.706365
8765.000000;0.706285
8764.000000;0.706225
8763.000000;0.706123
8762.000000;0.706041
8761.000000;0.706091
8760.000000;0.706280
8759.000000;0.706477
8758.000000;0.706533
8757.000000;0.706401
8756.000000;0.706170
8755.000000;0.706025
8754.000000;0.706118
8753.000000;0.706417
8752.000000;0.706697
8751.000000;0.706740
8750.000000;0.706522
8749.000000;0.706179
8748.000000;0.705847
8747.000000;0.705609
8746.000000;0.705551
8745.000000;0.705726
8744.000000;0.706057
8743.000000;0.706379
8742.000000;0.706607
8741.000000;0.706774
8740.000000;0.706897
8739.000000;0.706915
8738.000000;0.706807
8737.000000;0.706637
8736.000000;0.706438
8735.000000;0.706145
8734.000000;0.705756
8733.000000;0.705427
8732.000000;0.705330
8731.000000;0.705448
8730.000000;0.705604
8729.000000;0.705637
8728.000000;0.705488
8727.000000;0.705199
8726.000000;0.704920
8725.000000;0.704868
8724.000000;0.705132
8723.000000;0.705564
8722.000000;0.705938
8721.000000;0.706169
8720.000000;0.706292
8719.000000;0.706283
8718.000000;0.706078
8717.000000;0.705739
8716.000000;0.705456
8715.000000;0.705343
8714.000000;0.705334
8713.000000;0.705306
8712.000000;0.705190
8711.000000;0.704972
8710.000000;0.704695
8709.000000;0.704505
8708.000000;0.704570
8707.000000;0.704880
8706.000000;0.705212
8705.000000;0.705358
8704.000000;0.705336
8703.000000;0.705310
8702.000000;0.705377
8701.000000;0.705495
8700.000000;0.705570
8699.000000;0.705536
8698.000000;0.705366
8697.000000;0.705072
8696.000000;0.704719
8695.000000;0.704422
8694.000000;0.704292
8693.000000;0.704369
8692.000000;0.704556
8691.000000;0.704669
8690.000000;0.704606
8689.000000;0.704462
8688.000000;0.704403
8687.000000;0.704460
8686.000000;0.704523
8685.000000;0.704531
8684.000000;0.704548
8683.000000;0.704604
8682.000000;0.704601
8681.000000;0.704438
8680.000000;0.704183
8679.000000;0.703997
8678.000000;0.703944
8677.000000;0.703958
8676.000000;0.703960
8675.000000;0.703937
8674.000000;0.703911
8673.000000;0.703913
8672.000000;0.703962
8671.000000;0.704028
8670.000000;0.704025
8669.000000;0.703891
8668.000000;0.703693
8667.000000;0.703582
8666.000000;0.703620
8665.000000;0.703692
8664.000000;0.703617
8663.000000;0.703336
8662.000000;0.702973
8661.000000;0.702710
8660.000000;0.702621
8659.000000;0.702621
8658.000000;0.702601
8657.000000;0.702553
8656.000000;0.702558
8655.000000;0.702661
8654.000000;0.702814
8653.000000;0.702934
8652.000000;0.702962
8651.000000;0.702863
8650.000000;0.702646
8649.000000;0.702391
8648.000000;0.702231
8647.000000;0.702241
8646.000000;0.702387
8645.000000;0.702567
8644.000000;0.702659
8643.000000;0.702553
8642.000000;0.702200
8641.000000;0.701693
8640.000000;0.701219
8639.000000;0.700900
8638.000000;0.700704
8637.000000;0.700547
8636.000000;0.700419
8635.000000;0.700376
8634.000000;0.700447
8633.000000;0.700592
8632.000000;0.700697
8631.000000;0.700609
8630.000000;0.700261
8629.000000;0.699804
8628.000000;0.699527
8627.000000;0.699560
8626.000000;0.699733
8625.000000;0.699794
8624.000000;0.699708
8623.000000;0.699615
8622.000000;0.699592
8621.000000;0.699604
8620.000000;0.699654
8619.000000;0.699800
8618.000000;0.699992
8617.000000;0.700035
8616.000000;0.699799
8615.000000;0.699358
8614.000000;0.698886
8613.000000;0.698475
8612.000000;0.698132
8611.000000;0.697858
8610.000000;0.697632
8609.000000;0.697386
8608.000000;0.697095
8607.000000;0.696872
8606.000000;0.696874
8605.000000;0.697126
8604.000000;0.697489
8603.000000;0.697813
8602.000000;0.698041
8601.000000;0.698141
8600.000000;0.698025
8599.000000;0.697624
8598.000000;0.697027
8597.000000;0.696475
8596.000000;0.696169
8595.000000;0.696098
8594.000000;0.696081
8593.000000;0.695975
8592.000000;0.695816
8591.000000;0.695734
8590.000000;0.695781
8589.000000;0.695874
8588.000000;0.695919
8587.000000;0.695917
8586.000000;0.695938
8585.000000;0.696013
8584.000000;0.696095
8583.000000;0.696121
8582.000000;0.696068
8581.000000;0.695942
8580.000000;0.695736
8579.000000;0.695438
8578.000000;0.695083
8577.000000;0.694752
8576.000000;0.694504
8575.000000;0.694322
8574.000000;0.694148
8573.000000;0.693984
8572.000000;0.693909
8571.000000;0.693984
8570.000000;0.694171
8569.000000;0.694389
8568.000000;0.694603
8567.000000;0.694802
8566.000000;0.694903
8565.000000;0.694757
8564.000000;0.694294
8563.000000;0.693634
8562.000000;0.693004
8561.000000;0.692559
8560.000000;0.692319
8559.000000;0.692227
8558.000000;0.692221
8557.000000;0.692229
8556.000000;0.692195
8555.000000;0.692137
8554.000000;0.692152
8553.000000;0.692298
8552.000000;0.692492
8551.000000;0.692580
8550.000000;0.692505
8549.000000;0.692357
8548.000000;0.692238
8547.000000;0.692140
8546.000000;0.691991
8545.000000;0.691762
8544.000000;0.691493
8543.000000;0.691230
8542.000000;0.691012
8541.000000;0.690900
8540.000000;0.690945
8539.000000;0.691098
8538.000000;0.691193
8537.000000;0.691077
8536.000000;0.690738
8535.000000;0.690304
8534.000000;0.689950
8533.000000;0.689794
8532.000000;0.689848
8531.000000;0.690013
8530.000000;0.690117
8529.000000;0.690032
8528.000000;0.689759
8527.000000;0.689433
8526.000000;0.689224
8525.000000;0.689223
8524.000000;0.689399
8523.000000;0.689634
8522.000000;0.689784
8521.000000;0.689728
8520.000000;0.689414
8519.000000;0.688908
8518.000000;0.688399
8517.000000;0.688088
8516.000000;0.688033
8515.000000;0.688122
8514.000000;0.688220
8513.000000;0.688290
8512.000000;0.688335
8511.000000;0.688277
8510.000000;0.688034
8509.000000;0.687696
8508.000000;0.687510
8507.000000;0.687620
8506.000000;0.687896
8505.000000;0.688062
8504.000000;0.687965
8503.000000;0.687652
8502.000000;0.687248
8501.000000;0.686842
8500.000000;0.686484
8499.000000;0.686223
8498.000000;0.686105
8497.000000;0.686155
8496.000000;0.686353
8495.000000;0.686617
8494.000000;0.686823
8493.000000;0.686894
8492.000000;0.686854
8491.000000;0.686774
8490.000000;0.686665
8489.000000;0.686476
8488.000000;0.686185
8487.000000;0.685858
8486.000000;0.685579
8485.000000;0.685352
8484.000000;0.685104
8483.000000;0.684785
8482.000000;0.684457
8481.000000;0.684251
8480.000000;0.684240
8479.000000;0.684374
8478.000000;0.684546
8477.000000;0.684685
8476.000000;0.684757
8475.000000;0.684700
8474.000000;0.684459
8473.000000;0.684090
8472.000000;0.683773
8471.000000;0.683658
8470.000000;0.683724
8469.000000;0.683831
8468.000000;0.683862
8467.000000;0.683792
8466.000000;0.683653
8465.000000;0.683491
8464.000000;0.683377
8463.000000;0.683376
8462.000000;0.683490
8461.000000;0.683641
8460.000000;0.683746
8459.000000;0.683778
8458.000000;0.683739
8457.000000;0.683616
8456.000000;0.683375
8455.000000;0.683017
8454.000000;0.682593
8453.000000;0.682185
8452.000000;0.681866
8451.000000;0.681683
8450.000000;0.681661
8449.000000;0.681781
8448.000000;0.681957
8447.000000;0.682063
8446.000000;0.682014
8445.000000;0.681845
8444.000000;0.681680
8443.000000;0.681628
8442.000000;0.681679
8441.000000;0.681723
8440.000000;0.681663
8439.000000;0.681521
8438.000000;0.681417
8437.000000;0.681420
8436.000000;0.681441
8435.000000;0.681307
8434.000000;0.680977
8433.000000;0.680612
8432.000000;0.680395
8431.000000;0.680337
8430.000000;0.680323
8429.000000;0.680303
8428.000000;0.680340
8427.000000;0.680455
8426.000000;0.680543
8425.000000;0.680491
8424.000000;0.680299
8423.000000;0.680057
8422.000000;0.679836
8421.000000;0.679669
8420.000000;0.679564
8419.000000;0.679477
8418.000000;0.679314
8417.000000;0.679038
8416.000000;0.678750
8415.000000;0.678611
8414.000000;0.678665
8413.000000;0.678803
8412.000000;0.678905
8411.000000;0.678946
8410.000000;0.678963
8409.000000;0.678963
8408.000000;0.678908
8407.000000;0.678771
8406.000000;0.678572
8405.000000;0.678351
8404.000000;0.678133
8403.000000;0.677936
8402.000000;0.677803
8401.000000;0.677810
8400.000000;0.677987
8399.000000;0.678251
8398.000000;0.678440
8397.000000;0.678446
8396.000000;0.678325
8395.000000;0.678233
8394.000000;0.678258
8393.000000;0.678317
8392.000000;0.678222
8391.000000;0.677853
8390.000000;0.677278
8389.000000;0.676687
8388.000000;0.676223
8387.000000;0.675904
8386.000000;0.675724
8385.000000;0.675748
8384.000000;0.676037
8383.000000;0.676494
8382.000000;0.676877
8381.000000;0.677007
8380.000000;0.676891
8379.000000;0.676640
8378.000000;0.676314
8377.000000;0.675921
8376.000000;0.675505
8375.000000;0.675164
8374.000000;0.674981
8373.000000;0.674971
8372.000000;0.675071
8371.000000;0.675181
8370.000000;0.675233
8369.000000;0.675243
8368.000000;0.675263
8367.000000;0.675287
8366.000000;0.675243
8365.000000;0.675107
8364.000000;0.674940
8363.000000;0.674789
8362.000000;0.674601
8361.000000;0.674323
8360.000000;0.674020
8359.000000;0.673812
8358.000000;0.673718
8357.000000;0.673658
8356.000000;0.673591
8355.000000;0.673573
8354.000000;0.673662
8353.000000;0.673837
8352.000000;0.674028
8351.000000;0.674179
8350.000000;0.674245
8349.000000;0.674188
8348.000000;0.673989
8347.000000;0.673658
8346.000000;0.673222
8345.000000;0.672751
8344.000000;0.672384
8343.000000;0.672248
8342.000000;0.672334
8341.000000;0.672495
8340.000000;0.672597
8339.000000;0.672653
8338.000000;0.672753
8337.000000;0.672898
8336.000000;0.672959
8335.000000;0.672810
8334.000000;0.672470
8333.000000;0.672079
8332.000000;0.671740
8331.000000;0.671450
8330.000000;0.671172
8329.000000;0.670955
8328.000000;0.670905
8327.000000;0.671051
8326.000000;0.671293
8325.000000;0.671491
8324.000000;0.671593
8323.000000;0.671629
8322.000000;0.671629
8321.000000;0.671571
8320.000000;0.671401
8319.000000;0.671099
8318.000000;0.670712
8317.000000;0.670367
8316.000000;0.670195
8315.000000;0.670219
8314.000000;0.670330
8313.000000;0.670400
8312.000000;0.670400
8311.000000;0.670387
8310.000000;0.670401
8309.000000;0.670414
8308.000000;0.670371
8307.000000;0.670217
8306.000000;0.669899
8305.000000;0.669396
8304.000000;0.668796
8303.000000;0.668320
8302.000000;0.668213
8301.000000;0.668572
8300.000000;0.669239
8299.000000;0.669863
8298.000000;0.670134
8297.000000;0.669986
8296.000000;0.669601
8295.000000;0.669191
8294.000000;0.668829
8293.000000;0.668482
8292.000000;0.668148
8291.000000;0.667890
8290.000000;0.667759
8289.000000;0.667752
8288.000000;0.667842
8287.000000;0.668024
8286.000000;0.668287
8285.000000;0.668571
8284.000000;0.668765
8283.000000;0.668772
8282.000000;0.668587
8281.000000;0.668303
8280.000000;0.668020
8279.000000;0.667761
8278.000000;0.667488
8277.000000;0.667208
8276.000000;0.667000
8275.000000;0.666916
8274.000000;0.666921
8273.000000;0.666957
8272.000000;0.667020
8271.000000;0.667119
8270.000000;0.667208
8269.000000;0.667223
8268.000000;0.667182
8267.000000;0.667155
8266.000000;0.667144
8265.000000;0.667067
8264.000000;0.666870
8263.000000;0.666607
8262.000000;0.666383
8261.000000;0.666248
8260.000000;0.666173
8259.000000;0.666113
8258.000000;0.666072
8257.000000;0.666090
8256.000000;0.666172
8255.000000;0.666226
8254.000000;0.666132
8253.000000;0.665880
8252.000000;0.665592
8251.000000;0.665390
8250.000000;0.665286
8249.000000;0.665225
8248.000000;0.665197
8247.000000;0.665222
8246.000000;0.665272
8245.000000;0.665297
8244.000000;0.665307
8243.000000;0.665339
8242.000000;0.665355
8241.000000;0.665262
8240.000000;0.665040
8239.000000;0.664779
8238.000000;0.664541
8237.000000;0.664297
8236.000000;0.664018
8235.000000;0.663771
8234.000000;0.663639
8233.000000;0.663622
8232.000000;0.663651
8231.000000;0.663688
8230.000000;0.663746
8229.000000;0.663829
8228.000000;0.663903
8227.000000;0.663916
8226.000000;0.663819
8225.000000;0.663599
8224.000000;0.663313
8223.000000;0.663097
8222.000000;0.663074
8221.000000;0.663244
8220.000000;0.663468
8219.000000;0.663591
8218.000000;0.663556
8217.000000;0.663428
8216.000000;0.663297
8215.000000;0.663181
8214.000000;0.663025
8213.000000;0.662786
8212.000000;0.662507
8211.000000;0.662277
8210.000000;0.662154
8209.000000;0.662144
8208.000000;0.662224
8207.000000;0.662343
8206.000000;0.662416
8205.000000;0.662374
8204.000000;0.662246
8203.000000;0.662131
8202.000000;0.662079
8201.000000;0.662030
8200.000000;0.661898
8199.000000;0.661669
8198.000000;0.661411
8197.000000;0.661206
8196.000000;0.661092
8195.000000;0.661052
8194.000000;0.661029
8193.000000;0.660990
8192.000000;0.660974
8191.000000;0.661040
8190.000000;0.661164
8189.000000;0.661236
8188.000000;0.661175
8187.000000;0.661016
8186.000000;0.660833
8185.000000;0.660629
8184.000000;0.660355
8183.000000;0.660022
8182.000000;0.659728
8181.000000;0.659559
8180.000000;0.659518
8179.000000;0.659549
8178.000000;0.659611
8177.000000;0.659692
8176.000000;0.659786
8175.000000;0.659875
8174.000000;0.659935
8173.000000;0.659952
8172.000000;0.659920
8171.000000;0.659847
8170.000000;0.659745
8169.000000;0.659637
8168.000000;0.659547
8167.000000;0.659488
8166.000000;0.659450
8165.000000;0.659404
8164.000000;0.659324
8163.000000;0.659194
8162.000000;0.659023
8161.000000;0.658855
8160.000000;0.658748
8159.000000;0.658717
8158.000000;0.658701
8157.000000;0.658641
8156.000000;0.658561
8155.000000;0.658542
8154.000000;0.658585
8153.000000;0.658578
8152.000000;0.658422
8151.000000;0.658164
8150.000000;0.657951
8149.000000;0.657885
8148.000000;0.657946
8147.000000;0.658039
8146.000000;0.658079
8145.000000;0.658024
8144.000000;0.657874
8143.000000;0.657667
8142.000000;0.657459
8141.000000;0.657294
8140.000000;0.657199
8139.000000;0.657176
8138.000000;0.657188
8137.000000;0.657185
8136.000000;0.657149
8135.000000;0.657115
8134.000000;0.657111
8133.000000;0.657098
8132.000000;0.657006
8131.000000;0.656829
8130.000000;0.656633
8129.000000;0.656488
8128.000000;0.656405
8127.000000;0.656368
8126.000000;0.656364
8125.000000;0.656369
8124.000000;0.656349
8123.000000;0.656313
8122.000000;0.656331
8121.000000;0.656446
8120.000000;0.656598
8119.000000;0.656670
8118.000000;0.656617
8117.000000;0.656492
8116.000000;0.656346
8115.000000;0.656156
8114.000000;0.655876
8113.000000;0.655522
8112.000000;0.655174
8111.000000;0.654914
8110.000000;0.654775
8109.000000;0.654743
8108.000000;0.654769
8107.000000;0.654796
8106.000000;0.654802
8105.000000;0.654820
8104.000000;0.654880
8103.000000;0.654963
8102.000000;0.655014
8101.000000;0.655018
8100.000000;0.655029
8099.000000;0.655102
8098.000000;0.655226
8097.000000;0.655323
8096.000000;0.655324
8095.000000;0.655224
8094.000000;0.655067
8093.000000;0.654887
8092.000000;0.654680
8091.000000;0.654435
8090.000000;0.654189
8089.000000;0.654006
8088.000000;0.653908
8087.000000;0.653857
8086.000000;0.653809
8085.000000;0.653762
8084.000000;0.653729
8083.000000;0.653695
8082.000000;0.653646
8081.000000;0.653615
8080.000000;0.653651
8079.000000;0.653724
8078.000000;0.653729
8077.000000;0.653600
8076.000000;0.653380
8075.000000;0.653174
8074.000000;0.653046
8073.000000;0.653006
8072.000000;0.653033
8071.000000;0.653092
8070.000000;0.653128
8069.000000;0.653089
8068.000000;0.652962
8067.000000;0.652777
8066.000000;0.652596
8065.000000;0.652486
8064.000000;0.652479
8063.000000;0.652543
8062.000000;0.652605
8061.000000;0.652638
8060.000000;0.652668
8059.000000;0.652703
8058.000000;0.652678
8057.000000;0.652532
8056.000000;0.652305
8055.000000;0.652094
8054.000000;0.651941
8053.000000;0.651802
8052.000000;0.651649
8051.000000;0.651520
8050.000000;0.651447
8049.000000;0.651392
8048.000000;0.651301
8047.000000;0.651207
8046.000000;0.651209
8045.000000;0.651358
8044.000000;0.651588
8043.000000;0.651789
8042.000000;0.651902
8041.000000;0.651939
8040.000000;0.651910
8039.000000;0.651783
8038.000000;0.651533
8037.000000;0.651200
8036.000000;0.650883
8035.000000;0.650658
8034.000000;0.650529
8033.000000;0.650451
8032.000000;0.650397
8031.000000;0.650393
8030.000000;0.650473
8029.000000;0.650625
8028.000000;0.650785
8027.000000;0.650875
8026.000000;0.650863
8025.000000;0.650776
8024.000000;0.650656
8023.000000;0.650499
8022.000000;0.650264
8021.000000;0.649940
8020.000000;0.649599
8019.000000;0.649359
8018.000000;0.649288
8017.000000;0.649351
8016.000000;0.649469
8015.000000;0.649617
8014.000000;0.649831
8013.000000;0.650117
8012.000000;0.650369
8011.000000;0.650437
8010.000000;0.650260
8009.000000;0.649914
8008.000000;0.649531
8007.000000;0.649215
8006.000000;0.649042
8005.000000;0.649073
8004.000000;0.649289
8003.000000;0.649546
8002.000000;0.649650
8001.000000;0.649518
8000.000000;0.649242
7999.000000;0.648976
7998.000000;0.648818
7997.000000;0.648767
7996.000000;0.648768
7995.000000;0.648760
7994.000000;0.648709
7993.000000;0.648610
7992.000000;0.648461
7991.000000;0.648243
7990.000000;0.647968
7989.000000;0.647727
7988.000000;0.647637
7987.000000;0.647737
7986.000000;0.647943
7985.000000;0.648130
7984.000000;0.648220
7983.000000;0.648203
7982.000000;0.648111
7981.000000;0.648005
7980.000000;0.647925
7979.000000;0.647855
7978.000000;0.647742
7977.000000;0.647572
7976.000000;0.647382
7975.000000;0.647203
7974.000000;0.647040
7973.000000;0.646931
7972.000000;0.646934
7971.000000;0.647040
7970.000000;0.647129
7969.000000;0.647107
7968.000000;0.647035
7967.000000;0.647066
7966.000000;0.647254
7965.000000;0.647472
7964.000000;0.647534
7963.000000;0.647369
7962.000000;0.647068
7961.000000;0.646787
7960.000000;0.646605
7959.000000;0.646473
7958.000000;0.646301
7957.000000;0.646087
7956.000000;0.645915
7955.000000;0.645848
7954.000000;0.645856
7953.000000;0.645880
7952.000000;0.645908
7951.000000;0.645946
7950.000000;0.645965
7949.000000;0.645928
7948.000000;0.645859
7947.000000;0.645812
7946.000000;0.645803
7945.000000;0.645804
7944.000000;0.645788
7943.000000;0.645738
7942.000000;0.645630
7941.000000;0.645441
7940.000000;0.645198
7939.000000;0.644978
7938.000000;0.644862
7937.000000;0.644890
7936.000000;0.645037
7935.000000;0.645203
7934.000000;0.645291
7933.000000;0.645311
7932.000000;0.645365
7931.000000;0.645484
7930.000000;0.645532
7929.000000;0.645350
7928.000000;0.644974
7927.000000;0.644609
7926.000000;0.644409
7925.000000;0.644360
7924.000000;0.644388
7923.000000;0.644477
7922.000000;0.644630
7921.000000;0.644794
7920.000000;0.644882
7919.000000;0.644869
7918.000000;0.644804
7917.000000;0.644744
7916.000000;0.644698
7915.000000;0.644613
7914.000000;0.644425
7913.000000;0.644141
7912.000000;0.643865
7911.000000;0.643725
7910.000000;0.643745
7909.000000;0.643832
7908.000000;0.643880
7907.000000;0.643866
7906.000000;0.643815
7905.000000;0.643744
7904.000000;0.643662
7903.000000;0.643585
7902.000000;0.643518
7901.000000;0.643434
7900.000000;0.643320
7899.000000;0.643211
7898.000000;0.643150
7897.000000;0.643128
7896.000000;0.643086
7895.000000;0.642979
7894.000000;0.642807
7893.000000;0.642610
7892.000000;0.642439
7891.000000;0.642347
7890.000000;0.642359
7889.000000;0.642452
7888.000000;0.642580
7887.000000;0.642722
7886.000000;0.642886
7885.000000;0.643051
7884.000000;0.643128
7883.000000;0.643017
7882.000000;0.642700
7881.000000;0.642283
7880.000000;0.641927
7879.000000;0.641733
7878.000000;0.641684
7877.000000;0.641679
7876.000000;0.641620
7875.000000;0.641485
7874.000000;0.641328
7873.000000;0.641230
7872.000000;0.641250
7871.000000;0.641384
7870.000000;0.641573
7869.000000;0.641733
7868.000000;0.641799
7867.000000;0.641762
7866.000000;0.641663
7865.000000;0.641545
7864.000000;0.641419
7863.000000;0.641279
7862.000000;0.641149
7861.000000;0.641060
7860.000000;0.641003
7859.000000;0.640931
7858.000000;0.640843
7857.000000;0.640815
7856.000000;0.640908
7855.000000;0.641068
7854.000000;0.641187
7853.000000;0.641236
7852.000000;0.641282
7851.000000;0.641354
7850.000000;0.641375
7849.000000;0.641253
7848.000000;0.640998
7847.000000;0.640700
7846.000000;0.640443
7845.000000;0.640265
7844.000000;0.640173
7843.000000;0.640153
7842.000000;0.640167
7841.000000;0.640186
7840.000000;0.640199
7839.000000;0.640195
7838.000000;0.640156
7837.000000;0.640078
7836.000000;0.639975
7835.000000;0.639847
7834.000000;0.639689
7833.000000;0.639552
7832.000000;0.639525
7831.000000;0.639633
7830.000000;0.639792
7829.000000;0.639895
7828.000000;0.639920
7827.000000;0.639891
7826.000000;0.639816
7825.000000;0.639705
7824.000000;0.639625
7823.000000;0.639630
7822.000000;0.639667
7821.000000;0.639617
7820.000000;0.639444
7819.000000;0.639228
7818.000000;0.639055
7817.000000;0.638927
7816.000000;0.638814
7815.000000;0.638716
7814.000000;0.638666
7813.000000;0.638684
7812.000000;0.638754
7811.000000;0.638823
7810.000000;0.638823
7809.000000;0.638733
7808.000000;0.638626
7807.000000;0.638600
7806.000000;0.638666
7805.000000;0.638726
7804.000000;0.638676
7803.000000;0.638496
7802.000000;0.638234
7801.000000;0.637960
7800.000000;0.637732
7799.000000;0.637595
7798.000000;0.637554
7797.000000;0.637581
7796.000000;0.637634
7795.000000;0.637680
7794.000000;0.637686
7793.000000;0.637637
7792.000000;0.637560
7791.000000;0.637518
7790.000000;0.637550
7789.000000;0.637637
7788.000000;0.637707
7787.000000;0.637695
7786.000000;0.637588
7785.000000;0.637436
7784.000000;0.637303
7783.000000;0.637202
7782.000000;0.637097
7781.000000;0.636983
7780.000000;0.636915
7779.000000;0.636929
7778.000000;0.636994
7777.000000;0.637050
7776.000000;0.637082
7775.000000;0.637096
7774.000000;0.637056
7773.000000;0.636920
7772.000000;0.636712
7771.000000;0.636494
7770.000000;0.636280
7769.000000;0.636048
7768.000000;0.635835
7767.000000;0.635734
7766.000000;0.635777
7765.000000;0.635905
7764.000000;0.636055
7763.000000;0.636233
7762.000000;0.636453
7761.000000;0.636657
7760.000000;0.636755
7759.000000;0.636702
7758.000000;0.636529
7757.000000;0.636292
7756.000000;0.636034
7755.000000;0.635772
7754.000000;0.635508
7753.000000;0.635281
7752.000000;0.635195
7751.000000;0.635336
7750.000000;0.635648
7749.000000;0.635936
7748.000000;0.636023
7747.000000;0.635889
7746.000000;0.635638
7745.000000;0.635373
7744.000000;0.635142
7743.000000;0.634956
7742.000000;0.634821
7741.000000;0.634748
7740.000000;0.634756
7739.000000;0.634848
7738.000000;0.634976
7737.000000;0.635061
7736.000000;0.635055
7735.000000;0.634972
7734.000000;0.634850
7733.000000;0.634703
7732.000000;0.634542
7731.000000;0.634387
7730.000000;0.634251
7729.000000;0.634130
7728.000000;0.634030
7727.000000;0.633985
7726.000000;0.634012
7725.000000;0.634077
7724.000000;0.634127
7723.000000;0.634138
7722.000000;0.634125
7721.000000;0.634100
7720.000000;0.634057
7719.000000;0.633982
7718.000000;0.633864
7717.000000;0.633697
7716.000000;0.633500
7715.000000;0.633308
7714.000000;0.633153
7713.000000;0.633064
7712.000000;0.633069
7711.000000;0.633166
7710.000000;0.633285
7709.000000;0.633319
7708.000000;0.633219
7707.000000;0.633046
7706.000000;0.632904
7705.000000;0.632844
7704.000000;0.632844
7703.000000;0.632862
7702.000000;0.632878
7701.000000;0.632894
7700.000000;0.632914
7699.000000;0.632927
7698.000000;0.632899
7697.000000;0.632798
7696.000000;0.632630
7695.000000;0.632446
7694.000000;0.632299
7693.000000;0.632225
7692.000000;0.632248
7691.000000;0.632361
7690.000000;0.632487
7689.000000;0.632514
7688.000000;0.632399
7687.000000;0.632227
7686.000000;0.632114
7685.000000;0.632087
7684.000000;0.632073
7683.000000;0.632009
7682.000000;0.631914
7681.000000;0.631848
7680.000000;0.631829
7679.000000;0.631807
7678.000000;0.631724
7677.000000;0.631573
7676.000000;0.631403
7675.000000;0.631262
7674.000000;0.631157
7673.000000;0.631081
7672.000000;0.631050
7671.000000;0.631079
7670.000000;0.631147
7669.000000;0.631198
7668.000000;0.631204
7667.000000;0.631165
7666.000000;0.631089
7665.000000;0.630981
7664.000000;0.630871
7663.000000;0.630790
7662.000000;0.630728
7661.000000;0.630654
7660.000000;0.630594
7659.000000;0.630636
7658.000000;0.630812
7657.000000;0.631014
7656.000000;0.631070
7655.000000;0.630886
7654.000000;0.630514
7653.000000;0.630103
7652.000000;0.629816
7651.000000;0.629749
7650.000000;0.629882
7649.000000;0.630104
7648.000000;0.630309
7647.000000;0.630452
7646.000000;0.630519
7645.000000;0.630475
7644.000000;0.630301
7643.000000;0.630045
7642.000000;0.629812
7641.000000;0.629680
7640.000000;0.629658
7639.000000;0.629692
7638.000000;0.629701
7637.000000;0.629619
7636.000000;0.629442
7635.000000;0.629231
7634.000000;0.629052
7633.000000;0.628931
7632.000000;0.628875
7631.000000;0.628910
7630.000000;0.629045
7629.000000;0.629227
7628.000000;0.629358
7627.000000;0.629374
7626.000000;0.629290
7625.000000;0.629170
7624.000000;0.629073
7623.000000;0.629027
7622.000000;0.629014
7621.000000;0.628995
7620.000000;0.628952
7619.000000;0.628903
7618.000000;0.628869
7617.000000;0.628837
7616.000000;0.628777
7615.000000;0.628686
7614.000000;0.628597
7613.000000;0.628543
7612.000000;0.628544
7611.000000;0.628592
7610.000000;0.628647
7609.000000;0.628647
7608.000000;0.628563
7607.000000;0.628440
7606.000000;0.628353
7605.000000;0.628335
7604.000000;0.628370
7603.000000;0.628436
7602.000000;0.628512
7601.000000;0.628542
7600.000000;0.628443
7599.000000;0.628183
7598.000000;0.627825
7597.000000;0.627487
7596.000000;0.627255
7595.000000;0.627142
7594.000000;0.627114
7593.000000;0.627125
7592.000000;0.627145
7591.000000;0.627161
7590.000000;0.627169
7589.000000;0.627168
7588.000000;0.627173
7587.000000;0.627234
7586.000000;0.627396
7585.000000;0.627637
7584.000000;0.627852
7583.000000;0.627927
7582.000000;0.627820
7581.000000;0.627591
7580.000000;0.627352
7579.000000;0.627200
7578.000000;0.627169
7577.000000;0.627225
7576.000000;0.627297
7575.000000;0.627336
7574.000000;0.627345
7573.000000;0.627345
7572.000000;0.627337
7571.000000;0.627296
7570.000000;0.627216
7569.000000;0.627131
7568.000000;0.627067
7567.000000;0.627005
7566.000000;0.626902
7565.000000;0.626752
7564.000000;0.626605
7563.000000;0.626523
7562.000000;0.626519
7561.000000;0.626561
7560.000000;0.626604
7559.000000;0.626622
7558.000000;0.626609
7557.000000;0.626577
7556.000000;0.626553
7555.000000;0.626566
7554.000000;0.626631
7553.000000;0.626737
7552.000000;0.626843
7551.000000;0.626887
7550.000000;0.626817
7549.000000;0.626643
7548.000000;0.626438
7547.000000;0.626287
7546.000000;0.626228
7545.000000;0.626239
7544.000000;0.626266
7543.000000;0.626251
7542.000000;0.626159
7541.000000;0.626011
7540.000000;0.625881
7539.000000;0.625832
7538.000000;0.625842
7537.000000;0.625825
7536.000000;0.625736
7535.000000;0.625619
7534.000000;0.625557
7533.000000;0.625579
7532.000000;0.625651
7531.000000;0.625721
7530.000000;0.625764
7529.000000;0.625778
7528.000000;0.625785
7527.000000;0.625811
7526.000000;0.625869
7525.000000;0.625949
7524.000000;0.626032
7523.000000;0.626098
7522.000000;0.626124
7521.000000;0.626088
7520.000000;0.626002
7519.000000;0.625911
7518.000000;0.625855
7517.000000;0.625838
7516.000000;0.625839
7515.000000;0.625859
7514.000000;0.625908
7513.000000;0.625963
7512.000000;0.625945
7511.000000;0.625793
7510.000000;0.625538
7509.000000;0.625290
7508.000000;0.625133
7507.000000;0.625060
7506.000000;0.625016
7505.000000;0.625013
7504.000000;0.625138
7503.000000;0.625438
7502.000000;0.625823
7501.000000;0.626120
7500.000000;0.626216
7499.000000;0.626126
7498.000000;0.625929
7497.000000;0.625692
7496.000000;0.625450
7495.000000;0.625236
7494.000000;0.625075
7493.000000;0.624975
7492.000000;0.624935
7491.000000;0.624955
7490.000000;0.625025
7489.000000;0.625115
7488.000000;0.625192
7487.000000;0.625251
7486.000000;0.625313
7485.000000;0.625391
7484.000000;0.625472
7483.000000;0.625525
7482.000000;0.625534
7481.000000;0.625512
7480.000000;0.625489
7479.000000;0.625477
7478.000000;0.625456
7477.000000;0.625410
7476.000000;0.625356
7475.000000;0.625326
7474.000000;0.625313
7473.000000;0.625260
7472.000000;0.625125
7471.000000;0.624940
7470.000000;0.624809
7469.000000;0.624820
7468.000000;0.624974
7467.000000;0.625189
7466.000000;0.625389
7465.000000;0.625561
7464.000000;0.625725
7463.000000;0.625857
7462.000000;0.625871
7461.000000;0.625708
7460.000000;0.625394
7459.000000;0.625026
7458.000000;0.624707
7457.000000;0.624528
7456.000000;0.624551
7455.000000;0.624762
7454.000000;0.625058
7453.000000;0.625318
7452.000000;0.625498
7451.000000;0.625619
7450.000000;0.625694
7449.000000;0.625699
7448.000000;0.625622
7447.000000;0.625495
7446.000000;0.625359
7445.000000;0.625237
7444.000000;0.625150
7443.000000;0.625133
7442.000000;0.625199
7441.000000;0.625322
7440.000000;0.625459
7439.000000;0.625581
7438.000000;0.625669
7437.000000;0.625692
7436.000000;0.625634
7435.000000;0.625515
7434.000000;0.625387
7433.000000;0.625297
7432.000000;0.625267
7431.000000;0.625293
7430.000000;0.625359
7429.000000;0.625458
7428.000000;0.625603
7427.000000;0.625814
7426.000000;0.626080
7425.000000;0.626355
7424.000000;0.626572
7423.000000;0.626669
7422.000000;0.626612
7421.000000;0.626417
7420.000000;0.626146
7419.000000;0.625871
7418.000000;0.625649
7417.000000;0.625516
7416.000000;0.625504
7415.000000;0.625619
7414.000000;0.625821
7413.000000;0.626039
7412.000000;0.626217
7411.000000;0.626328
7410.000000;0.626363
7409.000000;0.626333
7408.000000;0.626269
7407.000000;0.626195
7406.000000;0.626129
7405.000000;0.626108
7404.000000;0.626177
7403.000000;0.626320
7402.000000;0.626429
7401.000000;0.626398
7400.000000;0.626254
7399.000000;0.626126
7398.000000;0.626122
7397.000000;0.626254
7396.000000;0.626475
7395.000000;0.626701
7394.000000;0.626818
7393.000000;0.626749
7392.000000;0.626540
7391.000000;0.626332
7390.000000;0.626219
7389.000000;0.626187
7388.000000;0.626192
7387.000000;0.626234
7386.000000;0.626308
7385.000000;0.626373
7384.000000;0.626394
7383.000000;0.626369
7382.000000;0.626301
7381.000000;0.626195
7380.000000;0.626109
7379.000000;0.626148
7378.000000;0.626341
7377.000000;0.626583
7376.000000;0.626749
7375.000000;0.626826
7374.000000;0.626890
7373.000000;0.626974
7372.000000;0.627039
7371.000000;0.627035
7370.000000;0.626958
7369.000000;0.626840
7368.000000;0.626750
7367.000000;0.626759
7366.000000;0.626869
7365.000000;0.626992
7364.000000;0.627034
7363.000000;0.626991
7362.000000;0.626954
7361.000000;0.627029
7360.000000;0.627259
7359.000000;0.627570
7358.000000;0.627776
7357.000000;0.627701
7356.000000;0.627341
7355.000000;0.626900
7354.000000;0.626582
7353.000000;0.626422
7352.000000;0.626342
7351.000000;0.626324
7350.000000;0.626413
7349.000000;0.626597
7348.000000;0.626788
7347.000000;0.626924
7346.000000;0.627021
7345.000000;0.627108
7344.000000;0.627181
7343.000000;0.627231
7342.000000;0.627251
7341.000000;0.627234
7340.000000;0.627200
7339.000000;0.627225
7338.000000;0.627374
7337.000000;0.627602
7336.000000;0.627801
7335.000000;0.627925
7334.000000;0.628005
7333.000000;0.628067
7332.000000;0.628087
7331.000000;0.628060
7330.000000;0.628038
7329.000000;0.628076
7328.000000;0.628171
7327.000000;0.628308
7326.000000;0.628499
7325.000000;0.628743
7324.000000;0.629010
7323.000000;0.629275
7322.000000;0.629542
7321.000000;0.629801
7320.000000;0.630015
7319.000000;0.630152
7318.000000;0.630194
7317.000000;0.630122
7316.000000;0.629932
7315.000000;0.629682
7314.000000;0.629460
7313.000000;0.629300
7312.000000;0.629204
7311.000000;0.629225
7310.000000;0.629442
7309.000000;0.629825
7308.000000;0.630204
7307.000000;0.630449
7306.000000;0.630602
7305.000000;0.630775
7304.000000;0.630970
7303.000000;0.631099
7302.000000;0.631128
7301.000000;0.631113
7300.000000;0.631116
7299.000000;0.631190
7298.000000;0.631395
7297.000000;0.631757
7296.000000;0.632190
7295.000000;0.632548
7294.000000;0.632765
7293.000000;0.632911
7292.000000;0.633071
7291.000000;0.633227
7290.000000;0.633329
7289.000000;0.633403
7288.000000;0.633547
7287.000000;0.633815
7286.000000;0.634166
7285.000000;0.634528
7284.000000;0.634876
7283.000000;0.635231
7282.000000;0.635591
7281.000000;0.635902
7280.000000;0.636103
7279.000000;0.636187
7278.000000;0.636199
7277.000000;0.636182
7276.000000;0.636152
7275.000000;0.636114
7274.000000;0.636093
7273.000000;0.636137
7272.000000;0.636321
7271.000000;0.636701
7270.000000;0.637251
7269.000000;0.637818
7268.000000;0.638222
7267.000000;0.638417
7266.000000;0.638528
7265.000000;0.638700
7264.000000;0.638953
7263.000000;0.639227
7262.000000;0.639508
7261.000000;0.639847
7260.000000;0.640259
7259.000000;0.640683
7258.000000;0.641033
7257.000000;0.641245
7256.000000;0.641289
7255.000000;0.641197
7254.000000;0.641080
7253.000000;0.641063
7252.000000;0.641193
7251.000000;0.641420
7250.000000;0.641684
7249.000000;0.641992
7248.000000;0.642390
7247.000000;0.642898
7246.000000;0.643480
7245.000000;0.644046
7244.000000;0.644514
7243.000000;0.644882
7242.000000;0.645245
7241.000000;0.645676
7240.000000;0.646095
7239.000000;0.646329
7238.000000;0.646333
7237.000000;0.646270
7236.000000;0.646360
7235.000000;0.646693
7234.000000;0.647223
7233.000000;0.647873
7232.000000;0.648596
7231.000000;0.649341
7230.000000;0.650040
7229.000000;0.650622
7228.000000;0.651018
7227.000000;0.651204
7226.000000;0.651247
7225.000000;0.651304
7224.000000;0.651501
7223.000000;0.651846
7222.000000;0.652283
7221.000000;0.652792
7220.000000;0.653392
7219.000000;0.654078
7218.000000;0.654807
7217.000000;0.655533
7216.000000;0.656215
7215.000000;0.656821
7214.000000;0.657356
7213.000000;0.657871
7212.000000;0.658399
7211.000000;0.658885
7210.000000;0.659241
7209.000000;0.659454
7208.000000;0.659585
7207.000000;0.659689
7206.000000;0.659797
7205.000000;0.659989
7204.000000;0.660386
7203.000000;0.661028
7202.000000;0.661823
7201.000000;0.662637
7200.000000;0.663410
7199.000000;0.664155
7198.000000;0.664893
7197.000000;0.665631
7196.000000;0.666351
7195.000000;0.666995
7194.000000;0.667490
7193.000000;0.667825
7192.000000;0.668065
7191.000000;0.668257
7190.000000;0.668376
7189.000000;0.668402
7188.000000;0.668424
7187.000000;0.668617
7186.000000;0.669140
7185.000000;0.670048
7184.000000;0.671268
7183.000000;0.672624
7182.000000;0.673889
7181.000000;0.674890
7180.000000;0.675570
7179.000000;0.675956
7178.000000;0.676109
7177.000000;0.676149
7176.000000;0.676257
7175.000000;0.676588
7174.000000;0.677176
7173.000000;0.677970
7172.000000;0.678883
7171.000000;0.679772
7170.000000;0.680446
7169.000000;0.680817
7168.000000;0.681046
7167.000000;0.681431
7166.000000;0.682148
7165.000000;0.683149
7164.000000;0.684251
7163.000000;0.685238
7162.000000;0.685933
7161.000000;0.686322
7160.000000;0.686628
7159.000000;0.687111
7158.000000;0.687779
7157.000000;0.688458
7156.000000;0.689107
7155.000000;0.689902
7154.000000;0.690945
7153.000000;0.692043
7152.000000;0.692900
7151.000000;0.693424
7150.000000;0.693727
7149.000000;0.693896
7148.000000;0.693932
7147.000000;0.693883
7146.000000;0.693934
7145.000000;0.694315
7144.000000;0.695147
7143.000000;0.696346
7142.000000;0.697661
7141.000000;0.698826
7140.000000;0.699718
7139.000000;0.700378
7138.000000;0.700848
7137.000000;0.701075
7136.000000;0.701023
7135.000000;0.700850
7134.000000;0.700878
7133.000000;0.701357
7132.000000;0.702251
7131.000000;0.703273
7130.000000;0.704129
7129.000000;0.704753
7128.000000;0.705333
7127.000000;0.706071
7126.000000;0.706912
7125.000000;0.707563
7124.000000;0.707838
7123.000000;0.707911
7122.000000;0.708109
7121.000000;0.708473
7120.000000;0.708605
7119.000000;0.708082
7118.000000;0.706987
7117.000000;0.705963
7116.000000;0.705674
7115.000000;0.706232
7114.000000;0.707212
7113.000000;0.708146
7112.000000;0.708842
7111.000000;0.709253
7110.000000;0.709236
7109.000000;0.708631
7108.000000;0.707539
7107.000000;0.706375
7106.000000;0.705581
7105.000000;0.705358
7104.000000;0.705680
7103.000000;0.706456
7102.000000;0.707529
7101.000000;0.708536
7100.000000;0.708947
7099.000000;0.708375
7098.000000;0.706891
7097.000000;0.704959
7096.000000;0.703030
7095.000000;0.701270
7094.000000;0.699727
7093.000000;0.698623
7092.000000;0.698281
7091.000000;0.698729
7090.000000;0.699568
7089.000000;0.700319
7088.000000;0.700785
7087.000000;0.701004
7086.000000;0.701000
7085.000000;0.700767
7084.000000;0.700355
7083.000000;0.699707
7082.000000;0.698455
7081.000000;0.696172
7080.000000;0.692928
7079.000000;0.689393
7078.000000;0.686329
7077.000000;0.684104
7076.000000;0.682737
7075.000000;0.682150
7074.000000;0.682209
7073.000000;0.682629
7072.000000;0.683027
7071.000000;0.683119
7070.000000;0.682784
7069.000000;0.681968
7068.000000;0.680594
7067.000000;0.678571
7066.000000;0.675831
7065.000000;0.672412
7064.000000;0.668615
7063.000000;0.665075
7062.000000;0.662533
7061.000000;0.661380
7060.000000;0.661413
7059.000000;0.662035
7058.000000;0.662689
7057.000000;0.663045
7056.000000;0.662816
7055.000000;0.661630
7054.000000;0.659344
7053.000000;0.656450
7052.000000;0.653875
7051.000000;0.652163
7050.000000;0.650987
7049.000000;0.649599
7048.000000;0.647646
7047.000000;0.645343
7046.000000;0.642931
7045.000000;0.640275
7044.000000;0.637126
7043.000000;0.633596
7042.000000;0.630203
7041.000000;0.627469
7040.000000;0.625589
7039.000000;0.624368
7038.000000;0.623383
7037.000000;0.622269
7036.000000;0.620975
7035.000000;0.619685
7034.000000;0.618376
7033.000000;0.616579
7032.000000;0.613773
7031.000000;0.610014
7030.000000;0.605959
7029.000000;0.602245
7028.000000;0.599051
7027.000000;0.596325
7026.000000;0.594126
7025.000000;0.592484
7024.000000;0.591096
7023.000000;0.589524
7022.000000;0.587709
7021.000000;0.585973
7020.000000;0.584463
7019.000000;0.582913
7018.000000;0.581090
7017.000000;0.579174
7016.000000;0.577377
7015.000000;0.575399
7014.000000;0.572634
7013.000000;0.568950
7012.000000;0.564970
7011.000000;0.561500
7010.000000;0.558886
7009.000000;0.556931
7008.000000;0.555174
7007.000000;0.553098
7006.000000;0.550342
7005.000000;0.546980
7004.000000;0.543538
7003.000000;0.540484
7002.000000;0.537812
7001.000000;0.535317
7000.000000;0.533156
6999.000000;0.531761
6998.000000;0.531097
6997.000000;0.530296
6996.000000;0.528319
6995.000000;0.524855
6994.000000;0.520400
6993.000000;0.515595
6992.000000;0.510751
6991.000000;0.505980
6990.000000;0.501535
6989.000000;0.497847
6988.000000;0.495262
6987.000000;0.493789
6986.000000;0.492993
6985.000000;0.492173
6984.000000;0.490833
6983.000000;0.489024
6982.000000;0.487118
6981.000000;0.485280
6980.000000;0.483296
6979.000000;0.480898
6978.000000;0.478038
6977.000000;0.474809
6976.000000;0.471323
6975.000000;0.467766
6974.000000;0.464350
6973.000000;0.461042
6972.000000;0.457531
6971.000000;0.453718
6970.000000;0.450122
6969.000000;0.447461
6968.000000;0.445791
6967.000000;0.444347
6966.000000;0.442410
6965.000000;0.440142
6964.000000;0.438288
6963.000000;0.437069
6962.000000;0.435690
6961.000000;0.433141
6960.000000;0.429342
6959.000000;0.425165
6958.000000;0.421439
6957.000000;0.418288
6956.000000;0.415516
6955.000000;0.413177
6954.000000;0.411368
6953.000000;0.409754
6952.000000;0.407844
6951.000000;0.405726
6950.000000;0.404001
6949.000000;0.402849
6948.000000;0.401565
6947.000000;0.399298
6946.000000;0.396004
6945.000000;0.392397
6944.000000;0.389109
6943.000000;0.386172
6942.000000;0.383295
6941.000000;0.380371
6940.000000;0.377571
6939.000000;0.375029
6938.000000;0.372647
6937.000000;0.370366
6936.000000;0.368493
6935.000000;0.367458
6934.000000;0.367161
6933.000000;0.366871
6932.000000;0.365979
6931.000000;0.364569
6930.000000;0.362910
6929.000000;0.360731
6928.000000;0.357514
6927.000000;0.353353
6926.000000;0.349027
6925.000000;0.345357
6924.000000;0.342875
6923.000000;0.341872
6922.000000;0.342059
6921.000000;0.342177
6920.000000;0.340741
6919.000000;0.337470
6918.000000;0.333489
6917.000000;0.330082
6916.000000;0.327771
6915.000000;0.326619
6914.000000;0.326597
6913.000000;0.327203
6912.000000;0.327357
6911.000000;0.326222
6910.000000;0.323847
6909.000000;0.320689
6908.000000;0.316978
6907.000000;0.312990
6906.000000;0.309487
6905.000000;0.307304
6904.000000;0.306645
6903.000000;0.307113
6902.000000;0.308222
6901.000000;0.309489
6900.000000;0.310260
6899.000000;0.309855
6898.000000;0.307844
6897.000000;0.304171
6896.000000;0.299419
6895.000000;0.295026
6894.000000;0.292603
6893.000000;0.292460
6892.000000;0.293068
6891.000000;0.292516
6890.000000;0.290358
6889.000000;0.287694
6888.000000;0.285790
6887.000000;0.285154
6886.000000;0.285645
6885.000000;0.286792
6884.000000;0.287938
6883.000000;0.288486
6882.000000;0.288133
6881.000000;0.286805
6880.000000;0.284525
6879.000000;0.281622
6878.000000;0.278909
6877.000000;0.277254
6876.000000;0.276838
6875.000000;0.277000
6874.000000;0.276838
6873.000000;0.275976
6872.000000;0.274819
6871.000000;0.274052
6870.000000;0.273768
6869.000000;0.273175
6868.000000;0.271491
6867.000000;0.269067
6866.000000;0.267161
6865.000000;0.266470
6864.000000;0.266419
6863.000000;0.266153
6862.000000;0.265653
6861.000000;0.265383
6860.000000;0.265284
6859.000000;0.264779
6858.000000;0.263642
6857.000000;0.262360
6856.000000;0.261602
6855.000000;0.261630
6854.000000;0.262181
6853.000000;0.262667
6852.000000;0.262583
6851.000000;0.261898
6850.000000;0.261003
6849.000000;0.260168
6848.000000;0.259290
6847.000000;0.258319
6846.000000;0.257658
6845.000000;0.257799
6844.000000;0.258757
6843.000000;0.260114
6842.000000;0.261444
6841.000000;0.262469
6840.000000;0.262929
6839.000000;0.262610
6838.000000;0.261494
6837.000000;0.259736
6836.000000;0.257583
6835.000000;0.255438
6834.000000;0.253835
6833.000000;0.253187
6832.000000;0.253600
6831.000000;0.254996
6830.000000;0.257154
6829.000000;0.259526
6828.000000;0.261340
6827.000000;0.262172
6826.000000;0.262230
6825.000000;0.261883
6824.000000;0.261151
6823.000000;0.259900
6822.000000;0.258328
6821.000000;0.256983
6820.000000;0.256420
6819.000000;0.256954
6818.000000;0.258558
6817.000000;0.260822
6816.000000;0.263170
6815.000000;0.265274
6814.000000;0.267078
6813.000000;0.268351
6812.000000;0.268572
6811.000000;0.267515
6810.000000;0.265734
6809.000000;0.264224
6808.000000;0.263721
6807.000000;0.264364
6806.000000;0.265766
6805.000000;0.267211
6804.000000;0.268084
6803.000000;0.268356
6802.000000;0.268444
6801.000000;0.268479
6800.000000;0.268127
6799.000000;0.267416
6798.000000;0.267238
6797.000000;0.268468
6796.000000;0.270835
6795.000000;0.273209
6794.000000;0.274874
6793.000000;0.276006
6792.000000;0.276985
6791.000000;0.277838
6790.000000;0.278454
6789.000000;0.278841
6788.000000;0.278899
6787.000000;0.278349
6786.000000;0.277273
6785.000000;0.276483
6784.000000;0.276988
6783.000000;0.279056
6782.000000;0.282005
6781.000000;0.284871
6780.000000;0.287078
6779.000000;0.288426
6778.000000;0.288776
6777.000000;0.288074
6776.000000;0.286626
6775.000000;0.285048
6774.000000;0.283804
6773.000000;0.282924
6772.000000;0.282300
6771.000000;0.282098
6770.000000;0.282649
6769.000000;0.284029
6768.000000;0.285992
6767.000000;0.288278
6766.000000;0.290675
6765.000000;0.292787
6764.000000;0.294108
6763.000000;0.294503
6762.000000;0.294375
6761.000000;0.294214
6760.000000;0.294194
6759.000000;0.294347
6758.000000;0.294822
6757.000000;0.295698
6756.000000;0.296721
6755.000000;0.297578
6754.000000;0.298366
6753.000000;0.299516
6752.000000;0.301246
6751.000000;0.303261
6750.000000;0.304993
6749.000000;0.305988
6748.000000;0.306113
6747.000000;0.305566
6746.000000;0.304713
6745.000000;0.303848
6744.000000;0.303113
6743.000000;0.302681
6742.000000;0.302865
6741.000000;0.303872
6740.000000;0.305529
6739.000000;0.307411
6738.000000;0.309252
6737.000000;0.311075
6736.000000;0.312912
6735.000000;0.314512
6734.000000;0.315439
6733.000000;0.315424
6732.000000;0.314656
6731.000000;0.313755
6730.000000;0.313448
6729.000000;0.314116
6728.000000;0.315575
6727.000000;0.317277
6726.000000;0.318768
6725.000000;0.319982
6724.000000;0.321122
6723.000000;0.322283
6722.000000;0.323236
6721.000000;0.323630
6720.000000;0.323397
6719.000000;0.322862
6718.000000;0.322424
6717.000000;0.322238
6716.000000;0.322293
6715.000000;0.322685
6714.000000;0.323595
6713.000000;0.325010
6712.000000;0.326662
6711.000000;0.328287
6710.000000;0.329796
6709.000000;0.331147
6708.000000;0.332223
6707.000000;0.332981
6706.000000;0.333519
6705.000000;0.333927
6704.000000;0.334136
6703.000000;0.334061
6702.000000;0.333826
6701.000000;0.333722
6700.000000;0.333950
6699.000000;0.334508
6698.000000;0.335263
6697.000000;0.336063
6696.000000;0.336789
6695.000000;0.337402
6694.000000;0.337956
6693.000000;0.338555
6692.000000;0.339316
6691.000000;0.340329
6690.000000;0.341585
6689.000000;0.342906
6688.000000;0.344022
6687.000000;0.344770
6686.000000;0.345145
6685.000000;0.345191
6684.000000;0.344968
6683.000000;0.344666
6682.000000;0.344578
6681.000000;0.344879
6680.000000;0.345532
6679.000000;0.346508
6678.000000;0.347923
6677.000000;0.349797
6676.000000;0.351763
6675.000000;0.353240
6674.000000;0.353916
6673.000000;0.353919
6672.000000;0.353568
6671.000000;0.353119
6670.000000;0.352784
6669.000000;0.352803
6668.000000;0.353331
6667.000000;0.354290
6666.000000;0.355417
6665.000000;0.356457
6664.000000;0.357302
6663.000000;0.357989
6662.000000;0.358605
6661.000000;0.359183
6660.000000;0.359683
6659.000000;0.360080
6658.000000;0.360434
6657.000000;0.360832
6656.000000;0.361302
6655.000000;0.361811
6654.000000;0.362382
6653.000000;0.363138
6652.000000;0.364195
6651.000000;0.365488
6650.000000;0.366726
6649.000000;0.367542
6648.000000;0.367763
6647.000000;0.367542
6646.000000;0.367234
6645.000000;0.367134
6644.000000;0.367350
6643.000000;0.367881
6642.000000;0.368717
6641.000000;0.369811
6640.000000;0.371022
6639.000000;0.372163
6638.000000;0.373101
6637.000000;0.373797
6636.000000;0.374258
6635.000000;0.374505
6634.000000;0.374572
6633.000000;0.374532
6632.000000;0.374523
6631.000000;0.374742
6630.000000;0.375348
6629.000000;0.376313
6628.000000;0.377411
6627.000000;0.378378
6626.000000;0.379068
6625.000000;0.379477
6624.000000;0.379676
6623.000000;0.379783
6622.000000;0.379927
6621.000000;0.380186
6620.000000;0.380558
6619.000000;0.381038
6618.000000;0.381670
6617.000000;0.382458
6616.000000;0.383272
6615.000000;0.383916
6614.000000;0.384317
6613.000000;0.384603
6612.000000;0.384983
6611.000000;0.385578
6610.000000;0.386350
6609.000000;0.387159
6608.000000;0.387878
6607.000000;0.388471
6606.000000;0.388967
6605.000000;0.389372
6604.000000;0.389660
6603.000000;0.389858
6602.000000;0.390093
6601.000000;0.390482
6600.000000;0.391002
6599.000000;0.391540
6598.000000;0.392034
6597.000000;0.392521
6596.000000;0.393046
6595.000000;0.393593
6594.000000;0.394119
6593.000000;0.394608
6592.000000;0.395077
6591.000000;0.395557
6590.000000;0.396079
6589.000000;0.396632
6588.000000;0.397146
6587.000000;0.397563
6586.000000;0.397921
6585.000000;0.398321
6584.000000;0.398820
6583.000000;0.399385
6582.000000;0.399964
6581.000000;0.400547
6580.000000;0.401124
6579.000000;0.401647
6578.000000;0.402076
6577.000000;0.402448
6576.000000;0.402841
6575.000000;0.403278
6574.000000;0.403707
6573.000000;0.404080
6572.000000;0.404413
6571.000000;0.404757
6570.000000;0.405127
6569.000000;0.405484
6568.000000;0.405785
6567.000000;0.406033
6566.000000;0.406269
6565.000000;0.406546
6564.000000;0.406908
6563.000000;0.407388
6562.000000;0.407995
6561.000000;0.408701
6560.000000;0.409465
6559.000000;0.410255
6558.000000;0.411031
6557.000000;0.411715
6556.000000;0.412218
6555.000000;0.412533
6554.000000;0.412779
6553.000000;0.413113
6552.000000;0.413585
6551.000000;0.414096
6550.000000;0.414488
6549.000000;0.414700
6548.000000;0.414839
6547.000000;0.415093
6546.000000;0.415557
6545.000000;0.416130
6544.000000;0.416614
6543.000000;0.416911
6542.000000;0.417120
6541.000000;0.417416
6540.000000;0.417855
6539.000000;0.418334
6538.000000;0.418715
6537.000000;0.418966
6536.000000;0.419191
6535.000000;0.419533
6534.000000;0.420051
6533.000000;0.420689
6532.000000;0.421331
6531.000000;0.421894
6530.000000;0.422348
6529.000000;0.422693
6528.000000;0.422944
6527.000000;0.423150
6526.000000;0.423377
6525.000000;0.423655
6524.000000;0.423940
6523.000000;0.424168
6522.000000;0.424329
6521.000000;0.424492
6520.000000;0.424768
6519.000000;0.425227
6518.000000;0.425836
6517.000000;0.426465
6516.000000;0.426984
6515.000000;0.427376
6514.000000;0.427729
6513.000000;0.428123
6512.000000;0.428547
6511.000000;0.428949
6510.000000;0.429309
6509.000000;0.429642
6508.000000;0.429960
6507.000000;0.430279
6506.000000;0.430622
6505.000000;0.430987
6504.000000;0.431313
6503.000000;0.431531
6502.000000;0.431647
6501.000000;0.431759
6500.000000;0.431977
6499.000000;0.432347
6498.000000;0.432840
6497.000000;0.433401
6496.000000;0.434005
6495.000000;0.434664
6494.000000;0.435361
6493.000000;0.436006
6492.000000;0.436486
6491.000000;0.436764
6490.000000;0.436888
6489.000000;0.436895
6488.000000;0.436771
6487.000000;0.436545
6486.000000;0.436360
6485.000000;0.436384
6484.000000;0.436656
6483.000000;0.437093
6482.000000;0.437612
6481.000000;0.438195
6480.000000;0.438833
6479.000000;0.439486
6478.000000;0.440086
6477.000000;0.440561
6476.000000;0.440840
6475.000000;0.440883
6474.000000;0.440727
6473.000000;0.440488
6472.000000;0.440308
6471.000000;0.440327
6470.000000;0.440651
6469.000000;0.441286
6468.000000;0.442098
6467.000000;0.442908
6466.000000;0.443627
6465.000000;0.444257
6464.000000;0.444771
6463.000000;0.445083
6462.000000;0.445164
6461.000000;0.445117
6460.000000;0.445074
6459.000000;0.445062
6458.000000;0.445038
6457.000000;0.445041
6456.000000;0.445209
6455.000000;0.445635
6454.000000;0.446240
6453.000000;0.446823
6452.000000;0.447256
6451.000000;0.447590
6450.000000;0.447961
6449.000000;0.448401
6448.000000;0.448791
6447.000000;0.449023
6446.000000;0.449161
6445.000000;0.449370
6444.000000;0.449706
6443.000000;0.450058
6442.000000;0.450310
6441.000000;0.450470
6440.000000;0.450622
6439.000000;0.450792
6438.000000;0.450951
6437.000000;0.451085
6436.000000;0.451213
6435.000000;0.451343
6434.000000;0.451470
6433.000000;0.451634
6432.000000;0.451919
6431.000000;0.452374
6430.000000;0.452959
6429.000000;0.453551
6428.000000;0.454015
6427.000000;0.454271
6426.000000;0.454338
6425.000000;0.454312
6424.000000;0.454288
6423.000000;0.454310
6422.000000;0.454390
6421.000000;0.454549
6420.000000;0.454810
6419.000000;0.455154
6418.000000;0.455525
6417.000000;0.455867
6416.000000;0.456138
6415.000000;0.456318
6414.000000;0.456435
6413.000000;0.456574
6412.000000;0.456806
6411.000000;0.457109
6410.000000;0.457399
6409.000000;0.457630
6408.000000;0.457838
6407.000000;0.458064
6406.000000;0.458304
6405.000000;0.458535
6404.000000;0.458770
6403.000000;0.459033
6402.000000;0.459315
6401.000000;0.459593
6400.000000;0.459862
6399.000000;0.460124
6398.000000;0.460342
6397.000000;0.460458
6396.000000;0.460471
6395.000000;0.460469
6394.000000;0.460566
6393.000000;0.460807
6392.000000;0.461133
6391.000000;0.461429
6390.000000;0.461613
6389.000000;0.461689
6388.000000;0.461731
6387.000000;0.461816
6386.000000;0.461969
6385.000000;0.462169
6384.000000;0.462398
6383.000000;0.462655
6382.000000;0.462927
6381.000000;0.463183
6380.000000;0.463409
6379.000000;0.463636
6378.000000;0.463888
6377.000000;0.464143
6376.000000;0.464351
6375.000000;0.464510
6374.000000;0.464668
6373.000000;0.464844
6372.000000;0.464997
6371.000000;0.465077
6370.000000;0.465100
6369.000000;0.465127
6368.000000;0.465201
6367.000000;0.465328
6366.000000;0.465520
6365.000000;0.465791
6364.000000;0.466115
6363.000000;0.466411
6362.000000;0.466607
6361.000000;0.466693
6360.000000;0.466714
6359.000000;0.466716
6358.000000;0.466719
6357.000000;0.466732
6356.000000;0.466757
6355.000000;0.466805
6354.000000;0.466907
6353.000000;0.467109
6352.000000;0.467431
6351.000000;0.467826
6350.000000;0.468203
6349.000000;0.468484
6348.000000;0.468652
6347.000000;0.468737
6346.000000;0.468768
6345.000000;0.468755
6344.000000;0.468696
6343.000000;0.468619
6342.000000;0.468588
6341.000000;0.468666
6340.000000;0.468873
6339.000000;0.469181
6338.000000;0.469538
6337.000000;0.469890
6336.000000;0.470182
6335.000000;0.470376
6334.000000;0.470465
6333.000000;0.470471
6332.000000;0.470416
6331.000000;0.470322
6330.000000;0.470225
6329.000000;0.470174
6328.000000;0.470203
6327.000000;0.470308
6326.000000;0.470476
6325.000000;0.470697
6324.000000;0.470941
6323.000000;0.471153
6322.000000;0.471295
6321.000000;0.471380
6320.000000;0.471451
6319.000000;0.471535
6318.000000;0.471632
6317.000000;0.471747
6316.000000;0.471889
6315.000000;0.472069
6314.000000;0.472291
6313.000000;0.472539
6312.000000;0.472758
6311.000000;0.472874
6310.000000;0.472860
6309.000000;0.472791
6308.000000;0.472780
6307.000000;0.472875
6306.000000;0.473030
6305.000000;0.473170
6304.000000;0.473253
6303.000000;0.473282
6302.000000;0.473288
6301.000000;0.473312
6300.000000;0.473386
6299.000000;0.473504
6298.000000;0.473636
6297.000000;0.473764
6296.000000;0.473889
6295.000000;0.474010
6294.000000;0.474110
6293.000000;0.474166
6292.000000;0.474169
6291.000000;0.474121
6290.000000;0.474049
6289.000000;0.474010
6288.000000;0.474055
6287.000000;0.474182
6286.000000;0.474338
6285.000000;0.474495
6284.000000;0.474672
6283.000000;0.474897
6282.000000;0.475152
6281.000000;0.475395
6280.000000;0.475596
6279.000000;0.475740
6278.000000;0.475803
6277.000000;0.475765
6276.000000;0.475640
6275.000000;0.475470
6274.000000;0.475312
6273.000000;0.475213
6272.000000;0.475203
6271.000000;0.475276
6270.000000;0.475402
6269.000000;0.475558
6268.000000;0.475750
6267.000000;0.475979
6266.000000;0.476200
6265.000000;0.476353
6264.000000;0.476408
6263.000000;0.476391
6262.000000;0.476343
6261.000000;0.476292
6260.000000;0.476251
6259.000000;0.476225
6258.000000;0.476215
6257.000000;0.476230
6256.000000;0.476285
6255.000000;0.476391
6254.000000;0.476533
6253.000000;0.476671
6252.000000;0.476773
6251.000000;0.476838
6250.000000;0.476884
6249.000000;0.476919
6248.000000;0.476933
6247.000000;0.476916
6246.000000;0.476880
6245.000000;0.476858
6244.000000;0.476876
6243.000000;0.476916
6242.000000;0.476937
6241.000000;0.476917
6240.000000;0.476887
6239.000000;0.476904
6238.000000;0.477007
6237.000000;0.477184
6236.000000;0.477380
6235.000000;0.477526
6234.000000;0.477579
6233.000000;0.477550
6232.000000;0.477489
6231.000000;0.477419
6230.000000;0.477322
6229.000000;0.477190
6228.000000;0.477080
6227.000000;0.477086
6226.000000;0.477249
6225.000000;0.477513
6224.000000;0.477767
6223.000000;0.477927
6222.000000;0.477987
6221.000000;0.477991
6220.000000;0.477977
6219.000000;0.477939
6218.000000;0.477848
6217.000000;0.477720
6216.000000;0.477614
6215.000000;0.477576
6214.000000;0.477600
6213.000000;0.477664
6212.000000;0.477778
6211.000000;0.477961
6210.000000;0.478195
6209.000000;0.478426
6208.000000;0.478609
6207.000000;0.478715
6206.000000;0.478708
6205.000000;0.478561
6204.000000;0.478305
6203.000000;0.478030
6202.000000;0.477814
6201.000000;0.477690
6200.000000;0.477674
6199.000000;0.477786
6198.000000;0.478019
6197.000000;0.478304
6196.000000;0.478554
6195.000000;0.478726
6194.000000;0.478823
6193.000000;0.478846
6192.000000;0.478783
6191.000000;0.478633
6190.000000;0.478430
6189.000000;0.478240
6188.000000;0.478135
6187.000000;0.478160
6186.000000;0.478300
6185.000000;0.478482
6184.000000;0.478625
6183.000000;0.478685
6182.000000;0.478669
6181.000000;0.478608
6180.000000;0.478542
6179.000000;0.478497
6178.000000;0.478474
6177.000000;0.478454
6176.000000;0.478432
6175.000000;0.478435
6174.000000;0.478485
6173.000000;0.478562
6172.000000;0.478616
6171.000000;0.478613
6170.000000;0.478548
6169.000000;0.478427
6168.000000;0.478273
6167.000000;0.478132
6166.000000;0.478057
6165.000000;0.478076
6164.000000;0.478176
6163.000000;0.478325
6162.000000;0.478476
6161.000000;0.478574
6160.000000;0.478602
6159.000000;0.478614
6158.000000;0.478687
6157.000000;0.478825
6156.000000;0.478925
6155.000000;0.478887
6154.000000;0.478701
6153.000000;0.478448
6152.000000;0.478216
6151.000000;0.478061
6150.000000;0.478014
6149.000000;0.478089
6148.000000;0.478268
6147.000000;0.478501
6146.000000;0.478726
6145.000000;0.478888
6144.000000;0.478955
6143.000000;0.478937
6142.000000;0.478873
6141.000000;0.478806
6140.000000;0.478753
6139.000000;0.478715
6138.000000;0.478692
6137.000000;0.478668
6136.000000;0.478616
6135.000000;0.478525
6134.000000;0.478431
6133.000000;0.478384
6132.000000;0.478394
6131.000000;0.478428
6130.000000;0.478462
6129.000000;0.478504
6128.000000;0.478566
6127.000000;0.478643
6126.000000;0.478712
6125.000000;0.478756
6124.000000;0.478764
6123.000000;0.478742
6122.000000;0.478708
6121.000000;0.478679
6120.000000;0.478650
6119.000000;0.478605
6118.000000;0.478553
6117.000000;0.478524
6116.000000;0.478539
6115.000000;0.478588
6114.000000;0.478650
6113.000000;0.478702
6112.000000;0.478704
6111.000000;0.478619
6110.000000;0.478461
6109.000000;0.478315
6108.000000;0.478259
6107.000000;0.478290
6106.000000;0.478348
6105.000000;0.478388
6104.000000;0.478414
6103.000000;0.478439
6102.000000;0.478458
6101.000000;0.478462
6100.000000;0.478458
6099.000000;0.478463
6098.000000;0.478482
6097.000000;0.478507
6096.000000;0.478532
6095.000000;0.478551
6094.000000;0.478571
6093.000000;0.478599
6092.000000;0.478629
6091.000000;0.478634
6090.000000;0.478596
6089.000000;0.478524
6088.000000;0.478445
6087.000000;0.478369
6086.000000;0.478291
6085.000000;0.478219
6084.000000;0.478186
6083.000000;0.478215
6082.000000;0.478297
6081.000000;0.478409
6080.000000;0.478535
6079.000000;0.478659
6078.000000;0.478751
6077.000000;0.478784
6076.000000;0.478748
6075.000000;0.478647
6074.000000;0.478492
6073.000000;0.478310
6072.000000;0.478151
6071.000000;0.478059
6070.000000;0.478042
6069.000000;0.478082
6068.000000;0.478166
6067.000000;0.478292
6066.000000;0.478442
6065.000000;0.478578
6064.000000;0.478654
6063.000000;0.478641
6062.000000;0.478542
6061.000000;0.478399
6060.000000;0.478287
6059.000000;0.478264
6058.000000;0.478327
6057.000000;0.478416
6056.000000;0.478474
6055.000000;0.478479
6054.000000;0.478433
6053.000000;0.478342
6052.000000;0.478212
6051.000000;0.478076
6050.000000;0.477987
6049.000000;0.477993
6048.000000;0.478110
6047.000000;0.478309
6046.000000;0.478524
6045.000000;0.478695
6044.000000;0.478794
6043.000000;0.478840
6042.000000;0.478858
6041.000000;0.478853
6040.000000;0.478815
6039.000000;0.478746
6038.000000;0.478666
6037.000000;0.478587
6036.000000;0.478496
6035.000000;0.478380
6034.000000;0.478252
6033.000000;0.478156
6032.000000;0.478127
6031.000000;0.478165
6030.000000;0.478238
6029.000000;0.478321
6028.000000;0.478415
6027.000000;0.478535
6026.000000;0.478669
6025.000000;0.478764
6024.000000;0.478767
6023.000000;0.478673
6022.000000;0.478533
6021.000000;0.478410
6020.000000;0.478339
6019.000000;0.478322
6018.000000;0.478351
6017.000000;0.478415
6016.000000;0.478495
6015.000000;0.478562
6014.000000;0.478607
6013.000000;0.478651
6012.000000;0.478730
6011.000000;0.478853
6010.000000;0.478987
6009.000000;0.479078
6008.000000;0.479098
6007.000000;0.479051
6006.000000;0.478962
6005.000000;0.478847
6004.000000;0.478703
6003.000000;0.478535
6002.000000;0.478372
6001.000000;0.478264
6000.000000;0.478255
5999.000000;0.478351
5998.000000;0.478515
5997.000000;0.478693
5996.000000;0.478851
5995.000000;0.478976
5994.000000;0.479065
5993.000000;0.479103
5992.000000;0.479076
5991.000000;0.478978
5990.000000;0.478819
5989.000000;0.478614
5988.000000;0.478392
5987.000000;0.478201
5986.000000;0.478088
5985.000000;0.478067
5984.000000;0.478120
5983.000000;0.478217
5982.000000;0.478344
5981.000000;0.478495
5980.000000;0.478658
5979.000000;0.478813
5978.000000;0.478943
5977.000000;0.479031
5976.000000;0.479061
5975.000000;0.479032
5974.000000;0.478972
5973.000000;0.478923
5972.000000;0.478908
5971.000000;0.478928
5970.000000;0.478967
5969.000000;0.479006
5968.000000;0.479022
5967.000000;0.479004
5966.000000;0.478967
5965.000000;0.478944
5964.000000;0.478950
5963.000000;0.478973
5962.000000;0.479008
5961.000000;0.479072
5960.000000;0.479180
5959.000000;0.479314
5958.000000;0.479429
5957.000000;0.479483
5956.000000;0.479455
5955.000000;0.479353
5954.000000;0.479219
5953.000000;0.479104
5952.000000;0.479028
5951.000000;0.478963
5950.000000;0.478882
5949.000000;0.478809
5948.000000;0.478800
5947.000000;0.478884
5946.000000;0.479037
5945.000000;0.479225
5944.000000;0.479427
5943.000000;0.479617
5942.000000;0.479756
5941.000000;0.479821
5940.000000;0.479827
5939.000000;0.479801
5938.000000;0.479746
5937.000000;0.479651
5936.000000;0.479524
5935.000000;0.479398
5934.000000;0.479306
5933.000000;0.479269
5932.000000;0.479302
5931.000000;0.479411
5930.000000;0.479578
5929.000000;0.479761
5928.000000;0.479916
5927.000000;0.480018
5926.000000;0.480060
5925.000000;0.480060
5924.000000;0.480042
5923.000000;0.480022
5922.000000;0.479995
5921.000000;0.479955
5920.000000;0.479911
5919.000000;0.479875
5918.000000;0.479840
5917.000000;0.479789
5916.000000;0.479732
5915.000000;0.479701
5914.000000;0.479717
5913.000000;0.479767
5912.000000;0.479832
5911.000000;0.479912
5910.000000;0.480001
5909.000000;0.480060
5908.000000;0.480042
5907.000000;0.479956
5906.000000;0.479865
5905.000000;0.479834
5904.000000;0.479878
5903.000000;0.479970
5902.000000;0.480077
5901.000000;0.480173
5900.000000;0.480225
5899.000000;0.480216
5898.000000;0.480173
5897.000000;0.480158
5896.000000;0.480206
5895.000000;0.480294
5894.000000;0.480368
5893.000000;0.480403
5892.000000;0.480423
5891.000000;0.480456
5890.000000;0.480496
5889.000000;0.480503
5888.000000;0.480459
5887.000000;0.480385
5886.000000;0.480319
5885.000000;0.480269
5884.000000;0.480214
5883.000000;0.480139
5882.000000;0.480074
5881.000000;0.480070
5880.000000;0.480151
5879.000000;0.480285
5878.000000;0.480410
5877.000000;0.480482
5876.000000;0.480498
5875.000000;0.480479
5874.000000;0.480440
5873.000000;0.480392
5872.000000;0.480350
5871.000000;0.480336
5870.000000;0.480367
5869.000000;0.480439
5868.000000;0.480535
5867.000000;0.480641
5866.000000;0.480747
5865.000000;0.480833
5864.000000;0.480865
5863.000000;0.480822
5862.000000;0.480715
5861.000000;0.480585
5860.000000;0.480472
5859.000000;0.480402
5858.000000;0.480387
5857.000000;0.480435
5856.000000;0.480537
5855.000000;0.480664
5854.000000;0.480775
5853.000000;0.480848
5852.000000;0.480879
5851.000000;0.480866
5850.000000;0.480814
5849.000000;0.480748
5848.000000;0.480718
5847.000000;0.480748
5846.000000;0.480815
5845.000000;0.480879
5844.000000;0.480934
5843.000000;0.481018
5842.000000;0.481155
5841.000000;0.481309
5840.000000;0.481416
5839.000000;0.481438
5838.000000;0.481384
5837.000000;0.481277
5836.000000;0.481133
5835.000000;0.480980
5834.000000;0.480866
5833.000000;0.480833
5832.000000;0.480874
5831.000000;0.480952
5830.000000;0.481040
5829.000000;0.481133
5828.000000;0.481229
5827.000000;0.481302
5826.000000;0.481333
5825.000000;0.481326
5824.000000;0.481302
5823.000000;0.481288
5822.000000;0.481315
5821.000000;0.481409
5820.000000;0.481559
5819.000000;0.481710
5818.000000;0.481802
5817.000000;0.481827
5816.000000;0.481818
5815.000000;0.481793
5814.000000;0.481735
5813.000000;0.481637
5812.000000;0.481543
5811.000000;0.481517
5810.000000;0.481579
5809.000000;0.481684
5808.000000;0.481770
5807.000000;0.481809
5806.000000;0.481825
5805.000000;0.481856
5804.000000;0.481904
5803.000000;0.481923
5802.000000;0.481865
5801.000000;0.481737
5800.000000;0.481600
5799.000000;0.481501
5798.000000;0.481440
5797.000000;0.481407
5796.000000;0.481419
5795.000000;0.481497
5794.000000;0.481613
5793.000000;0.481712
5792.000000;0.481783
5791.000000;0.481884
5790.000000;0.482066
5789.000000;0.482300
5788.000000;0.482504
5787.000000;0.482620
5786.000000;0.482645
5785.000000;0.482607
5784.000000;0.482520
5783.000000;0.482392
5782.000000;0.482239
5781.000000;0.482081
5780.000000;0.481940
5779.000000;0.481846
5778.000000;0.481840
5777.000000;0.481954
5776.000000;0.482169
5775.000000;0.482410
5774.000000;0.482590
5773.000000;0.482661
5772.000000;0.482624
5771.000000;0.482512
5770.000000;0.482364
5769.000000;0.482226
5768.000000;0.482141
5767.000000;0.482126
5766.000000;0.482157
5765.000000;0.482196
5764.000000;0.482230
5763.000000;0.482274
5762.000000;0.482335
5761.000000;0.482386
5760.000000;0.482388
5759.000000;0.482317
5758.000000;0.482185
5757.000000;0.482036
5756.000000;0.481924
5755.000000;0.481905
5754.000000;0.482004
5753.000000;0.482207
5752.000000;0.482464
5751.000000;0.482702
5750.000000;0.482840
5749.000000;0.482816
5748.000000;0.482622
5747.000000;0.482317
5746.000000;0.481999
5745.000000;0.481760
5744.000000;0.481653
5743.000000;0.481681
5742.000000;0.481812
5741.000000;0.482001
5740.000000;0.482207
5739.000000;0.482396
5738.000000;0.482527
5737.000000;0.482571
5736.000000;0.482535
5735.000000;0.482455
5734.000000;0.482361
5733.000000;0.482259
5732.000000;0.482160
5731.000000;0.482099
5730.000000;0.482098
5729.000000;0.482140
5728.000000;0.482197
5727.000000;0.482282
5726.000000;0.482421
5725.000000;0.482583
5724.000000;0.482683
5723.000000;0.482659
5722.000000;0.482532
5721.000000;0.482371
5720.000000;0.482222
5719.000000;0.482092
5718.000000;0.481988
5717.000000;0.481932
5716.000000;0.481941
5715.000000;0.482012
5714.000000;0.482114
5713.000000;0.482208
5712.000000;0.482269
5711.000000;0.482289
5710.000000;0.482263
5709.000000;0.482174
5708.000000;0.482017
5707.000000;0.481838
5706.000000;0.481718
5705.000000;0.481696
5704.000000;0.481734
5703.000000;0.481778
5702.000000;0.481840
5701.000000;0.481961
5700.000000;0.482144
5699.000000;0.482317
5698.000000;0.482413
5697.000000;0.482426
5696.000000;0.482393
5695.000000;0.482341
5694.000000;0.482282
5693.000000;0.482232
5692.000000;0.482206
5691.000000;0.482200
5690.000000;0.482181
5689.000000;0.482120
5688.000000;0.482025
5687.000000;0.481936
5686.000000;0.481893
5685.000000;0.481905
5684.000000;0.481966
5683.000000;0.482086
5682.000000;0.482283
5681.000000;0.482529
5680.000000;0.482728
5679.000000;0.482788
5678.000000;0.482713
5677.000000;0.482590
5676.000000;0.482484
5675.000000;0.482380
5674.000000;0.482245
5673.000000;0.482102
5672.000000;0.482021
5671.000000;0.482044
5670.000000;0.482140
5669.000000;0.482256
5668.000000;0.482368
5667.000000;0.482489
5666.000000;0.482616
5665.000000;0.482701
5664.000000;0.482695
5663.000000;0.482624
5662.000000;0.482591
5661.000000;0.482681
5660.000000;0.482876
5659.000000;0.483086
5658.000000;0.483253
5657.000000;0.483388
5656.000000;0.483508
5655.000000;0.483583
5654.000000;0.483576
5653.000000;0.483484
5652.000000;0.483334
5651.000000;0.483146
5650.000000;0.482968
5649.000000;0.482892
5648.000000;0.483002
5647.000000;0.483274
5646.000000;0.483590
5645.000000;0.483846
5644.000000;0.484030
5643.000000;0.484188
5642.000000;0.484341
5641.000000;0.484461
5640.000000;0.484514
5639.000000;0.484510
5638.000000;0.484491
5637.000000;0.484490
5636.000000;0.484495
5635.000000;0.484483
5634.000000;0.484463
5633.000000;0.484485
5632.000000;0.484582
5631.000000;0.484729
5630.000000;0.484873
5629.000000;0.484997
5628.000000;0.485119
5627.000000;0.485246
5626.000000;0.485364
5625.000000;0.485486
5624.000000;0.485666
5623.000000;0.485931
5622.000000;0.486230
5621.000000;0.486478
5620.000000;0.486637
5619.000000;0.486735
5618.000000;0.486803
5617.000000;0.486836
5616.000000;0.486824
5615.000000;0.486785
5614.000000;0.486755
5613.000000;0.486745
5612.000000;0.486754
5611.000000;0.486818
5610.000000;0.487011
5609.000000;0.487365
5608.000000;0.487801
5607.000000;0.488168
5606.000000;0.488373
5605.000000;0.488444
5604.000000;0.488474
5603.000000;0.488523
5602.000000;0.488591
5601.000000;0.488670
5600.000000;0.488772
5599.000000;0.488910
5598.000000;0.489075
5597.000000;0.489258
5596.000000;0.489464
5595.000000;0.489692
5594.000000;0.489912
5593.000000;0.490092
5592.000000;0.490234
5591.000000;0.490372
5590.000000;0.490530
5589.000000;0.490693
5588.000000;0.490833
5587.000000;0.490942
5586.000000;0.491040
5585.000000;0.491141
5584.000000;0.491243
5583.000000;0.491329
5582.000000;0.491395
5581.000000;0.491454
5580.000000;0.491530
5579.000000;0.491649
5578.000000;0.491834
5577.000000;0.492083
5576.000000;0.492359
5575.000000;0.492613
5574.000000;0.492823
5573.000000;0.493010
5572.000000;0.493193
5571.000000;0.493347
5570.000000;0.493423
5569.000000;0.493413
5568.000000;0.493375
5567.000000;0.493381
5566.000000;0.493460
5565.000000;0.493585
5564.000000;0.493722
5563.000000;0.493867
5562.000000;0.494029
5561.000000;0.494211
5560.000000;0.494409
5559.000000;0.494635
5558.000000;0.494901
5557.000000;0.495183
5556.000000;0.495417
5555.000000;0.495546
5554.000000;0.495563
5553.000000;0.495502
5552.000000;0.495398
5551.000000;0.495283
5550.000000;0.495206
5549.000000;0.495227
5548.000000;0.495371
5547.000000;0.495625
5546.000000;0.495971
5545.000000;0.496397
5544.000000;0.496850
5543.000000;0.497222
5542.000000;0.497417
5541.000000;0.497433
5540.000000;0.497341
5539.000000;0.497211
5538.000000;0.497078
5537.000000;0.496977
5536.000000;0.496951
5535.000000;0.497004
5534.000000;0.497097
5533.000000;0.497202
5532.000000;0.497333
5531.000000;0.497517
5530.000000;0.497742
5529.000000;0.497962
5528.000000;0.498154
5527.000000;0.498334
5526.000000;0.498527
5525.000000;0.498736
5524.000000;0.498931
5523.000000;0.499067
5522.000000;0.499115
5521.000000;0.499078
5520.000000;0.498989
5519.000000;0.498879
5518.000000;0.498773
5517.000000;0.498705
5516.000000;0.498715
5515.000000;0.498820
5514.000000;0.498985
5513.000000;0.499166
5512.000000;0.499374
5511.000000;0.499663
5510.000000;0.500047
5509.000000;0.500441
5508.000000;0.500712
5507.000000;0.500788
5506.000000;0.500710
5505.000000;0.500577
5504.000000;0.500467
5503.000000;0.500422
5502.000000;0.500471
5501.000000;0.500603
5500.000000;0.500751
5499.000000;0.500843
5498.000000;0.500880
5497.000000;0.500934
5496.000000;0.501055
5495.000000;0.501211
5494.000000;0.501344
5493.000000;0.501450
5492.000000;0.501566
5491.000000;0.501695
5490.000000;0.501779
5489.000000;0.501760
5488.000000;0.501637
5487.000000;0.501472
5486.000000;0.501359
5485.000000;0.501377
5484.000000;0.501540
5483.000000;0.501784
5482.000000;0.502041
5481.000000;0.502309
5480.000000;0.502622
5479.000000;0.502986
5478.000000;0.503338
5477.000000;0.503594
5476.000000;0.503692
5475.000000;0.503619
5474.000000;0.503431
5473.000000;0.503229
5472.000000;0.503086
5471.000000;0.503017
5470.000000;0.503017
5469.000000;0.503108
5468.000000;0.503302
5467.000000;0.503554
5466.000000;0.503792
5465.000000;0.503995
5464.000000;0.504198
5463.000000;0.504414
5462.000000;0.504590
5461.000000;0.504674
5460.000000;0.504688
5459.000000;0.504722
5458.000000;0.504831
5457.000000;0.504993
5456.000000;0.505151
5455.000000;0.505283
5454.000000;0.505415
5453.000000;0.505562
5452.000000;0.505694
5451.000000;0.505760
5450.000000;0.505733
5449.000000;0.505620
5448.000000;0.505450
5447.000000;0.505280
5446.000000;0.505220
5445.000000;0.505406
5444.000000;0.505875
5443.000000;0.506467
5442.000000;0.506923
5441.000000;0.507096
5440.000000;0.507072
5439.000000;0.507057
5438.000000;0.507140
5437.000000;0.507227
5436.000000;0.507210
5435.000000;0.507137
5434.000000;0.507177
5433.000000;0.507415
5432.000000;0.507784
5431.000000;0.508181
5430.000000;0.508581
5429.000000;0.509004
5428.000000;0.509453
5427.000000;0.509911
5426.000000;0.510367
5425.000000;0.510833
5424.000000;0.511323
5423.000000;0.511793
5422.000000;0.512123
5421.000000;0.512190
5420.000000;0.511995
5419.000000;0.511683
5418.000000;0.511422
5417.000000;0.511264
5416.000000;0.511159
5415.000000;0.511095
5414.000000;0.511178
5413.000000;0.511533
5412.000000;0.512154
5411.000000;0.512916
5410.000000;0.513721
5409.000000;0.514553
5408.000000;0.515406
5407.000000;0.516225
5406.000000;0.516929
5405.000000;0.517468
5404.000000;0.517854
5403.000000;0.518121
5402.000000;0.518264
5401.000000;0.518245
5400.000000;0.518079
5399.000000;0.517886
5398.000000;0.517850
5397.000000;0.518133
5396.000000;0.518774
5395.000000;0.519656
5394.000000;0.520571
5393.000000;0.521363
5392.000000;0.522009
5391.000000;0.522564
5390.000000;0.523061
5389.000000;0.523467
5388.000000;0.523750
5387.000000;0.523940
5386.000000;0.524109
5385.000000;0.524307
5384.000000;0.524554
5383.000000;0.524891
5382.000000;0.525391
5381.000000;0.526108
5380.000000;0.527043
5379.000000;0.528140
5378.000000;0.529310
5377.000000;0.530475
5376.000000;0.531586
5375.000000;0.532618
5374.000000;0.533542
5373.000000;0.534346
5372.000000;0.535064
5371.000000;0.535774
5370.000000;0.536560
5369.000000;0.537459
5368.000000;0.538454
5367.000000;0.539493
5366.000000;0.540506
5365.000000;0.541441
5364.000000;0.542301
5363.000000;0.543145
5362.000000;0.544014
5361.000000;0.544899
5360.000000;0.545798
5359.000000;0.546783
5358.000000;0.547965
5357.000000;0.549367
5356.000000;0.550860
5355.000000;0.552265
5354.000000;0.553518
5353.000000;0.554702
5352.000000;0.555904
5351.000000;0.557089
5350.000000;0.558168
5349.000000;0.559152
5348.000000;0.560176
5347.000000;0.561348
5346.000000;0.562643
5345.000000;0.564023
5344.000000;0.565595
5343.000000;0.567485
5342.000000;0.569570
5341.000000;0.571512
5340.000000;0.573085
5339.000000;0.574372
5338.000000;0.575642
5337.000000;0.577062
5336.000000;0.578575
5335.000000;0.580057
5334.000000;0.581493
5333.000000;0.582964
5332.000000;0.584543
5331.000000;0.586183
5330.000000;0.587730
5329.000000;0.589084
5328.000000;0.590360
5327.000000;0.591823
5326.000000;0.593561
5325.000000;0.595293
5324.000000;0.596611
5323.000000;0.597310
5322.000000;0.597350
5321.000000;0.596543
5320.000000;0.594499
5319.000000;0.590985
5318.000000;0.586226
5317.000000;0.580793
5316.000000;0.575363
5315.000000;0.570570
5314.000000;0.566820
5313.000000;0.564099
5312.000000;0.561920
5311.000000;0.559341
5310.000000;0.554992
5309.000000;0.547311
5308.000000;0.535090
5307.000000;0.518076
5306.000000;0.497079
5305.000000;0.473503
5304.000000;0.448946
5303.000000;0.425060
5302.000000;0.403437
5301.000000;0.385939
5300.000000;0.375121
5299.000000;0.373204
5298.000000;0.380881
5297.000000;0.397784
5296.000000;0.422024
5295.000000;0.449463
5294.000000;0.476387
5293.000000;0.501676
5292.000000;0.525736
5291.000000;0.550071
5290.000000;0.577346
5289.000000;0.608449
5288.000000;0.640934
5287.000000;0.673558
5286.000000;0.708373
5285.000000;0.743850
5284.000000;0.771546
5283.000000;0.786903
5282.000000;0.797873
5281.000000;0.813963
5280.000000;0.833284
5279.000000;0.847018
5278.000000;0.851813
5277.000000;0.851769
5276.000000;0.851882
5275.000000;0.855289
5274.000000;0.863390
5273.000000;0.874178
5272.000000;0.883326
5271.000000;0.889598
5270.000000;0.894538
5269.000000;0.895698
5268.000000;0.888964
5267.000000;0.878967
5266.000000;0.876881
5265.000000;0.886698
5264.000000;0.900961
5263.000000;0.912891
5262.000000;0.926407
5261.000000;0.946455
5260.000000;0.965034
5259.000000;0.966532
5258.000000;0.947813
5257.000000;0.920025
5256.000000;0.892510
5255.000000;0.868965
5254.000000;0.852671
5253.000000;0.847140
5252.000000;0.855346
5251.000000;0.880598
5250.000000;0.922703
5249.000000;0.968467
5248.000000;0.992464
5247.000000;0.981340
5246.000000;0.947797
5245.000000;0.909862
5244.000000;0.876053
5243.000000;0.851041
5242.000000;0.841099
5241.000000;0.849445
5240.000000;0.871309
5239.000000;0.897735
5238.000000;0.921838
5237.000000;0.937831
5236.000000;0.939298
5235.000000;0.926141
5234.000000;0.907830
5233.000000;0.893486
5232.000000;0.884340
5231.000000;0.878413
5230.000000;0.876996
5229.000000;0.882406
5228.000000;0.892781
5227.000000;0.903450
5226.000000;0.911430
5225.000000;0.915517
5224.000000;0.915218
5223.000000;0.912821
5222.000000;0.912726
5221.000000;0.915253
5220.000000;0.914668
5219.000000;0.907431
5218.000000;0.898423
5217.000000;0.894574
5216.000000;0.898082
5215.000000;0.908850
5214.000000;0.926705
5213.000000;0.946299
5212.000000;0.955241
5211.000000;0.945399
5210.000000;0.922819
5209.000000;0.899368
5208.000000;0.881375
5207.000000;0.870984
5206.000000;0.871038
5205.000000;0.882652
5204.000000;0.901020
5203.000000;0.918486
5202.000000;0.930724
5201.000000;0.935645
5200.000000;0.928876
5199.000000;0.908305
5198.000000;0.881397
5197.000000;0.859647
5196.000000;0.849074
5195.000000;0.850175
5194.000000;0.861483
5193.000000;0.879410
5192.000000;0.899092
5191.000000;0.919027
5190.000000;0.940707
5189.000000;0.960581
5188.000000;0.968688
5187.000000;0.961468
5186.000000;0.947450
5185.000000;0.933938
5184.000000;0.918881
5183.000000;0.899668
5182.000000;0.881529
5181.000000;0.871687
5180.000000;0.870867
5179.000000;0.875308
5178.000000;0.883747
5177.000000;0.897293
5176.000000;0.913163
5175.000000;0.923520
5174.000000;0.922834
5173.000000;0.914351
5172.000000;0.906807
5171.000000;0.906762
5170.000000;0.914511
5169.000000;0.924416
5168.000000;0.929865
5167.000000;0.929669
5166.000000;0.927010
5165.000000;0.921988
5164.000000;0.910919
5163.000000;0.894352
5162.000000;0.879701
5161.000000;0.873433
5160.000000;0.874867
5159.000000;0.879610
5158.000000;0.885481
5157.000000;0.890935
5156.000000;0.891473
5155.000000;0.884135
5154.000000;0.874032
5153.000000;0.870634
5152.000000;0.879053
5151.000000;0.897699
5150.000000;0.920734
5149.000000;0.941149
5148.000000;0.953920
5147.000000;0.956229
5146.000000;0.945414
5145.000000;0.921585
5144.000000;0.891871
5143.000000;0.867880
5142.000000;0.858385
5141.000000;0.863397
5140.000000;0.875771
5139.000000;0.890679
5138.000000;0.910386
5137.000000;0.936035
5136.000000;0.958671
5135.000000;0.964954
5134.000000;0.952442
5133.000000;0.930479
5132.000000;0.907262
5131.000000;0.885355
5130.000000;0.866432
5129.000000;0.854043
5128.000000;0.852181
5127.000000;0.863494
5126.000000;0.887534
5125.000000;0.918463
5124.000000;0.946013
5123.000000;0.962010
5122.000000;0.965069
5121.000000;0.957388
5120.000000;0.941015
5119.000000;0.919315
5118.000000;0.898086
5117.000000;0.882381
5116.000000;0.873618
5115.000000;0.870713
5114.000000;0.872341
5113.000000;0.877380
5112.000000;0.885210
5111.000000;0.896704
5110.000000;0.912828
5109.000000;0.930868
5108.000000;0.944192
5107.000000;0.947914
5106.000000;0.942917
5105.000000;0.932679
5104.000000;0.919879
5103.000000;0.907563
5102.000000;0.899305
5101.000000;0.896030
5100.000000;0.895533
5099.000000;0.897074
5098.000000;0.903042
5097.000000;0.913474
5096.000000;0.922555
5095.000000;0.923737
5094.000000;0.916382
5093.000000;0.904408
5092.000000;0.891058
5091.000000;0.878492
5090.000000;0.869813
5089.000000;0.867995
5088.000000;0.873856
5087.000000;0.886645
5086.000000;0.904743
5085.000000;0.923375
5084.000000;0.934122
5083.000000;0.931990
5082.000000;0.920284
5081.000000;0.904049
5080.000000;0.885082
5079.000000;0.865997
5078.000000;0.852690
5077.000000;0.849990
5076.000000;0.858257
5075.000000;0.875215
5074.000000;0.897452
5073.000000;0.919566
5072.000000;0.935201
5071.000000;0.939665
5070.000000;0.931609
5069.000000;0.914379
5068.000000;0.895834
5067.000000;0.884884
5066.000000;0.886700
5065.000000;0.899404
5064.000000;0.915603
5063.000000;0.929435
5062.000000;0.940305
5061.000000;0.946596
5060.000000;0.940661
5059.000000;0.918637
5058.000000;0.890105
5057.000000;0.867579
5056.000000;0.854127
5055.000000;0.845741
5054.000000;0.839678
5053.000000;0.836976
5052.000000;0.838693
5051.000000;0.843455
5050.000000;0.848847
5049.000000;0.853820
5048.000000;0.859725
5047.000000;0.868704
5046.000000;0.880086
5045.000000;0.888433
5044.000000;0.887917
5043.000000;0.880128
5042.000000;0.873061
5041.000000;0.870885
5040.000000;0.869650
5039.000000;0.864997
5038.000000;0.860140
5037.000000;0.862065
5036.000000;0.872841
5035.000000;0.887902
5034.000000;0.900253
5033.000000;0.904015
5032.000000;0.896054
5031.000000;0.877228
5030.000000;0.852086
5029.000000;0.826056
5028.000000;0.802896
5027.000000;0.785607
5026.000000;0.778249
5025.000000;0.784015
5024.000000;0.801363
5023.000000;0.823343
5022.000000;0.841218
5021.000000;0.849094
5020.000000;0.845433
5019.000000;0.831705
5018.000000;0.811784
5017.000000;0.791614
5016.000000;0.776556
5015.000000;0.768295
5014.000000;0.764797
5013.000000;0.763501
5012.000000;0.764702
5011.000000;0.771298
5010.000000;0.784342
5009.000000;0.799261
5008.000000;0.809034
5007.000000;0.812386
5006.000000;0.814798
5005.000000;0.819389
5004.000000;0.821013
5003.000000;0.812291
5002.000000;0.793008
5001.000000;0.769388
5000.000000;0.747235
4999.000000;0.729473
4998.000000;0.717345
4997.000000;0.710752
4996.000000;0.707987
4995.000000;0.706985
4994.000000;0.707303
4993.000000;0.710353
4992.000000;0.717472
4991.000000;0.727952
4990.000000;0.738716
4989.000000;0.745425
4988.000000;0.744669
4987.000000;0.736053
4986.000000;0.721719
4985.000000;0.704120
4984.000000;0.685324
4983.000000;0.667907
4982.000000;0.654737
4981.000000;0.647356
4980.000000;0.645558
4979.000000;0.648318
4978.000000;0.653641
4977.000000;0.657972
4976.000000;0.658199
4975.000000;0.654764
4974.000000;0.650664
4973.000000;0.647060
4972.000000;0.642050
4971.000000;0.633789
4970.000000;0.622366
4969.000000;0.608465
4968.000000;0.592878
4967.000000;0.577858
4966.000000;0.566638
4965.000000;0.560485
4964.000000;0.557446
4963.000000;0.554506
4962.000000;0.549820
4961.000000;0.542818
4960.000000;0.534191
4959.000000;0.526341
4958.000000;0.521951
4957.000000;0.521289
4956.000000;0.522280
4955.000000;0.523717
4954.000000;0.526309
4953.000000;0.529260
4952.000000;0.528261
4951.000000;0.519152
4950.000000;0.501851
4949.000000;0.479048
4948.000000;0.453574
4947.000000;0.428679
4946.000000;0.408170
4945.000000;0.394165
4944.000000;0.386187
4943.000000;0.383584
4942.000000;0.387103
4941.000000;0.396832
4940.000000;0.410163
4939.000000;0.423087
4938.000000;0.432204
4937.000000;0.434402
4936.000000;0.426898
4935.000000;0.409614
4934.000000;0.386017
4933.000000;0.360737
4932.000000;0.337330
4931.000000;0.318160
4930.000000;0.304906
4929.000000;0.298159
4928.000000;0.296867
4927.000000;0.298594
4926.000000;0.300240
4925.000000;0.298968
4924.000000;0.293736
4923.000000;0.286384
4922.000000;0.280023
4921.000000;0.275619
4920.000000;0.271131
4919.000000;0.264417
4918.000000;0.255633
4917.000000;0.246024
4916.000000;0.235775
4915.000000;0.224390
4914.000000;0.212207
4913.000000;0.200073
4912.000000;0.188342
4911.000000;0.177565
4910.000000;0.169573
4909.000000;0.166336
4908.000000;0.167417
4907.000000;0.169350
4906.000000;0.168028
4905.000000;0.161782
4904.000000;0.152176
4903.000000;0.142003
4902.000000;0.132615
4901.000000;0.123202
4900.000000;0.112633
4899.000000;0.101596
4898.000000;0.092193
4897.000000;0.085439
4896.000000;0.079997
4895.000000;0.073800
4894.000000;0.066291
4893.000000;0.058402
4892.000000;0.051018
4891.000000;0.044476
4890.000000;0.039259
4889.000000;0.036167
4888.000000;0.035454
4887.000000;0.036010
4886.000000;0.035571
4885.000000;0.031988
4884.000000;0.024783
4883.000000;0.015564
4882.000000;0.006853
4881.000000;0.000474
4880.000000;-0.003192
4879.000000;-0.004797
4878.000000;-0.005259
4877.000000;-0.005503
4876.000000;-0.006609
4875.000000;-0.009568
4874.000000;-0.014508
4873.000000;-0.020403
4872.000000;-0.025895
4871.000000;-0.030253
4870.000000;-0.033154
4869.000000;-0.033781
4868.000000;-0.031087
4867.000000;-0.025465
4866.000000;-0.019446
4865.000000;-0.015927
4864.000000;-0.015941
4863.000000;-0.018550
4862.000000;-0.022378
4861.000000;-0.026363
4860.000000;-0.029360
4859.000000;-0.030369
4858.000000;-0.029516
4857.000000;-0.027953
4856.000000;-0.026276
4855.000000;-0.023651
4854.000000;-0.019173
4853.000000;-0.013681
4852.000000;-0.009329
4851.000000;-0.007189
4850.000000;-0.005943
4849.000000;-0.003496
4848.000000;0.000479
4847.000000;0.004278
4846.000000;0.006441
4845.000000;0.007495
4844.000000;0.008941
4843.000000;0.011219
4842.000000;0.013546
4841.000000;0.015496
4840.000000;0.017663
4839.000000;0.020552
4838.000000;0.023672
4837.000000;0.026290
4836.000000;0.028629
4835.000000;0.031817
4834.000000;0.036825
4833.000000;0.043683
4832.000000;0.051401
4831.000000;0.058355
4830.000000;0.063021
4829.000000;0.064798
4828.000000;0.064313
4827.000000;0.062888
4826.000000;0.061744
4825.000000;0.061621
4824.000000;0.062817
4823.000000;0.065329
4822.000000;0.069138
4821.000000;0.074426
4820.000000;0.081246
4819.000000;0.088804
4818.000000;0.095477
4817.000000;0.099912
4816.000000;0.102019
4815.000000;0.102785
4814.000000;0.103415
4813.000000;0.104790
4812.000000;0.107345
4811.000000;0.110940
4810.000000;0.114869
4809.000000;0.118346
4808.000000;0.121177
4807.000000;0.123845
4806.000000;0.126918
4805.000000;0.130513
4804.000000;0.134356
4803.000000;0.138191
4802.000000;0.141996
4801.000000;0.145804
4800.000000;0.149449
4799.000000;0.152593
4798.000000;0.154984
4797.000000;0.156611
4796.000000;0.157642
4795.000000;0.158398
4794.000000;0.159382
4793.000000;0.161074
4792.000000;0.163458
4791.000000;0.165953
4790.000000;0.168076
4789.000000;0.170048
4788.000000;0.172477
4787.000000;0.175548
4786.000000;0.178871
4785.000000;0.182133
4784.000000;0.185505
4783.000000;0.189212
4782.000000;0.192990
4781.000000;0.196255
4780.000000;0.198722
4779.000000;0.200617
4778.000000;0.202284
4777.000000;0.203726
4776.000000;0.204662
4775.000000;0.205038
4774.000000;0.205423
4773.000000;0.206768
4772.000000;0.209667
4771.000000;0.213832
4770.000000;0.218367
4769.000000;0.222456
4768.000000;0.225703
4767.000000;0.227955
4766.000000;0.229146
4765.000000;0.229453
4764.000000;0.229419
4763.000000;0.229714
4762.000000;0.230720
4761.000000;0.232338
4760.000000;0.234186
4759.000000;0.235993
4758.000000;0.237814
4757.000000;0.239873
4756.000000;0.242255
4755.000000;0.244878
4754.000000;0.247752
4753.000000;0.250997
4752.000000;0.254443
4751.000000;0.257435
4750.000000;0.259356
4749.000000;0.260287
4748.000000;0.260916
4747.000000;0.261853
4746.000000;0.263213
4745.000000;0.264778
4744.000000;0.266293
4743.000000;0.267620
4742.000000;0.268858
4741.000000;0.270296
4740.000000;0.272061
4739.000000;0.273840
4738.000000;0.275244
4737.000000;0.276435
4736.000000;0.278055
4735.000000;0.280421
4734.000000;0.283090
4733.000000;0.285330
4732.000000;0.286804
4731.000000;0.287655
4730.000000;0.288197
4729.000000;0.288768
4728.000000;0.289717
4727.000000;0.291227
4726.000000;0.293158
4725.000000;0.295182
4724.000000;0.297040
4723.000000;0.298600
4722.000000;0.299785
4721.000000;0.300615
4720.000000;0.301255
4719.000000;0.301926
4718.000000;0.302791
4717.000000;0.303939
4716.000000;0.305373
4715.000000;0.306923
4714.000000;0.308315
4713.000000;0.309417
4712.000000;0.310363
4711.000000;0.311328
4710.000000;0.312308
4709.000000;0.313229
4708.000000;0.314174
4707.000000;0.315361
4706.000000;0.316913
4705.000000;0.318719
4704.000000;0.320489
4703.000000;0.321948
4702.000000;0.323046
4701.000000;0.324003
4700.000000;0.325042
4699.000000;0.326065
4698.000000;0.326753
4697.000000;0.327037
4696.000000;0.327282
4695.000000;0.327895
4694.000000;0.328957
4693.000000;0.330372
4692.000000;0.332165
4691.000000;0.334352
4690.000000;0.336608
4689.000000;0.338397
4688.000000;0.339495
4687.000000;0.340176
4686.000000;0.340796
4685.000000;0.341379
4684.000000;0.341707
4683.000000;0.341712
4682.000000;0.341640
4681.000000;0.341839
4680.000000;0.342459
4679.000000;0.343365
4678.000000;0.344325
4677.000000;0.345229
4676.000000;0.346097
4675.000000;0.346933
4674.000000;0.347747
4673.000000;0.348719
4672.000000;0.350155
4671.000000;0.352146
4670.000000;0.354356
4669.000000;0.356298
4668.000000;0.357739
4667.000000;0.358685
4666.000000;0.359075
4665.000000;0.358786
4664.000000;0.358018
4663.000000;0.357425
4662.000000;0.357658
4661.000000;0.358793
4660.000000;0.360285
4659.000000;0.361457
4658.000000;0.362016
4657.000000;0.362160
4656.000000;0.362269
4655.000000;0.362561
4654.000000;0.363051
4653.000000;0.363780
4652.000000;0.364939
4651.000000;0.366671
4650.000000;0.368770
4649.000000;0.370704
4648.000000;0.371982
4647.000000;0.372479
4646.000000;0.372426
4645.000000;0.372194
4644.000000;0.372107
4643.000000;0.372365
4642.000000;0.373037
4641.000000;0.374052
4640.000000;0.375213
4639.000000;0.376259
4638.000000;0.376981
4637.000000;0.377346
4636.000000;0.377487
4635.000000;0.377574
4634.000000;0.377701
4633.000000;0.377926
4632.000000;0.378327
4631.000000;0.378931
4630.000000;0.379626
4629.000000;0.380243
4628.000000;0.380752
4627.000000;0.381316
4626.000000;0.382088
4625.000000;0.383032
4624.000000;0.383986
4623.000000;0.384868
4622.000000;0.385705
4621.000000;0.386450
4620.000000;0.386877
4619.000000;0.386806
4618.000000;0.386446
4617.000000;0.386352
4616.000000;0.386942
4615.000000;0.388100
4614.000000;0.389366
4613.000000;0.390443
4612.000000;0.391354
4611.000000;0.392109
4610.000000;0.392494
4609.000000;0.392328
4608.000000;0.391798
4607.000000;0.391331
4606.000000;0.391184
4605.000000;0.391281
4604.000000;0.391438
4603.000000;0.391627
4602.000000;0.392001
4601.000000;0.392743
4600.000000;0.393908
4599.000000;0.395344
4598.000000;0.396773
4597.000000;0.397943
4596.000000;0.398712
4595.000000;0.399012
4594.000000;0.398867
4593.000000;0.398488
4592.000000;0.398215
4591.000000;0.398243
4590.000000;0.398496
4589.000000;0.398848
4588.000000;0.399363
4587.000000;0.400136
4586.000000;0.401003
4585.000000;0.401624
4584.000000;0.401852
4583.000000;0.401866
4582.000000;0.401905
4581.000000;0.402058
4580.000000;0.402357
4579.000000;0.402854
4578.000000;0.403472
4577.000000;0.403940
4576.000000;0.404032
4575.000000;0.403851
4574.000000;0.403742
4573.000000;0.403951
4572.000000;0.404417
4571.000000;0.404898
4570.000000;0.405206
4569.000000;0.405326
4568.000000;0.405374
4567.000000;0.405468
4566.000000;0.405664
4565.000000;0.405965
4564.000000;0.406327
4563.000000;0.406652
4562.000000;0.406833
4561.000000;0.406874
4560.000000;0.406895
4559.000000;0.406959
4558.000000;0.406977
4557.000000;0.406914
4556.000000;0.406978
4555.000000;0.407413
4554.000000;0.408137
4553.000000;0.408784
4552.000000;0.409142
4551.000000;0.409346
4550.000000;0.409568
4549.000000;0.409740
4548.000000;0.409766
4547.000000;0.409799
4546.000000;0.410088
4545.000000;0.410609
4544.000000;0.411075
4543.000000;0.411289
4542.000000;0.411304
4541.000000;0.411199
4540.000000;0.410932
4539.000000;0.410512
4538.000000;0.410189
4537.000000;0.410281
4536.000000;0.410831
4535.000000;0.411522
4534.000000;0.411984
4533.000000;0.412111
4532.000000;0.412058
4531.000000;0.412004
4530.000000;0.412039
4529.000000;0.412303
4528.000000;0.413035
4527.000000;0.414309
4526.000000;0.415762
4525.000000;0.416751
4524.000000;0.416842
4523.000000;0.416041
4522.000000;0.414554
4521.000000;0.412576
4520.000000;0.410445
4519.000000;0.408799
4518.000000;0.408281
4517.000000;0.409065
4516.000000;0.410773
4515.000000;0.412815
4514.000000;0.414721
4513.000000;0.416176
4512.000000;0.416971
4511.000000;0.417087
4510.000000;0.416763
4509.000000;0.416331
4508.000000;0.415954
4507.000000;0.415573
4506.000000;0.415090
4505.000000;0.414558
4504.000000;0.414180
4503.000000;0.414115
4502.000000;0.414291
4501.000000;0.414482
4500.000000;0.414583
4499.000000;0.414768
4498.000000;0.415283
4497.000000;0.416136
4496.000000;0.417064
4495.000000;0.417745
4494.000000;0.417953
4493.000000;0.417566
4492.000000;0.416684
4491.000000;0.415753
4490.000000;0.415358
4489.000000;0.415699
4488.000000;0.416376
4487.000000;0.416845
4486.000000;0.417025
4485.000000;0.417277
4484.000000;0.417813
4483.000000;0.418317
4482.000000;0.418251
4481.000000;0.417443
4480.000000;0.416273
4479.000000;0.415335
4478.000000;0.415001
4477.000000;0.415243
4476.000000;0.415766
4475.000000;0.416282
4474.000000;0.416731
4473.000000;0.417253
4472.000000;0.417953
4471.000000;0.418705
4470.000000;0.419224
4469.000000;0.419355
4468.000000;0.419239
4467.000000;0.419187
4466.000000;0.419379
4465.000000;0.419723
4464.000000;0.419988
4463.000000;0.420063
4462.000000;0.420053
4461.000000;0.420081
4460.000000;0.420039
4459.000000;0.419621
4458.000000;0.418634
4457.000000;0.417213
4456.000000;0.415683
4455.000000;0.414327
4454.000000;0.413347
4453.000000;0.412983
4452.000000;0.413452
4451.000000;0.414690
4450.000000;0.416284
4449.000000;0.417734
4448.000000;0.418742
4447.000000;0.419196
4446.000000;0.419010
4445.000000;0.418166
4444.000000;0.416919
4443.000000;0.415750
4442.000000;0.415043
4441.000000;0.414865
4440.000000;0.415087
4439.000000;0.415652
4438.000000;0.416647
4437.000000;0.418146
4436.000000;0.420009
4435.000000;0.421802
4434.000000;0.422927
4433.000000;0.422940
4432.000000;0.421838
4431.000000;0.420024
4430.000000;0.417970
4429.000000;0.415969
4428.000000;0.414215
4427.000000;0.413026
4426.000000;0.412838
4425.000000;0.413868
4424.000000;0.415767
4423.000000;0.417647
4422.000000;0.418611
4421.000000;0.418368
4420.000000;0.417331
4419.000000;0.416116
4418.000000;0.415052
4417.000000;0.414217
4416.000000;0.413767
4415.000000;0.413938
4414.000000;0.414681
4413.000000;0.415521
4412.000000;0.415926
4411.000000;0.415736
4410.000000;0.415142
4409.000000;0.414441
4408.000000;0.413988
4407.000000;0.414219
4406.000000;0.415323
4405.000000;0.416783
4404.000000;0.417493
4403.000000;0.416638
4402.000000;0.414445
4401.000000;0.411945
4400.000000;0.410064
4399.000000;0.409041
4398.000000;0.408627
4397.000000;0.408591
4396.000000;0.408890
4395.000000;0.409377
4394.000000;0.409593
4393.000000;0.409051
4392.000000;0.407727
4391.000000;0.406134
4390.000000;0.404829
4389.000000;0.403953
4388.000000;0.403304
4387.000000;0.402704
4386.000000;0.402128
4385.000000;0.401587
4384.000000;0.401138
4383.000000;0.400988
4382.000000;0.401308
4381.000000;0.401868
4380.000000;0.402114
4379.000000;0.401746
4378.000000;0.400945
4377.000000;0.399882
4376.000000;0.398277
4375.000000;0.395813
4374.000000;0.392794
4373.000000;0.390047
4372.000000;0.388210
4371.000000;0.387437
4370.000000;0.387687
4369.000000;0.388822
4368.000000;0.390287
4367.000000;0.391117
4366.000000;0.390564
4365.000000;0.388586
4364.000000;0.385590
4363.000000;0.382023
4362.000000;0.378415
4361.000000;0.375500
4360.000000;0.373865
4359.000000;0.373532
4358.000000;0.374113
4357.000000;0.375206
4356.000000;0.376308
4355.000000;0.376625
4354.000000;0.375629
4353.000000;0.373809
4352.000000;0.372276
4351.000000;0.371513
4350.000000;0.371056
4349.000000;0.370529
4348.000000;0.370293
4347.000000;0.370598
4346.000000;0.370644
4345.000000;0.369309
4344.000000;0.366735
4343.000000;0.364472
4342.000000;0.363821
4341.000000;0.364381
4340.000000;0.364444
4339.000000;0.362630
4338.000000;0.358993
4337.000000;0.354697
4336.000000;0.350854
4335.000000;0.347769
4334.000000;0.345222
4333.000000;0.343335
4332.000000;0.342791
4331.000000;0.343985
4330.000000;0.346117
4329.000000;0.347534
4328.000000;0.347073
4327.000000;0.344904
4326.000000;0.342059
4325.000000;0.339423
4324.000000;0.337200
4323.000000;0.335052
4322.000000;0.332616
4321.000000;0.330088
4320.000000;0.328371
4319.000000;0.328405
4318.000000;0.330176
4317.000000;0.332534
4316.000000;0.334063
4315.000000;0.333964
4314.000000;0.332076
4313.000000;0.328482
4312.000000;0.323539
4311.000000;0.318137
4310.000000;0.313481
4309.000000;0.310558
4308.000000;0.309863
4307.000000;0.311408
4306.000000;0.314568
4305.000000;0.317843
4304.000000;0.319237
4303.000000;0.317440
4302.000000;0.312714
4301.000000;0.306543
4300.000000;0.300727
4299.000000;0.296930
4298.000000;0.296439
4297.000000;0.299524
4296.000000;0.304681
4295.000000;0.309017
4294.000000;0.310371
4293.000000;0.309332
4292.000000;0.308296
4291.000000;0.308427
4290.000000;0.308664
4289.000000;0.307941
4288.000000;0.307107
4287.000000;0.307731
4286.000000;0.309684
4285.000000;0.311242
4284.000000;0.311720
4283.000000;0.312591
4282.000000;0.315252
4281.000000;0.319077
4280.000000;0.322909
4279.000000;0.327433
4278.000000;0.334206
4277.000000;0.342320
4276.000000;0.347618
4275.000000;0.346603
4274.000000;0.340734
4273.000000;0.334801
4272.000000;0.331824
4271.000000;0.331610
4270.000000;0.333607
4269.000000;0.339254
4268.000000;0.350379
4267.000000;0.365420
4266.000000;0.378445
4265.000000;0.384259
4264.000000;0.384480
4263.000000;0.385712
4262.000000;0.392289
4261.000000;0.402838
4260.000000;0.414077
4259.000000;0.426072
4258.000000;0.441170
4257.000000;0.458199
4256.000000;0.471049
4255.000000;0.475061
4254.000000;0.471851
4253.000000;0.465383
4252.000000;0.457359
4251.000000;0.448716
4250.000000;0.442610
4249.000000;0.443262
4248.000000;0.452808
4247.000000;0.470432
4246.000000;0.493910
4245.000000;0.520665
4244.000000;0.547142
4243.000000;0.569235
4242.000000;0.585490
4241.000000;0.598520
4240.000000;0.610511
4239.000000;0.619647
4238.000000;0.623800
4237.000000;0.624957
4236.000000;0.627544
4235.000000;0.634088
4234.000000;0.643929
4233.000000;0.655648
4232.000000;0.669160
4231.000000;0.685460
4230.000000;0.704454
4229.000000;0.721455
4228.000000;0.727515
4227.000000;0.717987
4226.000000;0.699629
4225.000000;0.684528
4224.000000;0.679769
4223.000000;0.685682
4222.000000;0.701024
4221.000000;0.726511
4220.000000;0.762704
4219.000000;0.805321
4218.000000;0.843403
4217.000000;0.865848
4216.000000;0.873691
4215.000000;0.878118
4214.000000;0.885040
4213.000000;0.891067
4212.000000;0.892033
4211.000000;0.889559
4210.000000;0.888507
4209.000000;0.890470
4208.000000;0.891782
4207.000000;0.888623
4206.000000;0.883146
4205.000000;0.882604
4204.000000;0.893108
4203.000000;0.915485
4202.000000;0.945582
4201.000000;0.976476
4200.000000;1.000759
4199.000000;1.013426
4198.000000;1.015396
4197.000000;1.014045
4196.000000;1.016661
4195.000000;1.022338
4194.000000;1.023558
4193.000000;1.017818
4192.000000;1.013952
4191.000000;1.023352
4190.000000;1.048116
4189.000000;1.079825
4188.000000;1.110539
4187.000000;1.143042
4186.000000;1.186301
4185.000000;1.242948
4184.000000;1.302023
4183.000000;1.340797
4182.000000;1.342665
4181.000000;1.315129
4180.000000;1.274020
4179.000000;1.229225
4178.000000;1.190296
4177.000000;1.165824
4176.000000;1.155535
4175.000000;1.150537
4174.000000;1.144168
4173.000000;1.139801
4172.000000;1.146286
4171.000000;1.168471
4170.000000;1.203250
4169.000000;1.245520
4168.000000;1.296191
4167.000000;1.358947
4166.000000;1.427248
4165.000000;1.471799
4164.000000;1.460747
4163.000000;1.401453
4162.000000;1.327410
4161.000000;1.269955
4160.000000;1.244433
4159.000000;1.248200
4158.000000;1.266713
4157.000000;1.285718
4156.000000;1.308817
4155.000000;1.358294
4154.000000;1.469616
4153.000000;1.669931
4152.000000;2.014672
4151.000000;2.021424
4150.000000;1.745113
4149.000000;1.562463
4148.000000;1.430968
4147.000000;1.337535
4146.000000;1.275911
4145.000000;1.245944
4144.000000;1.248797
4143.000000;1.286374
4142.000000;1.359743
4141.000000;1.464914
4140.000000;1.585506
4139.000000;1.684032
4138.000000;1.716703
4137.000000;1.688647
4136.000000;1.643640
4135.000000;1.610810
4134.000000;1.605809
4133.000000;1.641343
4132.000000;1.723006
4131.000000;1.827597
4130.000000;1.883872
4129.000000;1.854326
4128.000000;1.792396
4127.000000;1.748750
4126.000000;1.734295
4125.000000;1.732574
4124.000000;1.718266
4123.000000;1.688209
4122.000000;1.676931
4121.000000;1.710436
4120.000000;1.772100
4119.000000;1.809741
4118.000000;1.797664
4117.000000;1.760172
4116.000000;1.721017
4115.000000;1.681527
4114.000000;1.641705
4113.000000;1.625072
4112.000000;1.643379
4111.000000;1.670944
4110.000000;1.676858
4109.000000;1.670121
4108.000000;1.681044
4107.000000;1.729421
4106.000000;1.825490
4105.000000;1.979768
4104.000000;2.148243
4103.000000;2.214235
4102.000000;2.155188
4101.000000;1.965166
4100.000000;1.785216
4099.000000;1.690245
4098.000000;1.658414
4097.000000;1.660348
4096.000000;1.683869
4095.000000;1.759063
4094.000000;1.929368
4093.000000;2.245156
4092.000000;2.178471
4091.000000;1.903401
4090.000000;1.771510
4089.000000;1.765580
4088.000000;1.879015
4087.000000;2.103237
4086.000000;2.331686
4085.000000;2.226254
4084.000000;1.927436
4083.000000;1.712109
4082.000000;1.603260
4081.000000;1.573291
4080.000000;1.583570
4079.000000;1.599875
4078.000000;1.624243
4077.000000;1.681002
4076.000000;1.768595
4075.000000;1.806574
4074.000000;1.706424
4073.000000;1.563884
4072.000000;1.469098
4071.000000;1.433596
4070.000000;1.441824
4069.000000;1.474286
4068.000000;1.538452
4067.000000;1.661595
4066.000000;1.802513
4065.000000;1.819242
4064.000000;1.785109
4063.000000;1.772595
4062.000000;1.763933
4061.000000;1.758518
4060.000000;1.731325
4059.000000;1.652228
4058.000000;1.559782
4057.000000;1.499920
4056.000000;1.491464
4055.000000;1.544181
4054.000000;1.660922
4053.000000;1.860028
4052.000000;2.088609
4051.000000;1.934176
4050.000000;1.683951
4049.000000;1.558563
4048.000000;1.507355
4047.000000;1.496709
4046.000000;1.492749
4045.000000;1.485256
4044.000000;1.476840
4043.000000;1.458557
4042.000000;1.417984
4041.000000;1.377344
4040.000000;1.378334
4039.000000;1.449071
4038.000000;1.585385
4037.000000;1.669182
4036.000000;1.636500
4035.000000;1.605102
4034.000000;1.566985
4033.000000;1.513239
4032.000000;1.491761
4031.000000;1.523840
4030.000000;1.587063
4029.000000;1.633181
4028.000000;1.650658
4027.000000;1.657029
4026.000000;1.653318
4025.000000;1.635590
4024.000000;1.622322
4023.000000;1.657827
4022.000000;1.755116
4021.000000;1.796892
4020.000000;1.718679
4019.000000;1.648890
4018.000000;1.618657
4017.000000;1.605463
4016.000000;1.620189
4015.000000;1.674403
4014.000000;1.695679
4013.000000;1.640525
4012.000000;1.601759
4011.000000;1.632640
4010.000000;1.736181
4009.000000;1.862179
4008.000000;1.916223
4007.000000;1.945725
4006.000000;1.999334
4005.000000;2.000388
4004.000000;1.925326
4003.000000;1.857289
4002.000000;1.808736
4001.000000;1.741261
4000.000000;1.643569
3999.000000;1.549538
3998.000000;1.499583
3997.000000;1.516766
3996.000000;1.609476
3995.000000;1.764034
3994.000000;1.946995
3993.000000;2.063693
3992.000000;1.936763
3991.000000;1.768508
3990.000000;1.699667
3989.000000;1.723101
3988.000000;1.826676
3987.000000;1.973371
3986.000000;2.036144
3985.000000;1.998144
3984.000000;2.008501
3983.000000;2.052068
3982.000000;1.935436
3981.000000;1.775448
3980.000000;1.708318
3979.000000;1.745564
3978.000000;1.866282
3977.000000;2.138441
3976.000000;2.499013
3975.000000;2.089817
3974.000000;1.857581
3973.000000;1.765144
3972.000000;1.746600
3971.000000;1.786293
3970.000000;1.884175
3969.000000;2.096649
3968.000000;2.447413
3967.000000;2.385542
3966.000000;2.257868
3965.000000;2.380906
3964.000000;2.705272
3963.000000;2.604629
3962.000000;2.251662
3961.000000;2.096958
3960.000000;2.046638
3959.000000;1.976381
3958.000000;1.853910
3957.000000;1.772343
3956.000000;1.750504
3955.000000;1.725615
3954.000000;1.654509
3953.000000;1.606225
3952.000000;1.656794
3951.000000;1.845161
3950.000000;2.259789
3949.000000;2.799138
3948.000000;2.475509
3947.000000;2.299108
3946.000000;2.104654
3945.000000;1.923463
3944.000000;1.773747
3943.000000;1.683644
3942.000000;1.643633
3941.000000;1.617032
3940.000000;1.597683
3939.000000;1.572150
3938.000000;1.486743
3937.000000;1.384497
3936.000000;1.361106
3935.000000;1.419185
3934.000000;1.443190
3933.000000;1.407996
3932.000000;1.412911
3931.000000;1.472710
3930.000000;1.539481
3929.000000;1.593652
3928.000000;1.683965
3927.000000;1.798808
3926.000000;1.796319
3925.000000;1.696821
3924.000000;1.627340
3923.000000;1.586111
3922.000000;1.537807
3921.000000;1.489473
3920.000000;1.484438
3919.000000;1.553863
3918.000000;1.656675
3917.000000;1.669617
3916.000000;1.643425
3915.000000;1.685292
3914.000000;1.725164
3913.000000;1.684167
3912.000000;1.639968
3911.000000;1.656366
3910.000000;1.660505
3909.000000;1.604450
3908.000000;1.603503
3907.000000;1.484656
3906.000000;1.294108
3905.000000;1.236385
3904.000000;1.338788
3903.000000;1.506916
3902.000000;1.578125
3901.000000;1.559827
3900.000000;1.496537
3899.000000;1.436800
3898.000000;1.417066
3897.000000;1.448458
3896.000000;1.531887
3895.000000;1.651195
3894.000000;1.721722
3893.000000;1.599475
3892.000000;1.413141
3891.000000;1.325762
3890.000000;1.368600
3889.000000;1.496176
3888.000000;1.624019
3887.000000;1.736170
3886.000000;1.959268
3885.000000;2.320362
3884.000000;2.275378
3883.000000;2.040939
3882.000000;1.829405
3881.000000;1.612569
3880.000000;1.451292
3879.000000;1.403062
3878.000000;1.469820
3877.000000;1.574008
3876.000000;1.565947
3875.000000;1.420577
3874.000000;1.369509
3873.000000;1.419880
3872.000000;1.400219
3871.000000;1.315651
3870.000000;1.275020
3869.000000;1.329032
3868.000000;1.419740
3867.000000;1.772623
3866.000000;2.212464
3865.000000;1.972417
3864.000000;1.818890
3863.000000;1.818297
3862.000000;1.896275
3861.000000;1.927210
3860.000000;1.966333
3859.000000;2.060175
3858.000000;2.083097
3857.000000;2.067680
3856.000000;2.302196
3855.000000;2.635686
3854.000000;2.222963
3853.000000;1.953788
3852.000000;1.796568
3851.000000;1.720086
3850.000000;1.733564
3849.000000;1.816124
3848.000000;1.902963
3847.000000;2.001110
3846.000000;1.913868
3845.000000;1.716570
3844.000000;1.488103
3843.000000;1.349668
3842.000000;1.339683
3841.000000;1.421050
3840.000000;1.623556
3839.000000;2.080145
3838.000000;1.834799
3837.000000;1.482934
3836.000000;1.415825
3835.000000;1.454563
3834.000000;1.539672
3833.000000;1.626995
3832.000000;1.711947
3831.000000;1.779337
3830.000000;1.746243
3829.000000;1.640623
3828.000000;1.518394
3827.000000;1.401480
3826.000000;1.360011
3825.000000;1.397622
3824.000000;1.593349
3823.000000;1.780158
3822.000000;1.429027
3821.000000;1.328652
3820.000000;1.448681
3819.000000;1.670903
3818.000000;1.942947
3817.000000;2.054497
3816.000000;2.025002
3815.000000;1.866408
3814.000000;1.647366
3813.000000;1.441843
3812.000000;1.307065
3811.000000;1.289143
3810.000000;1.352888
3809.000000;1.398559
3808.000000;1.390949
3807.000000;1.422367
3806.000000;1.395936
3805.000000;1.288132
3804.000000;1.224587
3803.000000;1.158114
3802.000000;1.107636
3801.000000;1.147946
3800.000000;1.284833
3799.000000;1.467841
3798.000000;1.617748
3797.000000;1.628616
3796.000000;1.524570
3795.000000;1.432280
3794.000000;1.383600
3793.000000;1.371783
3792.000000;1.389005
3791.000000;1.421924
3790.000000;1.466438
3789.000000;1.534817
3788.000000;1.590571
3787.000000;1.584577
3786.000000;1.556215
3785.000000;1.576780
3784.000000;1.630200
3783.000000;1.619068
3782.000000;1.599025
3781.000000;1.658620
3780.000000;1.800251
3779.000000;1.859154
3778.000000;1.782567
3777.000000;1.744140
3776.000000;1.741282
3775.000000;1.771607
3774.000000;1.834687
3773.000000;1.788394
3772.000000;1.611545
3771.000000;1.449255
3770.000000;1.373802
3769.000000;1.403418
3768.000000;1.493825
3767.000000;1.580263
3766.000000;1.640976
3765.000000;1.789650
3764.000000;1.880007
3763.000000;1.616057
3762.000000;1.432826
3761.000000;1.340317
3760.000000;1.331651
3759.000000;1.313255
3758.000000;1.356642
3757.000000;1.195423
3756.000000;1.436074
3755.000000;1.784837
3754.000000;1.615672
3753.000000;1.671087
3752.000000;1.580349
3751.000000;1.609644
3750.000000;1.683909
3749.000000;1.832331
3748.000000;1.943086
3747.000000;1.907493
3746.000000;1.858082
3745.000000;1.846374
3744.000000;1.815833
3743.000000;1.746008
3742.000000;1.750312
3741.000000;1.762761
3740.000000;2.102664
3739.000000;1.589579
3738.000000;1.275527
3737.000000;1.197603
3736.000000;1.199655
3735.000000;1.290143
3734.000000;1.388500
3733.000000;1.491528
3732.000000;1.634559
3731.000000;1.917817
3730.000000;2.148616
3729.000000;1.956566
3728.000000;1.864281
3727.000000;1.851918
3726.000000;1.904524
3725.000000;2.034050
3724.000000;2.234890
3723.000000;2.736544
3722.000000;2.544376
3721.000000;2.201517
3720.000000;2.140905
3719.000000;2.161362
3718.000000;2.255909
3717.000000;2.237757
3716.000000;2.053570
3715.000000;1.939139
3714.000000;1.913887
3713.000000;1.884913
3712.000000;1.829722
3711.000000;1.800263
3710.000000;1.810199
3709.000000;1.820859
3708.000000;1.760996
3707.000000;1.671935
3706.000000;1.656750
3705.000000;1.762010
3704.000000;1.907787
3703.000000;1.858526
3702.000000;1.745420
3701.000000;1.739780
3700.000000;1.810541
3699.000000;1.874908
3698.000000;1.913584
3697.000000;2.022682
3696.000000;1.985747
3695.000000;1.711259
3694.000000;1.515638
3693.000000;1.434519
3692.000000;1.445875
3691.000000;1.516777
3690.000000;1.637175
3689.000000;1.831743
3688.000000;1.965746
3687.000000;1.859442
3686.000000;1.704844
3685.000000;1.612743
3684.000000;1.617459
3683.000000;1.695401
3682.000000;1.838539
3681.000000;1.918699
3680.000000;2.407725
3679.000000;2.256038
3678.000000;2.163226
3677.000000;1.400111
3676.000000;1.067514
3675.000000;1.000168
3674.000000;1.078379
3673.000000;1.338855
3672.000000;1.847566
3671.000000;2.110835
3670.000000;1.668603
3669.000000;1.524946
3668.000000;1.474428
3667.000000;1.460175
3666.000000;1.486541
3665.000000;1.561821
3664.000000;1.733478
3663.000000;2.041569
3662.000000;1.905473
3661.000000;1.645948
3660.000000;1.607262
3659.000000;1.654703
3658.000000;1.624227
3657.000000;1.511241
3656.000000;1.430044
3655.000000;1.432004
3654.000000;1.510139
3653.000000;1.452372
3652.000000;1.265191
3651.000000;1.175529
3650.000000;1.212112
3649.000000;1.352437
3648.000000;1.603009
3647.000000;1.839034
3646.000000;1.700647
3645.000000;1.537580
3644.000000;1.459864
3643.000000;1.460934
3642.000000;1.551683
3641.000000;1.771246
3640.000000;2.336305
3639.000000;1.923025
3638.000000;1.578366
3637.000000;1.440540
3636.000000;1.370057
3635.000000;1.316959
3634.000000;1.439427
3633.000000;1.983105
3632.000000;1.447789
3631.000000;1.199701
3630.000000;1.195020
3629.000000;1.275786
3628.000000;1.518859
3627.000000;1.793982
3626.000000;1.951914
3625.000000;1.701196
3624.000000;1.444494
3623.000000;1.317561
3622.000000;1.330428
3621.000000;1.544691
3620.000000;1.897886
3619.000000;1.606218
3618.000000;1.362077
3617.000000;1.289835
3616.000000;1.221075
3615.000000;1.141103
3614.000000;1.081306
3613.000000;1.106135
3612.000000;1.246290
3611.000000;1.495482
3610.000000;1.711350
3609.000000;1.601818
3608.000000;1.444465
3607.000000;1.375656
3606.000000;1.380469
3605.000000;1.448714
3604.000000;1.545958
3603.000000;1.633004
3602.000000;1.699368
3601.000000;1.793347
3600.000000;1.879587
3599.000000;1.766802
3598.000000;1.620910
3597.000000;1.583611
3596.000000;1.619559
3595.000000;1.668002
3594.000000;1.675243
3593.000000;1.645126
3592.000000;1.619731
3591.000000;1.631843
3590.000000;1.699706
3589.000000;1.767268
3588.000000;1.737242
3587.000000;1.681785
3586.000000;1.676896
3585.000000;1.694095
3584.000000;1.666479
3583.000000;1.596965
3582.000000;1.561613
3581.000000;1.605580
3580.000000;1.698579
3579.000000;1.727992
3578.000000;1.680936
3577.000000;1.626116
3576.000000;1.558161
3575.000000;1.482114
3574.000000;1.427384
3573.000000;1.426318
3572.000000;1.484842
3571.000000;1.556130
3570.000000;1.720567
3569.000000;1.834375
3568.000000;1.650057
3567.000000;1.545700
3566.000000;1.542142
3565.000000;1.596275
3564.000000;1.696085
3563.000000;1.812154
3562.000000;1.915461
3561.000000;1.925427
3560.000000;1.888001
3559.000000;1.903948
3558.000000;2.008405
3557.000000;2.363441
3556.000000;2.620297
3555.000000;2.108580
3554.000000;1.881878
3553.000000;1.762726
3552.000000;1.713563
3551.000000;1.739956
3550.000000;1.899352
3549.000000;2.216694
3548.000000;2.034151
3547.000000;1.821722
3546.000000;1.824814
3545.000000;1.892347
3544.000000;1.854766
3543.000000;1.746429
3542.000000;1.651896
3541.000000;1.536054
3540.000000;1.463718
3539.000000;1.471713
3538.000000;1.703389
3537.000000;2.148076
3536.000000;1.736375
3535.000000;1.510964
3534.000000;1.517505
3533.000000;1.558906
3532.000000;1.578776
3531.000000;1.578359
3530.000000;1.635003
3529.000000;1.834169
3528.000000;1.940641
3527.000000;1.805862
3526.000000;1.780498
3525.000000;1.959926
3524.000000;2.460200
3523.000000;2.239324
3522.000000;1.887866
3521.000000;1.775585
3520.000000;1.725261
3519.000000;1.695264
3518.000000;1.658232
3517.000000;1.665668
3516.000000;1.756064
3515.000000;1.958764
3514.000000;2.180006
3513.000000;2.075642
3512.000000;1.870765
3511.000000;1.748979
3510.000000;1.710179
3509.000000;1.741594
3508.000000;1.793910
3507.000000;1.814801
3506.000000;1.793539
3505.000000;1.798532
3504.000000;1.897862
3503.000000;2.037945
3502.000000;2.050589
3501.000000;1.964350
3500.000000;1.901240
3499.000000;1.869509
3498.000000;1.774569
3497.000000;1.618823
3496.000000;1.505832
3495.000000;1.461752
3494.000000;1.481707
3493.000000;1.554735
3492.000000;1.684742
3491.000000;1.797035
3490.000000;1.721678
3489.000000;1.628086
3488.000000;1.646850
3487.000000;1.759392
3486.000000;1.842361
3485.000000;1.777824
3484.000000;1.702747
3483.000000;1.696804
3482.000000;1.762507
3481.000000;1.845498
3480.000000;1.866345
3479.000000;1.875366
3478.000000;1.935459
3477.000000;1.992042
3476.000000;1.936832
3475.000000;1.804739
3474.000000;1.728149
3473.000000;1.745736
3472.000000;1.905887
3471.000000;2.196682
3470.000000;2.116890
3469.000000;1.904558
3468.000000;1.786921
3467.000000;1.703234
3466.000000;1.646166
3465.000000;1.606893
3464.000000;1.600608
3463.000000;1.632043
3462.000000;1.649402
3461.000000;1.611505
3460.000000;1.562416
3459.000000;1.534609
3458.000000;1.506113
3457.000000;1.500287
3456.000000;1.523993
3455.000000;1.607838
3454.000000;1.708765
3453.000000;1.869769
3452.000000;2.381765
3451.000000;1.990090
3450.000000;1.664983
3449.000000;1.645431
3448.000000;1.737369
3447.000000;1.778632
3446.000000;1.650698
3445.000000;1.551895
3444.000000;1.516340
3443.000000;1.525833
3442.000000;1.648664
3441.000000;1.883761
3440.000000;1.760145
3439.000000;1.553183
3438.000000;1.513139
3437.000000;1.560577
3436.000000;1.654702
3435.000000;1.752584
3434.000000;1.792744
3433.000000;1.767941
3432.000000;1.776820
3431.000000;1.900441
3430.000000;1.808496
3429.000000;1.531598
3428.000000;1.365829
3427.000000;1.310957
3426.000000;1.297778
3425.000000;1.328096
3424.000000;1.394821
3423.000000;1.620113
3422.000000;2.135600
3421.000000;1.620721
3420.000000;1.341071
3419.000000;1.271569
3418.000000;1.281563
3417.000000;1.380634
3416.000000;1.599066
3415.000000;1.825130
3414.000000;1.559701
3413.000000;1.374261
3412.000000;1.318102
3411.000000;1.327988
3410.000000;1.401650
3409.000000;1.528168
3408.000000;1.753653
3407.000000;2.194723
3406.000000;2.260906
3405.000000;1.934348
3404.000000;1.798080
3403.000000;1.617177
3402.000000;1.479976
3401.000000;1.442140
3400.000000;1.506796
3399.000000;1.636777
3398.000000;1.689052
3397.000000;1.689721
3396.000000;1.745585
3395.000000;1.840022
3394.000000;1.922070
3393.000000;1.859874
3392.000000;1.731059
3391.000000;1.686254
3390.000000;1.782598
3389.000000;1.998858
3388.000000;1.925209
3387.000000;1.735125
3386.000000;1.676201
3385.000000;1.668007
3384.000000;1.641900
3383.000000;1.602149
3382.000000;1.578278
3381.000000;1.599570
3380.000000;1.710423
3379.000000;1.971728
3378.000000;2.625118
3377.000000;2.920889
3376.000000;2.346256
3375.000000;2.073065
3374.000000;1.794633
3373.000000;1.618418
3372.000000;1.548025
3371.000000;1.555495
3370.000000;1.591290
3369.000000;1.587505
3368.000000;1.586011
3367.000000;1.566120
3366.000000;1.567002
3365.000000;1.580426
3364.000000;1.772053
3363.000000;2.251407
3362.000000;1.702024
3361.000000;1.444761
3360.000000;1.376861
3359.000000;1.368287
3358.000000;1.401314
3357.000000;1.417251
3356.000000;1.406716
3355.000000;1.359853
3354.000000;1.327772
3353.000000;1.351610
3352.000000;1.450828
3351.000000;1.552836
3350.000000;1.516977
3349.000000;1.463324
3348.000000;1.473032
3347.000000;1.551533
3346.000000;1.682433
3345.000000;1.910111
3344.000000;2.723753
3343.000000;2.169716
3342.000000;1.742869
3341.000000;1.628559
3340.000000;1.612174
3339.000000;1.720441
3338.000000;1.827697
3337.000000;1.842112
3336.000000;1.883322
3335.000000;1.930194
3334.000000;1.884036
3333.000000;1.741367
3332.000000;1.578762
3331.000000;1.488974
3330.000000;1.481962
3329.000000;1.524469
3328.000000;1.586975
3327.000000;1.664313
3326.000000;1.823734
3325.000000;2.000563
3324.000000;1.824905
3323.000000;1.625972
3322.000000;1.537911
3321.000000;1.511432
3320.000000;1.506046
3319.000000;1.496239
3318.000000;1.507626
3317.000000;1.607038
3316.000000;1.974314
3315.000000;2.092327
3314.000000;1.694384
3313.000000;1.536393
3312.000000;1.479487
3311.000000;1.458609
3310.000000;1.459822
3309.000000;1.480135
3308.000000;1.516457
3307.000000;1.544650
3306.000000;1.542392
3305.000000;1.530990
3304.000000;1.569091
3303.000000;1.697590
3302.000000;2.064162
3301.000000;2.126585
3300.000000;1.689999
3299.000000;1.534582
3298.000000;1.492859
3297.000000;1.526074
3296.000000;1.586470
3295.000000;1.629467
3294.000000;1.695728
3293.000000;1.814978
3292.000000;1.904900
3291.000000;1.810093
3290.000000;1.685764
3289.000000;1.620739
3288.000000;1.600253
3287.000000;1.607919
3286.000000;1.631097
3285.000000;1.705943
3284.000000;1.830057
3283.000000;1.744833
3282.000000;1.556118
3281.000000;1.464137
3280.000000;1.448393
3279.000000;1.465643
3278.000000;1.491535
3277.000000;1.549171
3276.000000;1.673270
3275.000000;1.871811
3274.000000;2.317738
3273.000000;2.323318
3272.000000;1.844932
3271.000000;1.737640
3270.000000;1.792045
3269.000000;1.934211
3268.000000;2.007921
3267.000000;2.046000
3266.000000;2.137755
3265.000000;1.994442
3264.000000;1.794128
3263.000000;1.731873
3262.000000;1.832620
3261.000000;2.022610
3260.000000;2.091198
3259.000000;2.190730
3258.000000;2.506421
3257.000000;2.373634
3256.000000;1.955277
3255.000000;1.753400
3254.000000;1.697699
3253.000000;1.701533
3252.000000;1.652817
3251.000000;1.523591
3250.000000;1.392180
3249.000000;1.306602
3248.000000;1.289232
3247.000000;1.344642
3246.000000;1.521865
3245.000000;1.714626
3244.000000;1.530523
3243.000000;1.358776
3242.000000;1.322129
3241.000000;1.340871
3240.000000;1.367363
3239.000000;1.415080
3238.000000;1.533814
3237.000000;1.778423
3236.000000;2.124879
3235.000000;1.960787
3234.000000;1.766496
3233.000000;1.763926
3232.000000;1.901651
3231.000000;2.020772
3230.000000;2.003466
3229.000000;2.151728
3228.000000;2.089606
3227.000000;1.787818
3226.000000;1.641482
3225.000000;1.594161
3224.000000;1.630097
3223.000000;1.654354
3222.000000;1.519394
3221.000000;1.373388
3220.000000;1.337155
3219.000000;1.421938
3218.000000;1.646138
3217.000000;2.165253
3216.000000;1.998861
3215.000000;1.580992
3214.000000;1.456850
3213.000000;1.439891
3212.000000;1.476981
3211.000000;1.472917
3210.000000;1.463315
3209.000000;1.542650
3208.000000;1.749545
3207.000000;1.713658
3206.000000;1.485094
3205.000000;1.408979
3204.000000;1.476949
3203.000000;1.679543
3202.000000;1.858410
3201.000000;1.731775
3200.000000;1.572511
3199.000000;1.458647
3198.000000;1.391568
3197.000000;1.378164
3196.000000;1.412998
3195.000000;1.493801
3194.000000;1.664081
3193.000000;1.909109
3192.000000;1.787623
3191.000000;1.542829
3190.000000;1.415270
3189.000000;1.351663
3188.000000;1.324612
3187.000000;1.326786
3186.000000;1.381470
3185.000000;1.527093
3184.000000;1.793350
3183.000000;1.850607
3182.000000;1.704566
3181.000000;1.677509
3180.000000;1.715094
3179.000000;1.773647
3178.000000;1.836908
3177.000000;1.993067
3176.000000;2.308792
3175.000000;2.519557
3174.000000;2.964914
3173.000000;2.071156
3172.000000;1.703223
3171.000000;1.579300
3170.000000;1.593460
3169.000000;1.725840
3168.000000;2.020201
3167.000000;2.015834
3166.000000;1.679198
3165.000000;1.572754
3164.000000;1.591603
3163.000000;1.715810
3162.000000;1.898615
3161.000000;2.077777
3160.000000;2.227062
3159.000000;2.133509
3158.000000;2.179075
3157.000000;2.315141
3156.000000;2.027952
3155.000000;1.848066
3154.000000;1.828123
3153.000000;1.884818
3152.000000;2.052278
3151.000000;2.727530
3150.000000;2.214730
3149.000000;1.838196
3148.000000;1.731449
3147.000000;1.748609
3146.000000;1.826166
3145.000000;1.868312
3144.000000;1.904419
3143.000000;1.956179
3142.000000;1.969603
3141.000000;1.815288
3140.000000;1.598939
3139.000000;1.475491
3138.000000;1.460698
3137.000000;1.561704
3136.000000;1.700825
3135.000000;1.661307
3134.000000;1.548231
3133.000000;1.491967
3132.000000;1.491373
3131.000000;1.541240
3130.000000;1.616555
3129.000000;1.685123
3128.000000;1.675627
3127.000000;1.575344
3126.000000;1.502790
3125.000000;1.522808
3124.000000;1.651649
3123.000000;1.825785
3122.000000;1.796109
3121.000000;1.700765
3120.000000;1.654450
3119.000000;1.616280
3118.000000;1.624990
3117.000000;1.739253
3116.000000;2.036249
3115.000000;2.351794
3114.000000;2.124914
3113.000000;2.043554
3112.000000;2.046306
3111.000000;2.061325
3110.000000;1.963550
3109.000000;1.758325
3108.000000;1.615096
3107.000000;1.584044
3106.000000;1.627547
3105.000000;1.557277
3104.000000;1.407869
3103.000000;1.325671
3102.000000;1.305313
3101.000000;1.311181
3100.000000;1.328368
3099.000000;1.367940
3098.000000;1.402957
3097.000000;1.366838
3096.000000;1.298735
3095.000000;1.258589
3094.000000;1.249713
3093.000000;1.267327
3092.000000;1.315851
3091.000000;1.375770
3090.000000;1.375739
3089.000000;1.318256
3088.000000;1.295991
3087.000000;1.350238
3086.000000;1.478072
3085.000000;1.606313
3084.000000;1.611480
3083.000000;1.549875
3082.000000;1.471695
3081.000000;1.362370
3080.000000;1.274285
3079.000000;1.247865
3078.000000;1.276859
3077.000000;1.344546
3076.000000;1.452171
3075.000000;1.661747
3074.000000;1.863930
3073.000000;1.623331
3072.000000;1.441207
3071.000000;1.384594
3070.000000;1.385575
3069.000000;1.437729
3068.000000;1.567571
3067.000000;1.769071
3066.000000;1.726354
3065.000000;1.575126
3064.000000;1.509438
3063.000000;1.472620
3062.000000;1.445585
3061.000000;1.473765
3060.000000;1.661098
3059.000000;1.856767
3058.000000;1.609917
3057.000000;1.449240
3056.000000;1.388487
3055.000000;1.375649
3054.000000;1.401680
3053.000000;1.485848
3052.000000;1.658563
3051.000000;1.966137
3050.000000;2.320928
3049.000000;2.060668
3048.000000;1.741181
3047.000000;1.529910
3046.000000;1.403519
3045.000000;1.359129
3044.000000;1.366251
3043.000000;1.392259
3042.000000;1.441910
3041.000000;1.582649
3040.000000;1.881410
3039.000000;1.711129
3038.000000;1.491316
3037.000000;1.441078
3036.000000;1.477169
3035.000000;1.540886
3034.000000;1.605750
3033.000000;1.773077
3032.000000;2.110548
3031.000000;1.860325
3030.000000;1.580861
3029.000000;1.539390
3028.000000;1.645675
3027.000000;1.909353
3026.000000;2.088898
3025.000000;2.065951
3024.000000;2.107808
3023.000000;2.100156
3022.000000;2.021186
3021.000000;1.981143
3020.000000;2.029491
3019.000000;1.910782
3018.000000;1.733764
3017.000000;1.654429
3016.000000;1.627606
3015.000000;1.653971
3014.000000;1.821997
3013.000000;2.208944
3012.000000;1.849222
3011.000000;1.626877
3010.000000;1.565399
3009.000000;1.567203
3008.000000;1.532628
3007.000000;1.485752
3006.000000;1.476491
3005.000000;1.481543
3004.000000;1.512516
3003.000000;1.639167
3002.000000;1.782384
3001.000000;1.641844
3000.000000;1.495102
2999.000000;1.480176
2998.000000;1.552023
2997.000000;1.668527
2996.000000;1.886762
2995.000000;2.186318
2994.000000;1.768682
2993.000000;1.527713
2992.000000;1.500602
2991.000000;1.620350
2990.000000;1.956672
2989.000000;2.324776
2988.000000;1.993892
2987.000000;1.850616
2986.000000;1.789945
2985.000000;1.755543
2984.000000;1.757377
2983.000000;1.800662
2982.000000;1.868421
2981.000000;1.954142
2980.000000;2.059222
2979.000000;2.058008
2978.000000;1.875436
2977.000000;1.708733
2976.000000;1.642911
2975.000000;1.686215
2974.000000;1.828250
2973.000000;1.993064
2972.000000;2.021232
2971.000000;1.944906
2970.000000;1.828126
2969.000000;1.716265
2968.000000;1.679556
2967.000000;1.737894
2966.000000;1.890097
2965.000000;2.115789
2964.000000;2.213167
2963.000000;2.398269
2962.000000;2.715207
2961.000000;2.119234
2960.000000;1.887683
2959.000000;1.712824
2958.000000;1.552656
2957.000000;1.451150
2956.000000;1.419195
2955.000000;1.436349
2954.000000;1.470866
2953.000000;1.514695
2952.000000;1.552105
2951.000000;1.488796
2950.000000;1.358790
2949.000000;1.277297
2948.000000;1.260389
2947.000000;1.281956
2946.000000;1.306680
2945.000000;1.337619
2944.000000;1.406693
2943.000000;1.528399
2942.000000;1.563995
2941.000000;1.442789
2940.000000;1.348344
2939.000000;1.333367
2938.000000;1.382544
2937.000000;1.459784
2936.000000;1.503897
2935.000000;1.500444
2934.000000;1.489065
2933.000000;1.485432
2932.000000;1.485415
2931.000000;1.497697
2930.000000;1.542046
2929.000000;1.618801
2928.000000;1.692723
2927.000000;1.756784
2926.000000;1.869656
2925.000000;1.912603
2924.000000;1.744183
2923.000000;1.620996
2922.000000;1.606047
2921.000000;1.688977
2920.000000;1.791602
2919.000000;1.801853
2918.000000;1.826220
2917.000000;1.928620
2916.000000;2.268855
2915.000000;2.393550
2914.000000;1.883037
2913.000000;1.625420
2912.000000;1.493933
2911.000000;1.473722
2910.000000;1.581204
2909.000000;1.964188
2908.000000;1.793005
2907.000000;1.534118
2906.000000;1.475125
2905.000000;1.524506
2904.000000;1.643718
2903.000000;1.797760
2902.000000;1.869403
2901.000000;1.830256
2900.000000;1.855344
2899.000000;2.215084
2898.000000;2.365157
2897.000000;1.724876
2896.000000;1.566571
2895.000000;1.495966
2894.000000;1.529938
2893.000000;1.652815
2892.000000;1.970056
2891.000000;1.868555
2890.000000;1.541485
2889.000000;1.400853
2888.000000;1.340952
2887.000000;1.359065
2886.000000;1.453264
2885.000000;1.598306
2884.000000;1.617996
2883.000000;1.547079
2882.000000;1.512631
2881.000000;1.503396
2880.000000;1.510500
2879.000000;1.560456
2878.000000;1.683573
2877.000000;1.857554
2876.000000;1.964922
2875.000000;1.910448
2874.000000;1.755529
2873.000000;1.661566
2872.000000;1.605822
2871.000000;1.534428
2870.000000;1.463682
2869.000000;1.404617
2868.000000;1.374530
2867.000000;1.403300
2866.000000;1.485789
2865.000000;1.536663
2864.000000;1.480037
2863.000000;1.398913
2862.000000;1.332910
2861.000000;1.265454
2860.000000;1.238602
2859.000000;1.300482
2858.000000;1.461646
2857.000000;1.548887
2856.000000;1.427564
2855.000000;1.321786
2854.000000;1.286302
2853.000000;1.305022
2852.000000;1.359905
2851.000000;1.439481
2850.000000;1.533662
2849.000000;1.614265
2848.000000;1.646240
2847.000000;1.639431
2846.000000;1.629906
2845.000000;1.630829
2844.000000;1.662679
2843.000000;1.749283
2842.000000;1.830592
2841.000000;1.784720
2840.000000;1.677673
2839.000000;1.609352
2838.000000;1.595226
2837.000000;1.595327
2836.000000;1.604643
2835.000000;1.668656
2834.000000;1.879696
2833.000000;1.906606
2832.000000;1.663770
2831.000000;1.553241
2830.000000;1.549159
2829.000000;1.566488
2828.000000;1.528930
2827.000000;1.482543
2826.000000;1.498098
2825.000000;1.564926
2824.000000;1.639119
2823.000000;1.738372
2822.000000;1.887494
2821.000000;2.042562
2820.000000;2.193823
2819.000000;2.180459
2818.000000;2.161560
2817.000000;2.437019
2816.000000;2.033907
2815.000000;1.741900
2814.000000;1.691897
2813.000000;1.693589
2812.000000;1.665387
2811.000000;1.642886
2810.000000;1.665042
2809.000000;1.697823
2808.000000;1.696906
2807.000000;1.658156
2806.000000;1.603020
2805.000000;1.552670
2804.000000;1.583115
2803.000000;1.748261
2802.000000;2.295095
2801.000000;2.377900
2800.000000;2.148664
2799.000000;2.333072
2798.000000;1.938652
2797.000000;1.653603
2796.000000;1.557526
2795.000000;1.596680
2794.000000;1.711452
2793.000000;1.765624
2792.000000;1.721049
2791.000000;1.639927
2790.000000;1.547706
2789.000000;1.492964
2788.000000;1.518477
2787.000000;1.673904
2786.000000;2.042969
2785.000000;1.956971
2784.000000;1.724615
2783.000000;1.755033
2782.000000;1.828165
2781.000000;1.903716
2780.000000;1.988864
2779.000000;2.007479
2778.000000;1.856854
2777.000000;1.688523
2776.000000;1.614525
2775.000000;1.662697
2774.000000;1.846271
2773.000000;1.919182
2772.000000;1.745132
2771.000000;1.652528
2770.000000;1.656528
2769.000000;1.720567
2768.000000;1.757789
2767.000000;1.798958
2766.000000;1.959282
2765.000000;1.847232
2764.000000;1.605578
2763.000000;1.559894
2762.000000;1.644784
2761.000000;1.892907
2760.000000;2.174527
2759.000000;1.797378
2758.000000;1.466612
2757.000000;1.295338
2756.000000;1.229342
2755.000000;1.250705
2754.000000;1.349785
2753.000000;1.533438
2752.000000;1.776523
2751.000000;1.648528
2750.000000;1.449444
2749.000000;1.382565
2748.000000;1.396204
2747.000000;1.417969
2746.000000;1.418524
2745.000000;1.484239
2744.000000;1.710542
2743.000000;2.097610
2742.000000;1.783020
2741.000000;1.626423
2740.000000;1.569382
2739.000000;1.561007
2738.000000;1.592400
2737.000000;1.681638
2736.000000;1.898866
2735.000000;2.054263
2734.000000;1.809983
2733.000000;1.706800
2732.000000;1.742501
2731.000000;1.787294
2730.000000;1.703870
2729.000000;1.622870
2728.000000;1.628027
2727.000000;1.639053
2726.000000;1.603235
2725.000000;1.580140
2724.000000;1.585862
2723.000000;1.607409
2722.000000;1.652560
2721.000000;1.753182
2720.000000;1.949327
2719.000000;2.179939
2718.000000;2.234255
2717.000000;2.262552
2716.000000;2.180655
2715.000000;1.942622
2714.000000;1.779711
2713.000000;1.766016
2712.000000;1.919050
2711.000000;2.205194
2710.000000;2.203804
2709.000000;2.050225
2708.000000;2.025274
2707.000000;2.041797
2706.000000;2.025448
2705.000000;2.360620
2704.000000;2.551103
2703.000000;2.034364
2702.000000;2.032733
2701.000000;2.170814
2700.000000;2.185404
2699.000000;2.150333
2698.000000;1.919263
2697.000000;1.801312
2696.000000;1.776734
2695.000000;1.687171
2694.000000;1.676820
2693.000000;1.804036
2692.000000;1.945556
2691.000000;1.891897
2690.000000;1.769398
2689.000000;1.622764
2688.000000;1.508262
2687.000000;1.490053
2686.000000;1.579387
2685.000000;1.699804
2684.000000;1.707132
2683.000000;1.692974
2682.000000;1.793466
2681.000000;2.178138
2680.000000;2.480395
2679.000000;2.147695
2678.000000;2.208145
2677.000000;2.248283
2676.000000;1.824021
2675.000000;1.531181
2674.000000;1.422886
2673.000000;1.396422
2672.000000;1.406354
2671.000000;1.415600
2670.000000;1.457202
2669.000000;1.574950
2668.000000;2.077932
2667.000000;1.875219
2666.000000;1.495775
2665.000000;1.373902
2664.000000;1.341084
2663.000000;1.325172
2662.000000;1.324854
2661.000000;1.380170
2660.000000;1.588023
2659.000000;2.063015
2658.000000;1.694372
2657.000000;1.426310
2656.000000;1.330217
2655.000000;1.318959
2654.000000;1.388803
2653.000000;1.549128
2652.000000;1.906415
2651.000000;2.211872
2650.000000;1.892081
2649.000000;1.716782
2648.000000;1.618545
2647.000000;1.601446
2646.000000;1.705498
2645.000000;1.717462
2644.000000;1.577684
2643.000000;1.554790
2642.000000;1.638888
2641.000000;1.647647
2640.000000;1.603103
2639.000000;1.605269
2638.000000;1.592139
2637.000000;1.523698
2636.000000;1.483887
2635.000000;1.492071
2634.000000;1.464678
2633.000000;1.388972
2632.000000;1.352659
2631.000000;1.383462
2630.000000;1.423185
2629.000000;1.413410
2628.000000;1.431395
2627.000000;1.575880
2626.000000;1.759450
2625.000000;1.610691
2624.000000;1.446452
2623.000000;1.423460
2622.000000;1.486603
2621.000000;1.555331
2620.000000;1.556050
2619.000000;1.532472
2618.000000;1.551864
2617.000000;1.659122
2616.000000;1.738667
2615.000000;1.659029
2614.000000;1.582294
2613.000000;1.524722
2612.000000;1.444403
2611.000000;1.358227
2610.000000;1.288980
2609.000000;1.254145
2608.000000;1.280263
2607.000000;1.374372
2606.000000;1.437674
2605.000000;1.396003
2604.000000;1.356336
2603.000000;1.328227
2602.000000;1.289291
2601.000000;1.273211
2600.000000;1.327637
2599.000000;1.494860
2598.000000;1.671443
2597.000000;1.622732
2596.000000;1.576011
2595.000000;1.601124
2594.000000;1.618791
2593.000000;1.619738
2592.000000;1.579950
2591.000000;1.503860
2590.000000;1.452605
2589.000000;1.466770
2588.000000;1.451479
2587.000000;1.315410
2586.000000;1.200938
2585.000000;1.173923
2584.000000;1.224135
2583.000000;1.305569
2582.000000;1.338587
2581.000000;1.337235
2580.000000;1.351571
2579.000000;1.344095
2578.000000;1.301589
2577.000000;1.279014
2576.000000;1.306413
2575.000000;1.389460
2574.000000;1.521587
2573.000000;1.621525
2572.000000;1.580235
2571.000000;1.482087
2570.000000;1.399838
2569.000000;1.346793
2568.000000;1.344989
2567.000000;1.393343
2566.000000;1.427149
2565.000000;1.441460
2564.000000;1.531488
2563.000000;1.760225
2562.000000;1.808675
2561.000000;1.609849
2560.000000;1.501898
2559.000000;1.443384
2558.000000;1.393593
2557.000000;1.376710
2556.000000;1.428147
2555.000000;1.554902
2554.000000;1.874515
2553.000000;2.552661
2552.000000;1.732238
2551.000000;1.490394
2550.000000;1.394947
2549.000000;1.391030
2548.000000;1.465813
2547.000000;1.616901
2546.000000;1.769352
2545.000000;1.653884
2544.000000;1.460714
2543.000000;1.373105
2542.000000;1.401118
2541.000000;1.581514
2540.000000;1.676888
2539.000000;1.455312
2538.000000;1.314636
2537.000000;1.292365
2536.000000;1.336611
2535.000000;1.417740
2534.000000;1.570061
2533.000000;1.785823
2532.000000;1.650392
2531.000000;1.487822
2530.000000;1.471417
2529.000000;1.551523
2528.000000;1.606815
2527.000000;1.572773
2526.000000;1.632786
2525.000000;1.814188
2524.000000;1.709498
2523.000000;1.496722
2522.000000;1.425437
2521.000000;1.446042
2520.000000;1.493071
2519.000000;1.490781
2518.000000;1.506627
2517.000000;1.599176
2516.000000;1.494761
2515.000000;1.284255
2514.000000;1.185539
2513.000000;1.171654
2512.000000;1.220693
2511.000000;1.322391
2510.000000;1.504696
2509.000000;1.785825
2508.000000;1.706011
2507.000000;1.510532
2506.000000;1.465775
2505.000000;1.528392
2504.000000;1.747926
2503.000000;2.367967
2502.000000;2.058007
2501.000000;1.764797
2500.000000;1.741384
2499.000000;1.945400
2498.000000;2.081860
2497.000000;1.732853
2496.000000;1.576342
2495.000000;1.541828
2494.000000;1.562955
2493.000000;1.512236
2492.000000;1.432595
2491.000000;1.449304
2490.000000;1.591293
2489.000000;1.956560
2488.000000;1.943387
2487.000000;1.580215
2486.000000;1.410214
2485.000000;1.333802
2484.000000;1.366447
2483.000000;1.524640
2482.000000;1.879323
2481.000000;2.263323
2480.000000;1.883955
2479.000000;1.684802
2478.000000;1.674349
2477.000000;1.648360
2476.000000;1.583174
2475.000000;1.572381
2474.000000;1.794773
2473.000000;2.535008
2472.000000;1.740029
2471.000000;1.465071
2470.000000;1.367343
2469.000000;1.353592
2468.000000;1.417158
2467.000000;1.524862
2466.000000;1.606601
2465.000000;1.583189
2464.000000;1.553216
2463.000000;1.520261
2462.000000;1.435697
2461.000000;1.329404
2460.000000;1.254199
2459.000000;1.228725
2458.000000;1.264150
2457.000000;1.380810
2456.000000;1.613538
2455.000000;1.798117
2454.000000;1.685950
2453.000000;1.615642
2452.000000;1.731520
2451.000000;1.882638
2450.000000;1.760585
2449.000000;1.735124
2448.000000;1.975493
2447.000000;2.602997
2446.000000;2.849942
2445.000000;2.241458
2444.000000;1.740338
2443.000000;1.489547
2442.000000;1.396189
2441.000000;1.389539
2440.000000;1.398080
2439.000000;1.404198
2438.000000;1.473722
2437.000000;1.572560
2436.000000;1.497638
2435.000000;1.350384
2434.000000;1.284710
2433.000000;1.281261
2432.000000;1.305559
2431.000000;1.336620
2430.000000;1.373377
2429.000000;1.421493
2428.000000;1.491792
2427.000000;1.580530
2426.000000;1.611000
2425.000000;1.577429
2424.000000;1.541974
2423.000000;1.545213
2422.000000;1.636981
2421.000000;1.911442
2420.000000;2.488445
2419.000000;2.392225
2418.000000;2.075548
2417.000000;1.791073
2416.000000;1.555096
2415.000000;1.415114
2414.000000;1.356541
2413.000000;1.358237
2412.000000;1.388232
2411.000000;1.419446
2410.000000;1.450972
2409.000000;1.512468
2408.000000;1.667228
2407.000000;1.859615
2406.000000;1.733113
2405.000000;1.537100
2404.000000;1.432037
2403.000000;1.375118
2402.000000;1.365933
2401.000000;1.386423
2400.000000;1.411091
2399.000000;1.455057
2398.000000;1.547735
2397.000000;1.665046
2396.000000;1.758205
2395.000000;1.764589
2394.000000;1.635570
2393.000000;1.520739
2392.000000;1.494231
2391.000000;1.528234
2390.000000;1.594415
2389.000000;1.703951
2388.000000;1.826792
2387.000000;1.862297
2386.000000;1.817674
2385.000000;1.652836
2384.000000;1.475852
2383.000000;1.405768
2382.000000;1.449964
2381.000000;1.599714
2380.000000;1.832887
2379.000000;2.165076
2378.000000;2.320573
2377.000000;2.041042
2376.000000;1.836915
2375.000000;1.756794
2374.000000;1.744486
2373.000000;1.793751
2372.000000;1.872725
2371.000000;2.073355
2370.000000;2.808414
2369.000000;2.264706
2368.000000;1.973295
2367.000000;1.936763
2366.000000;2.079185
2365.000000;2.309029
2364.000000;1.956943
2363.000000;1.784839
2362.000000;1.820925
2361.000000;2.104716
2360.000000;2.228766
2359.000000;1.922214
2358.000000;1.864507
2357.000000;1.902962
2356.000000;1.924742
2355.000000;1.885169
2354.000000;1.832307
2353.000000;1.848601
2352.000000;1.925057
2351.000000;1.874844
2350.000000;1.795612
2349.000000;1.846762
2348.000000;1.943363
2347.000000;1.993538
2346.000000;1.994754
2345.000000;1.966492
2344.000000;1.870289
2343.000000;1.789290
2342.000000;1.827245
2341.000000;1.993537
2340.000000;2.169993
2339.000000;2.222876
2338.000000;2.328967
2337.000000;2.283175
2336.000000;2.069151
2335.000000;1.912512
2334.000000;1.786810
2333.000000;1.756654
2332.000000;1.868298
2331.000000;2.043732
2330.000000;1.959201
2329.000000;1.804143
2328.000000;1.684612
2327.000000;1.615295
2326.000000;1.628228
2325.000000;1.779738
2324.000000;2.330109
2323.000000;2.210256
2322.000000;1.843855
2321.000000;1.815887
2320.000000;1.843555
2319.000000;1.858469
2318.000000;1.840855
2317.000000;1.922916
2316.000000;2.068465
2315.000000;1.948408
2314.000000;1.792439
2313.000000;1.723600
2312.000000;1.723599
2311.000000;1.789706
2310.000000;1.976088
2309.000000;2.197233
2308.000000;1.985936
2307.000000;1.765523
2306.000000;1.635074
2305.000000;1.549017
2304.000000;1.525296
2303.000000;1.574123
2302.000000;1.669319
2301.000000;1.681712
2300.000000;1.606334
2299.000000;1.583648
2298.000000;1.648128
2297.000000;1.693528
2296.000000;1.670168
2295.000000;1.714044
2294.000000;1.857077
2293.000000;1.962745
2292.000000;1.935698
2291.000000;1.898405
2290.000000;1.926203
2289.000000;1.879307
2288.000000;1.610892
2287.000000;1.347188
2286.000000;1.217173
2285.000000;1.221712
2284.000000;1.339425
2283.000000;1.459410
2282.000000;1.417475
2281.000000;1.320459
2280.000000;1.262108
2279.000000;1.213608
2278.000000;1.145684
2277.000000;1.087093
2276.000000;1.066829
2275.000000;1.077571
2274.000000;1.114488
2273.000000;1.185205
2272.000000;1.308145
2271.000000;1.475181
2270.000000;1.534741
2269.000000;1.471068
2268.000000;1.428862
2267.000000;1.397855
2266.000000;1.338429
2265.000000;1.277616
2264.000000;1.247934
2263.000000;1.283226
2262.000000;1.378919
2261.000000;1.584924
2260.000000;1.813346
2259.000000;1.548535
2258.000000;1.359041
2257.000000;1.366394
2256.000000;1.423520
2255.000000;1.368432
2254.000000;1.308526
2253.000000;1.333779
2252.000000;1.391790
2251.000000;1.484475
2250.000000;1.620813
2249.000000;1.652633
2248.000000;1.484387
2247.000000;1.340259
2246.000000;1.278103
2245.000000;1.310770
2244.000000;1.430234
2243.000000;1.636026
2242.000000;2.081588
2241.000000;1.984218
2240.000000;1.600295
2239.000000;1.474075
2238.000000;1.473365
2237.000000;1.504194
2236.000000;1.483699
2235.000000;1.501311
2234.000000;1.643584
2233.000000;1.835684
2232.000000;1.865437
2231.000000;1.987021
2230.000000;1.895017
2229.000000;1.547209
2228.000000;1.435921
2227.000000;1.490547
2226.000000;1.773493
2225.000000;2.249741
2224.000000;1.926665
2223.000000;1.762961
2222.000000;1.691631
2221.000000;1.592498
2220.000000;1.549312
2219.000000;1.596538
2218.000000;1.835734
2217.000000;1.873915
2216.000000;1.529005
2215.000000;1.358399
2214.000000;1.310053
2213.000000;1.345983
2212.000000;1.434510
2211.000000;1.598792
2210.000000;1.915490
2209.000000;1.714533
2208.000000;1.416150
2207.000000;1.290721
2206.000000;1.234142
2205.000000;1.200179
2204.000000;1.163501
2203.000000;1.157840
2202.000000;1.224349
2201.000000;1.409352
2200.000000;1.502003
2199.000000;1.328990
2198.000000;1.229775
2197.000000;1.240052
2196.000000;1.324662
2195.000000;1.368880
2194.000000;1.323989
2193.000000;1.302512
2192.000000;1.311940
2191.000000;1.295878
2190.000000;1.265383
2189.000000;1.246451
2188.000000;1.302130
2187.000000;1.414711
2186.000000;1.622511
2185.000000;2.201073
2184.000000;1.728760
2183.000000;1.338187
2182.000000;1.157583
2181.000000;1.034479
2180.000000;0.975040
2179.000000;0.978231
2178.000000;1.057324
2177.000000;1.251680
2176.000000;1.377716
2175.000000;1.158750
2174.000000;0.999740
2173.000000;0.944087
2172.000000;0.951756
2171.000000;1.001394
2170.000000;1.047496
2169.000000;1.088665
2168.000000;1.160430
2167.000000;1.286029
2166.000000;1.368882
2165.000000;1.326664
2164.000000;1.240065
2163.000000;1.165908
2162.000000;1.131251
2161.000000;1.160106
2160.000000;1.250692
2159.000000;1.369031
2158.000000;1.474535
2157.000000;1.597293
2156.000000;1.768515
2155.000000;1.836847
2154.000000;1.620120
2153.000000;1.481945
2152.000000;1.446329
2151.000000;1.625729
2150.000000;2.200393
2149.000000;1.719242
2148.000000;1.393000
2147.000000;1.271105
2146.000000;1.183231
2145.000000;1.128904
2144.000000;1.139733
2143.000000;1.233353
2142.000000;1.519567
2141.000000;1.975073
2140.000000;1.496331
2139.000000;1.217749
2138.000000;1.148948
2137.000000;1.164801
2136.000000;1.232030
2135.000000;1.328980
2134.000000;1.450766
2133.000000;1.556252
2132.000000;1.573592
2131.000000;1.545213
2130.000000;1.532458
2129.000000;1.665189
2128.000000;2.104947
2127.000000;1.939344
2126.000000;1.751078
2125.000000;1.724984
2124.000000;1.528534
2123.000000;1.426931
2122.000000;1.451613
2121.000000;1.680333
2120.000000;1.865880
2119.000000;1.564112
2118.000000;1.446635
2117.000000;1.370954
2116.000000;1.266681
2115.000000;1.233516
2114.000000;1.299765
2113.000000;1.459667
2112.000000;1.492585
2111.000000;1.336591
2110.000000;1.254423
2109.000000;1.267671
2108.000000;1.405258
2107.000000;1.695249
2106.000000;1.502991
2105.000000;1.290195
2104.000000;1.273899
2103.000000;1.424240
2102.000000;1.672247
2101.000000;1.445156
2100.000000;1.285727
2099.000000;1.335751
2098.000000;1.528626
2097.000000;1.647364
2096.000000;1.528383
2095.000000;1.499212
2094.000000;1.551740
2093.000000;1.750902
2092.000000;1.906009
2091.000000;1.687075
2090.000000;1.623484
2089.000000;1.694299
2088.000000;1.637404
2087.000000;1.436600
2086.000000;1.323677
2085.000000;1.345102
2084.000000;1.527809
2083.000000;1.962578
2082.000000;2.062708
2081.000000;1.819864
2080.000000;1.718934
2079.000000;1.711179
2078.000000;1.902672
2077.000000;2.211725
2076.000000;1.999443
2075.000000;1.871212
2074.000000;2.212063
2073.000000;1.917791
2072.000000;1.443408
2071.000000;1.270548
2070.000000;1.218107
2069.000000;1.241194
2068.000000;1.307941
2067.000000;1.513722
2066.000000;1.860336
2065.000000;1.564122
2064.000000;1.329263
2063.000000;1.266131
2062.000000;1.240321
2061.000000;1.218837
2060.000000;1.215238
2059.000000;1.278589
2058.000000;1.389512
2057.000000;1.452599
2056.000000;1.445988
2055.000000;1.418493
2054.000000;1.340580
2053.000000;1.262961
2052.000000;1.229669
2051.000000;1.227376
2050.000000;1.265641
2049.000000;1.373473
2048.000000;1.728735
2047.000000;1.864632
2046.000000;1.356449
2045.000000;1.176843
2044.000000;1.150867
2043.000000;1.221533
2042.000000;1.317251
2041.000000;1.585445
2040.000000;2.126256
2039.000000;1.499436
2038.000000;1.259894
2037.000000;1.193367
2036.000000;1.219282
2035.000000;1.337297
2034.000000;1.505360
2033.000000;1.604095
2032.000000;1.568150
2031.000000;1.510221
2030.000000;1.535321
2029.000000;2.185610
2028.000000;1.863191
2027.000000;1.374997
2026.000000;1.321417
2025.000000;1.328409
2024.000000;1.275470
2023.000000;1.172486
2022.000000;1.112224
2021.000000;1.123495
2020.000000;1.209673
2019.000000;1.441756
2018.000000;1.683717
2017.000000;1.483862
2016.000000;1.304150
2015.000000;1.191342
2014.000000;1.136282
2013.000000;1.170782
2012.000000;1.345353
2011.000000;1.832383
2010.000000;1.678179
2009.000000;1.300922
2008.000000;1.242655
2007.000000;1.316446
2006.000000;1.427202
2005.000000;1.398214
2004.000000;1.334280
2003.000000;1.319086
2002.000000;1.276903
2001.000000;1.172727
2000.000000;1.095244
1999.000000;1.099024
1998.000000;1.240216
1997.000000;1.579212
1996.000000;1.415998
1995.000000;1.124111
1994.000000;1.002212
1993.000000;0.976541
1992.000000;1.036851
1991.000000;1.170864
1990.000000;1.352030
1989.000000;1.694536
1988.000000;2.275077
1987.000000;1.767084
1986.000000;1.621575
1985.000000;1.643709
1984.000000;1.654876
1983.000000;1.732762
1982.000000;1.659625
1981.000000;1.373498
1980.000000;1.171935
1979.000000;1.119255
1978.000000;1.175755
1977.000000;1.273370
1976.000000;1.341064
1975.000000;1.419337
1974.000000;1.559755
1973.000000;1.688548
1972.000000;1.649139
1971.000000;1.522114
1970.000000;1.367146
1969.000000;1.282243
1968.000000;1.310516
1967.000000;1.488561
1966.000000;1.899402
1965.000000;1.826058
1964.000000;1.472583
1963.000000;1.262682
1962.000000;1.126707
1961.000000;1.064245
1960.000000;1.073525
1959.000000;1.151865
1958.000000;1.343688
1957.000000;1.762979
1956.000000;1.686892
1955.000000;1.331946
1954.000000;1.226782
1953.000000;1.181182
1952.000000;1.157239
1951.000000;1.156448
1950.000000;1.204093
1949.000000;1.291900
1948.000000;1.394893
1947.000000;1.781524
1946.000000;1.807741
1945.000000;1.294915
1944.000000;1.100383
1943.000000;1.056858
1942.000000;1.092150
1941.000000;1.168642
1940.000000;1.278460
1939.000000;1.426561
1938.000000;1.514351
1937.000000;1.484331
1936.000000;1.378074
1935.000000;1.242419
1934.000000;1.150036
1933.000000;1.131521
1932.000000;1.187855
1931.000000;1.301634
1930.000000;1.416815
1929.000000;1.499562
1928.000000;1.538223
1927.000000;1.534547
1926.000000;1.511873
1925.000000;1.376918
1924.000000;1.223072
1923.000000;1.154485
1922.000000;1.130297
1921.000000;1.103796
1920.000000;1.082373
1919.000000;1.109790
1918.000000;1.225953
1917.000000;1.506878
1916.000000;1.690470
1915.000000;1.319883
1914.000000;1.085053
1913.000000;0.963731
1912.000000;0.952073
1911.000000;1.043144
1910.000000;1.370033
1909.000000;2.150247
1908.000000;1.391590
1907.000000;1.202499
1906.000000;1.190444
1905.000000;1.247160
1904.000000;1.426686
1903.000000;1.627987
1902.000000;2.059096
1901.000000;2.199265
1900.000000;1.552953
1899.000000;1.293442
1898.000000;1.203269
1897.000000;1.256389
1896.000000;1.617105
1895.000000;1.769427
1894.000000;1.431075
1893.000000;1.331734
1892.000000;1.278041
1891.000000;1.208820
1890.000000;1.143085
1889.000000;1.125291
1888.000000;1.178501
1887.000000;1.257503
1886.000000;1.279508
1885.000000;1.247127
1884.000000;1.234589
1883.000000;1.198393
1882.000000;1.108150
1881.000000;1.049342
1880.000000;1.065701
1879.000000;1.161836
1878.000000;1.297476
1877.000000;1.337182
1876.000000;1.282964
1875.000000;1.213473
1874.000000;1.126764
1873.000000;1.067008
1872.000000;1.066915
1871.000000;1.169725
1870.000000;1.358323
1869.000000;1.301314
1868.000000;1.158256
1867.000000;1.154758
1866.000000;1.191667
1865.000000;1.156189
1864.000000;1.091215
1863.000000;1.111021
1862.000000;1.252516
1861.000000;1.382351
1860.000000;1.331971
1859.000000;1.279646
1858.000000;1.291143
1857.000000;1.353080
1856.000000;1.536695
1855.000000;2.011197
1854.000000;2.103682
1853.000000;1.703824
1852.000000;1.502770
1851.000000;1.343439
1850.000000;1.274669
1849.000000;1.340393
1848.000000;1.451897
1847.000000;1.355646
1846.000000;1.232328
1845.000000;1.228446
1844.000000;1.411577
1843.000000;1.790406
1842.000000;1.501210
1841.000000;1.228201
1840.000000;1.185507
1839.000000;1.256025
1838.000000;1.442329
1837.000000;1.575210
1836.000000;1.443010
1835.000000;1.356133
1834.000000;1.400283
1833.000000;1.521013
1832.000000;1.621898
1831.000000;1.713902
1830.000000;1.836335
1829.000000;1.557549
1828.000000;1.248739
1827.000000;1.081671
1826.000000;1.018715
1825.000000;1.043108
1824.000000;1.136235
1823.000000;1.305912
1822.000000;1.475598
1821.000000;1.362193
1820.000000;1.154506
1819.000000;1.046202
1818.000000;1.050089
1817.000000;1.172486
1816.000000;1.467127
1815.000000;1.680543
1814.000000;1.390566
1813.000000;1.179911
1812.000000;1.089781
1811.000000;1.089390
1810.000000;1.161745
1809.000000;1.208283
1808.000000;1.167440
1807.000000;1.142286
1806.000000;1.180013
1805.000000;1.233878
1804.000000;1.228966
1803.000000;1.161399
1802.000000;1.094140
1801.000000;1.058343
1800.000000;1.060168
1799.000000;1.099835
1798.000000;1.142969
1797.000000;1.137317
1796.000000;1.120350
1795.000000;1.137136
1794.000000;1.192898
1793.000000;1.285195
1792.000000;1.294938
1791.000000;1.182170
1790.000000;1.110911
1789.000000;1.118969
1788.000000;1.184385
1787.000000;1.242080
1786.000000;1.237730
1785.000000;1.241284
1784.000000;1.306437
1783.000000;1.392220
1782.000000;1.423700
1781.000000;1.403577
1780.000000;1.383544
1779.000000;1.374687
1778.000000;1.368273
1777.000000;1.345776
1776.000000;1.305089
1775.000000;1.261802
1774.000000;1.247453
1773.000000;1.300542
1772.000000;1.451308
1771.000000;1.597593
1770.000000;1.460630
1769.000000;1.287715
1768.000000;1.218195
1767.000000;1.184247
1766.000000;1.130371
1765.000000;1.079155
1764.000000;1.068564
1763.000000;1.113477
1762.000000;1.162834
1761.000000;1.147782
1760.000000;1.127771
1759.000000;1.207032
1758.000000;1.400146
1757.000000;1.290850
1756.000000;1.086577
1755.000000;0.992049
1754.000000;0.934420
1753.000000;0.914892
1752.000000;0.964101
1751.000000;1.128224
1750.000000;1.342602
1749.000000;1.218756
1748.000000;1.034401
1747.000000;0.958097
1746.000000;0.968126
1745.000000;1.036045
1744.000000;1.116612
1743.000000;1.166185
1742.000000;1.148194
1741.000000;1.075200
1740.000000;1.028983
1739.000000;1.063718
1738.000000;1.142929
1737.000000;1.114302
1736.000000;0.932559
1735.000000;0.777585
1734.000000;0.753227
1733.000000;0.847574
1732.000000;0.985525
1731.000000;1.103392
1730.000000;1.179576
1729.000000;1.206420
1728.000000;1.194510
1727.000000;1.187944
1726.000000;1.227943
1725.000000;1.302519
1724.000000;1.302997
1723.000000;1.251058
1722.000000;1.246192
1721.000000;1.254440
1720.000000;1.245784
1719.000000;1.265534
1718.000000;1.491482
1717.000000;1.935624
1716.000000;1.595560
1715.000000;1.396353
1714.000000;1.268195
1713.000000;1.175020
1712.000000;1.122137
1711.000000;1.112360
1710.000000;1.171510
1709.000000;1.308165
1708.000000;1.628185
1707.000000;2.029507
1706.000000;1.542815
1705.000000;1.271058
1704.000000;1.175807
1703.000000;1.160468
1702.000000;1.225622
1701.000000;1.362883
1700.000000;1.702189
1699.000000;1.838810
1698.000000;1.431432
1697.000000;1.205252
1696.000000;1.101541
1695.000000;1.091567
1694.000000;1.163960
1693.000000;1.343545
1692.000000;1.786181
1691.000000;1.594140
1690.000000;1.255198
1689.000000;1.166845
1688.000000;1.168607
1687.000000;1.375837
1686.000000;1.833285
1685.000000;1.464748
1684.000000;1.266329
1683.000000;1.266460
1682.000000;1.334133
1681.000000;1.561778
1680.000000;2.043365
1679.000000;1.919843
1678.000000;1.814779
1677.000000;1.898946
1676.000000;1.746096
1675.000000;1.607811
1674.000000;1.589929
1673.000000;1.639145
1672.000000;1.789458
1671.000000;1.914916
1670.000000;1.719539
1669.000000;1.670358
1668.000000;1.658619
1667.000000;1.546826
1666.000000;1.694804
1665.000000;2.234515
1664.000000;1.580389
1663.000000;1.264903
1662.000000;1.118433
1661.000000;1.097907
1660.000000;1.228508
1659.000000;1.541221
1658.000000;1.511271
1657.000000;1.228556
1656.000000;1.080407
1655.000000;0.987925
1654.000000;1.006896
1653.000000;1.349024
1652.000000;1.865551
1651.000000;1.668510
1650.000000;1.558040
1649.000000;1.279979
1648.000000;1.033937
1647.000000;0.925114
1646.000000;0.971097
1645.000000;1.237096
1644.000000;1.581595
1643.000000;1.353939
1642.000000;1.297915
1641.000000;1.362261
1640.000000;1.393767
1639.000000;1.405496
1638.000000;1.477799
1637.000000;1.676443
1636.000000;1.776921
1635.000000;1.531859
1634.000000;1.303627
1633.000000;1.135453
1632.000000;1.044492
1631.000000;1.030236
1630.000000;1.074691
1629.000000;1.157558
1628.000000;1.230909
1627.000000;1.264216
1626.000000;1.288681
1625.000000;1.236371
1624.000000;1.116931
1623.000000;1.047376
1622.000000;1.073129
1621.000000;1.147001
1620.000000;1.082949
1619.000000;0.926341
1618.000000;0.851217
1617.000000;0.912525
1616.000000;1.097758
1615.000000;1.357363
1614.000000;1.618114
1613.000000;1.590167
1612.000000;1.426050
1611.000000;1.364682
1610.000000;1.403411
1609.000000;1.536087
1608.000000;1.769409
1607.000000;2.159599
1606.000000;2.136040
1605.000000;1.754443
1604.000000;1.618037
1603.000000;1.575535
1602.000000;1.592397
1601.000000;1.779236
1600.000000;2.173530
1599.000000;1.638011
1598.000000;1.281538
1597.000000;1.124159
1596.000000;1.070163
1595.000000;1.145678
1594.000000;1.375825
1593.000000;2.130316
1592.000000;1.500382
1591.000000;1.172601
1590.000000;1.051644
1589.000000;1.030602
1588.000000;1.123633
1587.000000;1.281969
1586.000000;1.344696
1585.000000;1.377827
1584.000000;1.555359
1583.000000;1.748878
1582.000000;1.537194
1581.000000;1.416595
1580.000000;1.397068
1579.000000;1.387086
1578.000000;1.174268
1577.000000;0.918598
1576.000000;0.824390
1575.000000;0.850526
1574.000000;0.920985
1573.000000;1.027985
1572.000000;1.214179
1571.000000;1.690698
1570.000000;1.362457
1569.000000;1.008829
1568.000000;0.892867
1567.000000;0.852809
1566.000000;0.869844
1565.000000;0.918329
1564.000000;0.997281
1563.000000;1.117090
1562.000000;1.233905
1561.000000;1.200884
1560.000000;1.115278
1559.000000;1.105356
1558.000000;1.095157
1557.000000;1.071191
1556.000000;1.095126
1555.000000;1.306681
1554.000000;1.681811
1553.000000;1.420624
1552.000000;1.358474
1551.000000;1.502898
1550.000000;1.786248
1549.000000;1.644979
1548.000000;1.399619
1547.000000;1.279208
1546.000000;1.261047
1545.000000;1.308958
1544.000000;1.310181
1543.000000;1.290732
1542.000000;1.290934
1541.000000;1.373027
1540.000000;1.510125
1539.000000;1.269092
1538.000000;1.120693
1537.000000;1.102529
1536.000000;1.085694
1535.000000;1.021251
1534.000000;0.942882
1533.000000;0.892890
1532.000000;0.899509
1531.000000;1.042224
1530.000000;1.393650
1529.000000;1.179020
1528.000000;0.910667
1527.000000;0.822309
1526.000000;0.813496
1525.000000;0.856681
1524.000000;0.915901
1523.000000;1.247542
1522.000000;1.561571
1521.000000;1.041130
1520.000000;1.047975
1519.000000;1.109702
1518.000000;1.167081
1517.000000;1.147603
1516.000000;1.145406
1515.000000;1.283844
1514.000000;1.453006
1513.000000;1.228355
1512.000000;1.081498
1511.000000;1.030983
1510.000000;0.983523
1509.000000;0.975375
1508.000000;1.113670
1507.000000;1.450398
1506.000000;1.302096
1505.000000;1.179233
1504.000000;1.239857
1503.000000;1.357300
1502.000000;1.303489
1501.000000;1.177515
1500.000000;1.115923
1499.000000;1.115386
1498.000000;1.164049
1497.000000;1.362572
1496.000000;1.575679
1495.000000;1.164159
1494.000000;0.914283
1493.000000;0.798820
1492.000000;0.753379
1491.000000;0.789427
1490.000000;0.934936
1489.000000;1.239070
1488.000000;1.292706
1487.000000;1.007160
1486.000000;0.833165
1485.000000;0.774152
1484.000000;0.822939
1483.000000;0.980510
1482.000000;1.150080
1481.000000;1.110995
1480.000000;1.033589
1479.000000;0.991301
1478.000000;0.976953
1477.000000;0.999981
1476.000000;1.070043
1475.000000;1.139529
1474.000000;1.122834
1473.000000;1.065170
1472.000000;1.035358
1471.000000;1.010523
1470.000000;0.974360
1469.000000;0.965579
1468.000000;1.002400
1467.000000;1.011448
1466.000000;0.943569
1465.000000;0.874380
1464.000000;0.864565
1463.000000;0.940457
1462.000000;1.102696
1461.000000;1.333989
1460.000000;1.404499
1459.000000;1.164745
1458.000000;0.950179
1457.000000;0.848181
1456.000000;0.821210
1455.000000;0.814644
1454.000000;0.800600
1453.000000;0.812704
1452.000000;0.918851
1451.000000;1.212221
1450.000000;1.937920
1449.000000;1.197878
1448.000000;0.997594
1447.000000;0.918350
1446.000000;0.906527
1445.000000;0.928423
1444.000000;1.019108
1443.000000;1.275990
1442.000000;1.489547
1441.000000;1.272536
1440.000000;1.230628
1439.000000;1.297294
1438.000000;1.353257
1437.000000;1.339506
1436.000000;1.308580
1435.000000;1.350984
1434.000000;1.452260
1433.000000;2.038726
1432.000000;1.771261
1431.000000;1.318585
1430.000000;1.140481
1429.000000;1.093311
1428.000000;1.190843
1427.000000;1.469987
1426.000000;1.513124
1425.000000;1.364484
1424.000000;1.385770
1423.000000;1.439032
1422.000000;1.408914
1421.000000;1.397566
1420.000000;1.345169
1419.000000;1.131156
1418.000000;1.035201
1417.000000;1.050415
1416.000000;1.110250
1415.000000;1.131742
1414.000000;1.075362
1413.000000;1.043093
1412.000000;1.109962
1411.000000;1.171965
1410.000000;1.090886
1409.000000;0.999635
1408.000000;0.985167
1407.000000;1.071099
1406.000000;1.217313
1405.000000;1.121989
1404.000000;0.978117
1403.000000;0.911780
1402.000000;0.865197
1401.000000;0.809738
1400.000000;0.762120
1399.000000;0.766065
1398.000000;0.846922
1397.000000;0.958573
1396.000000;0.952476
1395.000000;0.905240
1394.000000;0.931382
1393.000000;1.015271
1392.000000;1.109973
1391.000000;1.214516
1390.000000;1.398750
1389.000000;1.595562
1388.000000;1.619480
1387.000000;1.513374
1386.000000;1.291380
1385.000000;1.172819
1384.000000;1.162159
1383.000000;1.242689
1382.000000;1.222117
1381.000000;1.093502
1380.000000;1.097077
1379.000000;1.283166
1378.000000;1.578707
1377.000000;1.669668
1376.000000;1.568989
1375.000000;1.572498
1374.000000;1.430125
1373.000000;1.242869
1372.000000;1.177702
1371.000000;1.149556
1370.000000;1.130540
1369.000000;1.198849
1368.000000;1.365507
1367.000000;1.490027
1366.000000;1.379786
1365.000000;1.137796
1364.000000;0.946837
1363.000000;0.886074
1362.000000;0.942991
1361.000000;1.282085
1360.000000;1.694286
1359.000000;1.172384
1358.000000;1.009567
1357.000000;0.989401
1356.000000;1.043316
1355.000000;1.127362
1354.000000;1.250050
1353.000000;1.417514
1352.000000;1.805322
1351.000000;1.914603
1350.000000;1.397594
1349.000000;1.205350
1348.000000;1.227814
1347.000000;1.533988
1346.000000;1.877739
1345.000000;1.325887
1344.000000;1.129791
1343.000000;0.989385
1342.000000;0.883762
1341.000000;0.851748
1340.000000;0.949859
1339.000000;1.240019
1338.000000;1.755895
1337.000000;1.727254
1336.000000;1.438279
1335.000000;1.286050
1334.000000;1.189109
1333.000000;1.107124
1332.000000;1.100433
1331.000000;1.176795
1330.000000;1.104451
1329.000000;0.935894
1328.000000;0.849864
1327.000000;0.856280
1326.000000;0.954166
1325.000000;1.139948
1324.000000;1.462989
1323.000000;1.579247
1322.000000;1.370534
1321.000000;1.215397
1320.000000;1.117909
1319.000000;1.138562
1318.000000;1.346399
1317.000000;1.986438
1316.000000;1.586226
1315.000000;1.326199
1314.000000;1.220455
1313.000000;1.198271
1312.000000;1.261508
1311.000000;1.421471
1310.000000;1.553771
1309.000000;1.486703
1308.000000;1.771877
1307.000000;2.125195
1306.000000;1.551485
1305.000000;1.520570
1304.000000;1.637189
1303.000000;1.643419
1302.000000;1.545379
1301.000000;1.547211
1300.000000;1.577709
1299.000000;1.373680
1298.000000;1.146582
1297.000000;1.035525
1296.000000;1.014140
1295.000000;1.034021
1294.000000;1.066944
1293.000000;1.128036
1292.000000;1.199701
1291.000000;1.251449
1290.000000;1.420646
1289.000000;1.628938
1288.000000;1.074452
1287.000000;0.861797
1286.000000;0.785926
1285.000000;0.768668
1284.000000;0.766750
1283.000000;0.793650
1282.000000;0.980503
1281.000000;1.257079
1280.000000;0.926786
1279.000000;0.701902
1278.000000;0.660374
1277.000000;0.739899
1276.000000;0.960822
1275.000000;1.181307
1274.000000;1.064170
1273.000000;0.917708
1272.000000;0.832162
1271.000000;0.787108
1270.000000;0.806431
1269.000000;0.888905
1268.000000;1.041368
1267.000000;1.285571
1266.000000;2.351265
1265.000000;1.236012
1264.000000;0.930149
1263.000000;0.819748
1262.000000;0.816269
1261.000000;0.877283
1260.000000;0.959016
1259.000000;1.027138
1258.000000;1.066776
1257.000000;1.195222
1256.000000;1.505892
1255.000000;1.350373
1254.000000;1.141647
1253.000000;1.155901
1252.000000;1.191018
1251.000000;1.128588
1250.000000;0.959024
1249.000000;0.781690
1248.000000;0.663078
1247.000000;0.645137
1246.000000;0.744294
1245.000000;1.034147
1244.000000;1.173024
1243.000000;0.897766
1242.000000;0.748160
1241.000000;0.691997
1240.000000;0.686617
1239.000000;0.726365
1238.000000;0.811389
1237.000000;0.941397
1236.000000;1.131866
1235.000000;1.457404
1234.000000;1.394930
1233.000000;1.044718
1232.000000;0.886058
1231.000000;0.823263
1230.000000;0.833282
1229.000000;0.869579
1228.000000;0.862073
1227.000000;0.851529
1226.000000;0.937932
1225.000000;1.138679
1224.000000;1.655609
1223.000000;1.563035
1222.000000;1.106829
1221.000000;0.971031
1220.000000;0.951500
1219.000000;1.040129
1218.000000;1.166170
1217.000000;1.159177
1216.000000;1.093665
1215.000000;1.104080
1214.000000;1.179329
1213.000000;1.289433
1212.000000;1.471781
1211.000000;1.440626
1210.000000;1.131235
1209.000000;0.990609
1208.000000;1.012714
1207.000000;1.190940
1206.000000;1.309457
1205.000000;1.085854
1204.000000;0.962506
1203.000000;0.986385
1202.000000;1.088898
1201.000000;1.069055
1200.000000;1.027762
