Criado como novo conjunto de dados;"2706_e01_daniel.spp","72005.6 Secs"
cm-1;Abs
10000.000000;0.809461
9999.000000;0.809745
9998.000000;0.810319
9997.000000;0.810670
9996.000000;0.810405
9995.000000;0.809811
9994.000000;0.809408
9993.000000;0.809497
9992.000000;0.809857
9991.000000;0.810035
9990.000000;0.809684
9989.000000;0.808865
9988.000000;0.808045
9987.000000;0.807729
9986.000000;0.807982
9985.000000;0.808363
9984.000000;0.808377
9983.000000;0.807950
9982.000000;0.807422
9981.000000;0.807167
9980.000000;0.807328
9979.000000;0.807836
9978.000000;0.808506
9977.000000;0.809087
9976.000000;0.809314
9975.000000;0.809076
9974.000000;0.808575
9973.000000;0.808209
9972.000000;0.808189
9971.000000;0.808280
9970.000000;0.808070
9969.000000;0.807546
9968.000000;0.807209
9967.000000;0.807442
9966.000000;0.807916
9965.000000;0.807880
9964.000000;0.807072
9963.000000;0.806124
9962.000000;0.805964
9961.000000;0.806916
9960.000000;0.808401
9959.000000;0.809360
9958.000000;0.808988
9957.000000;0.807333
9956.000000;0.805336
9955.000000;0.804139
9954.000000;0.804128
9953.000000;0.804648
9952.000000;0.804772
9951.000000;0.804316
9950.000000;0.803907
9949.000000;0.804101
9948.000000;0.804697
9947.000000;0.805039
9946.000000;0.804768
9945.000000;0.804094
9944.000000;0.803442
9943.000000;0.803107
9942.000000;0.803250
9941.000000;0.803933
9940.000000;0.804977
9939.000000;0.805935
9938.000000;0.806411
9937.000000;0.806420
9936.000000;0.806287
9935.000000;0.806238
9934.000000;0.806235
9933.000000;0.806157
9932.000000;0.805930
9931.000000;0.805435
9930.000000;0.804535
9929.000000;0.803353
9928.000000;0.802374
9927.000000;0.802033
9926.000000;0.802235
9925.000000;0.802456
9924.000000;0.802338
9923.000000;0.802017
9922.000000;0.801810
9921.000000;0.801767
9920.000000;0.801691
9919.000000;0.801514
9918.000000;0.801432
9917.000000;0.801610
9916.000000;0.801910
9915.000000;0.802044
9914.000000;0.801970
9913.000000;0.801991
9912.000000;0.802386
9911.000000;0.803022
9910.000000;0.803412
9909.000000;0.803180
9908.000000;0.802412
9907.000000;0.801530
9906.000000;0.800873
9905.000000;0.800465
9904.000000;0.800124
9903.000000;0.799724
9902.000000;0.799289
9901.000000;0.798903
9900.000000;0.798590
9899.000000;0.798297
9898.000000;0.797929
9897.000000;0.797415
9896.000000;0.796823
9895.000000;0.796459
9894.000000;0.796714
9893.000000;0.797656
9892.000000;0.798796
9891.000000;0.799439
9890.000000;0.799334
9889.000000;0.798871
9888.000000;0.798594
9887.000000;0.798652
9886.000000;0.798799
9885.000000;0.798777
9884.000000;0.798546
9883.000000;0.798218
9882.000000;0.797925
9881.000000;0.797752
9880.000000;0.797661
9879.000000;0.797513
9878.000000;0.797228
9877.000000;0.796914
9876.000000;0.796727
9875.000000;0.796644
9874.000000;0.796489
9873.000000;0.796172
9872.000000;0.795796
9871.000000;0.795522
9870.000000;0.795438
9869.000000;0.795509
9868.000000;0.795544
9867.000000;0.795266
9866.000000;0.794596
9865.000000;0.793888
9864.000000;0.793695
9863.000000;0.794215
9862.000000;0.795040
9861.000000;0.795534
9860.000000;0.795384
9859.000000;0.794760
9858.000000;0.794055
9857.000000;0.793562
9856.000000;0.793342
9855.000000;0.793297
9854.000000;0.793333
9853.000000;0.793444
9852.000000;0.793620
9851.000000;0.793757
9850.000000;0.793765
9849.000000;0.793719
9848.000000;0.793776
9847.000000;0.793920
9846.000000;0.793951
9845.000000;0.793783
9844.000000;0.793616
9843.000000;0.793722
9842.000000;0.794113
9841.000000;0.794472
9840.000000;0.794384
9839.000000;0.793671
9838.000000;0.792619
9837.000000;0.791866
9836.000000;0.791899
9835.000000;0.792588
9834.000000;0.793283
9833.000000;0.793420
9832.000000;0.792979
9831.000000;0.792343
9830.000000;0.791877
9829.000000;0.791724
9828.000000;0.791801
9827.000000;0.791880
9826.000000;0.791770
9825.000000;0.791559
9824.000000;0.791554
9823.000000;0.791874
9822.000000;0.792207
9821.000000;0.792135
9820.000000;0.791637
9819.000000;0.791108
9818.000000;0.790894
9817.000000;0.790992
9816.000000;0.791187
9815.000000;0.791325
9814.000000;0.791362
9813.000000;0.791269
9812.000000;0.791015
9811.000000;0.790625
9810.000000;0.790236
9809.000000;0.790050
9808.000000;0.790187
9807.000000;0.790524
9806.000000;0.790706
9805.000000;0.790406
9804.000000;0.789634
9803.000000;0.788745
9802.000000;0.788146
9801.000000;0.788029
9800.000000;0.788348
9799.000000;0.788920
9798.000000;0.789456
9797.000000;0.789601
9796.000000;0.789158
9795.000000;0.788357
9794.000000;0.787758
9793.000000;0.787721
9792.000000;0.787989
9791.000000;0.787969
9790.000000;0.787444
9789.000000;0.786851
9788.000000;0.786747
9787.000000;0.787166
9786.000000;0.787644
9785.000000;0.787772
9784.000000;0.787532
9783.000000;0.787157
9782.000000;0.786885
9781.000000;0.786882
9780.000000;0.787157
9779.000000;0.787465
9778.000000;0.787453
9777.000000;0.787034
9776.000000;0.786520
9775.000000;0.786280
9774.000000;0.786335
9773.000000;0.786408
9772.000000;0.786286
9771.000000;0.786021
9770.000000;0.785810
9769.000000;0.785775
9768.000000;0.785886
9767.000000;0.786042
9766.000000;0.786183
9765.000000;0.786306
9764.000000;0.786372
9763.000000;0.786293
9762.000000;0.786054
9761.000000;0.785805
9760.000000;0.785673
9759.000000;0.785551
9758.000000;0.785211
9757.000000;0.784640
9756.000000;0.784116
9755.000000;0.783914
9754.000000;0.784097
9753.000000;0.784602
9752.000000;0.785307
9751.000000;0.785919
9750.000000;0.786009
9749.000000;0.785393
9748.000000;0.784399
9747.000000;0.783592
9746.000000;0.783266
9745.000000;0.783316
9744.000000;0.783504
9743.000000;0.783685
9742.000000;0.783828
9741.000000;0.783978
9740.000000;0.784215
9739.000000;0.784515
9738.000000;0.784671
9737.000000;0.784473
9736.000000;0.783990
9735.000000;0.783539
9734.000000;0.783342
9733.000000;0.783306
9732.000000;0.783203
9731.000000;0.782952
9730.000000;0.782648
9729.000000;0.782362
9728.000000;0.782038
9727.000000;0.781631
9726.000000;0.781287
9725.000000;0.781245
9724.000000;0.781522
9723.000000;0.781794
9722.000000;0.781726
9721.000000;0.781417
9720.000000;0.781344
9719.000000;0.781772
9718.000000;0.782382
9717.000000;0.782588
9716.000000;0.782138
9715.000000;0.781287
9714.000000;0.780441
9713.000000;0.779860
9712.000000;0.779699
9711.000000;0.780091
9710.000000;0.780980
9709.000000;0.781953
9708.000000;0.782427
9707.000000;0.782133
9706.000000;0.781357
9705.000000;0.780642
9704.000000;0.780258
9703.000000;0.780044
9702.000000;0.779746
9701.000000;0.779399
9700.000000;0.779269
9699.000000;0.779492
9698.000000;0.779897
9697.000000;0.780205
9696.000000;0.780270
9695.000000;0.780131
9694.000000;0.779928
9693.000000;0.779831
9692.000000;0.779931
9691.000000;0.780118
9690.000000;0.780152
9689.000000;0.779911
9688.000000;0.779525
9687.000000;0.779191
9686.000000;0.778954
9685.000000;0.778732
9684.000000;0.778476
9683.000000;0.778186
9682.000000;0.777843
9681.000000;0.777434
9680.000000;0.777014
9679.000000;0.776676
9678.000000;0.776476
9677.000000;0.776445
9676.000000;0.776569
9675.000000;0.776685
9674.000000;0.776514
9673.000000;0.775970
9672.000000;0.775378
9671.000000;0.775200
9670.000000;0.775534
9669.000000;0.776026
9668.000000;0.776286
9667.000000;0.776234
9666.000000;0.775983
9665.000000;0.775556
9664.000000;0.774927
9663.000000;0.774267
9662.000000;0.773968
9661.000000;0.774319
9660.000000;0.775197
9659.000000;0.776148
9658.000000;0.776805
9657.000000;0.777180
9656.000000;0.777498
9655.000000;0.777773
9654.000000;0.777683
9653.000000;0.776977
9652.000000;0.775887
9651.000000;0.774978
9650.000000;0.774562
9649.000000;0.774443
9648.000000;0.774283
9647.000000;0.774068
9646.000000;0.774054
9645.000000;0.774349
9644.000000;0.774719
9643.000000;0.774857
9642.000000;0.774725
9641.000000;0.774552
9640.000000;0.774558
9639.000000;0.774718
9638.000000;0.774791
9637.000000;0.774526
9636.000000;0.773900
9635.000000;0.773173
9634.000000;0.772718
9633.000000;0.772734
9632.000000;0.773074
9631.000000;0.773346
9630.000000;0.773192
9629.000000;0.772541
9628.000000;0.771679
9627.000000;0.771108
9626.000000;0.771235
9625.000000;0.772065
9624.000000;0.773143
9623.000000;0.773881
9622.000000;0.773995
9621.000000;0.773658
9620.000000;0.773243
9619.000000;0.772991
9618.000000;0.772932
9617.000000;0.772996
9616.000000;0.773097
9615.000000;0.773141
9614.000000;0.773056
9613.000000;0.772845
9612.000000;0.772578
9611.000000;0.772331
9610.000000;0.772144
9609.000000;0.772011
9608.000000;0.771888
9607.000000;0.771736
9606.000000;0.771593
9605.000000;0.771543
9604.000000;0.771568
9603.000000;0.771495
9602.000000;0.771179
9601.000000;0.770698
9600.000000;0.770280
9599.000000;0.770051
9598.000000;0.769948
9597.000000;0.769864
9596.000000;0.769788
9595.000000;0.769792
9594.000000;0.769961
9593.000000;0.770313
9592.000000;0.770706
9591.000000;0.770833
9590.000000;0.770444
9589.000000;0.769610
9588.000000;0.768673
9587.000000;0.767944
9586.000000;0.767546
9585.000000;0.767531
9584.000000;0.767948
9583.000000;0.768688
9582.000000;0.769438
9581.000000;0.769940
9580.000000;0.770223
9579.000000;0.770452
9578.000000;0.770632
9577.000000;0.770609
9576.000000;0.770330
9575.000000;0.769943
9574.000000;0.769611
9573.000000;0.769354
9572.000000;0.769094
9571.000000;0.768781
9570.000000;0.768436
9569.000000;0.768157
9568.000000;0.768069
9567.000000;0.768198
9566.000000;0.768390
9565.000000;0.768446
9564.000000;0.768379
9563.000000;0.768403
9562.000000;0.768591
9561.000000;0.768661
9560.000000;0.768250
9559.000000;0.767392
9558.000000;0.766560
9557.000000;0.766184
9556.000000;0.766233
9555.000000;0.766362
9554.000000;0.766366
9553.000000;0.766372
9552.000000;0.766570
9551.000000;0.766924
9550.000000;0.767211
9549.000000;0.767248
9548.000000;0.766998
9547.000000;0.766551
9546.000000;0.766088
9545.000000;0.765845
9544.000000;0.765934
9543.000000;0.766183
9542.000000;0.766231
9541.000000;0.765871
9540.000000;0.765264
9539.000000;0.764778
9538.000000;0.764662
9537.000000;0.764892
9536.000000;0.765289
9535.000000;0.765692
9534.000000;0.766009
9533.000000;0.766148
9532.000000;0.766011
9531.000000;0.765605
9530.000000;0.765128
9529.000000;0.764837
9528.000000;0.764767
9527.000000;0.764660
9526.000000;0.764262
9525.000000;0.763633
9524.000000;0.763094
9523.000000;0.762884
9522.000000;0.762979
9521.000000;0.763193
9520.000000;0.763322
9519.000000;0.763218
9518.000000;0.762873
9517.000000;0.762494
9516.000000;0.762368
9515.000000;0.762527
9514.000000;0.762667
9513.000000;0.762505
9512.000000;0.762164
9511.000000;0.762044
9510.000000;0.762337
9509.000000;0.762799
9508.000000;0.763057
9507.000000;0.763002
9506.000000;0.762814
9505.000000;0.762654
9504.000000;0.762474
9503.000000;0.762152
9502.000000;0.761716
9501.000000;0.761348
9500.000000;0.761199
9499.000000;0.761262
9498.000000;0.761446
9497.000000;0.761698
9496.000000;0.761983
9495.000000;0.762207
9494.000000;0.762224
9493.000000;0.761969
9492.000000;0.761547
9491.000000;0.761183
9490.000000;0.761049
9489.000000;0.761118
9488.000000;0.761181
9487.000000;0.761037
9486.000000;0.760687
9485.000000;0.760317
9484.000000;0.760079
9483.000000;0.759955
9482.000000;0.759842
9481.000000;0.759696
9480.000000;0.759541
9479.000000;0.759388
9478.000000;0.759240
9477.000000;0.759098
9476.000000;0.758934
9475.000000;0.758711
9474.000000;0.758510
9473.000000;0.758528
9472.000000;0.758822
9471.000000;0.759143
9470.000000;0.759183
9469.000000;0.758966
9468.000000;0.758813
9467.000000;0.758912
9466.000000;0.759122
9465.000000;0.759217
9464.000000;0.759164
9463.000000;0.759054
9462.000000;0.758929
9461.000000;0.758776
9460.000000;0.758599
9459.000000;0.758395
9458.000000;0.758153
9457.000000;0.757927
9456.000000;0.757817
9455.000000;0.757824
9454.000000;0.757807
9453.000000;0.757696
9452.000000;0.757626
9451.000000;0.757752
9450.000000;0.757981
9449.000000;0.758043
9448.000000;0.757795
9447.000000;0.757382
9446.000000;0.757081
9445.000000;0.757057
9444.000000;0.757241
9443.000000;0.757407
9442.000000;0.757369
9441.000000;0.757146
9440.000000;0.756893
9439.000000;0.756656
9438.000000;0.756309
9437.000000;0.755773
9436.000000;0.755196
9435.000000;0.754823
9434.000000;0.754736
9433.000000;0.754812
9432.000000;0.754908
9431.000000;0.754971
9430.000000;0.755012
9429.000000;0.755058
9428.000000;0.755105
9427.000000;0.755071
9426.000000;0.754820
9425.000000;0.754329
9424.000000;0.753786
9423.000000;0.753433
9422.000000;0.753344
9421.000000;0.753427
9420.000000;0.753606
9419.000000;0.753870
9418.000000;0.754157
9417.000000;0.754354
9416.000000;0.754432
9415.000000;0.754462
9414.000000;0.754444
9413.000000;0.754260
9412.000000;0.753866
9411.000000;0.753422
9410.000000;0.753139
9409.000000;0.753073
9408.000000;0.753149
9407.000000;0.753300
9406.000000;0.753452
9405.000000;0.753439
9404.000000;0.753111
9403.000000;0.752559
9402.000000;0.752102
9401.000000;0.751969
9400.000000;0.752080
9399.000000;0.752188
9398.000000;0.752186
9397.000000;0.752180
9396.000000;0.752304
9395.000000;0.752540
9394.000000;0.752749
9393.000000;0.752799
9392.000000;0.752671
9391.000000;0.752464
9390.000000;0.752309
9389.000000;0.752240
9388.000000;0.752155
9387.000000;0.751953
9386.000000;0.751667
9385.000000;0.751405
9384.000000;0.751170
9383.000000;0.750850
9382.000000;0.750434
9381.000000;0.750106
9380.000000;0.750049
9379.000000;0.750221
9378.000000;0.750418
9377.000000;0.750519
9376.000000;0.750567
9375.000000;0.750628
9374.000000;0.750675
9373.000000;0.750631
9372.000000;0.750486
9371.000000;0.750307
9370.000000;0.750172
9369.000000;0.750071
9368.000000;0.749895
9367.000000;0.749557
9366.000000;0.749161
9365.000000;0.748955
9364.000000;0.749048
9363.000000;0.749253
9362.000000;0.749299
9361.000000;0.749159
9360.000000;0.749019
9359.000000;0.748978
9358.000000;0.748931
9357.000000;0.748794
9356.000000;0.748680
9355.000000;0.748760
9354.000000;0.749002
9353.000000;0.749170
9352.000000;0.749051
9351.000000;0.748671
9350.000000;0.748283
9349.000000;0.748140
9348.000000;0.748239
9347.000000;0.748315
9346.000000;0.748144
9345.000000;0.747828
9344.000000;0.747677
9343.000000;0.747824
9342.000000;0.748081
9341.000000;0.748208
9340.000000;0.748166
9339.000000;0.748060
9338.000000;0.747955
9337.000000;0.747839
9336.000000;0.747689
9335.000000;0.747484
9334.000000;0.747230
9333.000000;0.747025
9332.000000;0.747004
9331.000000;0.747140
9330.000000;0.747185
9329.000000;0.746952
9328.000000;0.746577
9327.000000;0.746383
9326.000000;0.746499
9325.000000;0.746714
9324.000000;0.746704
9323.000000;0.746318
9322.000000;0.745666
9321.000000;0.745024
9320.000000;0.744672
9319.000000;0.744732
9318.000000;0.745110
9317.000000;0.745585
9316.000000;0.745960
9315.000000;0.746130
9314.000000;0.746071
9313.000000;0.745830
9312.000000;0.745515
9311.000000;0.745216
9310.000000;0.744962
9309.000000;0.744766
9308.000000;0.744675
9307.000000;0.744729
9306.000000;0.744889
9305.000000;0.745060
9304.000000;0.745161
9303.000000;0.745157
9302.000000;0.745066
9301.000000;0.744973
9300.000000;0.744958
9299.000000;0.744946
9298.000000;0.744716
9297.000000;0.744160
9296.000000;0.743498
9295.000000;0.743127
9294.000000;0.743236
9293.000000;0.743645
9292.000000;0.744003
9291.000000;0.744071
9290.000000;0.743841
9289.000000;0.743484
9288.000000;0.743194
9287.000000;0.743028
9286.000000;0.742860
9285.000000;0.742561
9284.000000;0.742212
9283.000000;0.742043
9282.000000;0.742158
9281.000000;0.742408
9280.000000;0.742581
9279.000000;0.742640
9278.000000;0.742695
9277.000000;0.742789
9276.000000;0.742811
9275.000000;0.742636
9274.000000;0.742308
9273.000000;0.742010
9272.000000;0.741876
9271.000000;0.741859
9270.000000;0.741824
9269.000000;0.741719
9268.000000;0.741608
9267.000000;0.741528
9266.000000;0.741415
9265.000000;0.741189
9264.000000;0.740847
9263.000000;0.740416
9262.000000;0.739919
9261.000000;0.739470
9260.000000;0.739293
9259.000000;0.739493
9258.000000;0.739852
9257.000000;0.740018
9256.000000;0.739883
9255.000000;0.739634
9254.000000;0.739430
9253.000000;0.739215
9252.000000;0.738916
9251.000000;0.738614
9250.000000;0.738420
9249.000000;0.738293
9248.000000;0.738156
9247.000000;0.738074
9246.000000;0.738176
9245.000000;0.738433
9244.000000;0.738665
9243.000000;0.738770
9242.000000;0.738812
9241.000000;0.738889
9240.000000;0.739018
9239.000000;0.739149
9238.000000;0.739192
9237.000000;0.739042
9236.000000;0.738689
9235.000000;0.738323
9234.000000;0.738194
9233.000000;0.738336
9232.000000;0.738540
9231.000000;0.738638
9230.000000;0.738671
9229.000000;0.738702
9228.000000;0.738613
9227.000000;0.738238
9226.000000;0.737635
9225.000000;0.737083
9224.000000;0.736828
9223.000000;0.736938
9222.000000;0.737334
9221.000000;0.737832
9220.000000;0.738134
9219.000000;0.737978
9218.000000;0.737378
9217.000000;0.736652
9216.000000;0.736163
9215.000000;0.736055
9214.000000;0.736232
9213.000000;0.736489
9212.000000;0.736606
9211.000000;0.736454
9210.000000;0.736093
9209.000000;0.735747
9208.000000;0.735586
9207.000000;0.735560
9206.000000;0.735496
9205.000000;0.735294
9204.000000;0.734985
9203.000000;0.734652
9202.000000;0.734388
9201.000000;0.734308
9200.000000;0.734492
9199.000000;0.734896
9198.000000;0.735364
9197.000000;0.735744
9196.000000;0.735944
9195.000000;0.735911
9194.000000;0.735641
9193.000000;0.735230
9192.000000;0.734837
9191.000000;0.734571
9190.000000;0.734440
9189.000000;0.734430
9188.000000;0.734537
9187.000000;0.734709
9186.000000;0.734825
9185.000000;0.734793
9184.000000;0.734641
9183.000000;0.734462
9182.000000;0.734300
9181.000000;0.734143
9180.000000;0.733999
9179.000000;0.733915
9178.000000;0.733909
9177.000000;0.733904
9176.000000;0.733767
9175.000000;0.733433
9174.000000;0.732993
9173.000000;0.732664
9172.000000;0.732608
9171.000000;0.732783
9170.000000;0.732967
9169.000000;0.732972
9168.000000;0.732817
9167.000000;0.732679
9166.000000;0.732695
9165.000000;0.732825
9164.000000;0.732903
9163.000000;0.732792
9162.000000;0.732489
9161.000000;0.732107
9160.000000;0.731780
9159.000000;0.731563
9158.000000;0.731410
9157.000000;0.731259
9156.000000;0.731122
9155.000000;0.731081
9154.000000;0.731172
9153.000000;0.731290
9152.000000;0.731254
9151.000000;0.731003
9150.000000;0.730708
9149.000000;0.730628
9148.000000;0.730849
9147.000000;0.731188
9146.000000;0.731374
9145.000000;0.731300
9144.000000;0.731081
9143.000000;0.730890
9142.000000;0.730785
9141.000000;0.730678
9140.000000;0.730458
9139.000000;0.730133
9138.000000;0.729859
9137.000000;0.729797
9136.000000;0.729939
9135.000000;0.730103
9134.000000;0.730104
9133.000000;0.729915
9132.000000;0.729642
9131.000000;0.729381
9130.000000;0.729151
9129.000000;0.728934
9128.000000;0.728739
9127.000000;0.728589
9126.000000;0.728495
9125.000000;0.728430
9124.000000;0.728343
9123.000000;0.728217
9122.000000;0.728107
9121.000000;0.728096
9120.000000;0.728185
9119.000000;0.728271
9118.000000;0.728260
9117.000000;0.728163
9116.000000;0.728048
9115.000000;0.727948
9114.000000;0.727869
9113.000000;0.727847
9112.000000;0.727894
9111.000000;0.727937
9110.000000;0.727893
9109.000000;0.727797
9108.000000;0.727772
9107.000000;0.727834
9106.000000;0.727839
9105.000000;0.727649
9104.000000;0.727294
9103.000000;0.726910
9102.000000;0.726586
9101.000000;0.726331
9100.000000;0.726171
9099.000000;0.726171
9098.000000;0.726354
9097.000000;0.726617
9096.000000;0.726777
9095.000000;0.726709
9094.000000;0.726441
9093.000000;0.726099
9092.000000;0.725764
9091.000000;0.725416
9090.000000;0.725051
9089.000000;0.724773
9088.000000;0.724727
9087.000000;0.724937
9086.000000;0.725272
9085.000000;0.725557
9084.000000;0.725676
9083.000000;0.725590
9082.000000;0.725328
9081.000000;0.724990
9080.000000;0.724707
9079.000000;0.724565
9078.000000;0.724582
9077.000000;0.724734
9076.000000;0.724954
9075.000000;0.725097
9074.000000;0.725014
9073.000000;0.724686
9072.000000;0.724250
9071.000000;0.723855
9070.000000;0.723532
9069.000000;0.723248
9068.000000;0.723029
9067.000000;0.722968
9066.000000;0.723127
9065.000000;0.723449
9064.000000;0.723771
9063.000000;0.723919
9062.000000;0.723831
9061.000000;0.723615
9060.000000;0.723446
9059.000000;0.723390
9058.000000;0.723355
9057.000000;0.723234
9056.000000;0.723032
9055.000000;0.722844
9054.000000;0.722711
9053.000000;0.722579
9052.000000;0.722396
9051.000000;0.722197
9050.000000;0.722090
9049.000000;0.722129
9048.000000;0.722224
9047.000000;0.722199
9046.000000;0.721963
9045.000000;0.721603
9044.000000;0.721279
9043.000000;0.721056
9042.000000;0.720895
9041.000000;0.720799
9040.000000;0.720866
9039.000000;0.721140
9038.000000;0.721470
9037.000000;0.721607
9036.000000;0.721430
9035.000000;0.721065
9034.000000;0.720748
9033.000000;0.720608
9032.000000;0.720586
9031.000000;0.720540
9030.000000;0.720419
9029.000000;0.720312
9028.000000;0.720313
9027.000000;0.720374
9026.000000;0.720349
9025.000000;0.720172
9024.000000;0.719947
9023.000000;0.719828
9022.000000;0.719877
9021.000000;0.720042
9020.000000;0.720264
9019.000000;0.720528
9018.000000;0.720810
9017.000000;0.721019
9016.000000;0.721011
9015.000000;0.720706
9014.000000;0.720194
9013.000000;0.719700
9012.000000;0.719422
9011.000000;0.719388
9010.000000;0.719468
9009.000000;0.719498
9008.000000;0.719388
9007.000000;0.719158
9006.000000;0.718938
9005.000000;0.718889
9004.000000;0.719073
9003.000000;0.719369
9002.000000;0.719550
9001.000000;0.719454
9000.000000;0.719079
8999.000000;0.718572
8998.000000;0.718144
8997.000000;0.717927
8996.000000;0.717840
8995.000000;0.717649
8994.000000;0.717258
8993.000000;0.716901
8992.000000;0.716911
8991.000000;0.717306
8990.000000;0.717727
8989.000000;0.717814
8988.000000;0.717556
8987.000000;0.717208
8986.000000;0.716997
8985.000000;0.716955
8984.000000;0.716956
8983.000000;0.716848
8982.000000;0.716592
8981.000000;0.716333
8980.000000;0.716268
8979.000000;0.716407
8978.000000;0.716538
8977.000000;0.716466
8976.000000;0.716210
8975.000000;0.715935
8974.000000;0.715779
8973.000000;0.715785
8972.000000;0.715918
8971.000000;0.716055
8970.000000;0.716049
8969.000000;0.715901
8968.000000;0.715774
8967.000000;0.715755
8966.000000;0.715710
8965.000000;0.715485
8964.000000;0.715166
8963.000000;0.714985
8962.000000;0.715019
8961.000000;0.715141
8960.000000;0.715234
8959.000000;0.715286
8958.000000;0.715288
8957.000000;0.715192
8956.000000;0.715018
8955.000000;0.714883
8954.000000;0.714870
8953.000000;0.714963
8952.000000;0.715137
8951.000000;0.715381
8950.000000;0.715589
8949.000000;0.715568
8948.000000;0.715236
8947.000000;0.714753
8946.000000;0.714360
8945.000000;0.714132
8944.000000;0.713971
8943.000000;0.713781
8942.000000;0.713568
8941.000000;0.713377
8940.000000;0.713217
8939.000000;0.713070
8938.000000;0.712937
8937.000000;0.712850
8936.000000;0.712845
8935.000000;0.712918
8934.000000;0.713012
8933.000000;0.713044
8932.000000;0.712966
8931.000000;0.712792
8930.000000;0.712592
8929.000000;0.712467
8928.000000;0.712492
8927.000000;0.712626
8926.000000;0.712708
8925.000000;0.712602
8924.000000;0.712369
8923.000000;0.712222
8922.000000;0.712303
8921.000000;0.712540
8920.000000;0.712729
8919.000000;0.712703
8918.000000;0.712428
8917.000000;0.712014
8916.000000;0.711660
8915.000000;0.711524
8914.000000;0.711570
8913.000000;0.711601
8912.000000;0.711483
8911.000000;0.711282
8910.000000;0.711148
8909.000000;0.711117
8908.000000;0.711128
8907.000000;0.711181
8906.000000;0.711341
8905.000000;0.711573
8904.000000;0.711686
8903.000000;0.711514
8902.000000;0.711122
8901.000000;0.710758
8900.000000;0.710621
8899.000000;0.710712
8898.000000;0.710866
8897.000000;0.710888
8896.000000;0.710663
8895.000000;0.710196
8894.000000;0.709609
8893.000000;0.709088
8892.000000;0.708795
8891.000000;0.708783
8890.000000;0.708981
8889.000000;0.709243
8888.000000;0.709433
8887.000000;0.709490
8886.000000;0.709421
8885.000000;0.709278
8884.000000;0.709121
8883.000000;0.708992
8882.000000;0.708897
8881.000000;0.708805
8880.000000;0.708687
8879.000000;0.708557
8878.000000;0.708460
8877.000000;0.708405
8876.000000;0.708332
8875.000000;0.708209
8874.000000;0.708115
8873.000000;0.708179
8872.000000;0.708367
8871.000000;0.708433
8870.000000;0.708149
8869.000000;0.707570
8868.000000;0.706988
8867.000000;0.706623
8866.000000;0.706466
8865.000000;0.706420
8864.000000;0.706483
8863.000000;0.706694
8862.000000;0.707005
8861.000000;0.707293
8860.000000;0.707478
8859.000000;0.707545
8858.000000;0.707483
8857.000000;0.707315
8856.000000;0.707159
8855.000000;0.707149
8854.000000;0.707269
8853.000000;0.707352
8852.000000;0.707262
8851.000000;0.707014
8850.000000;0.706684
8849.000000;0.706317
8848.000000;0.705974
8847.000000;0.705773
8846.000000;0.705775
8845.000000;0.705883
8844.000000;0.705927
8843.000000;0.705846
8842.000000;0.705713
8841.000000;0.705619
8840.000000;0.705612
8839.000000;0.705727
8838.000000;0.705979
8837.000000;0.706295
8836.000000;0.706516
8835.000000;0.706522
8834.000000;0.706341
8833.000000;0.706107
8832.000000;0.705927
8831.000000;0.705811
8830.000000;0.705700
8829.000000;0.705535
8828.000000;0.705309
8827.000000;0.705082
8826.000000;0.704940
8825.000000;0.704930
8824.000000;0.705013
8823.000000;0.705072
8822.000000;0.705007
8821.000000;0.704823
8820.000000;0.704638
8819.000000;0.704580
8818.000000;0.704669
8817.000000;0.704818
8816.000000;0.704942
8815.000000;0.705036
8814.000000;0.705125
8813.000000;0.705191
8812.000000;0.705174
8811.000000;0.705039
8810.000000;0.704788
8809.000000;0.704464
8808.000000;0.704167
8807.000000;0.704040
8806.000000;0.704133
8805.000000;0.704298
8804.000000;0.704281
8803.000000;0.703974
8802.000000;0.703532
8801.000000;0.703195
8800.000000;0.703058
8799.000000;0.703042
8798.000000;0.703046
8797.000000;0.703039
8796.000000;0.703016
8795.000000;0.702942
8794.000000;0.702783
8793.000000;0.702564
8792.000000;0.702364
8791.000000;0.702293
8790.000000;0.702450
8789.000000;0.702841
8788.000000;0.703290
8787.000000;0.703495
8786.000000;0.703273
8785.000000;0.702764
8784.000000;0.702326
8783.000000;0.702220
8782.000000;0.702407
8781.000000;0.702647
8780.000000;0.702734
8779.000000;0.702619
8778.000000;0.702391
8777.000000;0.702208
8776.000000;0.702197
8775.000000;0.702329
8774.000000;0.702414
8773.000000;0.702288
8772.000000;0.701989
8771.000000;0.701684
8770.000000;0.701458
8769.000000;0.701276
8768.000000;0.701142
8767.000000;0.701145
8766.000000;0.701306
8765.000000;0.701491
8764.000000;0.701573
8763.000000;0.701588
8762.000000;0.701647
8761.000000;0.701737
8760.000000;0.701750
8759.000000;0.701646
8758.000000;0.701479
8757.000000;0.701278
8756.000000;0.701026
8755.000000;0.700755
8754.000000;0.700548
8753.000000;0.700438
8752.000000;0.700398
8751.000000;0.700428
8750.000000;0.700559
8749.000000;0.700740
8748.000000;0.700846
8747.000000;0.700839
8746.000000;0.700821
8745.000000;0.700874
8744.000000;0.700929
8743.000000;0.700885
8742.000000;0.700768
8741.000000;0.700685
8740.000000;0.700665
8739.000000;0.700646
8738.000000;0.700572
8737.000000;0.700430
8736.000000;0.700229
8735.000000;0.700010
8734.000000;0.699854
8733.000000;0.699793
8732.000000;0.699760
8731.000000;0.699695
8730.000000;0.699656
8729.000000;0.699744
8728.000000;0.699930
8727.000000;0.700077
8726.000000;0.700113
8725.000000;0.700087
8724.000000;0.700048
8723.000000;0.699969
8722.000000;0.699820
8721.000000;0.699627
8720.000000;0.699424
8719.000000;0.699228
8718.000000;0.699101
8717.000000;0.699131
8716.000000;0.699307
8715.000000;0.699493
8714.000000;0.699586
8713.000000;0.699615
8712.000000;0.699599
8711.000000;0.699398
8710.000000;0.698871
8709.000000;0.698145
8708.000000;0.697604
8707.000000;0.697531
8706.000000;0.697865
8705.000000;0.698328
8704.000000;0.698700
8703.000000;0.698904
8702.000000;0.698903
8701.000000;0.698676
8700.000000;0.698316
8699.000000;0.698035
8698.000000;0.697989
8697.000000;0.698133
8696.000000;0.698299
8695.000000;0.698381
8694.000000;0.698383
8693.000000;0.698323
8692.000000;0.698173
8691.000000;0.697920
8690.000000;0.697614
8689.000000;0.697321
8688.000000;0.697070
8687.000000;0.696892
8686.000000;0.696842
8685.000000;0.696937
8684.000000;0.697088
8683.000000;0.697163
8682.000000;0.697109
8681.000000;0.696983
8680.000000;0.696887
8679.000000;0.696893
8678.000000;0.697003
8677.000000;0.697135
8676.000000;0.697174
8675.000000;0.697086
8674.000000;0.696951
8673.000000;0.696839
8672.000000;0.696698
8671.000000;0.696452
8670.000000;0.696169
8669.000000;0.696032
8668.000000;0.696116
8667.000000;0.696289
8666.000000;0.696371
8665.000000;0.696297
8664.000000;0.696108
8663.000000;0.695857
8662.000000;0.695614
8661.000000;0.695472
8660.000000;0.695482
8659.000000;0.695564
8658.000000;0.695579
8657.000000;0.695466
8656.000000;0.695284
8655.000000;0.695121
8654.000000;0.695003
8653.000000;0.694895
8652.000000;0.694749
8651.000000;0.694553
8650.000000;0.694363
8649.000000;0.694275
8648.000000;0.694329
8647.000000;0.694457
8646.000000;0.694536
8645.000000;0.694505
8644.000000;0.694405
8643.000000;0.694302
8642.000000;0.694211
8641.000000;0.694112
8640.000000;0.694003
8639.000000;0.693900
8638.000000;0.693775
8637.000000;0.693548
8636.000000;0.693178
8635.000000;0.692755
8634.000000;0.692457
8633.000000;0.692389
8632.000000;0.692469
8631.000000;0.692501
8630.000000;0.692348
8629.000000;0.692033
8628.000000;0.691694
8627.000000;0.691471
8626.000000;0.691416
8625.000000;0.691469
8624.000000;0.691522
8623.000000;0.691519
8622.000000;0.691483
8621.000000;0.691434
8620.000000;0.691316
8619.000000;0.691060
8618.000000;0.690705
8617.000000;0.690383
8616.000000;0.690169
8615.000000;0.690022
8614.000000;0.689876
8613.000000;0.689739
8612.000000;0.689664
8611.000000;0.689675
8610.000000;0.689736
8609.000000;0.689773
8608.000000;0.689704
8607.000000;0.689489
8606.000000;0.689182
8605.000000;0.688926
8604.000000;0.688834
8603.000000;0.688899
8602.000000;0.689007
8601.000000;0.689028
8600.000000;0.688898
8599.000000;0.688651
8598.000000;0.688375
8597.000000;0.688111
8596.000000;0.687803
8595.000000;0.687388
8594.000000;0.686921
8593.000000;0.686560
8592.000000;0.686403
8591.000000;0.686401
8590.000000;0.686435
8589.000000;0.686426
8588.000000;0.686349
8587.000000;0.686213
8586.000000;0.686068
8585.000000;0.685985
8584.000000;0.685984
8583.000000;0.686019
8582.000000;0.686062
8581.000000;0.686130
8580.000000;0.686199
8579.000000;0.686178
8578.000000;0.686023
8577.000000;0.685833
8576.000000;0.685746
8575.000000;0.685776
8574.000000;0.685806
8573.000000;0.685715
8572.000000;0.685445
8571.000000;0.685002
8570.000000;0.684466
8569.000000;0.684013
8568.000000;0.683837
8567.000000;0.683993
8566.000000;0.684330
8565.000000;0.684573
8564.000000;0.684497
8563.000000;0.684078
8562.000000;0.683500
8561.000000;0.683006
8560.000000;0.682714
8559.000000;0.682593
8558.000000;0.682586
8557.000000;0.682683
8556.000000;0.682841
8555.000000;0.682950
8554.000000;0.682938
8553.000000;0.682844
8552.000000;0.682714
8551.000000;0.682495
8550.000000;0.682139
8549.000000;0.681757
8548.000000;0.681541
8547.000000;0.681545
8546.000000;0.681631
8545.000000;0.681633
8544.000000;0.681494
8543.000000;0.681235
8542.000000;0.680915
8541.000000;0.680630
8540.000000;0.680466
8539.000000;0.680421
8538.000000;0.680430
8537.000000;0.680466
8536.000000;0.680533
8535.000000;0.680572
8534.000000;0.680480
8533.000000;0.680263
8532.000000;0.680066
8531.000000;0.680000
8530.000000;0.680009
8529.000000;0.679963
8528.000000;0.679812
8527.000000;0.679589
8526.000000;0.679330
8525.000000;0.679042
8524.000000;0.678753
8523.000000;0.678521
8522.000000;0.678402
8521.000000;0.678417
8520.000000;0.678516
8519.000000;0.678562
8518.000000;0.678408
8517.000000;0.678046
8516.000000;0.677637
8515.000000;0.677371
8514.000000;0.677293
8513.000000;0.677287
8512.000000;0.677183
8511.000000;0.676896
8510.000000;0.676514
8509.000000;0.676264
8508.000000;0.676324
8507.000000;0.676621
8506.000000;0.676870
8505.000000;0.676862
8504.000000;0.676665
8503.000000;0.676483
8502.000000;0.676375
8501.000000;0.676230
8500.000000;0.675969
8499.000000;0.675684
8498.000000;0.675526
8497.000000;0.675531
8496.000000;0.675603
8495.000000;0.675627
8494.000000;0.675576
8493.000000;0.675508
8492.000000;0.675464
8491.000000;0.675399
8490.000000;0.675212
8489.000000;0.674875
8488.000000;0.674496
8487.000000;0.674225
8486.000000;0.674115
8485.000000;0.674098
8484.000000;0.674066
8483.000000;0.673957
8482.000000;0.673756
8481.000000;0.673486
8480.000000;0.673216
8479.000000;0.673039
8478.000000;0.673008
8477.000000;0.673088
8476.000000;0.673167
8475.000000;0.673119
8474.000000;0.672890
8473.000000;0.672535
8472.000000;0.672177
8471.000000;0.671903
8470.000000;0.671709
8469.000000;0.671564
8468.000000;0.671477
8467.000000;0.671481
8466.000000;0.671549
8465.000000;0.671596
8464.000000;0.671562
8463.000000;0.671456
8462.000000;0.671313
8461.000000;0.671169
8460.000000;0.671083
8459.000000;0.671130
8458.000000;0.671309
8457.000000;0.671483
8456.000000;0.671472
8455.000000;0.671214
8454.000000;0.670810
8453.000000;0.670418
8452.000000;0.670138
8451.000000;0.669992
8450.000000;0.669955
8449.000000;0.669957
8448.000000;0.669897
8447.000000;0.669712
8446.000000;0.669461
8445.000000;0.669273
8444.000000;0.669210
8443.000000;0.669195
8442.000000;0.669114
8441.000000;0.668946
8440.000000;0.668765
8439.000000;0.668626
8438.000000;0.668529
8437.000000;0.668470
8436.000000;0.668461
8435.000000;0.668457
8434.000000;0.668352
8433.000000;0.668109
8432.000000;0.667839
8431.000000;0.667667
8430.000000;0.667552
8429.000000;0.667332
8428.000000;0.666974
8427.000000;0.666659
8426.000000;0.666594
8425.000000;0.666780
8424.000000;0.667034
8423.000000;0.667177
8422.000000;0.667135
8421.000000;0.666917
8420.000000;0.666576
8419.000000;0.666222
8418.000000;0.665994
8417.000000;0.665959
8416.000000;0.666044
8415.000000;0.666102
8414.000000;0.666045
8413.000000;0.665901
8412.000000;0.665742
8411.000000;0.665583
8410.000000;0.665381
8409.000000;0.665137
8408.000000;0.664952
8407.000000;0.664931
8406.000000;0.665028
8405.000000;0.665063
8404.000000;0.664918
8403.000000;0.664660
8402.000000;0.664433
8401.000000;0.664279
8400.000000;0.664142
8399.000000;0.663989
8398.000000;0.663846
8397.000000;0.663709
8396.000000;0.663525
8395.000000;0.663289
8394.000000;0.663097
8393.000000;0.663051
8392.000000;0.663150
8391.000000;0.663317
8390.000000;0.663469
8389.000000;0.663542
8388.000000;0.663485
8387.000000;0.663305
8386.000000;0.663095
8385.000000;0.662947
8384.000000;0.662846
8383.000000;0.662700
8382.000000;0.662475
8381.000000;0.662259
8380.000000;0.662158
8379.000000;0.662169
8378.000000;0.662174
8377.000000;0.662050
8376.000000;0.661776
8375.000000;0.661459
8374.000000;0.661236
8373.000000;0.661160
8372.000000;0.661169
8371.000000;0.661169
8370.000000;0.661127
8369.000000;0.661072
8368.000000;0.661034
8367.000000;0.661012
8366.000000;0.660998
8365.000000;0.660992
8364.000000;0.660973
8363.000000;0.660887
8362.000000;0.660682
8361.000000;0.660357
8360.000000;0.659977
8359.000000;0.659644
8358.000000;0.659443
8357.000000;0.659392
8356.000000;0.659424
8355.000000;0.659438
8354.000000;0.659380
8353.000000;0.659290
8352.000000;0.659242
8351.000000;0.659260
8350.000000;0.659272
8349.000000;0.659177
8348.000000;0.658961
8347.000000;0.658730
8346.000000;0.658613
8345.000000;0.658628
8344.000000;0.658667
8343.000000;0.658635
8342.000000;0.658537
8341.000000;0.658421
8340.000000;0.658278
8339.000000;0.658081
8338.000000;0.657870
8337.000000;0.657737
8336.000000;0.657681
8335.000000;0.657566
8334.000000;0.657255
8333.000000;0.656792
8332.000000;0.656384
8331.000000;0.656213
8330.000000;0.656275
8329.000000;0.656419
8328.000000;0.656505
8327.000000;0.656516
8326.000000;0.656498
8325.000000;0.656457
8324.000000;0.656369
8323.000000;0.656275
8322.000000;0.656269
8321.000000;0.656365
8320.000000;0.656415
8319.000000;0.656242
8318.000000;0.655825
8317.000000;0.655306
8316.000000;0.654857
8315.000000;0.654581
8314.000000;0.654507
8313.000000;0.654593
8312.000000;0.654720
8311.000000;0.654780
8310.000000;0.654779
8309.000000;0.654806
8308.000000;0.654877
8307.000000;0.654893
8306.000000;0.654777
8305.000000;0.654595
8304.000000;0.654481
8303.000000;0.654472
8302.000000;0.654478
8301.000000;0.654379
8300.000000;0.654144
8299.000000;0.653856
8298.000000;0.653659
8297.000000;0.653647
8296.000000;0.653761
8295.000000;0.653831
8294.000000;0.653733
8293.000000;0.653515
8292.000000;0.653325
8291.000000;0.653252
8290.000000;0.653268
8289.000000;0.653293
8288.000000;0.653259
8287.000000;0.653117
8286.000000;0.652837
8285.000000;0.652457
8284.000000;0.652084
8283.000000;0.651831
8282.000000;0.651725
8281.000000;0.651706
8280.000000;0.651694
8279.000000;0.651665
8278.000000;0.651646
8277.000000;0.651662
8276.000000;0.651689
8275.000000;0.651662
8274.000000;0.651534
8273.000000;0.651329
8272.000000;0.651139
8271.000000;0.651063
8270.000000;0.651108
8269.000000;0.651164
8268.000000;0.651111
8267.000000;0.650936
8266.000000;0.650736
8265.000000;0.650589
8264.000000;0.650477
8263.000000;0.650368
8262.000000;0.650294
8261.000000;0.650296
8260.000000;0.650326
8259.000000;0.650298
8258.000000;0.650204
8257.000000;0.650118
8256.000000;0.650056
8255.000000;0.649925
8254.000000;0.649655
8253.000000;0.649302
8252.000000;0.648990
8251.000000;0.648777
8250.000000;0.648638
8249.000000;0.648543
8248.000000;0.648498
8247.000000;0.648514
8246.000000;0.648574
8245.000000;0.648621
8244.000000;0.648588
8243.000000;0.648455
8242.000000;0.648283
8241.000000;0.648165
8240.000000;0.648123
8239.000000;0.648095
8238.000000;0.648024
8237.000000;0.647911
8236.000000;0.647761
8235.000000;0.647545
8234.000000;0.647267
8233.000000;0.647026
8232.000000;0.646939
8231.000000;0.647007
8230.000000;0.647121
8229.000000;0.647187
8228.000000;0.647200
8227.000000;0.647185
8226.000000;0.647135
8225.000000;0.647017
8224.000000;0.646836
8223.000000;0.646642
8222.000000;0.646486
8221.000000;0.646363
8220.000000;0.646217
8219.000000;0.646015
8218.000000;0.645794
8217.000000;0.645620
8216.000000;0.645516
8215.000000;0.645455
8214.000000;0.645425
8213.000000;0.645431
8212.000000;0.645432
8211.000000;0.645352
8210.000000;0.645188
8209.000000;0.645041
8208.000000;0.644976
8207.000000;0.644920
8206.000000;0.644775
8205.000000;0.644594
8204.000000;0.644536
8203.000000;0.644652
8202.000000;0.644802
8201.000000;0.644822
8200.000000;0.644690
8199.000000;0.644496
8198.000000;0.644309
8197.000000;0.644111
8196.000000;0.643868
8195.000000;0.643593
8194.000000;0.643362
8193.000000;0.643252
8192.000000;0.643261
8191.000000;0.643303
8190.000000;0.643296
8189.000000;0.643236
8188.000000;0.643158
8187.000000;0.643040
8186.000000;0.642827
8185.000000;0.642541
8184.000000;0.642305
8183.000000;0.642209
8182.000000;0.642217
8181.000000;0.642229
8180.000000;0.642216
8179.000000;0.642217
8178.000000;0.642252
8177.000000;0.642279
8176.000000;0.642252
8175.000000;0.642160
8174.000000;0.642017
8173.000000;0.641842
8172.000000;0.641665
8171.000000;0.641526
8170.000000;0.641443
8169.000000;0.641391
8168.000000;0.641330
8167.000000;0.641243
8166.000000;0.641159
8165.000000;0.641109
8164.000000;0.641084
8163.000000;0.641025
8162.000000;0.640878
8161.000000;0.640659
8160.000000;0.640453
8159.000000;0.640336
8158.000000;0.640308
8157.000000;0.640311
8156.000000;0.640293
8155.000000;0.640252
8154.000000;0.640207
8153.000000;0.640170
8152.000000;0.640135
8151.000000;0.640092
8150.000000;0.640036
8149.000000;0.639962
8148.000000;0.639855
8147.000000;0.639681
8146.000000;0.639431
8145.000000;0.639172
8144.000000;0.639048
8143.000000;0.639159
8142.000000;0.639426
8141.000000;0.639620
8140.000000;0.639539
8139.000000;0.639170
8138.000000;0.638669
8137.000000;0.638223
8136.000000;0.637955
8135.000000;0.637908
8134.000000;0.638031
8133.000000;0.638198
8132.000000;0.638287
8131.000000;0.638269
8130.000000;0.638199
8129.000000;0.638115
8128.000000;0.638016
8127.000000;0.637921
8126.000000;0.637883
8125.000000;0.637893
8124.000000;0.637846
8123.000000;0.637649
8122.000000;0.637342
8121.000000;0.637050
8120.000000;0.636861
8119.000000;0.636778
8118.000000;0.636768
8117.000000;0.636789
8116.000000;0.636787
8115.000000;0.636730
8114.000000;0.636653
8113.000000;0.636608
8112.000000;0.636580
8111.000000;0.636494
8110.000000;0.636320
8109.000000;0.636123
8108.000000;0.636009
8107.000000;0.636030
8106.000000;0.636143
8105.000000;0.636232
8104.000000;0.636169
8103.000000;0.635926
8102.000000;0.635631
8101.000000;0.635459
8100.000000;0.635463
8099.000000;0.635529
8098.000000;0.635515
8097.000000;0.635381
8096.000000;0.635182
8095.000000;0.634994
8094.000000;0.634867
8093.000000;0.634807
8092.000000;0.634784
8091.000000;0.634785
8090.000000;0.634840
8089.000000;0.634949
8088.000000;0.635004
8087.000000;0.634867
8086.000000;0.634564
8085.000000;0.634293
8084.000000;0.634202
8083.000000;0.634230
8082.000000;0.634235
8081.000000;0.634189
8080.000000;0.634155
8079.000000;0.634119
8078.000000;0.633988
8077.000000;0.633737
8076.000000;0.633466
8075.000000;0.633265
8074.000000;0.633122
8073.000000;0.632996
8072.000000;0.632918
8071.000000;0.632941
8070.000000;0.633032
8069.000000;0.633082
8068.000000;0.633024
8067.000000;0.632901
8066.000000;0.632812
8065.000000;0.632808
8064.000000;0.632857
8063.000000;0.632898
8062.000000;0.632899
8061.000000;0.632857
8060.000000;0.632773
8059.000000;0.632646
8058.000000;0.632497
8057.000000;0.632353
8056.000000;0.632216
8055.000000;0.632050
8054.000000;0.631839
8053.000000;0.631613
8052.000000;0.631407
8051.000000;0.631219
8050.000000;0.631038
8049.000000;0.630897
8048.000000;0.630850
8047.000000;0.630894
8046.000000;0.630958
8045.000000;0.630982
8044.000000;0.630976
8043.000000;0.630985
8042.000000;0.631008
8041.000000;0.631001
8040.000000;0.630944
8039.000000;0.630877
8038.000000;0.630845
8037.000000;0.630824
8036.000000;0.630737
8035.000000;0.630555
8034.000000;0.630352
8033.000000;0.630234
8032.000000;0.630217
8031.000000;0.630212
8030.000000;0.630118
8029.000000;0.629927
8028.000000;0.629716
8027.000000;0.629573
8026.000000;0.629516
8025.000000;0.629483
8024.000000;0.629397
8023.000000;0.629250
8022.000000;0.629112
8021.000000;0.629037
8020.000000;0.628996
8019.000000;0.628918
8018.000000;0.628796
8017.000000;0.628687
8016.000000;0.628631
8015.000000;0.628610
8014.000000;0.628600
8013.000000;0.628608
8012.000000;0.628642
8011.000000;0.628688
8010.000000;0.628731
8009.000000;0.628752
8008.000000;0.628714
8007.000000;0.628587
8006.000000;0.628420
8005.000000;0.628309
8004.000000;0.628281
8003.000000;0.628242
8002.000000;0.628075
8001.000000;0.627776
8000.000000;0.627453
7999.000000;0.627226
7998.000000;0.627152
7997.000000;0.627203
7996.000000;0.627297
7995.000000;0.627366
7994.000000;0.627418
7993.000000;0.627481
7992.000000;0.627502
7991.000000;0.627371
7990.000000;0.627071
7989.000000;0.626742
7988.000000;0.626523
7987.000000;0.626401
7986.000000;0.626293
7985.000000;0.626201
7984.000000;0.626200
7983.000000;0.626293
7982.000000;0.626381
7981.000000;0.626381
7980.000000;0.626301
7979.000000;0.626184
7978.000000;0.626046
7977.000000;0.625896
7976.000000;0.625744
7975.000000;0.625580
7974.000000;0.625394
7973.000000;0.625231
7972.000000;0.625177
7971.000000;0.625252
7970.000000;0.625368
7969.000000;0.625412
7968.000000;0.625361
7967.000000;0.625277
7966.000000;0.625228
7965.000000;0.625229
7964.000000;0.625254
7963.000000;0.625259
7962.000000;0.625206
7961.000000;0.625081
7960.000000;0.624883
7959.000000;0.624627
7958.000000;0.624352
7957.000000;0.624114
7956.000000;0.623947
7955.000000;0.623848
7954.000000;0.623816
7953.000000;0.623872
7952.000000;0.624001
7951.000000;0.624102
7950.000000;0.624054
7949.000000;0.623846
7948.000000;0.623594
7947.000000;0.623421
7946.000000;0.623369
7945.000000;0.623417
7944.000000;0.623521
7943.000000;0.623619
7942.000000;0.623637
7941.000000;0.623542
7940.000000;0.623373
7939.000000;0.623195
7938.000000;0.623039
7937.000000;0.622907
7936.000000;0.622788
7935.000000;0.622654
7934.000000;0.622477
7933.000000;0.622276
7932.000000;0.622131
7931.000000;0.622088
7930.000000;0.622085
7929.000000;0.622019
7928.000000;0.621883
7927.000000;0.621778
7926.000000;0.621776
7925.000000;0.621820
7924.000000;0.621798
7923.000000;0.621685
7922.000000;0.621560
7921.000000;0.621499
7920.000000;0.621477
7919.000000;0.621406
7918.000000;0.621237
7917.000000;0.621013
7916.000000;0.620836
7915.000000;0.620783
7914.000000;0.620844
7913.000000;0.620926
7912.000000;0.620932
7911.000000;0.620856
7910.000000;0.620785
7909.000000;0.620789
7908.000000;0.620831
7907.000000;0.620818
7906.000000;0.620720
7905.000000;0.620594
7904.000000;0.620480
7903.000000;0.620362
7902.000000;0.620240
7901.000000;0.620170
7900.000000;0.620185
7899.000000;0.620212
7898.000000;0.620141
7897.000000;0.619966
7896.000000;0.619780
7895.000000;0.619650
7894.000000;0.619554
7893.000000;0.619454
7892.000000;0.619373
7891.000000;0.619355
7890.000000;0.619379
7889.000000;0.619364
7888.000000;0.619253
7887.000000;0.619091
7886.000000;0.618981
7885.000000;0.618970
7884.000000;0.618991
7883.000000;0.618926
7882.000000;0.618731
7881.000000;0.618482
7880.000000;0.618294
7879.000000;0.618218
7878.000000;0.618227
7877.000000;0.618264
7876.000000;0.618285
7875.000000;0.618268
7874.000000;0.618205
7873.000000;0.618096
7872.000000;0.617942
7871.000000;0.617768
7870.000000;0.617634
7869.000000;0.617596
7868.000000;0.617640
7867.000000;0.617676
7866.000000;0.617633
7865.000000;0.617519
7864.000000;0.617380
7863.000000;0.617240
7862.000000;0.617117
7861.000000;0.617043
7860.000000;0.617016
7859.000000;0.616966
7858.000000;0.616838
7857.000000;0.616682
7856.000000;0.616591
7855.000000;0.616579
7854.000000;0.616580
7853.000000;0.616551
7852.000000;0.616514
7851.000000;0.616491
7850.000000;0.616466
7849.000000;0.616428
7848.000000;0.616387
7847.000000;0.616333
7846.000000;0.616238
7845.000000;0.616095
7844.000000;0.615932
7843.000000;0.615774
7842.000000;0.615639
7841.000000;0.615574
7840.000000;0.615614
7839.000000;0.615701
7838.000000;0.615714
7837.000000;0.615609
7836.000000;0.615465
7835.000000;0.615383
7834.000000;0.615365
7833.000000;0.615356
7832.000000;0.615321
7831.000000;0.615240
7830.000000;0.615087
7829.000000;0.614866
7828.000000;0.614651
7827.000000;0.614544
7826.000000;0.614591
7825.000000;0.614755
7824.000000;0.614937
7823.000000;0.615011
7822.000000;0.614897
7821.000000;0.614648
7820.000000;0.614420
7819.000000;0.614327
7818.000000;0.614321
7817.000000;0.614279
7816.000000;0.614164
7815.000000;0.614041
7814.000000;0.613970
7813.000000;0.613931
7812.000000;0.613863
7811.000000;0.613719
7810.000000;0.613501
7809.000000;0.613272
7808.000000;0.613134
7807.000000;0.613145
7806.000000;0.613244
7805.000000;0.613311
7804.000000;0.613283
7803.000000;0.613196
7802.000000;0.613094
7801.000000;0.612971
7800.000000;0.612812
7799.000000;0.612649
7798.000000;0.612536
7797.000000;0.612487
7796.000000;0.612469
7795.000000;0.612445
7794.000000;0.612405
7793.000000;0.612369
7792.000000;0.612351
7791.000000;0.612338
7790.000000;0.612298
7789.000000;0.612228
7788.000000;0.612172
7787.000000;0.612169
7786.000000;0.612191
7785.000000;0.612162
7784.000000;0.612041
7783.000000;0.611863
7782.000000;0.611683
7781.000000;0.611531
7780.000000;0.611415
7779.000000;0.611349
7778.000000;0.611332
7777.000000;0.611334
7776.000000;0.611325
7775.000000;0.611301
7774.000000;0.611264
7773.000000;0.611192
7772.000000;0.611063
7771.000000;0.610908
7770.000000;0.610788
7769.000000;0.610711
7768.000000;0.610604
7767.000000;0.610391
7766.000000;0.610106
7765.000000;0.609880
7764.000000;0.609813
7763.000000;0.609876
7762.000000;0.609952
7761.000000;0.609956
7760.000000;0.609893
7759.000000;0.609824
7758.000000;0.609786
7757.000000;0.609770
7756.000000;0.609733
7755.000000;0.609639
7754.000000;0.609486
7753.000000;0.609319
7752.000000;0.609196
7751.000000;0.609139
7750.000000;0.609122
7749.000000;0.609102
7748.000000;0.609066
7747.000000;0.609021
7746.000000;0.608964
7745.000000;0.608881
7744.000000;0.608781
7743.000000;0.608708
7742.000000;0.608699
7741.000000;0.608739
7740.000000;0.608755
7739.000000;0.608680
7738.000000;0.608511
7737.000000;0.608325
7736.000000;0.608199
7735.000000;0.608148
7734.000000;0.608119
7733.000000;0.608061
7732.000000;0.607970
7731.000000;0.607873
7730.000000;0.607788
7729.000000;0.607723
7728.000000;0.607700
7727.000000;0.607733
7726.000000;0.607792
7725.000000;0.607796
7724.000000;0.607688
7723.000000;0.607486
7722.000000;0.607280
7721.000000;0.607152
7720.000000;0.607118
7719.000000;0.607112
7718.000000;0.607057
7717.000000;0.606931
7716.000000;0.606782
7715.000000;0.606663
7714.000000;0.606580
7713.000000;0.606520
7712.000000;0.606495
7711.000000;0.606532
7710.000000;0.606601
7709.000000;0.606614
7708.000000;0.606502
7707.000000;0.606287
7706.000000;0.606056
7705.000000;0.605880
7704.000000;0.605776
7703.000000;0.605723
7702.000000;0.605687
7701.000000;0.605645
7700.000000;0.605597
7699.000000;0.605572
7698.000000;0.605589
7697.000000;0.605624
7696.000000;0.605626
7695.000000;0.605574
7694.000000;0.605502
7693.000000;0.605449
7692.000000;0.605414
7691.000000;0.605365
7690.000000;0.605283
7689.000000;0.605178
7688.000000;0.605057
7687.000000;0.604910
7686.000000;0.604743
7685.000000;0.604598
7684.000000;0.604515
7683.000000;0.604482
7682.000000;0.604442
7681.000000;0.604356
7680.000000;0.604239
7679.000000;0.604128
7678.000000;0.604038
7677.000000;0.603963
7676.000000;0.603901
7675.000000;0.603843
7674.000000;0.603767
7673.000000;0.603660
7672.000000;0.603562
7671.000000;0.603535
7670.000000;0.603581
7669.000000;0.603619
7668.000000;0.603579
7667.000000;0.603474
7666.000000;0.603375
7665.000000;0.603317
7664.000000;0.603264
7663.000000;0.603163
7662.000000;0.602994
7661.000000;0.602796
7660.000000;0.602653
7659.000000;0.602641
7658.000000;0.602747
7657.000000;0.602850
7656.000000;0.602829
7655.000000;0.602684
7654.000000;0.602525
7653.000000;0.602428
7652.000000;0.602362
7651.000000;0.602268
7650.000000;0.602160
7649.000000;0.602096
7648.000000;0.602087
7647.000000;0.602094
7646.000000;0.602078
7645.000000;0.602029
7644.000000;0.601939
7643.000000;0.601820
7642.000000;0.601732
7641.000000;0.601750
7640.000000;0.601854
7639.000000;0.601917
7638.000000;0.601820
7637.000000;0.601589
7636.000000;0.601351
7635.000000;0.601199
7634.000000;0.601117
7633.000000;0.601037
7632.000000;0.600930
7631.000000;0.600823
7630.000000;0.600752
7629.000000;0.600726
7628.000000;0.600727
7627.000000;0.600725
7626.000000;0.600699
7625.000000;0.600651
7624.000000;0.600607
7623.000000;0.600592
7622.000000;0.600596
7621.000000;0.600582
7620.000000;0.600533
7619.000000;0.600472
7618.000000;0.600419
7617.000000;0.600349
7616.000000;0.600203
7615.000000;0.599972
7614.000000;0.599734
7613.000000;0.599593
7612.000000;0.599581
7611.000000;0.599645
7610.000000;0.599707
7609.000000;0.599735
7608.000000;0.599735
7607.000000;0.599717
7606.000000;0.599682
7605.000000;0.599628
7604.000000;0.599558
7603.000000;0.599473
7602.000000;0.599372
7601.000000;0.599259
7600.000000;0.599150
7599.000000;0.599063
7598.000000;0.599002
7597.000000;0.598945
7596.000000;0.598865
7595.000000;0.598765
7594.000000;0.598689
7593.000000;0.598677
7592.000000;0.598712
7591.000000;0.598730
7590.000000;0.598679
7589.000000;0.598570
7588.000000;0.598460
7587.000000;0.598391
7586.000000;0.598358
7585.000000;0.598324
7584.000000;0.598259
7583.000000;0.598168
7582.000000;0.598074
7581.000000;0.597994
7580.000000;0.597938
7579.000000;0.597911
7578.000000;0.597914
7577.000000;0.597911
7576.000000;0.597852
7575.000000;0.597722
7574.000000;0.597584
7573.000000;0.597532
7572.000000;0.597591
7571.000000;0.597689
7570.000000;0.597730
7569.000000;0.597674
7568.000000;0.597547
7567.000000;0.597398
7566.000000;0.597261
7565.000000;0.597162
7564.000000;0.597114
7563.000000;0.597109
7562.000000;0.597116
7561.000000;0.597106
7560.000000;0.597076
7559.000000;0.597035
7558.000000;0.596985
7557.000000;0.596907
7556.000000;0.596790
7555.000000;0.596659
7554.000000;0.596564
7553.000000;0.596535
7552.000000;0.596558
7551.000000;0.596591
7550.000000;0.596589
7549.000000;0.596515
7548.000000;0.596363
7547.000000;0.596183
7546.000000;0.596062
7545.000000;0.596053
7544.000000;0.596130
7543.000000;0.596235
7542.000000;0.596338
7541.000000;0.596433
7540.000000;0.596485
7539.000000;0.596462
7538.000000;0.596391
7537.000000;0.596339
7536.000000;0.596316
7535.000000;0.596261
7534.000000;0.596135
7533.000000;0.595987
7532.000000;0.595870
7531.000000;0.595770
7530.000000;0.595655
7529.000000;0.595561
7528.000000;0.595555
7527.000000;0.595621
7526.000000;0.595646
7525.000000;0.595561
7524.000000;0.595431
7523.000000;0.595395
7522.000000;0.595508
7521.000000;0.595688
7520.000000;0.595800
7519.000000;0.595795
7518.000000;0.595744
7517.000000;0.595747
7516.000000;0.595806
7515.000000;0.595831
7514.000000;0.595762
7513.000000;0.595633
7512.000000;0.595504
7511.000000;0.595378
7510.000000;0.595236
7509.000000;0.595101
7508.000000;0.595014
7507.000000;0.594959
7506.000000;0.594906
7505.000000;0.594880
7504.000000;0.594935
7503.000000;0.595034
7502.000000;0.595046
7501.000000;0.594899
7500.000000;0.594687
7499.000000;0.594555
7498.000000;0.594562
7497.000000;0.594632
7496.000000;0.594669
7495.000000;0.594653
7494.000000;0.594618
7493.000000;0.594586
7492.000000;0.594534
7491.000000;0.594426
7490.000000;0.594269
7489.000000;0.594138
7488.000000;0.594100
7487.000000;0.594132
7486.000000;0.594146
7485.000000;0.594111
7484.000000;0.594095
7483.000000;0.594174
7482.000000;0.594318
7481.000000;0.594426
7480.000000;0.594435
7479.000000;0.594365
7478.000000;0.594264
7477.000000;0.594169
7476.000000;0.594110
7475.000000;0.594108
7474.000000;0.594151
7473.000000;0.594193
7472.000000;0.594188
7471.000000;0.594115
7470.000000;0.593999
7469.000000;0.593901
7468.000000;0.593889
7467.000000;0.593968
7466.000000;0.594073
7465.000000;0.594130
7464.000000;0.594128
7463.000000;0.594097
7462.000000;0.594041
7461.000000;0.593954
7460.000000;0.593863
7459.000000;0.593820
7458.000000;0.593830
7457.000000;0.593847
7456.000000;0.593838
7455.000000;0.593818
7454.000000;0.593813
7453.000000;0.593815
7452.000000;0.593807
7451.000000;0.593788
7450.000000;0.593766
7449.000000;0.593738
7448.000000;0.593711
7447.000000;0.593711
7446.000000;0.593748
7445.000000;0.593793
7444.000000;0.593807
7443.000000;0.593788
7442.000000;0.593758
7441.000000;0.593736
7440.000000;0.593727
7439.000000;0.593740
7438.000000;0.593776
7437.000000;0.593825
7436.000000;0.593867
7435.000000;0.593899
7434.000000;0.593920
7433.000000;0.593930
7432.000000;0.593933
7431.000000;0.593940
7430.000000;0.593947
7429.000000;0.593922
7428.000000;0.593840
7427.000000;0.593724
7426.000000;0.593640
7425.000000;0.593639
7424.000000;0.593711
7423.000000;0.593798
7422.000000;0.593848
7421.000000;0.593860
7420.000000;0.593875
7419.000000;0.593909
7418.000000;0.593920
7417.000000;0.593860
7416.000000;0.593754
7415.000000;0.593691
7414.000000;0.593718
7413.000000;0.593795
7412.000000;0.593849
7411.000000;0.593846
7410.000000;0.593790
7409.000000;0.593695
7408.000000;0.593608
7407.000000;0.593598
7406.000000;0.593696
7405.000000;0.593843
7404.000000;0.593947
7403.000000;0.593982
7402.000000;0.593976
7401.000000;0.593953
7400.000000;0.593912
7399.000000;0.593868
7398.000000;0.593852
7397.000000;0.593868
7396.000000;0.593890
7395.000000;0.593898
7394.000000;0.593900
7393.000000;0.593903
7392.000000;0.593909
7391.000000;0.593922
7390.000000;0.593940
7389.000000;0.593941
7388.000000;0.593907
7387.000000;0.593867
7386.000000;0.593867
7385.000000;0.593923
7384.000000;0.594025
7383.000000;0.594159
7382.000000;0.594305
7381.000000;0.594403
7380.000000;0.594406
7379.000000;0.594345
7378.000000;0.594293
7377.000000;0.594268
7376.000000;0.594225
7375.000000;0.594142
7374.000000;0.594065
7373.000000;0.594045
7372.000000;0.594086
7371.000000;0.594167
7370.000000;0.594264
7369.000000;0.594343
7368.000000;0.594372
7367.000000;0.594370
7366.000000;0.594378
7365.000000;0.594399
7364.000000;0.594396
7363.000000;0.594385
7362.000000;0.594433
7361.000000;0.594549
7360.000000;0.594641
7359.000000;0.594638
7358.000000;0.594577
7357.000000;0.594538
7356.000000;0.594544
7355.000000;0.594578
7354.000000;0.594639
7353.000000;0.594729
7352.000000;0.594821
7351.000000;0.594894
7350.000000;0.594961
7349.000000;0.595013
7348.000000;0.595009
7347.000000;0.594940
7346.000000;0.594875
7345.000000;0.594875
7344.000000;0.594919
7343.000000;0.594983
7342.000000;0.595102
7341.000000;0.595280
7340.000000;0.595401
7339.000000;0.595356
7338.000000;0.595216
7337.000000;0.595170
7336.000000;0.595291
7335.000000;0.595477
7334.000000;0.595598
7333.000000;0.595624
7332.000000;0.595600
7331.000000;0.595586
7330.000000;0.595642
7329.000000;0.595784
7328.000000;0.595931
7327.000000;0.595963
7326.000000;0.595860
7325.000000;0.595730
7324.000000;0.595677
7323.000000;0.595718
7322.000000;0.595833
7321.000000;0.596007
7320.000000;0.596209
7319.000000;0.596379
7318.000000;0.596479
7317.000000;0.596519
7316.000000;0.596531
7315.000000;0.596547
7314.000000;0.596599
7313.000000;0.596696
7312.000000;0.596795
7311.000000;0.596857
7310.000000;0.596933
7309.000000;0.597118
7308.000000;0.597400
7307.000000;0.597632
7306.000000;0.597687
7305.000000;0.597591
7304.000000;0.597462
7303.000000;0.597389
7302.000000;0.597423
7301.000000;0.597593
7300.000000;0.597857
7299.000000;0.598103
7298.000000;0.598269
7297.000000;0.598434
7296.000000;0.598688
7295.000000;0.598974
7294.000000;0.599142
7293.000000;0.599156
7292.000000;0.599141
7291.000000;0.599216
7290.000000;0.599363
7289.000000;0.599515
7288.000000;0.599667
7287.000000;0.599859
7286.000000;0.600094
7285.000000;0.600339
7284.000000;0.600561
7283.000000;0.600753
7282.000000;0.600914
7281.000000;0.601057
7280.000000;0.601216
7279.000000;0.601413
7278.000000;0.601619
7277.000000;0.601776
7276.000000;0.601857
7275.000000;0.601886
7274.000000;0.601907
7273.000000;0.601956
7272.000000;0.602070
7271.000000;0.602275
7270.000000;0.602569
7269.000000;0.602902
7268.000000;0.603213
7267.000000;0.603467
7266.000000;0.603673
7265.000000;0.603859
7264.000000;0.604044
7263.000000;0.604240
7262.000000;0.604466
7261.000000;0.604744
7260.000000;0.605082
7259.000000;0.605460
7258.000000;0.605821
7257.000000;0.606098
7256.000000;0.606264
7255.000000;0.606370
7254.000000;0.606509
7253.000000;0.606732
7252.000000;0.607024
7251.000000;0.607353
7250.000000;0.607704
7249.000000;0.608054
7248.000000;0.608360
7247.000000;0.608612
7246.000000;0.608869
7245.000000;0.609196
7244.000000;0.609581
7243.000000;0.609966
7242.000000;0.610345
7241.000000;0.610759
7240.000000;0.611182
7239.000000;0.611515
7238.000000;0.611711
7237.000000;0.611851
7236.000000;0.612065
7235.000000;0.612423
7234.000000;0.612896
7233.000000;0.613350
7232.000000;0.613627
7231.000000;0.613683
7230.000000;0.613693
7229.000000;0.613921
7228.000000;0.614469
7227.000000;0.615180
7226.000000;0.615812
7225.000000;0.616258
7224.000000;0.616587
7223.000000;0.616911
7222.000000;0.617279
7221.000000;0.617685
7220.000000;0.618113
7219.000000;0.618546
7218.000000;0.618988
7217.000000;0.619466
7216.000000;0.619994
7215.000000;0.620525
7214.000000;0.620980
7213.000000;0.621314
7212.000000;0.621553
7211.000000;0.621766
7210.000000;0.622031
7209.000000;0.622383
7208.000000;0.622801
7207.000000;0.623235
7206.000000;0.623683
7205.000000;0.624197
7204.000000;0.624815
7203.000000;0.625496
7202.000000;0.626153
7201.000000;0.626728
7200.000000;0.627217
7199.000000;0.627648
7198.000000;0.628066
7197.000000;0.628499
7196.000000;0.628925
7195.000000;0.629285
7194.000000;0.629571
7193.000000;0.629875
7192.000000;0.630326
7191.000000;0.630976
7190.000000;0.631754
7189.000000;0.632493
7188.000000;0.633023
7187.000000;0.633316
7186.000000;0.633569
7185.000000;0.634055
7184.000000;0.634851
7183.000000;0.635736
7182.000000;0.636395
7181.000000;0.636699
7180.000000;0.636778
7179.000000;0.636897
7178.000000;0.637315
7177.000000;0.638137
7176.000000;0.639175
7175.000000;0.640012
7174.000000;0.640350
7173.000000;0.640331
7172.000000;0.640392
7171.000000;0.640823
7170.000000;0.641567
7169.000000;0.642407
7168.000000;0.643207
7167.000000;0.643944
7166.000000;0.644637
7165.000000;0.645328
7164.000000;0.646054
7163.000000;0.646796
7162.000000;0.647492
7161.000000;0.648134
7160.000000;0.648794
7159.000000;0.649507
7158.000000;0.650190
7157.000000;0.650738
7156.000000;0.651154
7155.000000;0.651546
7154.000000;0.652009
7153.000000;0.652535
7152.000000;0.653037
7151.000000;0.653481
7150.000000;0.653933
7149.000000;0.654450
7148.000000;0.654934
7147.000000;0.655208
7146.000000;0.655290
7145.000000;0.655494
7144.000000;0.656164
7143.000000;0.657295
7142.000000;0.658519
7141.000000;0.659432
7140.000000;0.659894
7139.000000;0.660040
7138.000000;0.660128
7137.000000;0.660368
7136.000000;0.660829
7135.000000;0.661472
7134.000000;0.662246
7133.000000;0.663109
7132.000000;0.663942
7131.000000;0.664536
7130.000000;0.664764
7129.000000;0.664739
7128.000000;0.664730
7127.000000;0.664925
7126.000000;0.665314
7125.000000;0.665748
7124.000000;0.666071
7123.000000;0.666268
7122.000000;0.666538
7121.000000;0.667120
7120.000000;0.667961
7119.000000;0.668663
7118.000000;0.668878
7117.000000;0.668678
7116.000000;0.668413
7115.000000;0.668294
7114.000000;0.668316
7113.000000;0.668442
7112.000000;0.668637
7111.000000;0.668736
7110.000000;0.668525
7109.000000;0.667980
7108.000000;0.667273
7107.000000;0.666558
7106.000000;0.665926
7105.000000;0.665550
7104.000000;0.665660
7103.000000;0.666255
7102.000000;0.666989
7101.000000;0.667402
7100.000000;0.667252
7099.000000;0.666627
7098.000000;0.665799
7097.000000;0.664989
7096.000000;0.664244
7095.000000;0.663588
7094.000000;0.663201
7093.000000;0.663220
7092.000000;0.663348
7091.000000;0.662958
7090.000000;0.661773
7089.000000;0.660203
7088.000000;0.658832
7087.000000;0.657821
7086.000000;0.657074
7085.000000;0.656678
7084.000000;0.656678
7083.000000;0.656566
7082.000000;0.655582
7081.000000;0.653647
7080.000000;0.651597
7079.000000;0.650315
7078.000000;0.649887
7077.000000;0.649726
7076.000000;0.649208
7075.000000;0.648062
7074.000000;0.646409
7073.000000;0.644617
7072.000000;0.643046
7071.000000;0.641820
7070.000000;0.640874
7069.000000;0.640114
7068.000000;0.639386
7067.000000;0.638387
7066.000000;0.636879
7065.000000;0.635029
7064.000000;0.633279
7063.000000;0.631835
7062.000000;0.630466
7061.000000;0.628797
7060.000000;0.626677
7059.000000;0.624302
7058.000000;0.622144
7057.000000;0.620645
7056.000000;0.619748
7055.000000;0.618833
7054.000000;0.617373
7053.000000;0.615547
7052.000000;0.613890
7051.000000;0.612474
7050.000000;0.610879
7049.000000;0.608900
7048.000000;0.606765
7047.000000;0.604615
7046.000000;0.602329
7045.000000;0.599987
7044.000000;0.597978
7043.000000;0.596332
7042.000000;0.594413
7041.000000;0.591677
7040.000000;0.588439
7039.000000;0.585499
7038.000000;0.583224
7037.000000;0.581333
7036.000000;0.579415
7035.000000;0.577340
7034.000000;0.575235
7033.000000;0.573306
7032.000000;0.571628
7031.000000;0.569922
7030.000000;0.567711
7029.000000;0.564969
7028.000000;0.562429
7027.000000;0.560822
7026.000000;0.559857
7025.000000;0.558358
7024.000000;0.555548
7023.000000;0.551867
7022.000000;0.548344
7021.000000;0.545486
7020.000000;0.543076
7019.000000;0.540796
7018.000000;0.538626
7017.000000;0.536613
7016.000000;0.534623
7015.000000;0.532508
7014.000000;0.530317
7013.000000;0.528146
7012.000000;0.525886
7011.000000;0.523333
7010.000000;0.520503
7009.000000;0.517660
7008.000000;0.514959
7007.000000;0.512207
7006.000000;0.509091
7005.000000;0.505626
7004.000000;0.502312
7003.000000;0.499737
7002.000000;0.497985
7001.000000;0.496435
7000.000000;0.494253
6999.000000;0.491178
6998.000000;0.487793
6997.000000;0.484975
6996.000000;0.483088
6995.000000;0.481666
6994.000000;0.479793
6993.000000;0.476827
6992.000000;0.472937
6991.000000;0.468966
6990.000000;0.465659
6989.000000;0.463003
6988.000000;0.460446
6987.000000;0.457711
6986.000000;0.455063
6985.000000;0.452729
6984.000000;0.450432
6983.000000;0.447768
6982.000000;0.444712
6981.000000;0.441519
6980.000000;0.438396
6979.000000;0.435536
6978.000000;0.433147
6977.000000;0.431084
6976.000000;0.428706
6975.000000;0.425567
6974.000000;0.422039
6973.000000;0.418803
6972.000000;0.415891
6971.000000;0.412781
6970.000000;0.409434
6969.000000;0.406657
6968.000000;0.405165
6967.000000;0.404633
6966.000000;0.403933
6965.000000;0.402162
6964.000000;0.399349
6963.000000;0.396238
6962.000000;0.393463
6961.000000;0.390904
6960.000000;0.387939
6959.000000;0.384332
6958.000000;0.380670
6957.000000;0.377777
6956.000000;0.375919
6955.000000;0.374746
6954.000000;0.373694
6953.000000;0.372133
6952.000000;0.369510
6951.000000;0.365920
6950.000000;0.362369
6949.000000;0.359869
6948.000000;0.358291
6947.000000;0.356597
6946.000000;0.354160
6945.000000;0.351334
6944.000000;0.348683
6943.000000;0.346219
6942.000000;0.343609
6941.000000;0.340734
6940.000000;0.337778
6939.000000;0.335041
6938.000000;0.332794
6937.000000;0.331112
6936.000000;0.329757
6935.000000;0.328386
6934.000000;0.326810
6933.000000;0.324958
6932.000000;0.322764
6931.000000;0.320372
6930.000000;0.318221
6929.000000;0.316530
6928.000000;0.314832
6927.000000;0.312463
6926.000000;0.309399
6925.000000;0.306231
6924.000000;0.303415
6923.000000;0.300984
6922.000000;0.298869
6921.000000;0.297020
6920.000000;0.295221
6919.000000;0.293217
6918.000000;0.291105
6917.000000;0.289283
6916.000000;0.288014
6915.000000;0.287289
6914.000000;0.286974
6913.000000;0.286715
6912.000000;0.285878
6911.000000;0.284073
6910.000000;0.281643
6909.000000;0.279178
6908.000000;0.276714
6907.000000;0.273973
6906.000000;0.271220
6905.000000;0.269157
6904.000000;0.267898
6903.000000;0.266748
6902.000000;0.265186
6901.000000;0.263465
6900.000000;0.261977
6899.000000;0.260615
6898.000000;0.259031
6897.000000;0.257102
6896.000000;0.254891
6895.000000;0.252575
6894.000000;0.250639
6893.000000;0.249688
6892.000000;0.249714
6891.000000;0.249842
6890.000000;0.249127
6889.000000;0.247425
6888.000000;0.245351
6887.000000;0.243686
6886.000000;0.242985
6885.000000;0.243382
6884.000000;0.244356
6883.000000;0.244875
6882.000000;0.244105
6881.000000;0.242072
6880.000000;0.239566
6879.000000;0.237455
6878.000000;0.236143
6877.000000;0.235497
6876.000000;0.235101
6875.000000;0.234612
6874.000000;0.233982
6873.000000;0.233380
6872.000000;0.232931
6871.000000;0.232512
6870.000000;0.231749
6869.000000;0.230230
6868.000000;0.227943
6867.000000;0.225544
6866.000000;0.223945
6865.000000;0.223416
6864.000000;0.223323
6863.000000;0.222992
6862.000000;0.222545
6861.000000;0.222526
6860.000000;0.222907
6859.000000;0.222908
6858.000000;0.221830
6857.000000;0.219818
6856.000000;0.217806
6855.000000;0.216848
6854.000000;0.217354
6853.000000;0.218685
6852.000000;0.219537
6851.000000;0.219001
6850.000000;0.217314
6849.000000;0.215506
6848.000000;0.214510
6847.000000;0.214703
6846.000000;0.215931
6845.000000;0.217510
6844.000000;0.218400
6843.000000;0.217958
6842.000000;0.216617
6841.000000;0.215548
6840.000000;0.215519
6839.000000;0.216269
6838.000000;0.216924
6837.000000;0.216778
6836.000000;0.215755
6835.000000;0.214454
6834.000000;0.213727
6833.000000;0.213926
6832.000000;0.214599
6831.000000;0.215071
6830.000000;0.215165
6829.000000;0.215103
6828.000000;0.214939
6827.000000;0.214535
6826.000000;0.213989
6825.000000;0.213612
6824.000000;0.213466
6823.000000;0.213288
6822.000000;0.212938
6821.000000;0.212611
6820.000000;0.212621
6819.000000;0.213188
6818.000000;0.214401
6817.000000;0.216105
6816.000000;0.217819
6815.000000;0.219043
6814.000000;0.219652
6813.000000;0.219841
6812.000000;0.219762
6811.000000;0.219474
6810.000000;0.219181
6809.000000;0.219178
6808.000000;0.219550
6807.000000;0.220130
6806.000000;0.220737
6805.000000;0.221255
6804.000000;0.221600
6803.000000;0.221861
6802.000000;0.222317
6801.000000;0.223071
6800.000000;0.223857
6799.000000;0.224536
6798.000000;0.225482
6797.000000;0.226926
6796.000000;0.228149
6795.000000;0.228116
6794.000000;0.226965
6793.000000;0.226126
6792.000000;0.226701
6791.000000;0.228292
6790.000000;0.229789
6789.000000;0.230786
6788.000000;0.231626
6787.000000;0.232443
6786.000000;0.232894
6785.000000;0.232834
6784.000000;0.232672
6783.000000;0.232883
6782.000000;0.233503
6781.000000;0.234253
6780.000000;0.234917
6779.000000;0.235407
6778.000000;0.235710
6777.000000;0.235963
6776.000000;0.236480
6775.000000;0.237452
6774.000000;0.238615
6773.000000;0.239399
6772.000000;0.239465
6771.000000;0.239042
6770.000000;0.238685
6769.000000;0.238846
6768.000000;0.239690
6767.000000;0.241151
6766.000000;0.242950
6765.000000;0.244621
6764.000000;0.245795
6763.000000;0.246550
6762.000000;0.247309
6761.000000;0.248328
6760.000000;0.249431
6759.000000;0.250330
6758.000000;0.251006
6757.000000;0.251601
6756.000000;0.252096
6755.000000;0.252368
6754.000000;0.252533
6753.000000;0.252983
6752.000000;0.253947
6751.000000;0.255140
6750.000000;0.255974
6749.000000;0.256146
6748.000000;0.255984
6747.000000;0.256152
6746.000000;0.256986
6745.000000;0.258165
6744.000000;0.259149
6743.000000;0.259823
6742.000000;0.260503
6741.000000;0.261306
6740.000000;0.261872
6739.000000;0.261924
6738.000000;0.261830
6737.000000;0.262290
6736.000000;0.263527
6735.000000;0.265056
6734.000000;0.266234
6733.000000;0.266798
6732.000000;0.266892
6731.000000;0.266854
6730.000000;0.267051
6729.000000;0.267704
6728.000000;0.268726
6727.000000;0.269807
6726.000000;0.270727
6725.000000;0.271498
6724.000000;0.272195
6723.000000;0.272779
6722.000000;0.273174
6721.000000;0.273432
6720.000000;0.273745
6719.000000;0.274298
6718.000000;0.275121
6717.000000;0.276039
6716.000000;0.276829
6715.000000;0.277461
6714.000000;0.278145
6713.000000;0.279029
6712.000000;0.279931
6711.000000;0.280523
6710.000000;0.280752
6709.000000;0.280902
6708.000000;0.281253
6707.000000;0.281850
6706.000000;0.282645
6705.000000;0.283644
6704.000000;0.284797
6703.000000;0.285895
6702.000000;0.286718
6701.000000;0.287249
6700.000000;0.287644
6699.000000;0.288040
6698.000000;0.288469
6697.000000;0.288889
6696.000000;0.289239
6695.000000;0.289506
6694.000000;0.289835
6693.000000;0.290492
6692.000000;0.291632
6691.000000;0.293091
6690.000000;0.294464
6689.000000;0.295391
6688.000000;0.295760
6687.000000;0.295743
6686.000000;0.295683
6685.000000;0.295902
6684.000000;0.296482
6683.000000;0.297217
6682.000000;0.297839
6681.000000;0.298294
6680.000000;0.298759
6679.000000;0.299416
6678.000000;0.300278
6677.000000;0.301234
6676.000000;0.302177
6675.000000;0.303035
6674.000000;0.303735
6673.000000;0.304219
6672.000000;0.304514
6671.000000;0.304758
6670.000000;0.305140
6669.000000;0.305774
6668.000000;0.306610
6667.000000;0.307464
6666.000000;0.308157
6665.000000;0.308661
6664.000000;0.309103
6663.000000;0.309639
6662.000000;0.310315
6661.000000;0.311055
6660.000000;0.311770
6659.000000;0.312451
6658.000000;0.313141
6657.000000;0.313842
6656.000000;0.314477
6655.000000;0.314969
6654.000000;0.315359
6653.000000;0.315811
6652.000000;0.316492
6651.000000;0.317413
6650.000000;0.318376
6649.000000;0.319127
6648.000000;0.319561
6647.000000;0.319801
6646.000000;0.320060
6645.000000;0.320448
6644.000000;0.320938
6643.000000;0.321483
6642.000000;0.322069
6641.000000;0.322649
6640.000000;0.323129
6639.000000;0.323482
6638.000000;0.323834
6637.000000;0.324351
6636.000000;0.325042
6635.000000;0.325754
6634.000000;0.326348
6633.000000;0.326828
6632.000000;0.327280
6631.000000;0.327765
6630.000000;0.328311
6629.000000;0.328942
6628.000000;0.329638
6627.000000;0.330290
6626.000000;0.330778
6625.000000;0.331100
6624.000000;0.331394
6623.000000;0.331810
6622.000000;0.332380
6621.000000;0.333026
6620.000000;0.333651
6619.000000;0.334203
6618.000000;0.334689
6617.000000;0.335169
6616.000000;0.335733
6615.000000;0.336412
6614.000000;0.337111
6613.000000;0.337657
6612.000000;0.337964
6611.000000;0.338146
6610.000000;0.338418
6609.000000;0.338905
6608.000000;0.339547
6607.000000;0.340192
6606.000000;0.340743
6605.000000;0.341233
6604.000000;0.341751
6603.000000;0.342315
6602.000000;0.342844
6601.000000;0.343260
6600.000000;0.343611
6599.000000;0.344024
6598.000000;0.344530
6597.000000;0.344998
6596.000000;0.345300
6595.000000;0.345502
6594.000000;0.345817
6593.000000;0.346366
6592.000000;0.347046
6591.000000;0.347653
6590.000000;0.348087
6589.000000;0.348429
6588.000000;0.348848
6587.000000;0.349451
6586.000000;0.350189
6585.000000;0.350897
6584.000000;0.351444
6583.000000;0.351850
6582.000000;0.352237
6581.000000;0.352680
6580.000000;0.353149
6579.000000;0.353589
6578.000000;0.354003
6577.000000;0.354420
6576.000000;0.354842
6575.000000;0.355255
6574.000000;0.355659
6573.000000;0.356060
6572.000000;0.356441
6571.000000;0.356793
6570.000000;0.357143
6569.000000;0.357543
6568.000000;0.358020
6567.000000;0.358548
6566.000000;0.359057
6565.000000;0.359482
6564.000000;0.359820
6563.000000;0.360149
6562.000000;0.360555
6561.000000;0.361048
6560.000000;0.361578
6559.000000;0.362122
6558.000000;0.362688
6557.000000;0.363234
6556.000000;0.363662
6555.000000;0.363942
6554.000000;0.364187
6553.000000;0.364546
6552.000000;0.365037
6551.000000;0.365526
6550.000000;0.365864
6549.000000;0.366028
6548.000000;0.366147
6547.000000;0.366391
6546.000000;0.366831
6545.000000;0.367374
6544.000000;0.367866
6543.000000;0.368267
6542.000000;0.368678
6541.000000;0.369193
6540.000000;0.369777
6539.000000;0.370331
6538.000000;0.370812
6537.000000;0.371233
6536.000000;0.371601
6535.000000;0.371931
6534.000000;0.372282
6533.000000;0.372702
6532.000000;0.373146
6531.000000;0.373522
6530.000000;0.373826
6529.000000;0.374155
6528.000000;0.374573
6527.000000;0.375040
6526.000000;0.375493
6525.000000;0.375937
6524.000000;0.376388
6523.000000;0.376786
6522.000000;0.377047
6521.000000;0.377193
6520.000000;0.377368
6519.000000;0.377688
6518.000000;0.378113
6517.000000;0.378496
6516.000000;0.378748
6515.000000;0.378934
6514.000000;0.379190
6513.000000;0.379587
6512.000000;0.380078
6511.000000;0.380573
6510.000000;0.381013
6509.000000;0.381390
6508.000000;0.381712
6507.000000;0.381989
6506.000000;0.382239
6505.000000;0.382501
6504.000000;0.382827
6503.000000;0.383253
6502.000000;0.383758
6501.000000;0.384255
6500.000000;0.384654
6499.000000;0.384937
6498.000000;0.385177
6497.000000;0.385466
6496.000000;0.385838
6495.000000;0.386255
6494.000000;0.386641
6493.000000;0.386927
6492.000000;0.387114
6491.000000;0.387282
6490.000000;0.387524
6489.000000;0.387856
6488.000000;0.388217
6487.000000;0.388557
6486.000000;0.388885
6485.000000;0.389233
6484.000000;0.389602
6483.000000;0.389982
6482.000000;0.390351
6481.000000;0.390667
6480.000000;0.390905
6479.000000;0.391120
6478.000000;0.391420
6477.000000;0.391833
6476.000000;0.392244
6475.000000;0.392527
6474.000000;0.392698
6473.000000;0.392876
6472.000000;0.393126
6471.000000;0.393412
6470.000000;0.393683
6469.000000;0.393946
6468.000000;0.394225
6467.000000;0.394525
6466.000000;0.394846
6465.000000;0.395195
6464.000000;0.395564
6463.000000;0.395925
6462.000000;0.396257
6461.000000;0.396566
6460.000000;0.396860
6459.000000;0.397137
6458.000000;0.397396
6457.000000;0.397664
6456.000000;0.397972
6455.000000;0.398319
6454.000000;0.398647
6453.000000;0.398878
6452.000000;0.399002
6451.000000;0.399117
6450.000000;0.399361
6449.000000;0.399768
6448.000000;0.400226
6447.000000;0.400588
6446.000000;0.400807
6445.000000;0.400939
6444.000000;0.401069
6443.000000;0.401246
6442.000000;0.401488
6441.000000;0.401765
6440.000000;0.402025
6439.000000;0.402241
6438.000000;0.402453
6437.000000;0.402709
6436.000000;0.402994
6435.000000;0.403246
6434.000000;0.403424
6433.000000;0.403534
6432.000000;0.403624
6431.000000;0.403768
6430.000000;0.404047
6429.000000;0.404454
6428.000000;0.404866
6427.000000;0.405146
6426.000000;0.405283
6425.000000;0.405381
6424.000000;0.405527
6423.000000;0.405730
6422.000000;0.405978
6421.000000;0.406265
6420.000000;0.406561
6419.000000;0.406809
6418.000000;0.407011
6417.000000;0.407231
6416.000000;0.407502
6415.000000;0.407771
6414.000000;0.407976
6413.000000;0.408127
6412.000000;0.408275
6411.000000;0.408445
6410.000000;0.408631
6409.000000;0.408831
6408.000000;0.409037
6407.000000;0.409221
6406.000000;0.409372
6405.000000;0.409521
6404.000000;0.409715
6403.000000;0.409972
6402.000000;0.410286
6401.000000;0.410648
6400.000000;0.411024
6399.000000;0.411335
6398.000000;0.411510
6397.000000;0.411576
6396.000000;0.411639
6395.000000;0.411774
6394.000000;0.411958
6393.000000;0.412114
6392.000000;0.412215
6391.000000;0.412307
6390.000000;0.412454
6389.000000;0.412673
6388.000000;0.412940
6387.000000;0.413233
6386.000000;0.413546
6385.000000;0.413868
6384.000000;0.414162
6383.000000;0.414395
6382.000000;0.414569
6381.000000;0.414701
6380.000000;0.414802
6379.000000;0.414879
6378.000000;0.414960
6377.000000;0.415059
6376.000000;0.415144
6375.000000;0.415178
6374.000000;0.415193
6373.000000;0.415282
6372.000000;0.415496
6371.000000;0.415794
6370.000000;0.416091
6369.000000;0.416332
6368.000000;0.416505
6367.000000;0.416618
6366.000000;0.416715
6365.000000;0.416852
6364.000000;0.417037
6363.000000;0.417205
6362.000000;0.417285
6361.000000;0.417291
6360.000000;0.417306
6359.000000;0.417398
6358.000000;0.417572
6357.000000;0.417793
6356.000000;0.418026
6355.000000;0.418233
6354.000000;0.418384
6353.000000;0.418481
6352.000000;0.418561
6351.000000;0.418669
6350.000000;0.418827
6349.000000;0.419025
6348.000000;0.419229
6347.000000;0.419398
6346.000000;0.419519
6345.000000;0.419616
6344.000000;0.419719
6343.000000;0.419824
6342.000000;0.419899
6341.000000;0.419941
6340.000000;0.420001
6339.000000;0.420129
6338.000000;0.420315
6337.000000;0.420491
6336.000000;0.420610
6335.000000;0.420689
6334.000000;0.420785
6333.000000;0.420920
6332.000000;0.421053
6331.000000;0.421133
6330.000000;0.421160
6329.000000;0.421182
6328.000000;0.421237
6327.000000;0.421321
6326.000000;0.421406
6325.000000;0.421486
6324.000000;0.421585
6323.000000;0.421732
6322.000000;0.421923
6321.000000;0.422111
6320.000000;0.422242
6319.000000;0.422311
6318.000000;0.422366
6317.000000;0.422453
6316.000000;0.422560
6315.000000;0.422653
6314.000000;0.422734
6313.000000;0.422848
6312.000000;0.423002
6311.000000;0.423134
6310.000000;0.423177
6309.000000;0.423140
6308.000000;0.423105
6307.000000;0.423155
6306.000000;0.423311
6305.000000;0.423527
6304.000000;0.423716
6303.000000;0.423809
6302.000000;0.423802
6301.000000;0.423751
6300.000000;0.423724
6299.000000;0.423740
6298.000000;0.423777
6297.000000;0.423814
6296.000000;0.423854
6295.000000;0.423915
6294.000000;0.424000
6293.000000;0.424084
6292.000000;0.424134
6291.000000;0.424145
6290.000000;0.424155
6289.000000;0.424217
6288.000000;0.424345
6287.000000;0.424503
6286.000000;0.424647
6285.000000;0.424765
6284.000000;0.424871
6283.000000;0.424970
6282.000000;0.425049
6281.000000;0.425088
6280.000000;0.425082
6279.000000;0.425051
6278.000000;0.425045
6277.000000;0.425114
6276.000000;0.425267
6275.000000;0.425450
6274.000000;0.425592
6273.000000;0.425651
6272.000000;0.425643
6271.000000;0.425619
6270.000000;0.425629
6269.000000;0.425684
6268.000000;0.425750
6267.000000;0.425782
6266.000000;0.425770
6265.000000;0.425746
6264.000000;0.425748
6263.000000;0.425790
6262.000000;0.425860
6261.000000;0.425940
6260.000000;0.426007
6259.000000;0.426051
6258.000000;0.426076
6257.000000;0.426096
6256.000000;0.426110
6255.000000;0.426111
6254.000000;0.426122
6253.000000;0.426184
6252.000000;0.426297
6251.000000;0.426406
6250.000000;0.426462
6249.000000;0.426468
6248.000000;0.426459
6247.000000;0.426445
6246.000000;0.426418
6245.000000;0.426392
6244.000000;0.426395
6243.000000;0.426429
6242.000000;0.426471
6241.000000;0.426516
6240.000000;0.426574
6239.000000;0.426634
6238.000000;0.426659
6237.000000;0.426638
6236.000000;0.426604
6235.000000;0.426601
6234.000000;0.426639
6233.000000;0.426714
6232.000000;0.426822
6231.000000;0.426938
6230.000000;0.427015
6229.000000;0.427023
6228.000000;0.426989
6227.000000;0.426975
6226.000000;0.427015
6225.000000;0.427091
6224.000000;0.427154
6223.000000;0.427164
6222.000000;0.427123
6221.000000;0.427077
6220.000000;0.427084
6219.000000;0.427152
6218.000000;0.427226
6217.000000;0.427242
6216.000000;0.427199
6215.000000;0.427151
6214.000000;0.427148
6213.000000;0.427190
6212.000000;0.427241
6211.000000;0.427273
6210.000000;0.427288
6209.000000;0.427316
6208.000000;0.427379
6207.000000;0.427460
6206.000000;0.427508
6205.000000;0.427491
6204.000000;0.427434
6203.000000;0.427401
6202.000000;0.427424
6201.000000;0.427479
6200.000000;0.427513
6199.000000;0.427495
6198.000000;0.427433
6197.000000;0.427377
6196.000000;0.427385
6195.000000;0.427471
6194.000000;0.427571
6193.000000;0.427587
6192.000000;0.427485
6191.000000;0.427329
6190.000000;0.427208
6189.000000;0.427153
6188.000000;0.427139
6187.000000;0.427156
6186.000000;0.427222
6185.000000;0.427326
6184.000000;0.427403
6183.000000;0.427392
6182.000000;0.427306
6181.000000;0.427221
6180.000000;0.427196
6179.000000;0.427216
6178.000000;0.427215
6177.000000;0.427147
6176.000000;0.427038
6175.000000;0.426953
6174.000000;0.426942
6173.000000;0.426999
6172.000000;0.427090
6171.000000;0.427187
6170.000000;0.427269
6169.000000;0.427304
6168.000000;0.427266
6167.000000;0.427170
6166.000000;0.427074
6165.000000;0.427033
6164.000000;0.427054
6163.000000;0.427104
6162.000000;0.427149
6161.000000;0.427174
6160.000000;0.427185
6159.000000;0.427193
6158.000000;0.427203
6157.000000;0.427205
6156.000000;0.427181
6155.000000;0.427129
6154.000000;0.427069
6153.000000;0.427020
6152.000000;0.426980
6151.000000;0.426950
6150.000000;0.426946
6149.000000;0.426980
6148.000000;0.427033
6147.000000;0.427068
6146.000000;0.427069
6145.000000;0.427050
6144.000000;0.427032
6143.000000;0.427018
6142.000000;0.427011
6141.000000;0.427021
6140.000000;0.427054
6139.000000;0.427096
6138.000000;0.427121
6137.000000;0.427106
6136.000000;0.427051
6135.000000;0.426977
6134.000000;0.426921
6133.000000;0.426912
6132.000000;0.426936
6131.000000;0.426944
6130.000000;0.426907
6129.000000;0.426844
6128.000000;0.426798
6127.000000;0.426788
6126.000000;0.426796
6125.000000;0.426803
6124.000000;0.426810
6123.000000;0.426826
6122.000000;0.426839
6121.000000;0.426822
6120.000000;0.426770
6119.000000;0.426708
6118.000000;0.426673
6117.000000;0.426673
6116.000000;0.426681
6115.000000;0.426664
6114.000000;0.426615
6113.000000;0.426559
6112.000000;0.426524
6111.000000;0.426519
6110.000000;0.426533
6109.000000;0.426554
6108.000000;0.426567
6107.000000;0.426556
6106.000000;0.426522
6105.000000;0.426489
6104.000000;0.426484
6103.000000;0.426502
6102.000000;0.426506
6101.000000;0.426475
6100.000000;0.426435
6099.000000;0.426426
6098.000000;0.426453
6097.000000;0.426473
6096.000000;0.426451
6095.000000;0.426382
6094.000000;0.426290
6093.000000;0.426199
6092.000000;0.426132
6091.000000;0.426104
6090.000000;0.426119
6089.000000;0.426167
6088.000000;0.426240
6087.000000;0.426322
6086.000000;0.426380
6085.000000;0.426383
6084.000000;0.426346
6083.000000;0.426320
6082.000000;0.426335
6081.000000;0.426359
6080.000000;0.426351
6079.000000;0.426316
6078.000000;0.426293
6077.000000;0.426287
6076.000000;0.426265
6075.000000;0.426206
6074.000000;0.426130
6073.000000;0.426073
6072.000000;0.426046
6071.000000;0.426043
6070.000000;0.426046
6069.000000;0.426032
6068.000000;0.425981
6067.000000;0.425903
6066.000000;0.425837
6065.000000;0.425807
6064.000000;0.425803
6063.000000;0.425803
6062.000000;0.425809
6061.000000;0.425831
6060.000000;0.425862
6059.000000;0.425884
6058.000000;0.425880
6057.000000;0.425847
6056.000000;0.425797
6055.000000;0.425757
6054.000000;0.425749
6053.000000;0.425765
6052.000000;0.425770
6051.000000;0.425745
6050.000000;0.425713
6049.000000;0.425714
6048.000000;0.425761
6047.000000;0.425834
6046.000000;0.425894
6045.000000;0.425908
6044.000000;0.425869
6043.000000;0.425803
6042.000000;0.425754
6041.000000;0.425740
6040.000000;0.425748
6039.000000;0.425756
6038.000000;0.425755
6037.000000;0.425732
6036.000000;0.425673
6035.000000;0.425591
6034.000000;0.425544
6033.000000;0.425580
6032.000000;0.425679
6031.000000;0.425781
6030.000000;0.425845
6029.000000;0.425866
6028.000000;0.425848
6027.000000;0.425796
6026.000000;0.425735
6025.000000;0.425703
6024.000000;0.425711
6023.000000;0.425737
6022.000000;0.425753
6021.000000;0.425753
6020.000000;0.425749
6019.000000;0.425746
6018.000000;0.425745
6017.000000;0.425747
6016.000000;0.425750
6015.000000;0.425743
6014.000000;0.425724
6013.000000;0.425707
6012.000000;0.425714
6011.000000;0.425755
6010.000000;0.425824
6009.000000;0.425904
6008.000000;0.425976
6007.000000;0.426023
6006.000000;0.426031
6005.000000;0.425991
6004.000000;0.425900
6003.000000;0.425777
6002.000000;0.425659
6001.000000;0.425583
6000.000000;0.425563
5999.000000;0.425583
5998.000000;0.425608
5997.000000;0.425611
5996.000000;0.425595
5995.000000;0.425594
5994.000000;0.425637
5993.000000;0.425711
5992.000000;0.425771
5991.000000;0.425785
5990.000000;0.425756
5989.000000;0.425706
5988.000000;0.425653
5987.000000;0.425610
5986.000000;0.425599
5985.000000;0.425633
5984.000000;0.425695
5983.000000;0.425763
5982.000000;0.425830
5981.000000;0.425895
5980.000000;0.425945
5979.000000;0.425958
5978.000000;0.425924
5977.000000;0.425853
5976.000000;0.425773
5975.000000;0.425725
5974.000000;0.425748
5973.000000;0.425839
5972.000000;0.425942
5971.000000;0.425992
5970.000000;0.425974
5969.000000;0.425928
5968.000000;0.425899
5967.000000;0.425911
5966.000000;0.425960
5965.000000;0.426027
5964.000000;0.426084
5963.000000;0.426110
5962.000000;0.426118
5961.000000;0.426124
5960.000000;0.426124
5959.000000;0.426098
5958.000000;0.426049
5957.000000;0.426008
5956.000000;0.425990
5955.000000;0.425975
5954.000000;0.425933
5953.000000;0.425861
5952.000000;0.425784
5951.000000;0.425737
5950.000000;0.425747
5949.000000;0.425814
5948.000000;0.425910
5947.000000;0.425994
5946.000000;0.426042
5945.000000;0.426061
5944.000000;0.426080
5943.000000;0.426122
5942.000000;0.426191
5941.000000;0.426272
5940.000000;0.426334
5939.000000;0.426351
5938.000000;0.426340
5937.000000;0.426350
5936.000000;0.426418
5935.000000;0.426536
5934.000000;0.426649
5933.000000;0.426707
5932.000000;0.426699
5931.000000;0.426653
5930.000000;0.426612
5929.000000;0.426604
5928.000000;0.426635
5927.000000;0.426693
5926.000000;0.426753
5925.000000;0.426786
5924.000000;0.426783
5923.000000;0.426761
5922.000000;0.426753
5921.000000;0.426764
5920.000000;0.426772
5919.000000;0.426761
5918.000000;0.426751
5917.000000;0.426769
5916.000000;0.426803
5915.000000;0.426811
5914.000000;0.426775
5913.000000;0.426722
5912.000000;0.426687
5911.000000;0.426677
5910.000000;0.426668
5909.000000;0.426637
5908.000000;0.426591
5907.000000;0.426559
5906.000000;0.426571
5905.000000;0.426628
5904.000000;0.426710
5903.000000;0.426791
5902.000000;0.426857
5901.000000;0.426898
5900.000000;0.426901
5899.000000;0.426870
5898.000000;0.426833
5897.000000;0.426829
5896.000000;0.426874
5895.000000;0.426944
5894.000000;0.426991
5893.000000;0.426982
5892.000000;0.426923
5891.000000;0.426858
5890.000000;0.426823
5889.000000;0.426817
5888.000000;0.426817
5887.000000;0.426817
5886.000000;0.426829
5885.000000;0.426857
5884.000000;0.426873
5883.000000;0.426856
5882.000000;0.426823
5881.000000;0.426804
5880.000000;0.426815
5879.000000;0.426853
5878.000000;0.426910
5877.000000;0.426969
5876.000000;0.427007
5875.000000;0.427025
5874.000000;0.427059
5873.000000;0.427126
5872.000000;0.427186
5871.000000;0.427186
5870.000000;0.427121
5869.000000;0.427046
5868.000000;0.427011
5867.000000;0.427025
5866.000000;0.427071
5865.000000;0.427118
5864.000000;0.427133
5863.000000;0.427103
5862.000000;0.427071
5861.000000;0.427088
5860.000000;0.427147
5859.000000;0.427180
5858.000000;0.427146
5857.000000;0.427075
5856.000000;0.427028
5855.000000;0.427029
5854.000000;0.427064
5853.000000;0.427111
5852.000000;0.427157
5851.000000;0.427197
5850.000000;0.427235
5849.000000;0.427292
5848.000000;0.427378
5847.000000;0.427474
5846.000000;0.427547
5845.000000;0.427575
5844.000000;0.427553
5843.000000;0.427499
5842.000000;0.427446
5841.000000;0.427430
5840.000000;0.427451
5839.000000;0.427473
5838.000000;0.427463
5837.000000;0.427422
5836.000000;0.427375
5835.000000;0.427345
5834.000000;0.427345
5833.000000;0.427373
5832.000000;0.427413
5831.000000;0.427444
5830.000000;0.427462
5829.000000;0.427490
5828.000000;0.427543
5827.000000;0.427622
5826.000000;0.427710
5825.000000;0.427792
5824.000000;0.427843
5823.000000;0.427851
5822.000000;0.427831
5821.000000;0.427830
5820.000000;0.427869
5819.000000;0.427918
5818.000000;0.427923
5817.000000;0.427875
5816.000000;0.427816
5815.000000;0.427791
5814.000000;0.427814
5813.000000;0.427873
5812.000000;0.427950
5811.000000;0.428029
5810.000000;0.428101
5809.000000;0.428157
5808.000000;0.428192
5807.000000;0.428214
5806.000000;0.428237
5805.000000;0.428275
5804.000000;0.428318
5803.000000;0.428336
5802.000000;0.428299
5801.000000;0.428206
5800.000000;0.428091
5799.000000;0.428001
5798.000000;0.427978
5797.000000;0.428031
5796.000000;0.428138
5795.000000;0.428247
5794.000000;0.428307
5793.000000;0.428296
5792.000000;0.428238
5791.000000;0.428186
5790.000000;0.428192
5789.000000;0.428261
5788.000000;0.428351
5787.000000;0.428415
5786.000000;0.428449
5785.000000;0.428482
5784.000000;0.428532
5783.000000;0.428574
5782.000000;0.428579
5781.000000;0.428544
5780.000000;0.428494
5779.000000;0.428456
5778.000000;0.428438
5777.000000;0.428427
5776.000000;0.428415
5775.000000;0.428407
5774.000000;0.428418
5773.000000;0.428448
5772.000000;0.428470
5771.000000;0.428458
5770.000000;0.428418
5769.000000;0.428383
5768.000000;0.428371
5767.000000;0.428378
5766.000000;0.428397
5765.000000;0.428430
5764.000000;0.428474
5763.000000;0.428503
5762.000000;0.428493
5761.000000;0.428449
5760.000000;0.428397
5759.000000;0.428359
5758.000000;0.428342
5757.000000;0.428341
5756.000000;0.428350
5755.000000;0.428367
5754.000000;0.428391
5753.000000;0.428424
5752.000000;0.428461
5751.000000;0.428479
5750.000000;0.428465
5749.000000;0.428421
5748.000000;0.428371
5747.000000;0.428336
5746.000000;0.428326
5745.000000;0.428333
5744.000000;0.428345
5743.000000;0.428351
5742.000000;0.428351
5741.000000;0.428351
5740.000000;0.428342
5739.000000;0.428308
5738.000000;0.428248
5737.000000;0.428184
5736.000000;0.428147
5735.000000;0.428146
5734.000000;0.428167
5733.000000;0.428194
5732.000000;0.428232
5731.000000;0.428282
5730.000000;0.428323
5729.000000;0.428313
5728.000000;0.428239
5727.000000;0.428142
5726.000000;0.428078
5725.000000;0.428055
5724.000000;0.428031
5723.000000;0.427979
5722.000000;0.427931
5721.000000;0.427935
5720.000000;0.427987
5719.000000;0.428026
5718.000000;0.428010
5717.000000;0.427953
5716.000000;0.427896
5715.000000;0.427859
5714.000000;0.427837
5713.000000;0.427819
5712.000000;0.427802
5711.000000;0.427775
5710.000000;0.427725
5709.000000;0.427654
5708.000000;0.427598
5707.000000;0.427596
5706.000000;0.427650
5705.000000;0.427712
5704.000000;0.427723
5703.000000;0.427679
5702.000000;0.427628
5701.000000;0.427610
5700.000000;0.427609
5699.000000;0.427595
5698.000000;0.427579
5697.000000;0.427599
5696.000000;0.427658
5695.000000;0.427706
5694.000000;0.427694
5693.000000;0.427635
5692.000000;0.427583
5691.000000;0.427583
5690.000000;0.427633
5689.000000;0.427693
5688.000000;0.427719
5687.000000;0.427701
5686.000000;0.427659
5685.000000;0.427622
5684.000000;0.427606
5683.000000;0.427608
5682.000000;0.427615
5681.000000;0.427604
5680.000000;0.427559
5679.000000;0.427492
5678.000000;0.427435
5677.000000;0.427409
5676.000000;0.427406
5675.000000;0.427419
5674.000000;0.427461
5673.000000;0.427538
5672.000000;0.427618
5671.000000;0.427644
5670.000000;0.427603
5669.000000;0.427543
5668.000000;0.427530
5667.000000;0.427607
5666.000000;0.427770
5665.000000;0.427958
5664.000000;0.428073
5663.000000;0.428041
5662.000000;0.427891
5661.000000;0.427743
5660.000000;0.427708
5659.000000;0.427806
5658.000000;0.427970
5657.000000;0.428109
5656.000000;0.428169
5655.000000;0.428153
5654.000000;0.428115
5653.000000;0.428118
5652.000000;0.428182
5651.000000;0.428278
5650.000000;0.428373
5649.000000;0.428458
5648.000000;0.428538
5647.000000;0.428608
5646.000000;0.428660
5645.000000;0.428693
5644.000000;0.428727
5643.000000;0.428795
5642.000000;0.428926
5641.000000;0.429116
5640.000000;0.429311
5639.000000;0.429442
5638.000000;0.429480
5637.000000;0.429462
5636.000000;0.429449
5635.000000;0.429475
5634.000000;0.429529
5633.000000;0.429573
5632.000000;0.429586
5631.000000;0.429593
5630.000000;0.429652
5629.000000;0.429801
5628.000000;0.430005
5627.000000;0.430183
5626.000000;0.430280
5625.000000;0.430316
5624.000000;0.430350
5623.000000;0.430427
5622.000000;0.430553
5621.000000;0.430702
5620.000000;0.430842
5619.000000;0.430964
5618.000000;0.431084
5617.000000;0.431218
5616.000000;0.431366
5615.000000;0.431523
5614.000000;0.431697
5613.000000;0.431877
5612.000000;0.432022
5611.000000;0.432103
5610.000000;0.432153
5609.000000;0.432244
5608.000000;0.432407
5607.000000;0.432607
5606.000000;0.432795
5605.000000;0.432955
5604.000000;0.433085
5603.000000;0.433186
5602.000000;0.433279
5601.000000;0.433411
5600.000000;0.433600
5599.000000;0.433799
5598.000000;0.433949
5597.000000;0.434044
5596.000000;0.434130
5595.000000;0.434243
5594.000000;0.434369
5593.000000;0.434470
5592.000000;0.434538
5591.000000;0.434611
5590.000000;0.434740
5589.000000;0.434931
5588.000000;0.435130
5587.000000;0.435277
5586.000000;0.435370
5585.000000;0.435466
5584.000000;0.435619
5583.000000;0.435832
5582.000000;0.436069
5581.000000;0.436293
5580.000000;0.436477
5579.000000;0.436613
5578.000000;0.436715
5577.000000;0.436822
5576.000000;0.436951
5575.000000;0.437082
5574.000000;0.437182
5573.000000;0.437255
5572.000000;0.437342
5571.000000;0.437477
5570.000000;0.437650
5569.000000;0.437820
5568.000000;0.437960
5567.000000;0.438080
5566.000000;0.438206
5565.000000;0.438339
5564.000000;0.438447
5563.000000;0.438507
5562.000000;0.438553
5561.000000;0.438650
5560.000000;0.438833
5559.000000;0.439073
5558.000000;0.439308
5557.000000;0.439486
5556.000000;0.439589
5555.000000;0.439653
5554.000000;0.439731
5553.000000;0.439844
5552.000000;0.439957
5551.000000;0.440036
5550.000000;0.440110
5549.000000;0.440239
5548.000000;0.440422
5547.000000;0.440583
5546.000000;0.440665
5545.000000;0.440696
5544.000000;0.440749
5543.000000;0.440858
5542.000000;0.441005
5541.000000;0.441156
5540.000000;0.441293
5539.000000;0.441415
5538.000000;0.441536
5537.000000;0.441670
5536.000000;0.441795
5535.000000;0.441867
5534.000000;0.441874
5533.000000;0.441877
5532.000000;0.441949
5531.000000;0.442097
5530.000000;0.442266
5529.000000;0.442401
5528.000000;0.442503
5527.000000;0.442601
5526.000000;0.442705
5525.000000;0.442803
5524.000000;0.442878
5523.000000;0.442939
5522.000000;0.443014
5521.000000;0.443118
5520.000000;0.443240
5519.000000;0.443350
5518.000000;0.443425
5517.000000;0.443476
5516.000000;0.443535
5515.000000;0.443642
5514.000000;0.443807
5513.000000;0.443994
5512.000000;0.444139
5511.000000;0.444222
5510.000000;0.444298
5509.000000;0.444446
5508.000000;0.444665
5507.000000;0.444873
5506.000000;0.444992
5505.000000;0.445019
5504.000000;0.444995
5503.000000;0.444959
5502.000000;0.444959
5501.000000;0.445049
5500.000000;0.445248
5499.000000;0.445485
5498.000000;0.445662
5497.000000;0.445753
5496.000000;0.445828
5495.000000;0.445956
5494.000000;0.446118
5493.000000;0.446232
5492.000000;0.446271
5491.000000;0.446295
5490.000000;0.446362
5489.000000;0.446436
5488.000000;0.446437
5487.000000;0.446362
5486.000000;0.446316
5485.000000;0.446392
5484.000000;0.446571
5483.000000;0.446769
5482.000000;0.446960
5481.000000;0.447174
5480.000000;0.447416
5479.000000;0.447653
5478.000000;0.447881
5477.000000;0.448126
5476.000000;0.448344
5475.000000;0.448402
5474.000000;0.448230
5473.000000;0.447946
5472.000000;0.447745
5471.000000;0.447710
5470.000000;0.447794
5469.000000;0.447935
5468.000000;0.448124
5467.000000;0.448352
5466.000000;0.448582
5465.000000;0.448784
5464.000000;0.448975
5463.000000;0.449186
5462.000000;0.449399
5461.000000;0.449555
5460.000000;0.449605
5459.000000;0.449578
5458.000000;0.449563
5457.000000;0.449637
5456.000000;0.449790
5455.000000;0.449950
5454.000000;0.450076
5453.000000;0.450199
5452.000000;0.450381
5451.000000;0.450625
5450.000000;0.450873
5449.000000;0.451069
5448.000000;0.451212
5447.000000;0.451332
5446.000000;0.451436
5445.000000;0.451528
5444.000000;0.451642
5443.000000;0.451832
5442.000000;0.452078
5441.000000;0.452264
5440.000000;0.452284
5439.000000;0.452180
5438.000000;0.452125
5437.000000;0.452244
5436.000000;0.452503
5435.000000;0.452766
5434.000000;0.452946
5433.000000;0.453075
5432.000000;0.453238
5431.000000;0.453477
5430.000000;0.453778
5429.000000;0.454088
5428.000000;0.454353
5427.000000;0.454558
5426.000000;0.454738
5425.000000;0.454931
5424.000000;0.455136
5423.000000;0.455336
5422.000000;0.455549
5421.000000;0.455806
5420.000000;0.456072
5419.000000;0.456261
5418.000000;0.456357
5417.000000;0.456460
5416.000000;0.456667
5415.000000;0.456950
5414.000000;0.457201
5413.000000;0.457398
5412.000000;0.457643
5411.000000;0.458023
5410.000000;0.458503
5409.000000;0.458978
5408.000000;0.459376
5407.000000;0.459700
5406.000000;0.460000
5405.000000;0.460325
5404.000000;0.460705
5403.000000;0.461138
5402.000000;0.461595
5401.000000;0.462035
5400.000000;0.462413
5399.000000;0.462708
5398.000000;0.462971
5397.000000;0.463321
5396.000000;0.463822
5395.000000;0.464397
5394.000000;0.464882
5393.000000;0.465207
5392.000000;0.465476
5391.000000;0.465834
5390.000000;0.466319
5389.000000;0.466878
5388.000000;0.467461
5387.000000;0.468051
5386.000000;0.468630
5385.000000;0.469179
5384.000000;0.469716
5383.000000;0.470275
5382.000000;0.470862
5381.000000;0.471453
5380.000000;0.472044
5379.000000;0.472658
5378.000000;0.473325
5377.000000;0.474069
5376.000000;0.474894
5375.000000;0.475775
5374.000000;0.476659
5373.000000;0.477487
5372.000000;0.478247
5371.000000;0.478994
5370.000000;0.479808
5369.000000;0.480724
5368.000000;0.481711
5367.000000;0.482712
5366.000000;0.483692
5365.000000;0.484644
5364.000000;0.485597
5363.000000;0.486589
5362.000000;0.487630
5361.000000;0.488680
5360.000000;0.489699
5359.000000;0.490726
5358.000000;0.491852
5357.000000;0.493120
5356.000000;0.494469
5355.000000;0.495806
5354.000000;0.497077
5353.000000;0.498281
5352.000000;0.499478
5351.000000;0.500771
5350.000000;0.502216
5349.000000;0.503712
5348.000000;0.505077
5347.000000;0.506263
5346.000000;0.507453
5345.000000;0.508869
5344.000000;0.510511
5343.000000;0.512195
5342.000000;0.513780
5341.000000;0.515270
5340.000000;0.516721
5339.000000;0.518191
5338.000000;0.519744
5337.000000;0.521383
5336.000000;0.523010
5335.000000;0.524547
5334.000000;0.526077
5333.000000;0.527767
5332.000000;0.529664
5331.000000;0.531598
5330.000000;0.533320
5329.000000;0.534687
5328.000000;0.535743
5327.000000;0.536694
5326.000000;0.537712
5325.000000;0.538710
5324.000000;0.539395
5323.000000;0.539615
5322.000000;0.539497
5321.000000;0.539155
5320.000000;0.538449
5319.000000;0.537220
5318.000000;0.535587
5317.000000;0.533756
5316.000000;0.531640
5315.000000;0.528875
5314.000000;0.525079
5313.000000;0.520002
5312.000000;0.513662
5311.000000;0.506445
5310.000000;0.498652
5309.000000;0.489808
5308.000000;0.479013
5307.000000;0.466183
5306.000000;0.452127
5305.000000;0.437073
5304.000000;0.420332
5303.000000;0.402072
5302.000000;0.384167
5301.000000;0.368538
5300.000000;0.355999
5299.000000;0.347816
5298.000000;0.347606
5297.000000;0.359327
5296.000000;0.382261
5295.000000;0.411695
5294.000000;0.446151
5293.000000;0.486674
5292.000000;0.528345
5291.000000;0.563391
5290.000000;0.593465
5289.000000;0.627468
5288.000000;0.668242
5287.000000;0.709983
5286.000000;0.746012
5285.000000;0.772060
5284.000000;0.785675
5283.000000;0.790878
5282.000000;0.798815
5281.000000;0.816288
5280.000000;0.837385
5279.000000;0.852229
5278.000000;0.860851
5277.000000;0.869722
5276.000000;0.879485
5275.000000;0.886940
5274.000000;0.894401
5273.000000;0.906417
5272.000000;0.920772
5271.000000;0.931184
5270.000000;0.935522
5269.000000;0.934711
5268.000000;0.928813
5267.000000;0.921761
5266.000000;0.923668
5265.000000;0.939577
5264.000000;0.959276
5263.000000;0.966362
5262.000000;0.957807
5261.000000;0.944477
5260.000000;0.935779
5259.000000;0.935198
5258.000000;0.943987
5257.000000;0.958546
5256.000000;0.968224
5255.000000;0.965920
5254.000000;0.957585
5253.000000;0.952399
5252.000000;0.950423
5251.000000;0.947114
5250.000000;0.943455
5249.000000;0.942806
5248.000000;0.942522
5247.000000;0.937681
5246.000000;0.930427
5245.000000;0.927223
5244.000000;0.929627
5243.000000;0.934988
5242.000000;0.942087
5241.000000;0.948889
5240.000000;0.949601
5239.000000;0.942580
5238.000000;0.935959
5237.000000;0.938121
5236.000000;0.948325
5235.000000;0.960013
5234.000000;0.968055
5233.000000;0.968950
5232.000000;0.959756
5231.000000;0.943979
5230.000000;0.933404
5229.000000;0.937737
5228.000000;0.955007
5227.000000;0.973850
5226.000000;0.983986
5225.000000;0.982039
5224.000000;0.969182
5223.000000;0.951808
5222.000000;0.941261
5221.000000;0.944235
5220.000000;0.955901
5219.000000;0.965676
5218.000000;0.967265
5217.000000;0.959457
5216.000000;0.943455
5215.000000;0.926692
5214.000000;0.921812
5213.000000;0.934330
5212.000000;0.954160
5211.000000;0.964457
5210.000000;0.960550
5209.000000;0.952486
5208.000000;0.949694
5207.000000;0.953307
5206.000000;0.959194
5205.000000;0.960877
5204.000000;0.953257
5203.000000;0.939272
5202.000000;0.929281
5201.000000;0.929994
5200.000000;0.937642
5199.000000;0.944998
5198.000000;0.950906
5197.000000;0.957057
5196.000000;0.960631
5195.000000;0.958450
5194.000000;0.954732
5193.000000;0.956653
5192.000000;0.965112
5191.000000;0.975453
5190.000000;0.983809
5189.000000;0.987687
5188.000000;0.984675
5187.000000;0.976832
5186.000000;0.971693
5185.000000;0.973787
5184.000000;0.979056
5183.000000;0.981136
5182.000000;0.979869
5181.000000;0.977999
5180.000000;0.974385
5179.000000;0.967798
5178.000000;0.961993
5177.000000;0.960607
5176.000000;0.962060
5175.000000;0.964492
5174.000000;0.970429
5173.000000;0.980013
5172.000000;0.985017
5171.000000;0.978997
5170.000000;0.968182
5169.000000;0.962350
5168.000000;0.962448
5167.000000;0.962972
5166.000000;0.961423
5165.000000;0.959366
5164.000000;0.956707
5163.000000;0.952927
5162.000000;0.951515
5161.000000;0.955618
5160.000000;0.961503
5159.000000;0.963239
5158.000000;0.962362
5157.000000;0.965088
5156.000000;0.971922
5155.000000;0.977470
5154.000000;0.978803
5153.000000;0.977331
5152.000000;0.973757
5151.000000;0.967604
5150.000000;0.960860
5149.000000;0.957316
5148.000000;0.959390
5147.000000;0.968560
5146.000000;0.985536
5145.000000;1.005508
5144.000000;1.016204
5143.000000;1.009844
5142.000000;0.995133
5141.000000;0.985094
5140.000000;0.981845
5139.000000;0.980534
5138.000000;0.977876
5137.000000;0.973156
5136.000000;0.966388
5135.000000;0.959481
5134.000000;0.957760
5133.000000;0.964715
5132.000000;0.976123
5131.000000;0.984745
5130.000000;0.989756
5129.000000;0.995087
5128.000000;0.999872
5127.000000;0.998409
5126.000000;0.989365
5125.000000;0.978209
5124.000000;0.970639
5123.000000;0.969057
5122.000000;0.973470
5121.000000;0.980694
5120.000000;0.984348
5119.000000;0.981079
5118.000000;0.975870
5117.000000;0.975947
5116.000000;0.981536
5115.000000;0.987118
5114.000000;0.988971
5113.000000;0.986710
5112.000000;0.980338
5111.000000;0.971151
5110.000000;0.964111
5109.000000;0.963856
5108.000000;0.969340
5107.000000;0.976101
5106.000000;0.981489
5105.000000;0.984837
5104.000000;0.985390
5103.000000;0.984264
5102.000000;0.985767
5101.000000;0.991576
5100.000000;0.995978
5099.000000;0.992430
5098.000000;0.983131
5097.000000;0.975638
5096.000000;0.972934
5095.000000;0.972633
5094.000000;0.973065
5093.000000;0.974245
5092.000000;0.974571
5091.000000;0.972373
5090.000000;0.969026
5089.000000;0.967281
5088.000000;0.968021
5087.000000;0.971205
5086.000000;0.978062
5085.000000;0.987807
5084.000000;0.994200
5083.000000;0.991393
5082.000000;0.981688
5081.000000;0.971241
5080.000000;0.962097
5079.000000;0.954820
5078.000000;0.953840
5077.000000;0.962570
5076.000000;0.974924
5075.000000;0.978424
5074.000000;0.968390
5073.000000;0.953135
5072.000000;0.942864
5071.000000;0.940709
5070.000000;0.944337
5069.000000;0.949846
5068.000000;0.953128
5067.000000;0.951782
5066.000000;0.947464
5065.000000;0.944013
5064.000000;0.943409
5063.000000;0.945373
5062.000000;0.949019
5061.000000;0.952495
5060.000000;0.952803
5059.000000;0.949031
5058.000000;0.944084
5057.000000;0.940512
5056.000000;0.937125
5055.000000;0.932405
5054.000000;0.928772
5053.000000;0.929852
5052.000000;0.935274
5051.000000;0.941695
5050.000000;0.947563
5049.000000;0.953234
5048.000000;0.956812
5047.000000;0.954172
5046.000000;0.945108
5045.000000;0.934760
5044.000000;0.926877
5043.000000;0.920906
5042.000000;0.915633
5041.000000;0.911753
5040.000000;0.911076
5039.000000;0.914734
5038.000000;0.921597
5037.000000;0.927450
5036.000000;0.926640
5035.000000;0.917404
5034.000000;0.904730
5033.000000;0.894707
5032.000000;0.888923
5031.000000;0.886036
5030.000000;0.885521
5029.000000;0.887524
5028.000000;0.890406
5027.000000;0.891740
5026.000000;0.891317
5025.000000;0.890325
5024.000000;0.888561
5023.000000;0.885216
5022.000000;0.880906
5021.000000;0.876135
5020.000000;0.869235
5019.000000;0.859027
5018.000000;0.848078
5017.000000;0.840249
5016.000000;0.836305
5015.000000;0.833816
5014.000000;0.830420
5013.000000;0.825609
5012.000000;0.820017
5011.000000;0.814935
5010.000000;0.812198
5009.000000;0.812787
5008.000000;0.815274
5007.000000;0.816280
5006.000000;0.812581
5005.000000;0.803442
5004.000000;0.792223
5003.000000;0.785163
5002.000000;0.786211
5001.000000;0.791917
5000.000000;0.793650
4999.000000;0.787182
4998.000000;0.777142
4997.000000;0.769915
4996.000000;0.766406
4995.000000;0.763440
4994.000000;0.758781
4993.000000;0.752294
4992.000000;0.744429
4991.000000;0.736384
4990.000000;0.730245
4989.000000;0.726635
4988.000000;0.723257
4987.000000;0.717356
4986.000000;0.708670
4985.000000;0.698840
4984.000000;0.689599
4983.000000;0.682565
4982.000000;0.678453
4981.000000;0.675088
4980.000000;0.668612
4979.000000;0.658260
4978.000000;0.647524
4977.000000;0.639314
4976.000000;0.632846
4975.000000;0.626582
4974.000000;0.621371
4973.000000;0.618501
4972.000000;0.616708
4971.000000;0.613361
4970.000000;0.607518
4969.000000;0.600000
4968.000000;0.591666
4967.000000;0.583581
4966.000000;0.577270
4965.000000;0.572737
4964.000000;0.567746
4963.000000;0.560766
4962.000000;0.552908
4961.000000;0.545299
4960.000000;0.536784
4959.000000;0.526332
4958.000000;0.515737
4957.000000;0.507477
4956.000000;0.501462
4955.000000;0.495804
4954.000000;0.489480
4953.000000;0.482481
4952.000000;0.474421
4951.000000;0.464954
4950.000000;0.454962
4949.000000;0.445851
4948.000000;0.438153
4947.000000;0.431686
4946.000000;0.426103
4945.000000;0.420354
4944.000000;0.412873
4943.000000;0.403669
4942.000000;0.395068
4941.000000;0.388939
4940.000000;0.384230
4939.000000;0.378530
4938.000000;0.370910
4937.000000;0.361899
4936.000000;0.351954
4935.000000;0.341530
4934.000000;0.331731
4933.000000;0.323357
4932.000000;0.315843
4931.000000;0.308181
4930.000000;0.300433
4929.000000;0.293438
4928.000000;0.287648
4927.000000;0.282845
4926.000000;0.278114
4925.000000;0.271654
4924.000000;0.262045
4923.000000;0.250517
4922.000000;0.240480
4921.000000;0.233728
4920.000000;0.228409
4919.000000;0.221557
4918.000000;0.212376
4917.000000;0.202285
4916.000000;0.193047
4915.000000;0.185702
4914.000000;0.180074
4913.000000;0.174366
4912.000000;0.166438
4911.000000;0.156380
4910.000000;0.146660
4909.000000;0.138951
4908.000000;0.132208
4907.000000;0.124733
4906.000000;0.116599
4905.000000;0.108714
4904.000000;0.101084
4903.000000;0.093409
4902.000000;0.085972
4901.000000;0.078660
4900.000000;0.070335
4899.000000;0.060643
4898.000000;0.051372
4897.000000;0.044454
4896.000000;0.039345
4895.000000;0.033759
4894.000000;0.026405
4893.000000;0.017880
4892.000000;0.009619
4891.000000;0.003121
4890.000000;-0.000689
4889.000000;-0.002668
4888.000000;-0.005434
4887.000000;-0.010788
4886.000000;-0.017599
4885.000000;-0.023350
4884.000000;-0.027053
4883.000000;-0.029751
4882.000000;-0.032877
4881.000000;-0.037067
4880.000000;-0.042224
4879.000000;-0.047630
4878.000000;-0.052144
4877.000000;-0.055229
4876.000000;-0.057807
4875.000000;-0.061390
4874.000000;-0.066250
4873.000000;-0.071113
4872.000000;-0.074598
4871.000000;-0.076145
4870.000000;-0.075659
4869.000000;-0.073354
4868.000000;-0.070354
4867.000000;-0.068578
4866.000000;-0.069182
4865.000000;-0.071506
4864.000000;-0.074016
4863.000000;-0.075706
4862.000000;-0.076341
4861.000000;-0.075965
4860.000000;-0.074828
4859.000000;-0.073609
4858.000000;-0.072984
4857.000000;-0.072805
4856.000000;-0.072117
4855.000000;-0.070049
4854.000000;-0.066615
4853.000000;-0.062695
4852.000000;-0.059284
4851.000000;-0.056696
4850.000000;-0.054434
4849.000000;-0.051954
4848.000000;-0.049439
4847.000000;-0.047437
4846.000000;-0.045812
4845.000000;-0.043694
4844.000000;-0.040687
4843.000000;-0.037532
4842.000000;-0.035131
4841.000000;-0.033372
4840.000000;-0.031308
4839.000000;-0.028157
4838.000000;-0.023838
4837.000000;-0.018988
4836.000000;-0.014792
4835.000000;-0.012173
4834.000000;-0.010650
4833.000000;-0.008552
4832.000000;-0.004879
4831.000000;-0.000504
4830.000000;0.003029
4829.000000;0.005442
4828.000000;0.007742
4827.000000;0.010685
4826.000000;0.014113
4825.000000;0.017631
4824.000000;0.021060
4823.000000;0.024166
4822.000000;0.026759
4821.000000;0.029258
4820.000000;0.032507
4819.000000;0.036737
4818.000000;0.041180
4817.000000;0.044961
4816.000000;0.048005
4815.000000;0.050839
4814.000000;0.053876
4813.000000;0.057116
4812.000000;0.060332
4811.000000;0.063326
4810.000000;0.066073
4809.000000;0.068750
4808.000000;0.071610
4807.000000;0.074757
4806.000000;0.078063
4805.000000;0.081261
4804.000000;0.084108
4803.000000;0.086534
4802.000000;0.088714
4801.000000;0.090875
4800.000000;0.093039
4799.000000;0.095079
4798.000000;0.097050
4797.000000;0.099193
4796.000000;0.101566
4795.000000;0.103966
4794.000000;0.106392
4793.000000;0.109247
4792.000000;0.112784
4791.000000;0.116615
4790.000000;0.120086
4789.000000;0.122981
4788.000000;0.125546
4787.000000;0.127973
4786.000000;0.130206
4785.000000;0.132220
4784.000000;0.134169
4783.000000;0.136257
4782.000000;0.138603
4781.000000;0.141197
4780.000000;0.143830
4779.000000;0.146167
4778.000000;0.148098
4777.000000;0.149920
4776.000000;0.152002
4775.000000;0.154379
4774.000000;0.156848
4773.000000;0.159337
4772.000000;0.161924
4771.000000;0.164582
4770.000000;0.167115
4769.000000;0.169336
4768.000000;0.171156
4767.000000;0.172577
4766.000000;0.173767
4765.000000;0.175069
4764.000000;0.176758
4763.000000;0.178779
4762.000000;0.180841
4761.000000;0.182730
4760.000000;0.184468
4759.000000;0.186269
4758.000000;0.188397
4757.000000;0.190928
4756.000000;0.193518
4755.000000;0.195596
4754.000000;0.196958
4753.000000;0.198034
4752.000000;0.199429
4751.000000;0.201319
4750.000000;0.203432
4749.000000;0.205426
4748.000000;0.207100
4747.000000;0.208428
4746.000000;0.209619
4745.000000;0.211023
4744.000000;0.212800
4743.000000;0.214787
4742.000000;0.216825
4741.000000;0.218989
4740.000000;0.221263
4739.000000;0.223241
4738.000000;0.224544
4737.000000;0.225414
4736.000000;0.226526
4735.000000;0.228190
4734.000000;0.230072
4733.000000;0.231721
4732.000000;0.233058
4731.000000;0.234282
4730.000000;0.235606
4729.000000;0.237159
4728.000000;0.238936
4727.000000;0.240680
4726.000000;0.242022
4725.000000;0.242869
4724.000000;0.243544
4723.000000;0.244424
4722.000000;0.245539
4721.000000;0.246622
4720.000000;0.247459
4719.000000;0.248121
4718.000000;0.248907
4717.000000;0.250104
4716.000000;0.251755
4715.000000;0.253629
4714.000000;0.255442
4713.000000;0.257105
4712.000000;0.258697
4711.000000;0.260243
4710.000000;0.261615
4709.000000;0.262676
4708.000000;0.263448
4707.000000;0.264145
4706.000000;0.265050
4705.000000;0.266301
4704.000000;0.267727
4703.000000;0.268943
4702.000000;0.269739
4701.000000;0.270349
4700.000000;0.271208
4699.000000;0.272460
4698.000000;0.273828
4697.000000;0.274987
4696.000000;0.275931
4695.000000;0.276912
4694.000000;0.278104
4693.000000;0.279413
4692.000000;0.280597
4691.000000;0.281522
4690.000000;0.282300
4689.000000;0.283160
4688.000000;0.284207
4687.000000;0.285338
4686.000000;0.286409
4685.000000;0.287371
4684.000000;0.288227
4683.000000;0.288957
4682.000000;0.289601
4681.000000;0.290334
4680.000000;0.291298
4679.000000;0.292399
4678.000000;0.293376
4677.000000;0.294076
4676.000000;0.294592
4675.000000;0.295134
4674.000000;0.295879
4673.000000;0.296911
4672.000000;0.298180
4671.000000;0.299489
4670.000000;0.300620
4669.000000;0.301502
4668.000000;0.302239
4667.000000;0.302953
4666.000000;0.303701
4665.000000;0.304500
4664.000000;0.305356
4663.000000;0.306217
4662.000000;0.306989
4661.000000;0.307617
4660.000000;0.308125
4659.000000;0.308574
4658.000000;0.309039
4657.000000;0.309635
4656.000000;0.310442
4655.000000;0.311377
4654.000000;0.312197
4653.000000;0.312720
4652.000000;0.313046
4651.000000;0.313508
4650.000000;0.314359
4649.000000;0.315520
4648.000000;0.316642
4647.000000;0.317415
4646.000000;0.317814
4645.000000;0.318054
4644.000000;0.318345
4643.000000;0.318751
4642.000000;0.319259
4641.000000;0.319874
4640.000000;0.320610
4639.000000;0.321442
4638.000000;0.322319
4637.000000;0.323192
4636.000000;0.324009
4635.000000;0.324743
4634.000000;0.325457
4633.000000;0.326259
4632.000000;0.327118
4631.000000;0.327812
4630.000000;0.328155
4629.000000;0.328247
4628.000000;0.328396
4627.000000;0.328780
4626.000000;0.329260
4625.000000;0.329564
4624.000000;0.329623
4623.000000;0.329694
4622.000000;0.330129
4621.000000;0.331015
4620.000000;0.332070
4619.000000;0.332928
4618.000000;0.333482
4617.000000;0.333899
4616.000000;0.334343
4615.000000;0.334811
4614.000000;0.335254
4613.000000;0.335702
4612.000000;0.336218
4611.000000;0.336818
4610.000000;0.337504
4609.000000;0.338255
4608.000000;0.338917
4607.000000;0.339238
4606.000000;0.339165
4605.000000;0.339010
4604.000000;0.339167
4603.000000;0.339722
4602.000000;0.340460
4601.000000;0.341176
4600.000000;0.341817
4599.000000;0.342351
4598.000000;0.342714
4597.000000;0.342919
4596.000000;0.343086
4595.000000;0.343313
4594.000000;0.343616
4593.000000;0.344009
4592.000000;0.344514
4591.000000;0.345058
4590.000000;0.345484
4589.000000;0.345753
4588.000000;0.346046
4587.000000;0.346569
4586.000000;0.347290
4585.000000;0.347939
4584.000000;0.348270
4583.000000;0.348284
4582.000000;0.348221
4581.000000;0.348338
4580.000000;0.348696
4579.000000;0.349137
4578.000000;0.349473
4577.000000;0.349657
4576.000000;0.349776
4575.000000;0.349924
4574.000000;0.350150
4573.000000;0.350489
4572.000000;0.350945
4571.000000;0.351429
4570.000000;0.351801
4569.000000;0.351991
4568.000000;0.352052
4567.000000;0.352095
4566.000000;0.352211
4565.000000;0.352455
4564.000000;0.352807
4563.000000;0.353155
4562.000000;0.353375
4561.000000;0.353470
4560.000000;0.353567
4559.000000;0.353776
4558.000000;0.354090
4557.000000;0.354433
4556.000000;0.354729
4555.000000;0.354924
4554.000000;0.355023
4553.000000;0.355140
4552.000000;0.355433
4551.000000;0.355930
4550.000000;0.356443
4549.000000;0.356728
4548.000000;0.356714
4547.000000;0.356548
4546.000000;0.356422
4545.000000;0.356420
4544.000000;0.356495
4543.000000;0.356581
4542.000000;0.356696
4541.000000;0.356917
4540.000000;0.357233
4539.000000;0.357484
4538.000000;0.357507
4537.000000;0.357371
4536.000000;0.357340
4535.000000;0.357561
4534.000000;0.357857
4533.000000;0.357926
4532.000000;0.357724
4531.000000;0.357526
4530.000000;0.357611
4529.000000;0.357962
4528.000000;0.358342
4527.000000;0.358575
4526.000000;0.358684
4525.000000;0.358798
4524.000000;0.359001
4523.000000;0.359283
4522.000000;0.359551
4521.000000;0.359678
4520.000000;0.359615
4519.000000;0.359489
4518.000000;0.359529
4517.000000;0.359836
4516.000000;0.360272
4515.000000;0.360599
4514.000000;0.360694
4513.000000;0.360604
4512.000000;0.360452
4511.000000;0.360382
4510.000000;0.360528
4509.000000;0.360922
4508.000000;0.361412
4507.000000;0.361769
4506.000000;0.361890
4505.000000;0.361841
4504.000000;0.361706
4503.000000;0.361508
4502.000000;0.361275
4501.000000;0.361076
4500.000000;0.360949
4499.000000;0.360899
4498.000000;0.361008
4497.000000;0.361413
4496.000000;0.362089
4495.000000;0.362746
4494.000000;0.363050
4493.000000;0.362918
4492.000000;0.362549
4491.000000;0.362227
4490.000000;0.362140
4489.000000;0.362293
4488.000000;0.362497
4487.000000;0.362525
4486.000000;0.362377
4485.000000;0.362326
4484.000000;0.362587
4483.000000;0.363014
4482.000000;0.363256
4481.000000;0.363171
4480.000000;0.362938
4479.000000;0.362797
4478.000000;0.362843
4477.000000;0.363065
4476.000000;0.363374
4475.000000;0.363573
4474.000000;0.363488
4473.000000;0.363243
4472.000000;0.363223
4471.000000;0.363644
4470.000000;0.364244
4469.000000;0.364549
4468.000000;0.364401
4467.000000;0.364093
4466.000000;0.363999
4465.000000;0.364179
4464.000000;0.364366
4463.000000;0.364276
4462.000000;0.363897
4461.000000;0.363510
4460.000000;0.363403
4459.000000;0.363577
4458.000000;0.363774
4457.000000;0.363807
4456.000000;0.363745
4455.000000;0.363711
4454.000000;0.363618
4453.000000;0.363284
4452.000000;0.362763
4451.000000;0.362402
4450.000000;0.362497
4449.000000;0.362993
4448.000000;0.363569
4447.000000;0.363926
4446.000000;0.363959
4445.000000;0.363754
4444.000000;0.363516
4443.000000;0.363430
4442.000000;0.363530
4441.000000;0.363708
4440.000000;0.363882
4439.000000;0.364087
4438.000000;0.364349
4437.000000;0.364546
4436.000000;0.364511
4435.000000;0.364277
4434.000000;0.364111
4433.000000;0.364262
4432.000000;0.364712
4431.000000;0.365172
4430.000000;0.365322
4429.000000;0.365081
4428.000000;0.364670
4427.000000;0.364386
4426.000000;0.364314
4425.000000;0.364301
4424.000000;0.364170
4423.000000;0.363863
4422.000000;0.363376
4421.000000;0.362710
4420.000000;0.362027
4419.000000;0.361697
4418.000000;0.361980
4417.000000;0.362690
4416.000000;0.363329
4415.000000;0.363545
4414.000000;0.363309
4413.000000;0.362741
4412.000000;0.361998
4411.000000;0.361323
4410.000000;0.360939
4409.000000;0.360800
4408.000000;0.360668
4407.000000;0.360475
4406.000000;0.360401
4405.000000;0.360540
4404.000000;0.360758
4403.000000;0.360942
4402.000000;0.361090
4401.000000;0.361033
4400.000000;0.360389
4399.000000;0.359069
4398.000000;0.357576
4397.000000;0.356535
4396.000000;0.356124
4395.000000;0.356135
4394.000000;0.356314
4393.000000;0.356326
4392.000000;0.355719
4391.000000;0.354419
4390.000000;0.353105
4389.000000;0.352588
4388.000000;0.352857
4387.000000;0.353109
4386.000000;0.352716
4385.000000;0.351806
4384.000000;0.350898
4383.000000;0.350357
4382.000000;0.350241
4381.000000;0.350294
4380.000000;0.349996
4379.000000;0.349001
4378.000000;0.347623
4377.000000;0.346512
4376.000000;0.345756
4375.000000;0.344696
4374.000000;0.342882
4373.000000;0.340813
4372.000000;0.339387
4371.000000;0.338848
4370.000000;0.338572
4369.000000;0.337808
4368.000000;0.336420
4367.000000;0.334955
4366.000000;0.334098
4365.000000;0.334033
4364.000000;0.334247
4363.000000;0.334004
4362.000000;0.333028
4361.000000;0.331613
4360.000000;0.330129
4359.000000;0.328696
4358.000000;0.327326
4357.000000;0.326089
4356.000000;0.325022
4355.000000;0.324106
4354.000000;0.323437
4353.000000;0.323124
4352.000000;0.322921
4351.000000;0.322291
4350.000000;0.320998
4349.000000;0.319377
4348.000000;0.317824
4347.000000;0.316278
4346.000000;0.314448
4345.000000;0.312342
4344.000000;0.310354
4343.000000;0.308983
4342.000000;0.308545
4341.000000;0.308892
4340.000000;0.309246
4339.000000;0.308652
4338.000000;0.306895
4337.000000;0.304724
4336.000000;0.302918
4335.000000;0.301385
4334.000000;0.299448
4333.000000;0.296902
4332.000000;0.294431
4331.000000;0.292958
4330.000000;0.292784
4329.000000;0.293203
4328.000000;0.292874
4327.000000;0.290964
4326.000000;0.288197
4325.000000;0.286355
4324.000000;0.286436
4323.000000;0.287570
4322.000000;0.287938
4321.000000;0.286626
4320.000000;0.284290
4319.000000;0.282147
4318.000000;0.280751
4317.000000;0.279683
4316.000000;0.278039
4315.000000;0.275328
4314.000000;0.272194
4313.000000;0.270048
4312.000000;0.269557
4311.000000;0.269639
4310.000000;0.268560
4309.000000;0.266091
4308.000000;0.263928
4307.000000;0.263747
4306.000000;0.265296
4305.000000;0.266713
4304.000000;0.266641
4303.000000;0.265483
4302.000000;0.264426
4301.000000;0.263867
4300.000000;0.263067
4299.000000;0.261108
4298.000000;0.258053
4297.000000;0.254960
4296.000000;0.252906
4295.000000;0.252277
4294.000000;0.252753
4293.000000;0.253656
4292.000000;0.254421
4291.000000;0.254917
4290.000000;0.255254
4289.000000;0.255317
4288.000000;0.254901
4287.000000;0.254487
4286.000000;0.255311
4285.000000;0.258030
4284.000000;0.261643
4283.000000;0.264485
4282.000000;0.266296
4281.000000;0.268571
4280.000000;0.272595
4279.000000;0.277690
4278.000000;0.281790
4277.000000;0.283556
4276.000000;0.283710
4275.000000;0.284388
4274.000000;0.287193
4273.000000;0.291760
4272.000000;0.296478
4271.000000;0.300654
4270.000000;0.305278
4269.000000;0.311322
4268.000000;0.318198
4267.000000;0.324645
4266.000000;0.330437
4265.000000;0.336079
4264.000000;0.341468
4263.000000;0.346258
4262.000000;0.350973
4261.000000;0.356301
4260.000000;0.361757
4259.000000;0.366424
4258.000000;0.370936
4257.000000;0.377543
4256.000000;0.387942
4255.000000;0.401855
4254.000000;0.417279
4253.000000;0.430899
4252.000000;0.439357
4251.000000;0.442508
4250.000000;0.444565
4249.000000;0.450032
4248.000000;0.459307
4247.000000;0.469332
4246.000000;0.478075
4245.000000;0.486210
4244.000000;0.494785
4243.000000;0.504244
4242.000000;0.515486
4241.000000;0.528779
4240.000000;0.541580
4239.000000;0.550671
4238.000000;0.557224
4237.000000;0.566287
4236.000000;0.580151
4235.000000;0.595485
4234.000000;0.608248
4233.000000;0.618136
4232.000000;0.626463
4231.000000;0.633581
4230.000000;0.640539
4229.000000;0.649961
4228.000000;0.662332
4227.000000;0.673937
4226.000000;0.681321
4225.000000;0.686052
4224.000000;0.692588
4223.000000;0.703192
4222.000000;0.717021
4221.000000;0.731969
4220.000000;0.745216
4219.000000;0.754255
4218.000000;0.759782
4217.000000;0.765846
4216.000000;0.775135
4215.000000;0.785663
4214.000000;0.794482
4213.000000;0.803529
4212.000000;0.817658
4211.000000;0.838504
4210.000000;0.863168
4209.000000;0.886696
4208.000000;0.904440
4207.000000;0.914590
4206.000000;0.920958
4205.000000;0.930378
4204.000000;0.944278
4203.000000;0.955548
4202.000000;0.957301
4201.000000;0.953325
4200.000000;0.953907
4199.000000;0.963451
4198.000000;0.977294
4197.000000;0.989323
4196.000000;0.999729
4195.000000;1.012967
4194.000000;1.030228
4193.000000;1.046161
4192.000000;1.052607
4191.000000;1.047873
4190.000000;1.041986
4189.000000;1.047838
4188.000000;1.070067
4187.000000;1.100745
4186.000000;1.120600
4185.000000;1.118030
4184.000000;1.104536
4183.000000;1.098378
4182.000000;1.110731
4181.000000;1.142229
4180.000000;1.180562
4179.000000;1.207086
4178.000000;1.214149
4177.000000;1.211653
4176.000000;1.212606
4175.000000;1.220798
4174.000000;1.234110
4173.000000;1.252802
4172.000000;1.278723
4171.000000;1.305414
4170.000000;1.314246
4169.000000;1.294465
4168.000000;1.260998
4167.000000;1.238476
4166.000000;1.242923
4165.000000;1.277760
4164.000000;1.333433
4163.000000;1.385944
4162.000000;1.412237
4161.000000;1.419180
4160.000000;1.428924
4159.000000;1.449680
4158.000000;1.472558
4157.000000;1.476606
4156.000000;1.452163
4155.000000;1.424171
4154.000000;1.421529
4153.000000;1.443876
4152.000000;1.469634
4151.000000;1.477510
4150.000000;1.466537
4149.000000;1.460877
4148.000000;1.474657
4147.000000;1.492455
4146.000000;1.495725
4145.000000;1.493020
4144.000000;1.505034
4143.000000;1.539000
4142.000000;1.577853
4141.000000;1.590402
4140.000000;1.573044
4139.000000;1.550553
4138.000000;1.536748
4137.000000;1.533064
4136.000000;1.548049
4135.000000;1.592433
4134.000000;1.649698
4133.000000;1.672089
4132.000000;1.644992
4131.000000;1.606767
4130.000000;1.593696
4129.000000;1.621717
4128.000000;1.685585
4127.000000;1.751488
4126.000000;1.769068
4125.000000;1.739675
4124.000000;1.704744
4123.000000;1.685479
4122.000000;1.681114
4121.000000;1.685286
4120.000000;1.700286
4119.000000;1.722413
4118.000000;1.723073
4117.000000;1.699617
4116.000000;1.675257
4115.000000;1.664707
4114.000000;1.681139
4113.000000;1.719018
4112.000000;1.752725
4111.000000;1.768888
4110.000000;1.783118
4109.000000;1.813634
4108.000000;1.860553
4107.000000;1.915868
4106.000000;1.975172
4105.000000;2.020963
4104.000000;2.014392
4103.000000;1.963790
4102.000000;1.928218
4101.000000;1.922669
4100.000000;1.893382
4099.000000;1.810135
4098.000000;1.733845
4097.000000;1.738303
4096.000000;1.856455
4095.000000;2.097241
4094.000000;2.163028
4093.000000;2.000538
4092.000000;1.894101
4091.000000;1.860421
4090.000000;1.887019
4089.000000;1.942724
4088.000000;1.969398
4087.000000;1.950280
4086.000000;1.928269
4085.000000;1.913318
4084.000000;1.896759
4083.000000;1.900745
4082.000000;1.949297
4081.000000;2.024098
4080.000000;2.054708
4079.000000;2.028279
4078.000000;2.010876
4077.000000;2.029066
4076.000000;2.066520
4075.000000;2.081201
4074.000000;2.016113
4073.000000;1.927763
4072.000000;1.886053
4071.000000;1.883213
4070.000000;1.894714
4069.000000;1.906755
4068.000000;1.922423
4067.000000;1.961397
4066.000000;2.061673
4065.000000;2.246092
4064.000000;2.486176
4063.000000;2.396892
4062.000000;2.064763
4061.000000;1.919017
4060.000000;1.924916
4059.000000;2.041616
4058.000000;2.240513
4057.000000;2.401260
4056.000000;2.343085
4055.000000;2.300403
4054.000000;2.214211
4053.000000;2.044934
4052.000000;1.945348
4051.000000;1.954386
4050.000000;2.035957
4049.000000;2.068127
4048.000000;2.037044
4047.000000;2.027631
4046.000000;2.036662
4045.000000;2.069691
4044.000000;2.147652
4043.000000;2.250959
4042.000000;2.245504
4041.000000;2.088027
4040.000000;1.972205
4039.000000;1.996296
4038.000000;2.242795
4037.000000;2.564239
4036.000000;2.288272
4035.000000;2.324699
4034.000000;2.578831
4033.000000;2.808948
4032.000000;2.873619
4031.000000;2.543313
4030.000000;2.184003
4029.000000;1.995237
4028.000000;1.922818
4027.000000;1.938801
4026.000000;2.036560
4025.000000;2.189981
4024.000000;2.379135
4023.000000;2.774486
4022.000000;2.375011
4021.000000;2.036223
4020.000000;1.959137
4019.000000;1.936345
4018.000000;1.930394
4017.000000;1.939115
4016.000000;1.998874
4015.000000;2.065768
4014.000000;2.045856
4013.000000;2.006885
4012.000000;2.011361
4011.000000;2.027398
4010.000000;2.021999
4009.000000;2.025864
4008.000000;2.092517
4007.000000;2.168660
4006.000000;2.137967
4005.000000;2.157369
4004.000000;2.316509
4003.000000;2.262648
4002.000000;2.039845
4001.000000;1.928634
4000.000000;1.904993
3999.000000;2.010557
3998.000000;2.397047
3997.000000;2.393755
3996.000000;2.030964
3995.000000;1.941269
3994.000000;1.895839
3993.000000;1.908803
3992.000000;1.942261
3991.000000;1.991395
3990.000000;2.073271
3989.000000;2.180206
3988.000000;2.253629
3987.000000;2.299956
3986.000000;2.368390
3985.000000;2.393975
3984.000000;2.165860
3983.000000;1.950010
3982.000000;1.851785
3981.000000;1.867148
3980.000000;1.990927
3979.000000;2.208149
3978.000000;2.308348
3977.000000;2.148668
3976.000000;2.068889
3975.000000;2.090703
3974.000000;2.378464
3973.000000;2.914855
3972.000000;2.307439
3971.000000;2.172346
3970.000000;2.212486
3969.000000;2.480344
3968.000000;2.917473
3967.000000;2.408133
3966.000000;2.080644
3965.000000;1.947598
3964.000000;1.918067
3963.000000;1.998027
3962.000000;2.172255
3961.000000;2.197269
3960.000000;2.141445
3959.000000;2.210634
3958.000000;2.912776
3957.000000;2.420890
3956.000000;2.119485
3955.000000;2.066324
3954.000000;2.093468
3953.000000;2.116014
3952.000000;2.110931
3951.000000;2.129049
3950.000000;2.197165
3949.000000;2.282510
3948.000000;2.288411
3947.000000;2.235493
3946.000000;2.205051
3945.000000;2.423829
3944.000000;2.472134
3943.000000;2.098491
3942.000000;2.151838
3941.000000;2.558048
3940.000000;2.611531
3939.000000;2.252261
3938.000000;2.197567
3937.000000;2.303617
3936.000000;2.521134
3935.000000;2.884726
3934.000000;2.812852
3933.000000;2.313745
3932.000000;2.158880
3931.000000;2.201775
3930.000000;2.397772
3929.000000;2.918494
3928.000000;2.545655
3927.000000;2.300732
3926.000000;2.319405
3925.000000;2.584103
3924.000000;3.032374
3923.000000;3.277044
3922.000000;2.730167
3921.000000;2.649832
3920.000000;2.817576
3919.000000;2.589631
3918.000000;2.282810
3917.000000;2.257880
3916.000000;2.402859
3915.000000;2.677526
3914.000000;3.149921
3913.000000;3.021707
3912.000000;2.587481
3911.000000;2.394703
3910.000000;2.307270
3909.000000;2.292605
3908.000000;2.335388
3907.000000;2.528328
3906.000000;2.896141
3905.000000;2.404659
3904.000000;2.267967
3903.000000;2.181526
3902.000000;2.080681
3901.000000;2.063682
3900.000000;2.261709
3899.000000;2.448040
3898.000000;2.328459
3897.000000;2.377918
3896.000000;2.559457
3895.000000;2.648427
3894.000000;2.389558
3893.000000;2.230728
3892.000000;2.343331
3891.000000;2.621130
3890.000000;2.639126
3889.000000;2.552244
3888.000000;2.406487
3887.000000;2.285318
3886.000000;2.448845
3885.000000;2.875649
3884.000000;2.734969
3883.000000;2.435950
3882.000000;2.406660
3881.000000;2.440073
3880.000000;2.108747
3879.000000;2.156638
3878.000000;2.322419
3877.000000;2.588642
3876.000000;2.405758
3875.000000;2.111949
3874.000000;2.175667
3873.000000;2.319403
3872.000000;2.437997
3871.000000;2.848288
3870.000000;2.493867
3869.000000;2.503131
3868.000000;2.646776
3867.000000;2.671522
3866.000000;2.583703
3865.000000;2.561056
3864.000000;2.785675
3863.000000;2.702172
3862.000000;2.447141
3861.000000;2.414184
3860.000000;2.519160
3859.000000;2.748458
3858.000000;3.053670
3857.000000;3.550434
3856.000000;3.585332
3855.000000;3.249495
3854.000000;3.145088
3853.000000;3.284617
3852.000000;3.457411
3851.000000;3.461616
3850.000000;3.412272
3849.000000;3.254274
3848.000000;2.896527
3847.000000;2.587377
3846.000000;2.341000
3845.000000;2.168991
3844.000000;2.095740
3843.000000;2.149317
3842.000000;2.314785
3841.000000;2.543656
3840.000000;2.896472
3839.000000;3.488633
3838.000000;3.284055
3837.000000;2.995321
3836.000000;2.828150
3835.000000;2.694858
3834.000000;2.735145
3833.000000;3.068728
3832.000000;2.641799
3831.000000;2.405610
3830.000000;2.333965
3829.000000;2.234680
3828.000000;2.174943
3827.000000;2.612315
3826.000000;2.717606
3825.000000;2.442491
3824.000000;2.323972
3823.000000;2.151085
3822.000000;2.182700
3821.000000;2.682032
3820.000000;3.211500
3819.000000;2.958252
3818.000000;2.794493
3817.000000;2.678268
3816.000000;2.972823
3815.000000;3.651464
3814.000000;2.913750
3813.000000;2.719357
3812.000000;2.679597
3811.000000;2.736473
3810.000000;2.642884
3809.000000;2.506777
3808.000000;2.499962
3807.000000;2.888639
3806.000000;3.609624
3805.000000;3.501750
3804.000000;3.455305
3803.000000;3.370115
3802.000000;3.025812
3801.000000;2.916554
3800.000000;2.825184
3799.000000;2.671138
3798.000000;2.581221
3797.000000;3.303586
3796.000000;2.622541
3795.000000;2.518744
3794.000000;2.472242
3793.000000;2.344799
3792.000000;2.351641
3791.000000;2.580219
3790.000000;2.572036
3789.000000;2.425737
3788.000000;2.507401
3787.000000;2.813458
3786.000000;2.811680
3785.000000;2.438812
3784.000000;2.332714
3783.000000;2.357012
3782.000000;2.477171
3781.000000;2.910748
3780.000000;2.687675
3779.000000;2.333468
3778.000000;2.297507
3777.000000;2.283749
3776.000000;2.247322
3775.000000;2.206500
3774.000000;2.194516
3773.000000;2.211862
3772.000000;2.286693
3771.000000;2.566125
3770.000000;2.516106
3769.000000;2.430418
3768.000000;2.467067
3767.000000;2.773228
3766.000000;2.465446
3765.000000;2.098812
3764.000000;2.049817
3763.000000;2.071727
3762.000000;2.137181
3761.000000;2.353165
3760.000000;2.259458
3759.000000;2.269250
3758.000000;2.585882
3757.000000;2.500213
3756.000000;2.502603
3755.000000;2.745473
3754.000000;3.071170
3753.000000;3.307191
3752.000000;3.210253
3751.000000;3.146916
3750.000000;3.250729
3749.000000;3.455156
3748.000000;3.507174
3747.000000;3.378613
3746.000000;3.116079
3745.000000;3.091179
3744.000000;3.227870
3743.000000;3.184305
3742.000000;2.931030
3741.000000;2.708043
3740.000000;2.715787
3739.000000;2.939815
3738.000000;2.898665
3737.000000;2.766590
3736.000000;2.937521
3735.000000;3.034564
3734.000000;3.112687
3733.000000;3.028625
3732.000000;2.824044
3731.000000;2.712719
3730.000000;2.619545
3729.000000;2.541115
3728.000000;2.570258
3727.000000;2.521921
3726.000000;2.304932
3725.000000;2.143414
3724.000000;2.057716
3723.000000;2.119727
3722.000000;2.413437
3721.000000;3.040029
3720.000000;2.798885
3719.000000;2.644827
3718.000000;2.848455
3717.000000;2.764007
3716.000000;2.533649
3715.000000;2.406640
3714.000000;2.352076
3713.000000;2.419872
3712.000000;2.696124
3711.000000;2.678449
3710.000000;2.491408
3709.000000;2.512953
3708.000000;2.698655
3707.000000;2.897858
3706.000000;2.939052
3705.000000;2.631439
3704.000000;2.379012
3703.000000;2.227636
3702.000000;2.118040
3701.000000;2.151553
3700.000000;2.303291
3699.000000;2.301608
3698.000000;2.087131
3697.000000;1.996422
3696.000000;2.101091
3695.000000;2.469187
3694.000000;2.665885
3693.000000;2.448761
3692.000000;2.520110
3691.000000;2.938949
3690.000000;3.185884
3689.000000;2.919290
3688.000000;2.789889
3687.000000;2.722299
3686.000000;2.714037
3685.000000;3.295271
3684.000000;2.402678
3683.000000;2.166002
3682.000000;2.133839
3681.000000;2.256430
3680.000000;2.631078
3679.000000;3.283746
3678.000000;3.062149
3677.000000;2.747499
3676.000000;2.846103
3675.000000;3.059098
3674.000000;3.136774
3673.000000;3.039681
3672.000000;2.752714
3671.000000;2.480216
3670.000000;2.476471
3669.000000;2.692090
3668.000000;2.836707
3667.000000;2.709703
3666.000000;2.480155
3665.000000;2.265928
3664.000000;2.133404
3663.000000;2.129980
3662.000000;2.332921
3661.000000;2.793351
3660.000000;2.585108
3659.000000;2.467561
3658.000000;2.451496
3657.000000;2.592863
3656.000000;3.030729
3655.000000;2.891998
3654.000000;2.681915
3653.000000;2.536920
3652.000000;2.472094
3651.000000;2.648526
3650.000000;2.610867
3649.000000;2.423980
3648.000000;2.377460
3647.000000;2.353596
3646.000000;2.339587
3645.000000;2.332297
3644.000000;2.321802
3643.000000;2.263577
3642.000000;2.203005
3641.000000;2.115959
3640.000000;2.001711
3639.000000;1.967911
3638.000000;2.046136
3637.000000;2.154891
3636.000000;2.157205
3635.000000;2.132479
3634.000000;2.238206
3633.000000;2.442446
3632.000000;2.568199
3631.000000;2.564085
3630.000000;2.550336
3629.000000;2.482949
3628.000000;2.625870
3627.000000;2.828835
3626.000000;2.878857
3625.000000;2.761371
3624.000000;2.521055
3623.000000;2.393449
3622.000000;2.369796
3621.000000;2.794819
3620.000000;2.697919
3619.000000;2.177653
3618.000000;2.176227
3617.000000;2.251552
3616.000000;2.340599
3615.000000;2.513130
3614.000000;2.622765
3613.000000;2.606568
3612.000000;2.566335
3611.000000;2.374384
3610.000000;2.168007
3609.000000;2.118733
3608.000000;2.317463
3607.000000;2.741398
3606.000000;2.754389
3605.000000;2.438657
3604.000000;2.250465
3603.000000;2.196872
3602.000000;2.327574
3601.000000;2.685698
3600.000000;2.565321
3599.000000;2.365476
3598.000000;2.643665
3597.000000;2.901959
3596.000000;2.076403
3595.000000;1.970591
3594.000000;2.091782
3593.000000;2.327445
3592.000000;2.419658
3591.000000;2.377960
3590.000000;2.254191
3589.000000;2.022829
3588.000000;1.926382
3587.000000;2.132659
3586.000000;2.417625
3585.000000;2.268336
3584.000000;2.149873
3583.000000;2.188232
3582.000000;2.439386
3581.000000;2.248067
3580.000000;2.068676
3579.000000;2.116998
3578.000000;2.214685
3577.000000;2.215296
3576.000000;2.247690
3575.000000;2.241516
3574.000000;2.163535
3573.000000;2.125934
3572.000000;2.122958
3571.000000;2.153489
3570.000000;2.221135
3569.000000;2.285443
3568.000000;2.220488
3567.000000;2.029289
3566.000000;1.981285
3565.000000;2.094691
3564.000000;2.278902
3563.000000;2.552914
3562.000000;2.730244
3561.000000;2.288045
3560.000000;2.133600
3559.000000;2.353391
3558.000000;2.545310
3557.000000;2.399668
3556.000000;2.507446
3555.000000;2.660693
3554.000000;2.618021
3553.000000;3.237350
3552.000000;2.549280
3551.000000;2.196705
3550.000000;2.021998
3549.000000;1.925899
3548.000000;1.948342
3547.000000;2.116090
3546.000000;2.226964
3545.000000;2.177762
3544.000000;2.177297
3543.000000;2.249085
3542.000000;2.709185
3541.000000;2.985776
3540.000000;2.222863
3539.000000;2.025285
3538.000000;1.931311
3537.000000;2.002507
3536.000000;2.515600
3535.000000;2.365189
3534.000000;2.064555
3533.000000;2.141544
3532.000000;2.537964
3531.000000;2.557861
3530.000000;2.108885
3529.000000;1.919591
3528.000000;1.898710
3527.000000;2.069271
3526.000000;2.576032
3525.000000;2.396672
3524.000000;2.198442
3523.000000;2.216811
3522.000000;2.330845
3521.000000;2.448413
3520.000000;2.453620
3519.000000;2.532613
3518.000000;2.809872
3517.000000;2.739250
3516.000000;2.441068
3515.000000;2.315882
3514.000000;2.304611
3513.000000;2.547921
3512.000000;2.714398
3511.000000;2.376704
3510.000000;2.288026
3509.000000;2.272836
3508.000000;2.277470
3507.000000;2.349273
3506.000000;2.561219
3505.000000;3.146318
3504.000000;2.855983
3503.000000;2.575513
3502.000000;2.535797
3501.000000;2.768294
3500.000000;2.898190
3499.000000;2.427415
3498.000000;2.217570
3497.000000;2.157217
3496.000000;2.205457
3495.000000;2.416485
3494.000000;2.688188
3493.000000;2.312891
3492.000000;2.081987
3491.000000;2.012077
3490.000000;2.105961
3489.000000;2.396172
3488.000000;2.495118
3487.000000;2.497957
3486.000000;2.884551
3485.000000;2.641185
3484.000000;2.299806
3483.000000;2.204538
3482.000000;2.229767
3481.000000;2.424668
3480.000000;2.313533
3479.000000;2.048626
3478.000000;1.960324
3477.000000;1.978793
3476.000000;2.013405
3475.000000;2.041252
3474.000000;2.108984
3473.000000;2.181793
3472.000000;2.150788
3471.000000;2.068256
3470.000000;2.017613
3469.000000;1.998348
3468.000000;1.996467
3467.000000;2.072454
3466.000000;2.412166
3465.000000;2.364296
3464.000000;1.956864
3463.000000;1.906270
3462.000000;2.014126
3461.000000;2.211346
3460.000000;2.340782
3459.000000;2.480679
3458.000000;2.710123
3457.000000;2.644426
3456.000000;2.443523
3455.000000;2.182460
3454.000000;2.031618
3453.000000;2.036422
3452.000000;2.197047
3451.000000;2.429662
3450.000000;2.303974
3449.000000;2.101976
3448.000000;1.958898
3447.000000;1.938770
3446.000000;1.933630
3445.000000;1.811636
3444.000000;1.761064
3443.000000;1.834038
3442.000000;1.930182
3441.000000;1.954529
3440.000000;1.990406
3439.000000;2.036785
3438.000000;1.995708
3437.000000;1.885302
3436.000000;1.807795
3435.000000;1.810519
3434.000000;1.985800
3433.000000;2.170775
3432.000000;1.906486
3431.000000;1.756422
3430.000000;1.793823
3429.000000;2.059645
3428.000000;2.426544
3427.000000;2.147671
3426.000000;1.947146
3425.000000;1.911313
3424.000000;2.008439
3423.000000;2.261194
3422.000000;2.258943
3421.000000;1.961633
3420.000000;1.824424
3419.000000;1.850129
3418.000000;1.973478
3417.000000;2.050880
3416.000000;2.193857
3415.000000;2.577348
3414.000000;2.064482
3413.000000;1.841442
3412.000000;1.808643
3411.000000;1.847210
3410.000000;1.820930
3409.000000;1.724630
3408.000000;1.680323
3407.000000;1.859482
3406.000000;2.302582
3405.000000;2.000787
3404.000000;1.847464
3403.000000;2.125942
3402.000000;2.623514
3401.000000;2.386643
3400.000000;2.378494
3399.000000;2.657560
3398.000000;2.673911
3397.000000;2.893045
3396.000000;2.782347
3395.000000;2.536042
3394.000000;2.551912
3393.000000;2.417433
3392.000000;2.088183
3391.000000;1.904156
3390.000000;1.876867
3389.000000;1.984726
3388.000000;2.205481
3387.000000;2.443786
3386.000000;2.465013
3385.000000;2.304810
3384.000000;2.238421
3383.000000;2.238919
3382.000000;2.211091
3381.000000;2.144899
3380.000000;2.039526
3379.000000;1.955155
3378.000000;2.077535
3377.000000;2.468161
3376.000000;2.197704
3375.000000;2.013310
3374.000000;2.392642
3373.000000;2.539399
3372.000000;2.076646
3371.000000;1.959192
3370.000000;2.027040
3369.000000;2.303367
3368.000000;2.923259
3367.000000;2.726823
3366.000000;2.544816
3365.000000;2.459583
3364.000000;2.334721
3363.000000;2.272527
3362.000000;2.286771
3361.000000;2.394061
3360.000000;2.389305
3359.000000;2.076718
3358.000000;1.891659
3357.000000;1.864078
3356.000000;2.016576
3355.000000;2.473667
3354.000000;2.266765
3353.000000;1.901638
3352.000000;1.860092
3351.000000;1.988525
3350.000000;2.399408
3349.000000;2.360221
3348.000000;2.037731
3347.000000;1.969573
3346.000000;1.962930
3345.000000;2.021464
3344.000000;2.182195
3343.000000;2.483172
3342.000000;2.611504
3341.000000;2.339069
3340.000000;2.134575
3339.000000;2.074526
3338.000000;2.122478
3337.000000;2.183935
3336.000000;2.131830
3335.000000;2.032864
3334.000000;2.015723
3333.000000;2.169093
3332.000000;2.548703
3331.000000;2.470163
3330.000000;2.270314
3329.000000;2.393797
3328.000000;2.695433
3327.000000;2.535451
3326.000000;2.417249
3325.000000;2.495325
3324.000000;2.480261
3323.000000;2.317059
3322.000000;2.190028
3321.000000;2.146641
3320.000000;2.175355
3319.000000;2.258419
3318.000000;2.426977
3317.000000;2.728405
3316.000000;2.632523
3315.000000;2.564753
3314.000000;2.409181
3313.000000;2.079205
3312.000000;1.921693
3311.000000;1.916615
3310.000000;2.065900
3309.000000;2.478342
3308.000000;2.393792
3307.000000;2.039407
3306.000000;1.896710
3305.000000;1.861864
3304.000000;1.936132
3303.000000;2.039315
3302.000000;1.992688
3301.000000;1.939486
3300.000000;1.998797
3299.000000;2.141913
3298.000000;2.328871
3297.000000;2.413879
3296.000000;2.330395
3295.000000;2.254660
3294.000000;2.298953
3293.000000;2.718407
3292.000000;2.511237
3291.000000;2.127871
3290.000000;2.024094
3289.000000;2.016620
3288.000000;2.139949
3287.000000;2.544115
3286.000000;2.182577
3285.000000;1.868198
3284.000000;1.769474
3283.000000;1.761783
3282.000000;1.852760
3281.000000;2.086450
3280.000000;2.150680
3279.000000;2.016010
3278.000000;2.127644
3277.000000;2.589626
3276.000000;2.685380
3275.000000;2.376057
3274.000000;2.698878
3273.000000;2.528226
3272.000000;2.056235
3271.000000;1.960675
3270.000000;2.044297
3269.000000;2.598505
3268.000000;2.420537
3267.000000;2.025294
3266.000000;2.058220
3265.000000;2.270607
3264.000000;2.882096
3263.000000;2.423280
3262.000000;2.147805
3261.000000;2.180869
3260.000000;2.189420
3259.000000;2.047737
3258.000000;1.921839
3257.000000;1.875725
3256.000000;1.894629
3255.000000;1.947712
3254.000000;2.031027
3253.000000;2.135754
3252.000000;2.351697
3251.000000;2.726959
3250.000000;2.282991
3249.000000;2.079470
3248.000000;2.209003
3247.000000;2.259866
3246.000000;1.938622
3245.000000;1.844145
3244.000000;2.083964
3243.000000;2.208293
3242.000000;1.855444
3241.000000;1.741946
3240.000000;1.738546
3239.000000;1.742961
3238.000000;1.699646
3237.000000;1.657692
3236.000000;1.684142
3235.000000;1.795006
3234.000000;2.077175
3233.000000;2.309491
3232.000000;2.043310
3231.000000;1.932449
3230.000000;1.980373
3229.000000;2.089918
3228.000000;2.035398
3227.000000;1.873588
3226.000000;1.796689
3225.000000;1.827396
3224.000000;2.062723
3223.000000;2.399050
3222.000000;2.149089
3221.000000;2.105860
3220.000000;2.210855
3219.000000;2.254633
3218.000000;2.160100
3217.000000;2.033395
3216.000000;1.945249
3215.000000;1.913706
3214.000000;1.959273
3213.000000;2.132935
3212.000000;2.660199
3211.000000;2.881384
3210.000000;2.401021
3209.000000;2.318395
3208.000000;2.901566
3207.000000;2.332682
3206.000000;1.955555
3205.000000;1.905527
3204.000000;1.973819
3203.000000;2.188972
3202.000000;2.806916
3201.000000;2.388844
3200.000000;2.070770
3199.000000;2.001943
3198.000000;2.042080
3197.000000;2.222108
3196.000000;2.658905
3195.000000;2.508988
3194.000000;2.131668
3193.000000;2.056173
3192.000000;2.116113
3191.000000;2.244400
3190.000000;2.247446
3189.000000;2.098689
3188.000000;1.957916
3187.000000;1.876649
3186.000000;1.876646
3185.000000;1.944533
3184.000000;2.121984
3183.000000;2.287029
3182.000000;2.112620
3181.000000;1.983884
3180.000000;2.076862
3179.000000;2.658890
3178.000000;2.455821
3177.000000;2.174105
3176.000000;2.232957
3175.000000;2.477234
3174.000000;3.047319
3173.000000;2.840003
3172.000000;2.592197
3171.000000;2.607672
3170.000000;2.642298
3169.000000;2.423507
3168.000000;2.226842
3167.000000;2.207132
3166.000000;2.432468
3165.000000;2.766217
3164.000000;2.660920
3163.000000;2.309538
3162.000000;2.055822
3161.000000;2.033497
3160.000000;2.295314
3159.000000;2.497990
3158.000000;2.323657
3157.000000;2.680810
3156.000000;2.645073
3155.000000;2.227335
3154.000000;2.107756
3153.000000;2.017107
3152.000000;1.988918
3151.000000;2.160983
3150.000000;2.646242
3149.000000;2.345628
3148.000000;2.170114
3147.000000;2.183402
3146.000000;2.371379
3145.000000;2.943994
3144.000000;2.914053
3143.000000;2.779309
3142.000000;2.602303
3141.000000;2.503071
3140.000000;2.367552
3139.000000;2.231789
3138.000000;2.121704
3137.000000;1.970419
3136.000000;1.899783
3135.000000;1.954726
3134.000000;2.138059
3133.000000;2.263111
3132.000000;2.134979
3131.000000;2.023901
3130.000000;1.986339
3129.000000;1.991375
3128.000000;2.057542
3127.000000;2.373889
3126.000000;2.548503
3125.000000;2.086141
3124.000000;1.951332
3123.000000;2.035914
3122.000000;2.323760
3121.000000;2.972106
3120.000000;2.541757
3119.000000;2.130593
3118.000000;1.966382
3117.000000;1.954839
3116.000000;2.055196
3115.000000;2.196770
3114.000000;2.252367
3113.000000;2.194363
3112.000000;2.161971
3111.000000;2.191404
3110.000000;2.378109
3109.000000;2.622614
3108.000000;2.360800
3107.000000;2.197470
3106.000000;2.178388
3105.000000;2.115112
3104.000000;2.071138
3103.000000;2.117227
3102.000000;2.294024
3101.000000;2.421517
3100.000000;2.168704
3099.000000;1.989145
3098.000000;2.012703
3097.000000;2.355704
3096.000000;2.405100
3095.000000;2.207180
3094.000000;2.270807
3093.000000;2.089152
3092.000000;1.957714
3091.000000;2.060038
3090.000000;2.473825
3089.000000;2.321570
3088.000000;1.900861
3087.000000;1.772260
3086.000000;1.789059
3085.000000;1.946630
3084.000000;2.279239
3083.000000;2.470474
3082.000000;2.283943
3081.000000;2.198795
3080.000000;2.152131
3079.000000;2.138481
3078.000000;2.127567
3077.000000;2.162197
3076.000000;2.440982
3075.000000;2.365014
3074.000000;2.051715
3073.000000;1.960108
3072.000000;2.027181
3071.000000;2.153500
3070.000000;2.112819
3069.000000;2.103167
3068.000000;2.258180
3067.000000;2.401301
3066.000000;2.300138
3065.000000;2.144335
3064.000000;2.095459
3063.000000;2.093476
3062.000000;2.066930
3061.000000;2.086870
3060.000000;2.413748
3059.000000;2.956538
3058.000000;2.352972
3057.000000;2.277193
3056.000000;2.323710
3055.000000;2.489653
3054.000000;2.843314
3053.000000;2.503279
3052.000000;2.482774
3051.000000;2.599912
3050.000000;2.176112
3049.000000;1.969164
3048.000000;1.954910
3047.000000;2.040829
3046.000000;2.219292
3045.000000;2.483193
3044.000000;2.717372
3043.000000;2.636187
3042.000000;2.413185
3041.000000;2.239998
3040.000000;2.155041
3039.000000;2.143403
3038.000000;2.189644
3037.000000;2.287922
3036.000000;2.472850
3035.000000;2.915299
3034.000000;2.733905
3033.000000;2.298198
3032.000000;2.171066
3031.000000;2.255977
3030.000000;2.454672
3029.000000;2.459471
3028.000000;2.727242
3027.000000;2.615519
3026.000000;2.227327
3025.000000;2.347045
3024.000000;2.668868
3023.000000;2.262753
3022.000000;1.983751
3021.000000;1.893396
3020.000000;1.891598
3019.000000;1.962091
3018.000000;1.997215
3017.000000;1.978679
3016.000000;1.994415
3015.000000;2.151868
3014.000000;2.548896
3013.000000;2.272189
3012.000000;2.171264
3011.000000;2.295504
3010.000000;2.023042
3009.000000;1.833382
3008.000000;1.827665
3007.000000;1.932200
3006.000000;2.069642
3005.000000;2.196235
3004.000000;2.286252
3003.000000;2.249937
3002.000000;2.339862
3001.000000;2.590927
3000.000000;2.214847
2999.000000;1.919592
2998.000000;1.855163
2997.000000;1.897405
2996.000000;1.970672
2995.000000;2.025425
2994.000000;2.144849
2993.000000;2.578046
2992.000000;2.624065
2991.000000;2.103255
2990.000000;1.866977
2989.000000;1.781028
2988.000000;1.831754
2987.000000;1.959862
2986.000000;2.105056
2985.000000;2.372298
2984.000000;2.215126
2983.000000;1.955999
2982.000000;1.891583
2981.000000;1.914423
2980.000000;2.024865
2979.000000;2.245227
2978.000000;2.766990
2977.000000;2.857962
2976.000000;2.303577
2975.000000;2.479049
2974.000000;2.692920
2973.000000;2.164919
2972.000000;1.984128
2971.000000;1.957940
2970.000000;1.988359
2969.000000;2.089876
2968.000000;2.359953
2967.000000;2.513911
2966.000000;2.293585
2965.000000;2.280799
2964.000000;2.483310
2963.000000;2.439587
2962.000000;2.265126
2961.000000;2.296484
2960.000000;2.541582
2959.000000;2.571674
2958.000000;2.484423
2957.000000;2.567303
2956.000000;2.683670
2955.000000;3.014283
2954.000000;2.599258
2953.000000;2.313245
2952.000000;2.312112
2951.000000;2.363233
2950.000000;2.342178
2949.000000;2.419079
2948.000000;2.558738
2947.000000;2.314822
2946.000000;2.137626
2945.000000;2.178468
2944.000000;2.359584
2943.000000;2.337952
2942.000000;2.182324
2941.000000;2.176001
2940.000000;2.393047
2939.000000;2.522849
2938.000000;2.300998
2937.000000;2.204564
2936.000000;2.385792
2935.000000;2.860973
2934.000000;2.311782
2933.000000;2.079249
2932.000000;2.029019
2931.000000;1.969908
2930.000000;1.925221
2929.000000;1.966390
2928.000000;2.343576
2927.000000;2.533610
2926.000000;2.010464
2925.000000;1.966398
2924.000000;2.140060
2923.000000;2.534503
2922.000000;2.628442
2921.000000;2.422902
2920.000000;2.483859
2919.000000;2.518040
2918.000000;2.345980
2917.000000;2.183744
2916.000000;2.112379
2915.000000;2.210400
2914.000000;2.822042
2913.000000;2.323614
2912.000000;1.980378
2911.000000;1.968682
2910.000000;2.055857
2909.000000;2.345476
2908.000000;2.813751
2907.000000;2.235125
2906.000000;1.983842
2905.000000;1.991687
2904.000000;1.977751
2903.000000;1.793181
2902.000000;1.742438
2901.000000;1.899418
2900.000000;1.949860
2899.000000;1.783409
2898.000000;1.769823
2897.000000;1.912780
2896.000000;2.131506
2895.000000;2.607370
2894.000000;2.776348
2893.000000;2.304179
2892.000000;2.284793
2891.000000;2.289251
2890.000000;2.187904
2889.000000;2.093931
2888.000000;1.986432
2887.000000;1.985500
2886.000000;2.289045
2885.000000;2.523671
2884.000000;2.093517
2883.000000;2.060697
2882.000000;2.246044
2881.000000;2.057858
2880.000000;1.896484
2879.000000;1.987272
2878.000000;2.294977
2877.000000;2.120088
2876.000000;1.923031
2875.000000;1.947299
2874.000000;1.952498
2873.000000;1.879009
2872.000000;1.851363
2871.000000;1.815651
2870.000000;1.746316
2869.000000;1.789087
2868.000000;2.106210
2867.000000;2.166981
2866.000000;1.875964
2865.000000;1.826329
2864.000000;1.776055
2863.000000;1.725051
2862.000000;1.758555
2861.000000;1.913690
2860.000000;2.172875
2859.000000;2.200969
2858.000000;2.335322
2857.000000;2.758356
2856.000000;2.226374
2855.000000;2.073033
2854.000000;2.245161
2853.000000;2.322229
2852.000000;2.096901
2851.000000;2.088325
2850.000000;2.351900
2849.000000;2.142834
2848.000000;1.891229
2847.000000;1.883842
2846.000000;1.982277
2845.000000;1.943532
2844.000000;1.827991
2843.000000;1.791114
2842.000000;1.896081
2841.000000;2.140375
2840.000000;2.077261
2839.000000;1.914790
2838.000000;2.028694
2837.000000;2.571201
2836.000000;2.297143
2835.000000;1.954075
2834.000000;1.928508
2833.000000;2.025735
2832.000000;2.462634
2831.000000;2.424210
2830.000000;2.077331
2829.000000;2.035047
2828.000000;2.233961
2827.000000;2.451988
2826.000000;2.055536
2825.000000;1.848313
2824.000000;1.771416
2823.000000;1.755334
2822.000000;1.820007
2821.000000;1.929018
2820.000000;1.926626
2819.000000;1.855290
2818.000000;1.887283
2817.000000;2.041003
2816.000000;2.233251
2815.000000;2.081226
2814.000000;1.799976
2813.000000;1.640348
2812.000000;1.599106
2811.000000;1.665119
2810.000000;1.950059
2809.000000;2.385866
2808.000000;1.979657
2807.000000;1.777682
2806.000000;1.818105
2805.000000;1.961368
2804.000000;2.222245
2803.000000;2.541959
2802.000000;2.337959
2801.000000;2.101953
2800.000000;2.069854
2799.000000;2.097011
2798.000000;1.976620
2797.000000;1.832439
2796.000000;1.773560
2795.000000;1.758912
2794.000000;1.771972
2793.000000;1.816637
2792.000000;1.868882
2791.000000;2.190697
2790.000000;2.708158
2789.000000;2.135070
2788.000000;2.057045
2787.000000;2.068163
2786.000000;2.008074
2785.000000;1.965587
2784.000000;1.983100
2783.000000;2.093426
2782.000000;2.142427
2781.000000;2.100184
2780.000000;2.091037
2779.000000;2.144740
2778.000000;2.180932
2777.000000;2.167580
2776.000000;2.281664
2775.000000;2.508913
2774.000000;2.311017
2773.000000;2.176207
2772.000000;2.265721
2771.000000;2.457374
2770.000000;2.531103
2769.000000;2.507392
2768.000000;2.787401
2767.000000;3.081545
2766.000000;2.648540
2765.000000;2.654179
2764.000000;2.418758
2763.000000;2.091533
2762.000000;2.012340
2761.000000;2.299138
2760.000000;2.544367
2759.000000;2.149639
2758.000000;2.118931
2757.000000;2.266717
2756.000000;2.254280
2755.000000;2.232940
2754.000000;2.377569
2753.000000;2.198056
2752.000000;1.991058
2751.000000;1.927589
2750.000000;1.879573
2749.000000;1.840581
2748.000000;1.816036
2747.000000;1.845921
2746.000000;1.940616
2745.000000;2.135756
2744.000000;2.509796
2743.000000;2.294880
2742.000000;1.881292
2741.000000;1.694791
2740.000000;1.684570
2739.000000;1.947178
2738.000000;2.190386
2737.000000;1.921515
2736.000000;1.939421
2735.000000;2.083501
2734.000000;2.186523
2733.000000;2.462503
2732.000000;2.491316
2731.000000;2.073213
2730.000000;1.827416
2729.000000;1.733072
2728.000000;1.742517
2727.000000;1.909936
2726.000000;2.186621
2725.000000;2.022803
2724.000000;1.864280
2723.000000;1.991819
2722.000000;2.129368
2721.000000;2.043378
2720.000000;2.248589
2719.000000;2.389880
2718.000000;2.050179
2717.000000;2.150117
2716.000000;2.672061
2715.000000;2.459364
2714.000000;2.237681
2713.000000;2.216512
2712.000000;2.418916
2711.000000;2.629259
2710.000000;2.280660
2709.000000;2.048387
2708.000000;1.843157
2707.000000;1.699049
2706.000000;1.655685
2705.000000;1.849047
2704.000000;2.285376
2703.000000;1.902642
2702.000000;1.668605
2701.000000;1.708488
2700.000000;2.046566
2699.000000;2.338057
2698.000000;1.899069
2697.000000;1.767760
2696.000000;1.815108
2695.000000;1.984601
2694.000000;2.013712
2693.000000;1.850935
2692.000000;1.887458
2691.000000;2.226651
2690.000000;2.360560
2689.000000;2.015679
2688.000000;1.856189
2687.000000;1.746131
2686.000000;1.697964
2685.000000;1.758514
2684.000000;2.011126
2683.000000;2.461663
2682.000000;2.303027
2681.000000;2.170772
2680.000000;2.519318
2679.000000;2.349704
2678.000000;1.855482
2677.000000;1.708905
2676.000000;1.680162
2675.000000;1.864503
2674.000000;2.039241
2673.000000;1.658958
2672.000000;1.471440
2671.000000;1.502571
2670.000000;1.644323
2669.000000;1.598693
2668.000000;1.429541
2667.000000;1.372055
2666.000000;1.425951
2665.000000;1.607126
2664.000000;1.732639
2663.000000;1.542696
2662.000000;1.415308
2661.000000;1.427468
2660.000000;1.573800
2659.000000;1.919920
2658.000000;1.992067
2657.000000;1.674883
2656.000000;1.568189
2655.000000;1.595055
2654.000000;1.738604
2653.000000;2.118803
2652.000000;2.238737
2651.000000;1.827248
2650.000000;1.627276
2649.000000;1.574002
2648.000000;1.645077
2647.000000;1.846396
2646.000000;1.864924
2645.000000;1.689275
2644.000000;1.567221
2643.000000;1.634922
2642.000000;1.936801
2641.000000;1.737644
2640.000000;1.533375
2639.000000;1.621397
2638.000000;1.824579
2637.000000;1.709876
2636.000000;1.553298
2635.000000;1.587980
2634.000000;1.923917
2633.000000;1.926477
2632.000000;1.516576
2631.000000;1.437496
2630.000000;1.538956
2629.000000;1.601995
2628.000000;1.467435
2627.000000;1.403116
2626.000000;1.493202
2625.000000;1.598236
2624.000000;1.717183
2623.000000;2.050569
2622.000000;2.165165
2621.000000;2.518206
2620.000000;2.135162
2619.000000;1.600437
2618.000000;1.413294
2617.000000;1.351412
2616.000000;1.356381
2615.000000;1.479707
2614.000000;2.043719
2613.000000;1.746883
2612.000000;1.339543
2611.000000;1.238968
2610.000000;1.307896
2609.000000;1.719995
2608.000000;1.818176
2607.000000;1.459613
2606.000000;1.462895
2605.000000;1.591367
2604.000000;1.709895
2603.000000;1.860219
2602.000000;1.930650
2601.000000;1.863760
2600.000000;1.784302
2599.000000;1.751758
2598.000000;2.097885
2597.000000;2.233194
2596.000000;1.696349
2595.000000;1.564913
2594.000000;1.566308
2593.000000;1.597214
2592.000000;1.708293
2591.000000;1.978517
2590.000000;1.788244
2589.000000;1.590171
2588.000000;1.637906
2587.000000;1.628413
2586.000000;1.519281
2585.000000;1.473526
2584.000000;1.518759
2583.000000;1.654253
2582.000000;1.933072
2581.000000;1.900169
2580.000000;1.625942
2579.000000;1.560863
2578.000000;1.669098
2577.000000;1.805239
2576.000000;1.746176
2575.000000;1.692179
2574.000000;1.706102
2573.000000;1.751304
2572.000000;1.861883
2571.000000;1.816932
2570.000000;1.658026
2569.000000;1.596040
2568.000000;1.609369
2567.000000;1.656923
2566.000000;1.730949
2565.000000;1.830660
2564.000000;1.938877
2563.000000;1.887551
2562.000000;1.796278
2561.000000;1.787186
2560.000000;2.000800
2559.000000;2.433452
2558.000000;1.989121
2557.000000;1.821824
2556.000000;1.790939
2555.000000;1.649020
2554.000000;1.556533
2553.000000;1.580291
2552.000000;1.905833
2551.000000;2.030547
2550.000000;1.604711
2549.000000;1.534698
2548.000000;1.619283
2547.000000;1.841159
2546.000000;1.968646
2545.000000;1.757450
2544.000000;1.707841
2543.000000;1.930187
2542.000000;2.370602
2541.000000;1.961443
2540.000000;1.737718
2539.000000;1.756157
2538.000000;1.819667
2537.000000;1.828446
2536.000000;1.793596
2535.000000;1.822847
2534.000000;1.942775
2533.000000;2.188543
2532.000000;2.141528
2531.000000;1.792960
2530.000000;1.618702
2529.000000;1.604132
2528.000000;1.712366
2527.000000;1.924964
2526.000000;2.158071
2525.000000;1.970496
2524.000000;1.723038
2523.000000;1.669400
2522.000000;1.835464
2521.000000;2.146587
2520.000000;2.018458
2519.000000;1.882307
2518.000000;1.900846
2517.000000;1.938358
2516.000000;1.981803
2515.000000;2.042541
2514.000000;2.261576
2513.000000;2.407242
2512.000000;2.171143
2511.000000;2.110439
2510.000000;2.323925
2509.000000;2.648226
2508.000000;2.423041
2507.000000;2.039873
2506.000000;1.834392
2505.000000;1.753914
2504.000000;1.840889
2503.000000;2.190094
2502.000000;2.037965
2501.000000;1.815413
2500.000000;1.766114
2499.000000;1.999838
2498.000000;2.591324
2497.000000;1.864879
2496.000000;1.685294
2495.000000;1.722089
2494.000000;1.860957
2493.000000;2.347996
2492.000000;2.529096
2491.000000;2.125060
2490.000000;2.012867
2489.000000;1.928981
2488.000000;1.903789
2487.000000;2.143412
2486.000000;2.411807
2485.000000;1.993283
2484.000000;1.773044
2483.000000;1.762415
2482.000000;1.855780
2481.000000;1.966299
2480.000000;2.001631
2479.000000;2.148153
2478.000000;2.284413
2477.000000;2.128808
2476.000000;2.044418
2475.000000;2.027389
2474.000000;1.985185
2473.000000;1.968210
2472.000000;2.006192
2471.000000;1.913193
2470.000000;1.714555
2469.000000;1.625584
2468.000000;1.675267
2467.000000;1.855664
2466.000000;2.308016
2465.000000;2.863342
2464.000000;2.161630
2463.000000;1.940678
2462.000000;1.824716
2461.000000;1.770396
2460.000000;1.757557
2459.000000;1.820218
2458.000000;2.340624
2457.000000;2.284200
2456.000000;1.849239
2455.000000;1.762361
2454.000000;1.703434
2453.000000;1.747054
2452.000000;1.845585
2451.000000;1.812954
2450.000000;1.771947
2449.000000;1.856023
2448.000000;1.991290
2447.000000;1.878310
2446.000000;1.727688
2445.000000;1.686368
2444.000000;1.780642
2443.000000;2.095615
2442.000000;2.020014
2441.000000;1.711218
2440.000000;1.647251
2439.000000;1.704483
2438.000000;1.978122
2437.000000;2.414667
2436.000000;2.146137
2435.000000;2.227923
2434.000000;2.368190
2433.000000;1.962517
2432.000000;1.763909
2431.000000;1.740361
2430.000000;1.796847
2429.000000;1.832553
2428.000000;1.840048
2427.000000;1.960872
2426.000000;2.130471
2425.000000;1.954674
2424.000000;1.778820
2423.000000;1.722358
2422.000000;1.706504
2421.000000;1.727049
2420.000000;1.794390
2419.000000;1.957808
2418.000000;2.142248
2417.000000;1.987153
2416.000000;1.791963
2415.000000;1.762527
2414.000000;1.853841
2413.000000;1.878440
2412.000000;1.805026
2411.000000;1.842633
2410.000000;2.031118
2409.000000;2.158346
2408.000000;1.883102
2407.000000;1.671682
2406.000000;1.603643
2405.000000;1.710172
2404.000000;2.024354
2403.000000;1.915525
2402.000000;1.723754
2401.000000;1.787194
2400.000000;2.142150
2399.000000;2.398211
2398.000000;1.997528
2397.000000;1.876482
2396.000000;1.870274
2395.000000;1.936876
2394.000000;2.046329
2393.000000;1.967642
2392.000000;1.819843
2391.000000;1.753100
2390.000000;1.803151
2389.000000;1.987604
2388.000000;2.211907
2387.000000;2.584100
2386.000000;2.865985
2385.000000;2.160590
2384.000000;1.874379
2383.000000;1.785809
2382.000000;1.826075
2381.000000;2.034957
2380.000000;2.432471
2379.000000;2.371949
2378.000000;2.230916
2377.000000;2.428628
2376.000000;2.373421
2375.000000;2.078598
2374.000000;1.947983
2373.000000;1.935745
2372.000000;2.057161
2371.000000;2.306934
2370.000000;2.141763
2369.000000;1.935980
2368.000000;1.902572
2367.000000;2.059637
2366.000000;2.256649
2365.000000;1.970325
2364.000000;1.762496
2363.000000;1.672986
2362.000000;1.670840
2361.000000;1.774548
2360.000000;1.995049
2359.000000;2.241273
2358.000000;2.258446
2357.000000;2.296305
2356.000000;2.223946
2355.000000;2.027523
2354.000000;1.944330
2353.000000;1.908716
2352.000000;1.892337
2351.000000;1.991346
2350.000000;2.057204
2349.000000;1.854493
2348.000000;1.720291
2347.000000;1.717030
2346.000000;1.958982
2345.000000;2.400084
2344.000000;1.974165
2343.000000;1.803184
2342.000000;1.855234
2341.000000;1.942694
2340.000000;1.938943
2339.000000;1.892945
2338.000000;1.968672
2337.000000;2.023407
2336.000000;1.965265
2335.000000;2.000266
2334.000000;2.116722
2333.000000;2.021489
2332.000000;1.893513
2331.000000;1.913836
2330.000000;2.108104
2329.000000;2.177778
2328.000000;1.939504
2327.000000;1.825650
2326.000000;1.836926
2325.000000;1.970912
2324.000000;2.269330
2323.000000;2.396173
2322.000000;2.208779
2321.000000;2.031602
2320.000000;1.929574
2319.000000;1.932634
2318.000000;2.046384
2317.000000;2.078212
2316.000000;2.091436
2315.000000;2.227249
2314.000000;2.005566
2313.000000;1.738888
2312.000000;1.670188
2311.000000;1.717320
2310.000000;2.045947
2309.000000;2.732138
2308.000000;2.127545
2307.000000;2.091487
2306.000000;2.454963
2305.000000;2.710320
2304.000000;2.320872
2303.000000;2.080015
2302.000000;1.993684
2301.000000;1.991185
2300.000000;1.966394
2299.000000;1.860193
2298.000000;1.845845
2297.000000;1.880071
2296.000000;1.956078
2295.000000;1.889730
2294.000000;1.708808
2293.000000;1.631243
2292.000000;1.719779
2291.000000;1.956667
2290.000000;1.875711
2289.000000;1.674385
2288.000000;1.600733
2287.000000;1.620786
2286.000000;1.740320
2285.000000;2.049514
2284.000000;2.497472
2283.000000;2.100744
2282.000000;1.852944
2281.000000;1.751594
2280.000000;1.740260
2279.000000;1.856691
2278.000000;2.025952
2277.000000;1.935448
2276.000000;1.703605
2275.000000;1.632319
2274.000000;1.646782
2273.000000;1.559072
2272.000000;1.464741
2271.000000;1.524247
2270.000000;1.734499
2269.000000;1.814568
2268.000000;1.717109
2267.000000;1.640704
2266.000000;1.538144
2265.000000;1.456256
2264.000000;1.443496
2263.000000;1.483704
2262.000000;1.512527
2261.000000;1.492610
2260.000000;1.540152
2259.000000;1.739336
2258.000000;1.698316
2257.000000;1.458573
2256.000000;1.369984
2255.000000;1.395275
2254.000000;1.516700
2253.000000;1.845665
2252.000000;2.084029
2251.000000;1.795284
2250.000000;1.737787
2249.000000;1.891179
2248.000000;2.224135
2247.000000;2.372495
2246.000000;2.375116
2245.000000;2.244514
2244.000000;1.971011
2243.000000;1.928676
2242.000000;1.966084
2241.000000;2.157443
2240.000000;2.445777
2239.000000;2.228032
2238.000000;2.060357
2237.000000;2.143364
2236.000000;2.396694
2235.000000;2.141303
2234.000000;1.882339
2233.000000;1.828069
2232.000000;1.946011
2231.000000;2.083792
2230.000000;2.007496
2229.000000;2.073904
2228.000000;2.347926
2227.000000;2.602353
2226.000000;2.379894
2225.000000;2.065074
2224.000000;1.945513
2223.000000;1.977141
2222.000000;2.023995
2221.000000;1.923376
2220.000000;1.810708
2219.000000;1.732666
2218.000000;1.694700
2217.000000;1.723964
2216.000000;1.888243
2215.000000;2.271142
2214.000000;2.205288
2213.000000;1.927108
2212.000000;1.770853
2211.000000;1.666344
2210.000000;1.640014
2209.000000;1.720596
2208.000000;2.075708
2207.000000;2.161705
2206.000000;1.719550
2205.000000;1.598123
2204.000000;1.616629
2203.000000;1.818761
2202.000000;2.373863
2201.000000;2.088636
2200.000000;1.845250
2199.000000;1.752417
2198.000000;1.657775
2197.000000;1.660734
2196.000000;1.794980
2195.000000;2.163485
2194.000000;1.957850
2193.000000;1.612126
2192.000000;1.502803
2191.000000;1.498114
2190.000000;1.582019
2189.000000;1.787726
2188.000000;2.207019
2187.000000;2.038211
2186.000000;1.791500
2185.000000;1.756837
2184.000000;1.846627
2183.000000;2.121483
2182.000000;1.950031
2181.000000;1.751337
2180.000000;1.781282
2179.000000;2.024222
2178.000000;2.110774
2177.000000;1.812728
2176.000000;1.684020
2175.000000;1.645780
2174.000000;1.679586
2173.000000;1.893662
2172.000000;2.101345
2171.000000;1.892224
2170.000000;1.734548
2169.000000;1.630379
2168.000000;1.560082
2167.000000;1.572420
2166.000000;1.712289
2165.000000;1.941355
2164.000000;1.869088
2163.000000;1.759851
2162.000000;1.822445
2161.000000;2.076202
2160.000000;2.428323
2159.000000;2.137489
2158.000000;1.944435
2157.000000;1.957678
2156.000000;2.083770
2155.000000;2.114030
2154.000000;1.996794
2153.000000;1.970198
2152.000000;2.048875
2151.000000;2.345916
2150.000000;2.290767
2149.000000;2.006650
2148.000000;1.984817
2147.000000;1.899768
2146.000000;1.781237
2145.000000;1.823228
2144.000000;2.094246
2143.000000;2.539979
2142.000000;2.509326
2141.000000;2.163153
2140.000000;1.878436
2139.000000;1.892005
2138.000000;2.158442
2137.000000;1.951664
2136.000000;1.714094
2135.000000;1.634183
2134.000000;1.566285
2133.000000;1.498350
2132.000000;1.448131
2131.000000;1.441607
2130.000000;1.558040
2129.000000;1.858226
2128.000000;1.875652
2127.000000;1.673218
2126.000000;1.606856
2125.000000;1.581316
2124.000000;1.682290
2123.000000;1.952726
2122.000000;1.986936
2121.000000;1.939222
2120.000000;2.164854
2119.000000;2.543887
2118.000000;2.658409
2117.000000;2.311585
2116.000000;1.973057
2115.000000;1.830704
2114.000000;1.830786
2113.000000;1.851081
2112.000000;1.869926
2111.000000;2.074593
2110.000000;2.579808
2109.000000;2.128392
2108.000000;1.800971
2107.000000;1.724272
2106.000000;1.779734
2105.000000;1.971486
2104.000000;1.928638
2103.000000;1.760547
2102.000000;1.722236
2101.000000;1.831135
2100.000000;2.096136
2099.000000;2.071960
2098.000000;1.940186
2097.000000;2.073118
2096.000000;2.066491
2095.000000;1.748635
2094.000000;1.559326
2093.000000;1.479462
2092.000000;1.484787
2091.000000;1.657136
2090.000000;1.813432
2089.000000;1.605267
2088.000000;1.506192
2087.000000;1.575817
2086.000000;1.624887
2085.000000;1.574346
2084.000000;1.547821
2083.000000;1.596937
2082.000000;1.671268
2081.000000;1.709448
2080.000000;1.694230
2079.000000;1.750147
2078.000000;2.074914
2077.000000;2.213228
2076.000000;1.822980
2075.000000;1.647686
2074.000000;1.596317
2073.000000;1.653149
2072.000000;1.893559
2071.000000;2.146759
2070.000000;2.038713
2069.000000;2.031406
2068.000000;2.078847
2067.000000;2.019038
2066.000000;2.008941
2065.000000;2.111129
2064.000000;1.910314
2063.000000;1.655588
2062.000000;1.605928
2061.000000;1.730108
2060.000000;2.088650
2059.000000;2.063791
2058.000000;1.727957
2057.000000;1.601212
2056.000000;1.585653
2055.000000;1.680275
2054.000000;1.832243
2053.000000;1.842624
2052.000000;1.872537
2051.000000;2.007623
2050.000000;1.815326
2049.000000;1.632193
2048.000000;1.649160
2047.000000;1.734086
2046.000000;1.701411
2045.000000;1.610800
2044.000000;1.537036
2043.000000;1.472551
2042.000000;1.478103
2041.000000;1.558132
2040.000000;1.590719
2039.000000;1.567038
2038.000000;1.667276
2037.000000;1.969396
2036.000000;1.996188
2035.000000;1.767886
2034.000000;1.717083
2033.000000;1.766277
2032.000000;1.838281
2031.000000;1.822226
2030.000000;1.771511
2029.000000;1.770237
2028.000000;1.948004
2027.000000;2.041052
2026.000000;1.701812
2025.000000;1.523241
2024.000000;1.541173
2023.000000;1.785092
2022.000000;1.894794
2021.000000;1.640495
2020.000000;1.522597
2019.000000;1.445422
2018.000000;1.373414
2017.000000;1.355660
2016.000000;1.424539
2015.000000;1.625818
2014.000000;2.076010
2013.000000;2.499498
2012.000000;2.178446
2011.000000;2.055759
2010.000000;2.009782
2009.000000;2.002135
2008.000000;2.119730
2007.000000;2.378400
2006.000000;1.985207
2005.000000;1.621459
2004.000000;1.461052
2003.000000;1.415151
2002.000000;1.479674
2001.000000;1.583822
2000.000000;1.627362
1999.000000;1.686596
1998.000000;1.782370
1997.000000;1.685312
1996.000000;1.522791
1995.000000;1.469098
1994.000000;1.533501
1993.000000;1.732509
1992.000000;2.208677
1991.000000;2.453409
1990.000000;1.992096
1989.000000;1.837472
1988.000000;1.876610
1987.000000;2.075252
1986.000000;1.924895
1985.000000;1.723021
1984.000000;1.713987
1983.000000;1.682828
1982.000000;1.613349
1981.000000;1.735098
1980.000000;2.224841
1979.000000;2.006879
1978.000000;1.679812
1977.000000;1.567103
1976.000000;1.513248
1975.000000;1.564727
1974.000000;1.812539
1973.000000;2.330128
1972.000000;1.918529
1971.000000;1.671216
1970.000000;1.746045
1969.000000;1.904144
1968.000000;1.784267
1967.000000;1.568303
1966.000000;1.482921
1965.000000;1.449112
1964.000000;1.458415
1963.000000;1.501109
1962.000000;1.680714
1961.000000;2.178004
1960.000000;1.905420
1959.000000;1.582179
1958.000000;1.486395
1957.000000;1.460066
1956.000000;1.513412
1955.000000;1.638201
1954.000000;2.091987
1953.000000;2.511012
1952.000000;1.923008
1951.000000;1.881535
1950.000000;2.241019
1949.000000;2.322886
1948.000000;1.795376
1947.000000;1.523866
1946.000000;1.427278
1945.000000;1.430841
1944.000000;1.573716
1943.000000;2.061420
1942.000000;2.023180
1941.000000;1.708237
1940.000000;1.676295
1939.000000;1.666945
1938.000000;1.643544
1937.000000;1.714472
1936.000000;1.882012
1935.000000;1.683725
1934.000000;1.519763
1933.000000;1.518183
1932.000000;1.657086
1931.000000;1.905426
1930.000000;1.679497
1929.000000;1.421309
1928.000000;1.352398
1927.000000;1.421763
1926.000000;1.734186
1925.000000;2.011264
1924.000000;1.787954
1923.000000;1.800769
1922.000000;2.068209
1921.000000;2.724500
1920.000000;2.406489
1919.000000;2.021359
1918.000000;2.006556
1917.000000;2.307656
1916.000000;2.418909
1915.000000;2.066974
1914.000000;1.901096
1913.000000;1.727050
1912.000000;1.641610
1911.000000;1.558666
1910.000000;1.393441
1909.000000;1.324487
1908.000000;1.389203
1907.000000;1.603851
1906.000000;1.973563
1905.000000;1.789593
1904.000000;1.513019
1903.000000;1.449725
1902.000000;1.539950
1901.000000;1.637755
1900.000000;1.501594
1899.000000;1.376293
1898.000000;1.393375
1897.000000;1.437900
1896.000000;1.382105
1895.000000;1.348846
1894.000000;1.544183
1893.000000;2.022615
1892.000000;1.676051
1891.000000;1.480361
1890.000000;1.514419
1889.000000;1.671743
1888.000000;2.277734
1887.000000;1.957930
1886.000000;1.649818
1885.000000;1.656177
1884.000000;1.715984
1883.000000;1.960249
1882.000000;2.247180
1881.000000;1.828168
1880.000000;1.589406
1879.000000;1.542695
1878.000000;1.615510
1877.000000;1.792770
1876.000000;2.061911
1875.000000;2.078497
1874.000000;1.742313
1873.000000;1.599029
1872.000000;1.604770
1871.000000;1.668713
1870.000000;1.698549
1869.000000;1.734868
1868.000000;1.878861
1867.000000;1.892236
1866.000000;1.757097
1865.000000;1.696305
1864.000000;1.632246
1863.000000;1.565078
1862.000000;1.623377
1861.000000;1.975591
1860.000000;2.152296
1859.000000;1.788882
1858.000000;1.727612
1857.000000;1.882333
1856.000000;2.202610
1855.000000;2.449659
1854.000000;2.303466
1853.000000;2.325503
1852.000000;2.334542
1851.000000;2.009649
1850.000000;1.783292
1849.000000;1.676099
1848.000000;1.660018
1847.000000;1.741480
1846.000000;1.931411
1845.000000;2.064810
1844.000000;1.857723
1843.000000;1.679572
1842.000000;1.647358
1841.000000;1.731426
1840.000000;1.871064
1839.000000;1.960146
1838.000000;1.962065
1837.000000;1.931503
1836.000000;1.937435
1835.000000;2.134140
1834.000000;2.310753
1833.000000;1.902270
1832.000000;1.698375
1831.000000;1.627922
1830.000000;1.700190
1829.000000;2.114591
1828.000000;2.005728
1827.000000;1.637879
1826.000000;1.555949
1825.000000;1.556026
1824.000000;1.575166
1823.000000;1.642597
1822.000000;1.878946
1821.000000;2.199435
1820.000000;2.025017
1819.000000;1.927015
1818.000000;2.035175
1817.000000;2.057080
1816.000000;1.974399
1815.000000;1.952114
1814.000000;2.093038
1813.000000;2.080386
1812.000000;1.984427
1811.000000;2.485530
1810.000000;2.157670
1809.000000;1.736325
1808.000000;1.659418
1807.000000;1.665215
1806.000000;1.747680
1805.000000;2.013448
1804.000000;2.374102
1803.000000;1.964783
1802.000000;1.740999
1801.000000;1.659393
1800.000000;1.626939
1799.000000;1.679395
1798.000000;1.749695
1797.000000;1.635929
1796.000000;1.494437
1795.000000;1.496158
1794.000000;1.604870
1793.000000;1.728284
1792.000000;1.773446
1791.000000;1.825623
1790.000000;1.802720
1789.000000;1.694821
1788.000000;1.680899
1787.000000;1.789176
1786.000000;2.150476
1785.000000;2.273151
1784.000000;1.765056
1783.000000;1.572357
1782.000000;1.554644
1781.000000;1.721063
1780.000000;2.093987
1779.000000;1.824734
1778.000000;1.722175
1777.000000;2.010374
1776.000000;1.831367
1775.000000;1.558976
1774.000000;1.492719
1773.000000;1.516595
1772.000000;1.591007
1771.000000;1.748414
1770.000000;2.003144
1769.000000;1.888866
1768.000000;1.672917
1767.000000;1.673529
1766.000000;1.831329
1765.000000;1.936441
1764.000000;1.828991
1763.000000;1.742306
1762.000000;1.814487
1761.000000;2.048009
1760.000000;1.928059
1759.000000;1.663734
1758.000000;1.523241
1757.000000;1.463184
1756.000000;1.486364
1755.000000;1.618641
1754.000000;1.706846
1753.000000;1.561007
1752.000000;1.458044
1751.000000;1.546219
1750.000000;1.879890
1749.000000;1.757483
1748.000000;1.431499
1747.000000;1.296496
1746.000000;1.276971
1745.000000;1.379363
1744.000000;1.532019
1743.000000;1.601329
1742.000000;1.535991
1741.000000;1.462977
1740.000000;1.491842
1739.000000;1.642634
1738.000000;1.869064
1737.000000;1.993556
1736.000000;2.057826
1735.000000;2.088746
1734.000000;1.996158
1733.000000;1.883559
1732.000000;1.863249
1731.000000;2.026477
1730.000000;1.843029
1729.000000;1.541771
1728.000000;1.433888
1727.000000;1.475516
1726.000000;1.614925
1725.000000;1.726810
1724.000000;1.680081
1723.000000;1.880915
1722.000000;2.342500
1721.000000;1.763996
1720.000000;1.627377
1719.000000;1.648710
1718.000000;1.966319
1717.000000;2.098347
1716.000000;1.635347
1715.000000;1.631364
1714.000000;2.034586
1713.000000;2.449442
1712.000000;1.806986
1711.000000;1.726686
1710.000000;1.783259
1709.000000;1.842026
1708.000000;1.957387
1707.000000;1.967606
1706.000000;1.907764
1705.000000;1.894959
1704.000000;1.987150
1703.000000;1.932977
1702.000000;1.886574
1701.000000;1.901832
1700.000000;1.882106
1699.000000;1.924938
1698.000000;1.939491
1697.000000;1.667151
1696.000000;1.626141
1695.000000;1.662366
1694.000000;1.428839
1693.000000;1.270009
1692.000000;1.213984
1691.000000;1.255281
1690.000000;1.409778
1689.000000;1.808217
1688.000000;2.098453
1687.000000;1.690044
1686.000000;1.705843
1685.000000;1.920834
1684.000000;1.739614
1683.000000;1.529997
1682.000000;1.511503
1681.000000;1.590395
1680.000000;1.681003
1679.000000;1.981123
1678.000000;2.315354
1677.000000;1.912010
1676.000000;1.679977
1675.000000;1.560138
1674.000000;1.508253
1673.000000;1.693496
1672.000000;2.084070
1671.000000;1.668996
1670.000000;1.482175
1669.000000;1.462951
1668.000000;1.411035
1667.000000;1.378861
1666.000000;1.442632
1665.000000;1.642010
1664.000000;1.766921
1663.000000;1.701012
1662.000000;1.681737
1661.000000;1.823235
1660.000000;2.048403
1659.000000;1.972707
1658.000000;1.748692
1657.000000;1.572955
1656.000000;1.492752
1655.000000;1.528928
1654.000000;1.791950
1653.000000;2.110455
1652.000000;1.656572
1651.000000;1.511506
1650.000000;1.788649
1649.000000;1.982999
1648.000000;1.591817
1647.000000;1.435172
1646.000000;1.527413
1645.000000;1.874814
1644.000000;1.994700
1643.000000;1.526819
1642.000000;1.373940
1641.000000;1.364154
1640.000000;1.609004
1639.000000;2.313265
1638.000000;1.683395
1637.000000;1.506474
1636.000000;1.584837
1635.000000;1.893311
1634.000000;2.122676
1633.000000;1.714761
1632.000000;1.535528
1631.000000;1.433050
1630.000000;1.409412
1629.000000;1.457165
1628.000000;1.560995
1627.000000;1.901439
1626.000000;1.958719
1625.000000;1.629555
1624.000000;1.546436
1623.000000;1.537823
1622.000000;1.773771
1621.000000;1.924327
1620.000000;1.524782
1619.000000;1.333925
1618.000000;1.403378
1617.000000;1.898790
1616.000000;1.653842
1615.000000;1.394529
1614.000000;1.514222
1613.000000;1.941150
1612.000000;2.327979
1611.000000;2.249378
1610.000000;2.429427
1609.000000;1.783718
1608.000000;1.567492
1607.000000;1.456458
1606.000000;1.366265
1605.000000;1.317420
1604.000000;1.338859
1603.000000;1.503266
1602.000000;1.601008
1601.000000;1.508808
1600.000000;1.604164
1599.000000;1.812871
1598.000000;1.678887
1597.000000;1.568016
1596.000000;1.602363
1595.000000;1.645672
1594.000000;1.744202
1593.000000;2.041653
1592.000000;1.824218
1591.000000;1.450467
1590.000000;1.269251
1589.000000;1.219068
1588.000000;1.272108
1587.000000;1.385693
1586.000000;1.506404
1585.000000;1.545412
1584.000000;1.631238
1583.000000;1.831600
1582.000000;1.738289
1581.000000;1.584918
1580.000000;1.491570
1579.000000;1.368915
1578.000000;1.252392
1577.000000;1.193054
1576.000000;1.256578
1575.000000;1.464331
1574.000000;1.887143
1573.000000;2.093587
1572.000000;1.786241
1571.000000;1.667345
1570.000000;1.677104
1569.000000;1.749570
1568.000000;1.569613
1567.000000;1.354415
1566.000000;1.351101
1565.000000;1.469202
1564.000000;1.483960
1563.000000;1.454650
1562.000000;1.683736
1561.000000;2.523681
1560.000000;1.927305
1559.000000;1.681524
1558.000000;1.672797
1557.000000;1.685654
1556.000000;1.682262
1555.000000;1.819444
1554.000000;2.268473
1553.000000;2.061974
1552.000000;1.699384
1551.000000;1.522419
1550.000000;1.575226
1549.000000;1.706696
1548.000000;1.478524
1547.000000;1.386762
1546.000000;1.568569
1545.000000;1.832831
1544.000000;1.604851
1543.000000;1.494164
1542.000000;1.525472
1541.000000;1.631641
1540.000000;2.356491
1539.000000;1.785013
1538.000000;1.388419
1537.000000;1.366671
1536.000000;1.507994
1535.000000;1.897347
1534.000000;2.253164
1533.000000;2.464401
1532.000000;2.758255
1531.000000;2.142151
1530.000000;1.949480
1529.000000;1.864103
1528.000000;2.144759
1527.000000;2.077956
1526.000000;1.542676
1525.000000;1.428873
1524.000000;1.457621
1523.000000;1.565421
1522.000000;1.775969
1521.000000;2.297555
1520.000000;1.975573
1519.000000;1.610066
1518.000000;1.507948
1517.000000;1.544192
1516.000000;2.129882
1515.000000;1.918039
1514.000000;1.478031
1513.000000;1.418755
1512.000000;1.553175
1511.000000;1.739452
1510.000000;1.569094
1509.000000;1.647566
1508.000000;1.559248
1507.000000;1.359256
1506.000000;1.468464
1505.000000;1.691459
1504.000000;1.803023
1503.000000;1.629760
1502.000000;1.516210
1501.000000;1.622366
1500.000000;1.928727
1499.000000;1.919122
1498.000000;1.646290
1497.000000;1.462470
1496.000000;1.278655
1495.000000;1.146604
1494.000000;1.118659
1493.000000;1.207799
1492.000000;1.423353
1491.000000;1.559571
1490.000000;1.395942
1489.000000;1.304188
1488.000000;1.314480
1487.000000;1.362314
1486.000000;1.424603
1485.000000;1.609485
1484.000000;1.950510
1483.000000;2.004874
1482.000000;2.373886
1481.000000;1.820036
1480.000000;1.546814
1479.000000;1.621216
1478.000000;1.657722
1477.000000;1.549756
1476.000000;1.524692
1475.000000;1.756060
1474.000000;2.217876
1473.000000;1.815159
1472.000000;1.522569
1471.000000;1.417049
1470.000000;1.405767
1469.000000;1.553085
1468.000000;2.015431
1467.000000;2.159870
1466.000000;1.671487
1465.000000;1.457275
1464.000000;1.351703
1463.000000;1.347130
1462.000000;1.409867
1461.000000;1.498276
1460.000000;1.508827
1459.000000;1.420845
1458.000000;1.341342
1457.000000;1.407256
1456.000000;1.759580
1455.000000;1.650187
1454.000000;1.369995
1453.000000;1.375793
1452.000000;1.515968
1451.000000;1.679453
1450.000000;1.763358
1449.000000;2.086140
1448.000000;2.353760
1447.000000;1.672308
1446.000000;1.481377
1445.000000;1.473155
1444.000000;1.632326
1443.000000;1.932611
1442.000000;1.917391
1441.000000;1.646305
1440.000000;1.452260
1439.000000;1.418828
1438.000000;1.468973
1437.000000;1.522411
1436.000000;1.486737
1435.000000;1.429728
1434.000000;1.427834
1433.000000;1.626457
1432.000000;2.104197
1431.000000;1.581651
1430.000000;1.263111
1429.000000;1.187345
1428.000000;1.222508
1427.000000;1.541164
1426.000000;1.821648
1425.000000;1.291145
1424.000000;1.150840
1423.000000;1.382720
1422.000000;2.034999
1421.000000;1.552966
1420.000000;1.366308
1419.000000;1.358249
1418.000000;1.472062
1417.000000;1.587264
1416.000000;1.424311
1415.000000;1.307363
1414.000000;1.253303
1413.000000;1.253615
1412.000000;1.389638
1411.000000;1.759639
1410.000000;1.688533
1409.000000;1.475809
1408.000000;1.505164
1407.000000;1.569564
1406.000000;1.641473
1405.000000;1.678112
1404.000000;1.601286
1403.000000;1.502298
1402.000000;1.476800
1401.000000;1.509535
1400.000000;1.539342
1399.000000;1.572425
1398.000000;1.589677
1397.000000;1.548517
1396.000000;1.519554
1395.000000;1.542032
1394.000000;1.594505
1393.000000;1.669269
1392.000000;1.850936
1391.000000;2.016087
1390.000000;1.901882
1389.000000;1.716036
1388.000000;1.432420
1387.000000;1.211827
1386.000000;1.135316
1385.000000;1.189742
1384.000000;1.413979
1383.000000;1.819824
1382.000000;1.837320
1381.000000;1.816516
1380.000000;1.671515
1379.000000;1.387233
1378.000000;1.306499
1377.000000;1.432883
1376.000000;1.508225
1375.000000;1.253780
1374.000000;1.079557
1373.000000;1.045092
1372.000000;1.117066
1371.000000;1.341910
1370.000000;1.446203
1369.000000;1.156910
1368.000000;1.016132
1367.000000;1.038331
1366.000000;1.180163
1365.000000;1.540369
1364.000000;2.109277
1363.000000;1.684134
1362.000000;1.425569
1361.000000;1.290027
1360.000000;1.157100
1359.000000;1.090492
1358.000000;1.106824
1357.000000;1.232173
1356.000000;1.668952
1355.000000;1.803602
1354.000000;1.370913
1353.000000;1.248758
1352.000000;1.253038
1351.000000;1.379212
1350.000000;1.543493
1349.000000;1.545168
1348.000000;1.425552
1347.000000;1.288725
1346.000000;1.216038
1345.000000;1.201450
1344.000000;1.237327
1343.000000;1.386904
1342.000000;1.708530
1341.000000;1.748864
1340.000000;1.510948
1339.000000;1.337095
1338.000000;1.177446
1337.000000;1.116842
1336.000000;1.146929
1335.000000;1.230539
1334.000000;1.277312
1333.000000;1.255016
1332.000000;1.256341
1331.000000;1.388285
1330.000000;1.813095
1329.000000;1.722737
1328.000000;1.448557
1327.000000;1.451612
1326.000000;1.473732
1325.000000;1.522917
1324.000000;1.676507
1323.000000;1.640542
1322.000000;1.433496
1321.000000;1.343305
1320.000000;1.356022
1319.000000;1.412577
1318.000000;1.452982
1317.000000;1.482515
1316.000000;1.617543
1315.000000;1.756219
1314.000000;1.516572
1313.000000;1.676585
1312.000000;2.083795
1311.000000;1.397651
1310.000000;1.236898
1309.000000;1.279531
1308.000000;1.453771
1307.000000;1.474373
1306.000000;1.288868
1305.000000;1.231497
1304.000000;1.265939
1303.000000;1.351321
1302.000000;1.437342
1301.000000;1.528468
1300.000000;1.597620
1299.000000;1.602688
1298.000000;1.651165
1297.000000;1.702327
1296.000000;1.565266
1295.000000;1.368224
1294.000000;1.224167
1293.000000;1.155877
1292.000000;1.168360
1291.000000;1.258758
1290.000000;1.412814
1289.000000;1.647057
1288.000000;2.116778
1287.000000;1.951870
1286.000000;1.530809
1285.000000;1.407885
1284.000000;1.470669
1283.000000;1.715612
1282.000000;1.657221
1281.000000;1.388462
1280.000000;1.237776
1279.000000;1.158648
1278.000000;1.188774
1277.000000;1.387331
1276.000000;1.739306
1275.000000;1.627012
1274.000000;1.454076
1273.000000;1.435699
1272.000000;1.496854
1271.000000;1.664413
1270.000000;1.708241
1269.000000;1.599191
1268.000000;1.339160
1267.000000;1.145953
1266.000000;1.094637
1265.000000;1.140165
1264.000000;1.243783
1263.000000;1.373887
1262.000000;1.470781
1261.000000;1.512217
1260.000000;1.532971
1259.000000;1.632126
1258.000000;2.016346
1257.000000;1.782428
1256.000000;1.413193
1255.000000;1.344191
1254.000000;1.351030
1253.000000;1.351414
1252.000000;1.326283
1251.000000;1.339498
1250.000000;1.444926
1249.000000;1.719932
1248.000000;2.149732
1247.000000;1.715886
1246.000000;1.339340
1245.000000;1.093001
1244.000000;0.930533
1243.000000;0.889900
1242.000000;0.997850
1241.000000;1.361733
1240.000000;1.750932
1239.000000;1.551785
1238.000000;1.651343
1237.000000;1.969297
1236.000000;2.444382
1235.000000;1.977547
1234.000000;1.676197
1233.000000;1.549703
1232.000000;1.428584
1231.000000;1.378476
1230.000000;1.422435
1229.000000;1.512037
1228.000000;1.498626
1227.000000;1.384466
1226.000000;1.269655
1225.000000;1.186672
1224.000000;1.191090
1223.000000;1.285597
1222.000000;1.288560
1221.000000;1.245835
1220.000000;1.316487
1219.000000;1.614818
1218.000000;2.088445
1217.000000;1.734311
1216.000000;1.746557
1215.000000;1.529526
1214.000000;1.196682
1213.000000;1.111212
1212.000000;1.211366
1211.000000;1.466124
1210.000000;1.694517
1209.000000;1.591828
1208.000000;1.441258
1207.000000;1.494008
1206.000000;1.770975
1205.000000;1.763252
1204.000000;1.512831
1203.000000;1.463218
1202.000000;1.809431
1201.000000;1.897254
1200.000000;1.407621
