Criado como novo conjunto de dados;"2706_e01_daniel.spp","9182.2 Secs"
cm-1;Abs
10000.000000;0.724545
9999.000000;0.724119
9998.000000;0.724413
9997.000000;0.725218
9996.000000;0.726019
9995.000000;0.726480
9994.000000;0.726555
9993.000000;0.726320
9992.000000;0.725902
9991.000000;0.725467
9990.000000;0.725131
9989.000000;0.724957
9988.000000;0.725058
9987.000000;0.725480
9986.000000;0.725933
9985.000000;0.725901
9984.000000;0.725234
9983.000000;0.724427
9982.000000;0.724128
9981.000000;0.724489
9980.000000;0.725110
9979.000000;0.725506
9978.000000;0.725494
9977.000000;0.725245
9976.000000;0.725050
9975.000000;0.725007
9974.000000;0.724937
9973.000000;0.724678
9972.000000;0.724358
9971.000000;0.724217
9970.000000;0.724301
9969.000000;0.724557
9968.000000;0.725061
9967.000000;0.725790
9966.000000;0.726268
9965.000000;0.725924
9964.000000;0.724856
9963.000000;0.723850
9962.000000;0.723513
9961.000000;0.723710
9960.000000;0.723934
9959.000000;0.723886
9958.000000;0.723597
9957.000000;0.723307
9956.000000;0.723346
9955.000000;0.723852
9954.000000;0.724489
9953.000000;0.724701
9952.000000;0.724314
9951.000000;0.723663
9950.000000;0.723102
9949.000000;0.722713
9948.000000;0.722503
9947.000000;0.722517
9946.000000;0.722665
9945.000000;0.722749
9944.000000;0.722742
9943.000000;0.722758
9942.000000;0.722722
9941.000000;0.722439
9940.000000;0.722041
9939.000000;0.721955
9938.000000;0.722318
9937.000000;0.722765
9936.000000;0.722926
9935.000000;0.722811
9934.000000;0.722578
9933.000000;0.722283
9932.000000;0.722019
9931.000000;0.721932
9930.000000;0.721962
9929.000000;0.721868
9928.000000;0.721670
9927.000000;0.721712
9926.000000;0.722115
9925.000000;0.722474
9924.000000;0.722339
9923.000000;0.721772
9922.000000;0.721206
9921.000000;0.720960
9920.000000;0.721047
9919.000000;0.721293
9918.000000;0.721476
9917.000000;0.721457
9916.000000;0.721269
9915.000000;0.721002
9914.000000;0.720659
9913.000000;0.720263
9912.000000;0.719999
9911.000000;0.719984
9910.000000;0.720005
9909.000000;0.719800
9908.000000;0.719528
9907.000000;0.719568
9906.000000;0.719882
9905.000000;0.720035
9904.000000;0.719855
9903.000000;0.719649
9902.000000;0.719656
9901.000000;0.719710
9900.000000;0.719602
9899.000000;0.719396
9898.000000;0.719243
9897.000000;0.719181
9896.000000;0.719231
9895.000000;0.719403
9894.000000;0.719503
9893.000000;0.719265
9892.000000;0.718743
9891.000000;0.718283
9890.000000;0.718071
9889.000000;0.717993
9888.000000;0.717960
9887.000000;0.717975
9886.000000;0.717865
9885.000000;0.717395
9884.000000;0.716733
9883.000000;0.716386
9882.000000;0.716538
9881.000000;0.716840
9880.000000;0.717007
9879.000000;0.717194
9878.000000;0.717602
9877.000000;0.718068
9876.000000;0.718285
9875.000000;0.718141
9874.000000;0.717700
9873.000000;0.717117
9872.000000;0.716711
9871.000000;0.716783
9870.000000;0.717189
9869.000000;0.717387
9868.000000;0.717088
9867.000000;0.716610
9866.000000;0.716473
9865.000000;0.716892
9864.000000;0.717723
9863.000000;0.718594
9862.000000;0.719007
9861.000000;0.718652
9860.000000;0.717770
9859.000000;0.716952
9858.000000;0.716501
9857.000000;0.716268
9856.000000;0.716106
9855.000000;0.716068
9854.000000;0.716100
9853.000000;0.715991
9852.000000;0.715797
9851.000000;0.715872
9850.000000;0.716273
9849.000000;0.716513
9848.000000;0.716182
9847.000000;0.715494
9846.000000;0.714989
9845.000000;0.714946
9844.000000;0.715299
9843.000000;0.715829
9842.000000;0.716218
9841.000000;0.716150
9840.000000;0.715613
9839.000000;0.714941
9838.000000;0.714414
9837.000000;0.714028
9836.000000;0.713738
9835.000000;0.713685
9834.000000;0.713972
9833.000000;0.714415
9832.000000;0.714672
9831.000000;0.714512
9830.000000;0.713939
9829.000000;0.713208
9828.000000;0.712752
9827.000000;0.712853
9826.000000;0.713365
9825.000000;0.713929
9824.000000;0.714406
9823.000000;0.714853
9822.000000;0.715174
9821.000000;0.715178
9820.000000;0.714952
9819.000000;0.714760
9818.000000;0.714578
9817.000000;0.714151
9816.000000;0.713523
9815.000000;0.713066
9814.000000;0.712905
9813.000000;0.712762
9812.000000;0.712505
9811.000000;0.712379
9810.000000;0.712534
9809.000000;0.712760
9808.000000;0.712891
9807.000000;0.713038
9806.000000;0.713215
9805.000000;0.713146
9804.000000;0.712745
9803.000000;0.712403
9802.000000;0.712483
9801.000000;0.712821
9800.000000;0.713033
9799.000000;0.713031
9798.000000;0.712943
9797.000000;0.712761
9796.000000;0.712386
9795.000000;0.711910
9794.000000;0.711589
9793.000000;0.711590
9792.000000;0.711895
9791.000000;0.712304
9790.000000;0.712487
9789.000000;0.712211
9788.000000;0.711649
9787.000000;0.711257
9786.000000;0.711278
9785.000000;0.711521
9784.000000;0.711683
9783.000000;0.711654
9782.000000;0.711459
9781.000000;0.711157
9780.000000;0.710887
9779.000000;0.710794
9778.000000;0.710824
9777.000000;0.710792
9776.000000;0.710703
9775.000000;0.710752
9774.000000;0.710985
9773.000000;0.711224
9772.000000;0.711349
9771.000000;0.711383
9770.000000;0.711280
9769.000000;0.710959
9768.000000;0.710590
9767.000000;0.710501
9766.000000;0.710731
9765.000000;0.710992
9764.000000;0.711119
9763.000000;0.711204
9762.000000;0.711249
9761.000000;0.711082
9760.000000;0.710755
9759.000000;0.710627
9758.000000;0.710844
9757.000000;0.711102
9756.000000;0.711090
9755.000000;0.710868
9754.000000;0.710608
9753.000000;0.710295
9752.000000;0.709920
9751.000000;0.709645
9750.000000;0.709564
9749.000000;0.709530
9748.000000;0.709431
9747.000000;0.709393
9746.000000;0.709530
9745.000000;0.709731
9744.000000;0.709877
9743.000000;0.710059
9742.000000;0.710369
9741.000000;0.710700
9740.000000;0.710918
9739.000000;0.711054
9738.000000;0.711150
9737.000000;0.711095
9736.000000;0.710786
9735.000000;0.710308
9734.000000;0.709826
9733.000000;0.709434
9732.000000;0.709187
9731.000000;0.709118
9730.000000;0.709148
9729.000000;0.709110
9728.000000;0.708916
9727.000000;0.708601
9726.000000;0.708229
9725.000000;0.707895
9724.000000;0.707742
9723.000000;0.707766
9722.000000;0.707696
9721.000000;0.707348
9720.000000;0.706991
9719.000000;0.707013
9718.000000;0.707313
9717.000000;0.707441
9716.000000;0.707300
9715.000000;0.707246
9714.000000;0.707433
9713.000000;0.707566
9712.000000;0.707455
9711.000000;0.707350
9710.000000;0.707509
9709.000000;0.707805
9708.000000;0.708010
9707.000000;0.708118
9706.000000;0.708153
9705.000000;0.707974
9704.000000;0.707523
9703.000000;0.707019
9702.000000;0.706677
9701.000000;0.706451
9700.000000;0.706245
9699.000000;0.706149
9698.000000;0.706276
9697.000000;0.706548
9696.000000;0.706806
9695.000000;0.706965
9694.000000;0.706928
9693.000000;0.706563
9692.000000;0.705926
9691.000000;0.705334
9690.000000;0.705080
9689.000000;0.705192
9688.000000;0.705523
9687.000000;0.705918
9686.000000;0.706222
9685.000000;0.706340
9684.000000;0.706356
9683.000000;0.706402
9682.000000;0.706417
9681.000000;0.706237
9680.000000;0.705939
9679.000000;0.705819
9678.000000;0.705974
9677.000000;0.706181
9676.000000;0.706258
9675.000000;0.706276
9674.000000;0.706319
9673.000000;0.706298
9672.000000;0.706093
9671.000000;0.705712
9670.000000;0.705245
9669.000000;0.704851
9668.000000;0.704748
9667.000000;0.704965
9666.000000;0.705155
9665.000000;0.704939
9664.000000;0.704441
9663.000000;0.704136
9662.000000;0.704163
9661.000000;0.704159
9660.000000;0.703859
9659.000000;0.703477
9658.000000;0.703367
9657.000000;0.703614
9656.000000;0.704076
9655.000000;0.704548
9654.000000;0.704793
9653.000000;0.704702
9652.000000;0.704508
9651.000000;0.704573
9650.000000;0.704860
9649.000000;0.704909
9648.000000;0.704426
9647.000000;0.703648
9646.000000;0.703027
9645.000000;0.702835
9644.000000;0.703103
9643.000000;0.703638
9642.000000;0.704004
9641.000000;0.703809
9640.000000;0.703153
9639.000000;0.702546
9638.000000;0.702305
9637.000000;0.702320
9636.000000;0.702380
9635.000000;0.702409
9634.000000;0.702337
9633.000000;0.702102
9632.000000;0.701897
9631.000000;0.702055
9630.000000;0.702568
9629.000000;0.703022
9628.000000;0.703110
9627.000000;0.702927
9626.000000;0.702683
9625.000000;0.702483
9624.000000;0.702463
9623.000000;0.702759
9622.000000;0.703208
9621.000000;0.703429
9620.000000;0.703349
9619.000000;0.703269
9618.000000;0.703311
9617.000000;0.703199
9616.000000;0.702767
9615.000000;0.702288
9614.000000;0.702058
9613.000000;0.701989
9612.000000;0.701875
9611.000000;0.701766
9610.000000;0.701815
9609.000000;0.701997
9608.000000;0.702205
9607.000000;0.702403
9606.000000;0.702512
9605.000000;0.702363
9604.000000;0.701933
9603.000000;0.701437
9602.000000;0.701025
9601.000000;0.700639
9600.000000;0.700276
9599.000000;0.700125
9598.000000;0.700292
9597.000000;0.700612
9596.000000;0.700902
9595.000000;0.701145
9594.000000;0.701304
9593.000000;0.701225
9592.000000;0.700903
9591.000000;0.700573
9590.000000;0.700403
9589.000000;0.700286
9588.000000;0.700106
9587.000000;0.699946
9586.000000;0.699912
9585.000000;0.699949
9584.000000;0.699986
9583.000000;0.700026
9582.000000;0.699992
9581.000000;0.699745
9580.000000;0.699401
9579.000000;0.699332
9578.000000;0.699698
9577.000000;0.700215
9576.000000;0.700540
9575.000000;0.700649
9574.000000;0.700680
9573.000000;0.700640
9572.000000;0.700454
9571.000000;0.700124
9570.000000;0.699687
9569.000000;0.699193
9568.000000;0.698811
9567.000000;0.698735
9566.000000;0.698905
9565.000000;0.699052
9564.000000;0.699103
9563.000000;0.699260
9562.000000;0.699575
9561.000000;0.699766
9560.000000;0.699629
9559.000000;0.699351
9558.000000;0.699229
9557.000000;0.699297
9556.000000;0.699400
9555.000000;0.699415
9554.000000;0.699254
9553.000000;0.698864
9552.000000;0.698411
9551.000000;0.698229
9550.000000;0.698441
9549.000000;0.698803
9548.000000;0.699038
9547.000000;0.699139
9546.000000;0.699216
9545.000000;0.699266
9544.000000;0.699232
9543.000000;0.699086
9542.000000;0.698758
9541.000000;0.698189
9540.000000;0.697561
9539.000000;0.697236
9538.000000;0.697343
9537.000000;0.697658
9536.000000;0.697952
9535.000000;0.698210
9534.000000;0.698387
9533.000000;0.698274
9532.000000;0.697799
9531.000000;0.697233
9530.000000;0.696918
9529.000000;0.696939
9528.000000;0.697195
9527.000000;0.697558
9526.000000;0.697858
9525.000000;0.697936
9524.000000;0.697872
9523.000000;0.697945
9522.000000;0.698246
9521.000000;0.698538
9520.000000;0.698602
9519.000000;0.698472
9518.000000;0.698224
9517.000000;0.697825
9516.000000;0.697330
9515.000000;0.696963
9514.000000;0.696842
9513.000000;0.696833
9512.000000;0.696832
9511.000000;0.696934
9510.000000;0.697143
9509.000000;0.697184
9508.000000;0.696830
9507.000000;0.696228
9506.000000;0.695700
9505.000000;0.695399
9504.000000;0.695350
9503.000000;0.695592
9502.000000;0.696062
9501.000000;0.696473
9500.000000;0.696545
9499.000000;0.696282
9498.000000;0.695910
9497.000000;0.695622
9496.000000;0.695498
9495.000000;0.695511
9494.000000;0.695485
9493.000000;0.695210
9492.000000;0.694738
9491.000000;0.694447
9490.000000;0.694672
9489.000000;0.695343
9488.000000;0.696058
9487.000000;0.696414
9486.000000;0.696230
9485.000000;0.695636
9484.000000;0.695035
9483.000000;0.694815
9482.000000;0.694995
9481.000000;0.695246
9480.000000;0.695274
9479.000000;0.695068
9478.000000;0.694768
9477.000000;0.694492
9476.000000;0.694339
9475.000000;0.694358
9474.000000;0.694442
9473.000000;0.694433
9472.000000;0.694350
9471.000000;0.694341
9470.000000;0.694389
9469.000000;0.694311
9468.000000;0.694052
9467.000000;0.693766
9466.000000;0.693554
9465.000000;0.693388
9464.000000;0.693333
9463.000000;0.693563
9462.000000;0.694058
9461.000000;0.694519
9460.000000;0.694698
9459.000000;0.694607
9458.000000;0.694354
9457.000000;0.694021
9456.000000;0.693761
9455.000000;0.693756
9454.000000;0.693961
9453.000000;0.694094
9452.000000;0.693976
9451.000000;0.693688
9450.000000;0.693352
9449.000000;0.693020
9448.000000;0.692835
9447.000000;0.692975
9446.000000;0.693339
9445.000000;0.693556
9444.000000;0.693451
9443.000000;0.693265
9442.000000;0.693290
9441.000000;0.693530
9440.000000;0.693817
9439.000000;0.694016
9438.000000;0.693998
9437.000000;0.693672
9436.000000;0.693177
9435.000000;0.692814
9434.000000;0.692667
9433.000000;0.692542
9432.000000;0.692363
9431.000000;0.692340
9430.000000;0.692583
9429.000000;0.692846
9428.000000;0.692859
9427.000000;0.692681
9426.000000;0.692511
9425.000000;0.692354
9424.000000;0.692129
9423.000000;0.691925
9422.000000;0.691928
9421.000000;0.692173
9420.000000;0.692534
9419.000000;0.692846
9418.000000;0.692946
9417.000000;0.692705
9416.000000;0.692170
9415.000000;0.691580
9414.000000;0.691167
9413.000000;0.691018
9412.000000;0.691116
9411.000000;0.691354
9410.000000;0.691498
9409.000000;0.691367
9408.000000;0.691122
9407.000000;0.691144
9406.000000;0.691516
9405.000000;0.691832
9404.000000;0.691645
9403.000000;0.690969
9402.000000;0.690222
9401.000000;0.689840
9400.000000;0.689991
9399.000000;0.690491
9398.000000;0.690918
9397.000000;0.690974
9396.000000;0.690782
9395.000000;0.690690
9394.000000;0.690789
9393.000000;0.690854
9392.000000;0.690746
9391.000000;0.690591
9390.000000;0.690509
9389.000000;0.690444
9388.000000;0.690350
9387.000000;0.690311
9386.000000;0.690359
9385.000000;0.690398
9384.000000;0.690369
9383.000000;0.690300
9382.000000;0.690145
9381.000000;0.689821
9380.000000;0.689456
9379.000000;0.689316
9378.000000;0.689447
9377.000000;0.689649
9376.000000;0.689845
9375.000000;0.690119
9374.000000;0.690331
9373.000000;0.690110
9372.000000;0.689422
9371.000000;0.688781
9370.000000;0.688669
9369.000000;0.689022
9368.000000;0.689469
9367.000000;0.689806
9366.000000;0.689991
9365.000000;0.689951
9364.000000;0.689681
9363.000000;0.689352
9362.000000;0.689105
9361.000000;0.688877
9360.000000;0.688603
9359.000000;0.688379
9358.000000;0.688257
9357.000000;0.688110
9356.000000;0.687892
9355.000000;0.687823
9354.000000;0.688095
9353.000000;0.688549
9352.000000;0.688880
9351.000000;0.689013
9350.000000;0.689061
9349.000000;0.689054
9348.000000;0.688913
9347.000000;0.688619
9346.000000;0.688228
9345.000000;0.687816
9344.000000;0.687501
9343.000000;0.687403
9342.000000;0.687485
9341.000000;0.687555
9340.000000;0.687531
9339.000000;0.687538
9338.000000;0.687642
9337.000000;0.687680
9336.000000;0.687505
9335.000000;0.687221
9334.000000;0.687025
9333.000000;0.686942
9332.000000;0.686877
9331.000000;0.686789
9330.000000;0.686698
9329.000000;0.686623
9328.000000;0.686622
9327.000000;0.686765
9326.000000;0.686994
9325.000000;0.687142
9324.000000;0.687177
9323.000000;0.687252
9322.000000;0.687437
9321.000000;0.687583
9320.000000;0.687563
9319.000000;0.687449
9318.000000;0.687334
9317.000000;0.687171
9316.000000;0.686925
9315.000000;0.686681
9314.000000;0.686490
9313.000000;0.686284
9312.000000;0.686077
9311.000000;0.686036
9310.000000;0.686188
9309.000000;0.686296
9308.000000;0.686200
9307.000000;0.686097
9306.000000;0.686252
9305.000000;0.686578
9304.000000;0.686754
9303.000000;0.686638
9302.000000;0.686370
9301.000000;0.686121
9300.000000;0.685944
9299.000000;0.685828
9298.000000;0.685723
9297.000000;0.685548
9296.000000;0.685296
9295.000000;0.685088
9294.000000;0.685041
9293.000000;0.685143
9292.000000;0.685306
9291.000000;0.685458
9290.000000;0.685538
9289.000000;0.685508
9288.000000;0.685431
9287.000000;0.685427
9286.000000;0.685493
9285.000000;0.685488
9284.000000;0.685358
9283.000000;0.685210
9282.000000;0.685130
9281.000000;0.685094
9280.000000;0.685094
9279.000000;0.685163
9278.000000;0.685221
9277.000000;0.685095
9276.000000;0.684790
9275.000000;0.684533
9274.000000;0.684455
9273.000000;0.684433
9272.000000;0.684356
9271.000000;0.684310
9270.000000;0.684338
9269.000000;0.684258
9268.000000;0.683943
9267.000000;0.683606
9266.000000;0.683546
9265.000000;0.683750
9264.000000;0.683943
9263.000000;0.683952
9262.000000;0.683826
9261.000000;0.683662
9260.000000;0.683513
9259.000000;0.683419
9258.000000;0.683405
9257.000000;0.683440
9256.000000;0.683496
9255.000000;0.683582
9254.000000;0.683665
9253.000000;0.683651
9252.000000;0.683543
9251.000000;0.683487
9250.000000;0.683560
9249.000000;0.683639
9248.000000;0.683600
9247.000000;0.683528
9246.000000;0.683567
9245.000000;0.683668
9244.000000;0.683638
9243.000000;0.683410
9242.000000;0.683106
9241.000000;0.682882
9240.000000;0.682839
9239.000000;0.683021
9238.000000;0.683382
9237.000000;0.683743
9236.000000;0.683859
9235.000000;0.683580
9234.000000;0.682956
9233.000000;0.682241
9232.000000;0.681775
9231.000000;0.681747
9230.000000;0.682028
9229.000000;0.682298
9228.000000;0.682362
9227.000000;0.682256
9226.000000;0.682077
9225.000000;0.681871
9224.000000;0.681721
9223.000000;0.681766
9222.000000;0.682027
9221.000000;0.682337
9220.000000;0.682534
9219.000000;0.682585
9218.000000;0.682478
9217.000000;0.682152
9216.000000;0.681644
9215.000000;0.681185
9214.000000;0.681000
9213.000000;0.681098
9212.000000;0.681331
9211.000000;0.681571
9210.000000;0.681725
9209.000000;0.681708
9208.000000;0.681509
9207.000000;0.681252
9206.000000;0.681067
9205.000000;0.680966
9204.000000;0.680906
9203.000000;0.680903
9202.000000;0.680982
9201.000000;0.681079
9200.000000;0.681100
9199.000000;0.681056
9198.000000;0.681050
9197.000000;0.681115
9196.000000;0.681138
9195.000000;0.680960
9194.000000;0.680570
9193.000000;0.680161
9192.000000;0.679972
9191.000000;0.680040
9190.000000;0.680177
9189.000000;0.680235
9188.000000;0.680293
9187.000000;0.680490
9186.000000;0.680782
9185.000000;0.681015
9184.000000;0.681166
9183.000000;0.681312
9182.000000;0.681404
9181.000000;0.681294
9180.000000;0.680997
9179.000000;0.680718
9178.000000;0.680557
9177.000000;0.680384
9176.000000;0.680098
9175.000000;0.679817
9174.000000;0.679706
9173.000000;0.679739
9172.000000;0.679745
9171.000000;0.679607
9170.000000;0.679350
9169.000000;0.679100
9168.000000;0.679008
9167.000000;0.679121
9166.000000;0.679309
9165.000000;0.679381
9164.000000;0.679300
9163.000000;0.679194
9162.000000;0.679160
9161.000000;0.679187
9160.000000;0.679251
9159.000000;0.679346
9158.000000;0.679391
9157.000000;0.679273
9156.000000;0.679035
9155.000000;0.678887
9154.000000;0.678941
9153.000000;0.679053
9152.000000;0.679012
9151.000000;0.678788
9150.000000;0.678526
9149.000000;0.678346
9148.000000;0.678230
9147.000000;0.678081
9146.000000;0.677847
9145.000000;0.677596
9144.000000;0.677451
9143.000000;0.677428
9142.000000;0.677405
9141.000000;0.677302
9140.000000;0.677203
9139.000000;0.677199
9138.000000;0.677213
9137.000000;0.677126
9136.000000;0.677009
9135.000000;0.677032
9134.000000;0.677217
9133.000000;0.677453
9132.000000;0.677735
9131.000000;0.678142
9130.000000;0.678567
9129.000000;0.678715
9128.000000;0.678452
9127.000000;0.678000
9126.000000;0.677689
9125.000000;0.677633
9124.000000;0.677705
9123.000000;0.677734
9122.000000;0.677639
9121.000000;0.677474
9120.000000;0.677393
9119.000000;0.677480
9118.000000;0.677628
9117.000000;0.677652
9116.000000;0.677511
9115.000000;0.677310
9114.000000;0.677128
9113.000000;0.676973
9112.000000;0.676878
9111.000000;0.676885
9110.000000;0.676920
9109.000000;0.676832
9108.000000;0.676621
9107.000000;0.676458
9106.000000;0.676468
9105.000000;0.676586
9104.000000;0.676671
9103.000000;0.676665
9102.000000;0.676600
9101.000000;0.676542
9100.000000;0.676538
9099.000000;0.676559
9098.000000;0.676509
9097.000000;0.676341
9096.000000;0.676138
9095.000000;0.675988
9094.000000;0.675843
9093.000000;0.675625
9092.000000;0.675390
9091.000000;0.675257
9090.000000;0.675235
9089.000000;0.675261
9088.000000;0.675341
9087.000000;0.675501
9086.000000;0.675676
9085.000000;0.675807
9084.000000;0.675974
9083.000000;0.676249
9082.000000;0.676481
9081.000000;0.676458
9080.000000;0.676199
9079.000000;0.675892
9078.000000;0.675587
9077.000000;0.675221
9076.000000;0.674882
9075.000000;0.674779
9074.000000;0.674914
9073.000000;0.675055
9072.000000;0.675068
9071.000000;0.675047
9070.000000;0.675053
9069.000000;0.674999
9068.000000;0.674867
9067.000000;0.674808
9066.000000;0.674915
9065.000000;0.675074
9064.000000;0.675141
9063.000000;0.675119
9062.000000;0.675082
9061.000000;0.675084
9060.000000;0.675195
9059.000000;0.675456
9058.000000;0.675719
9057.000000;0.675709
9056.000000;0.675337
9055.000000;0.674809
9054.000000;0.674374
9053.000000;0.674093
9052.000000;0.673936
9051.000000;0.673915
9050.000000;0.674017
9049.000000;0.674124
9048.000000;0.674130
9047.000000;0.674043
9046.000000;0.673912
9045.000000;0.673748
9044.000000;0.673558
9043.000000;0.673380
9042.000000;0.673208
9041.000000;0.672990
9040.000000;0.672734
9039.000000;0.672551
9038.000000;0.672545
9037.000000;0.672732
9036.000000;0.673052
9035.000000;0.673387
9034.000000;0.673584
9033.000000;0.673567
9032.000000;0.673431
9031.000000;0.673339
9030.000000;0.673342
9029.000000;0.673396
9028.000000;0.673466
9027.000000;0.673514
9026.000000;0.673418
9025.000000;0.673101
9024.000000;0.672703
9023.000000;0.672481
9022.000000;0.672532
9021.000000;0.672742
9020.000000;0.672951
9019.000000;0.673043
9018.000000;0.672929
9017.000000;0.672639
9016.000000;0.672405
9015.000000;0.672441
9014.000000;0.672661
9013.000000;0.672781
9012.000000;0.672683
9011.000000;0.672507
9010.000000;0.672409
9009.000000;0.672424
9008.000000;0.672539
9007.000000;0.672681
9006.000000;0.672654
9005.000000;0.672313
9004.000000;0.671835
9003.000000;0.671598
9002.000000;0.671724
9001.000000;0.671959
9000.000000;0.672038
8999.000000;0.671969
8998.000000;0.671882
8997.000000;0.671809
8996.000000;0.671729
8995.000000;0.671695
8994.000000;0.671792
8993.000000;0.672026
8992.000000;0.672309
8991.000000;0.672478
8990.000000;0.672376
8989.000000;0.672018
8988.000000;0.671673
8987.000000;0.671618
8986.000000;0.671821
8985.000000;0.672000
8984.000000;0.671972
8983.000000;0.671808
8982.000000;0.671648
8981.000000;0.671530
8980.000000;0.671410
8979.000000;0.671226
8978.000000;0.670939
8977.000000;0.670628
8976.000000;0.670470
8975.000000;0.670500
8974.000000;0.670487
8973.000000;0.670249
8972.000000;0.669992
8971.000000;0.670071
8970.000000;0.670473
8969.000000;0.670809
8968.000000;0.670812
8967.000000;0.670573
8966.000000;0.670265
8965.000000;0.669960
8964.000000;0.669747
8963.000000;0.669768
8962.000000;0.670014
8961.000000;0.670304
8960.000000;0.670533
8959.000000;0.670731
8958.000000;0.670853
8957.000000;0.670749
8956.000000;0.670434
8955.000000;0.670131
8954.000000;0.669958
8953.000000;0.669820
8952.000000;0.669674
8951.000000;0.669660
8950.000000;0.669817
8949.000000;0.669927
8948.000000;0.669792
8947.000000;0.669494
8946.000000;0.669237
8945.000000;0.669098
8944.000000;0.669071
8943.000000;0.669195
8942.000000;0.669467
8941.000000;0.669725
8940.000000;0.669775
8939.000000;0.669563
8938.000000;0.669155
8937.000000;0.668670
8936.000000;0.668303
8935.000000;0.668247
8934.000000;0.668489
8933.000000;0.668765
8932.000000;0.668844
8931.000000;0.668750
8930.000000;0.668636
8929.000000;0.668563
8928.000000;0.668495
8927.000000;0.668401
8926.000000;0.668284
8925.000000;0.668161
8924.000000;0.668099
8923.000000;0.668183
8922.000000;0.668402
8921.000000;0.668630
8920.000000;0.668771
8919.000000;0.668830
8918.000000;0.668837
8917.000000;0.668791
8916.000000;0.668700
8915.000000;0.668576
8914.000000;0.668384
8913.000000;0.668102
8912.000000;0.667821
8911.000000;0.667658
8910.000000;0.667593
8909.000000;0.667534
8908.000000;0.667524
8907.000000;0.667698
8906.000000;0.668016
8905.000000;0.668247
8904.000000;0.668263
8903.000000;0.668171
8902.000000;0.668101
8901.000000;0.668061
8900.000000;0.668042
8899.000000;0.668079
8898.000000;0.668102
8897.000000;0.667918
8896.000000;0.667480
8895.000000;0.667025
8894.000000;0.666824
8893.000000;0.666902
8892.000000;0.667079
8891.000000;0.667211
8890.000000;0.667279
8889.000000;0.667331
8888.000000;0.667417
8887.000000;0.667544
8886.000000;0.667649
8885.000000;0.667679
8884.000000;0.667687
8883.000000;0.667748
8882.000000;0.667786
8881.000000;0.667615
8880.000000;0.667214
8879.000000;0.666792
8878.000000;0.666533
8877.000000;0.666401
8876.000000;0.666253
8875.000000;0.666075
8874.000000;0.665998
8873.000000;0.666149
8872.000000;0.666512
8871.000000;0.666896
8870.000000;0.667037
8869.000000;0.666839
8868.000000;0.666507
8867.000000;0.666335
8866.000000;0.666369
8865.000000;0.666404
8864.000000;0.666294
8863.000000;0.666095
8862.000000;0.665907
8861.000000;0.665735
8860.000000;0.665584
8859.000000;0.665513
8858.000000;0.665532
8857.000000;0.665553
8856.000000;0.665517
8855.000000;0.665484
8854.000000;0.665537
8853.000000;0.665673
8852.000000;0.665827
8851.000000;0.665924
8850.000000;0.665911
8849.000000;0.665804
8848.000000;0.665712
8847.000000;0.665718
8846.000000;0.665740
8845.000000;0.665628
8844.000000;0.665384
8843.000000;0.665171
8842.000000;0.665114
8841.000000;0.665191
8840.000000;0.665337
8839.000000;0.665497
8838.000000;0.665586
8837.000000;0.665535
8836.000000;0.665415
8835.000000;0.665382
8834.000000;0.665474
8833.000000;0.665571
8832.000000;0.665579
8831.000000;0.665526
8830.000000;0.665458
8829.000000;0.665373
8828.000000;0.665267
8827.000000;0.665170
8826.000000;0.665100
8825.000000;0.665086
8824.000000;0.665189
8823.000000;0.665396
8822.000000;0.665532
8821.000000;0.665433
8820.000000;0.665188
8819.000000;0.665026
8818.000000;0.665003
8817.000000;0.664975
8816.000000;0.664903
8815.000000;0.664955
8814.000000;0.665227
8813.000000;0.665558
8812.000000;0.665715
8811.000000;0.665627
8810.000000;0.665368
8809.000000;0.665011
8808.000000;0.664623
8807.000000;0.664286
8806.000000;0.664064
8805.000000;0.663974
8804.000000;0.664023
8803.000000;0.664179
8802.000000;0.664325
8801.000000;0.664346
8800.000000;0.664270
8799.000000;0.664244
8798.000000;0.664343
8797.000000;0.664528
8796.000000;0.664754
8795.000000;0.664990
8794.000000;0.665138
8793.000000;0.665088
8792.000000;0.664893
8791.000000;0.664756
8790.000000;0.664782
8789.000000;0.664862
8788.000000;0.664840
8787.000000;0.664675
8786.000000;0.664438
8785.000000;0.664230
8784.000000;0.664151
8783.000000;0.664229
8782.000000;0.664373
8781.000000;0.664469
8780.000000;0.664527
8779.000000;0.664606
8778.000000;0.664638
8777.000000;0.664490
8776.000000;0.664197
8775.000000;0.663962
8774.000000;0.663892
8773.000000;0.663885
8772.000000;0.663840
8771.000000;0.663819
8770.000000;0.663930
8769.000000;0.664161
8768.000000;0.664403
8767.000000;0.664550
8766.000000;0.664549
8765.000000;0.664409
8764.000000;0.664233
8763.000000;0.664150
8762.000000;0.664185
8761.000000;0.664247
8760.000000;0.664242
8759.000000;0.664143
8758.000000;0.663983
8757.000000;0.663850
8756.000000;0.663865
8755.000000;0.664051
8754.000000;0.664243
8753.000000;0.664238
8752.000000;0.664026
8751.000000;0.663767
8750.000000;0.663561
8749.000000;0.663383
8748.000000;0.663243
8747.000000;0.663246
8746.000000;0.663446
8745.000000;0.663750
8744.000000;0.664001
8743.000000;0.664114
8742.000000;0.664091
8741.000000;0.663987
8740.000000;0.663865
8739.000000;0.663749
8738.000000;0.663636
8737.000000;0.663564
8736.000000;0.663608
8735.000000;0.663745
8734.000000;0.663819
8733.000000;0.663723
8732.000000;0.663550
8731.000000;0.663462
8730.000000;0.663479
8729.000000;0.663513
8728.000000;0.663519
8727.000000;0.663501
8726.000000;0.663425
8725.000000;0.663272
8724.000000;0.663126
8723.000000;0.663078
8722.000000;0.663114
8721.000000;0.663190
8720.000000;0.663330
8719.000000;0.663519
8718.000000;0.663609
8717.000000;0.663487
8716.000000;0.663258
8715.000000;0.663098
8714.000000;0.663031
8713.000000;0.663000
8712.000000;0.663037
8711.000000;0.663154
8710.000000;0.663177
8709.000000;0.662951
8708.000000;0.662640
8707.000000;0.662571
8706.000000;0.662814
8705.000000;0.663143
8704.000000;0.663375
8703.000000;0.663509
8702.000000;0.663560
8701.000000;0.663499
8700.000000;0.663394
8699.000000;0.663376
8698.000000;0.663436
8697.000000;0.663442
8696.000000;0.663373
8695.000000;0.663355
8694.000000;0.663451
8693.000000;0.663604
8692.000000;0.663764
8691.000000;0.663898
8690.000000;0.663887
8689.000000;0.663629
8688.000000;0.663252
8687.000000;0.663024
8686.000000;0.663031
8685.000000;0.663147
8684.000000;0.663288
8683.000000;0.663469
8682.000000;0.663608
8681.000000;0.663528
8680.000000;0.663239
8679.000000;0.662998
8678.000000;0.663000
8677.000000;0.663162
8676.000000;0.663275
8675.000000;0.663210
8674.000000;0.662942
8673.000000;0.662533
8672.000000;0.662152
8671.000000;0.661967
8670.000000;0.661976
8669.000000;0.662044
8668.000000;0.662100
8667.000000;0.662148
8666.000000;0.662144
8665.000000;0.662028
8664.000000;0.661879
8663.000000;0.661851
8662.000000;0.661938
8661.000000;0.662003
8660.000000;0.662009
8659.000000;0.662042
8658.000000;0.662095
8657.000000;0.662043
8656.000000;0.661871
8655.000000;0.661722
8654.000000;0.661674
8653.000000;0.661666
8652.000000;0.661677
8651.000000;0.661771
8650.000000;0.661917
8649.000000;0.661943
8648.000000;0.661757
8647.000000;0.661473
8646.000000;0.661241
8645.000000;0.661109
8644.000000;0.661069
8643.000000;0.661096
8642.000000;0.661087
8641.000000;0.660925
8640.000000;0.660634
8639.000000;0.660353
8638.000000;0.660142
8637.000000;0.659967
8636.000000;0.659864
8635.000000;0.659952
8634.000000;0.660222
8633.000000;0.660480
8632.000000;0.660556
8631.000000;0.660446
8630.000000;0.660257
8629.000000;0.660114
8628.000000;0.660118
8627.000000;0.660236
8626.000000;0.660270
8625.000000;0.660071
8624.000000;0.659767
8623.000000;0.659586
8622.000000;0.659521
8621.000000;0.659380
8620.000000;0.659131
8619.000000;0.658958
8618.000000;0.658933
8617.000000;0.658919
8616.000000;0.658829
8615.000000;0.658753
8614.000000;0.658737
8613.000000;0.658681
8612.000000;0.658537
8611.000000;0.658424
8610.000000;0.658411
8609.000000;0.658375
8608.000000;0.658177
8607.000000;0.657865
8606.000000;0.657572
8605.000000;0.657353
8604.000000;0.657192
8603.000000;0.657082
8602.000000;0.657014
8601.000000;0.656976
8600.000000;0.656979
8599.000000;0.657008
8598.000000;0.656947
8597.000000;0.656695
8596.000000;0.656365
8595.000000;0.656200
8594.000000;0.656287
8593.000000;0.656484
8592.000000;0.656629
8591.000000;0.656687
8590.000000;0.656662
8589.000000;0.656554
8588.000000;0.656417
8587.000000;0.656312
8586.000000;0.656193
8585.000000;0.655981
8584.000000;0.655750
8583.000000;0.655653
8582.000000;0.655660
8581.000000;0.655576
8580.000000;0.655337
8579.000000;0.655111
8578.000000;0.655041
8577.000000;0.655082
8576.000000;0.655137
8575.000000;0.655187
8574.000000;0.655231
8573.000000;0.655235
8572.000000;0.655197
8571.000000;0.655123
8570.000000;0.654931
8569.000000;0.654554
8568.000000;0.654158
8567.000000;0.654028
8566.000000;0.654184
8565.000000;0.654318
8564.000000;0.654192
8563.000000;0.653904
8562.000000;0.653665
8561.000000;0.653514
8560.000000;0.653381
8559.000000;0.653279
8558.000000;0.653257
8557.000000;0.653272
8556.000000;0.653250
8555.000000;0.653206
8554.000000;0.653204
8553.000000;0.653240
8552.000000;0.653246
8551.000000;0.653164
8550.000000;0.652992
8549.000000;0.652799
8548.000000;0.652681
8547.000000;0.652635
8546.000000;0.652504
8545.000000;0.652160
8544.000000;0.651715
8543.000000;0.651428
8542.000000;0.651403
8541.000000;0.651516
8540.000000;0.651619
8539.000000;0.651657
8538.000000;0.651595
8537.000000;0.651422
8536.000000;0.651261
8535.000000;0.651294
8534.000000;0.651514
8533.000000;0.651695
8532.000000;0.651667
8531.000000;0.651470
8530.000000;0.651197
8529.000000;0.650864
8528.000000;0.650514
8527.000000;0.650290
8526.000000;0.650284
8525.000000;0.650410
8524.000000;0.650508
8523.000000;0.650497
8522.000000;0.650382
8521.000000;0.650203
8520.000000;0.650031
8519.000000;0.649944
8518.000000;0.649933
8517.000000;0.649915
8516.000000;0.649852
8515.000000;0.649786
8514.000000;0.649768
8513.000000;0.649806
8512.000000;0.649885
8511.000000;0.649944
8510.000000;0.649865
8509.000000;0.649612
8508.000000;0.649348
8507.000000;0.649278
8506.000000;0.649379
8505.000000;0.649427
8504.000000;0.649277
8503.000000;0.648996
8502.000000;0.648712
8501.000000;0.648483
8500.000000;0.648329
8499.000000;0.648228
8498.000000;0.648076
8497.000000;0.647793
8496.000000;0.647491
8495.000000;0.647385
8494.000000;0.647518
8493.000000;0.647711
8492.000000;0.647800
8491.000000;0.647785
8490.000000;0.647713
8489.000000;0.647584
8488.000000;0.647433
8487.000000;0.647353
8486.000000;0.647373
8485.000000;0.647404
8484.000000;0.647357
8483.000000;0.647221
8482.000000;0.647019
8481.000000;0.646791
8480.000000;0.646631
8479.000000;0.646611
8478.000000;0.646660
8477.000000;0.646633
8476.000000;0.646497
8475.000000;0.646350
8474.000000;0.646249
8473.000000;0.646179
8472.000000;0.646162
8471.000000;0.646244
8470.000000;0.646359
8469.000000;0.646363
8468.000000;0.646243
8467.000000;0.646135
8466.000000;0.646108
8465.000000;0.646076
8464.000000;0.645957
8463.000000;0.645778
8462.000000;0.645599
8461.000000;0.645439
8460.000000;0.645321
8459.000000;0.645237
8458.000000;0.645078
8457.000000;0.644764
8456.000000;0.644443
8455.000000;0.644398
8454.000000;0.644671
8453.000000;0.644958
8452.000000;0.644960
8451.000000;0.644703
8450.000000;0.644441
8449.000000;0.644353
8448.000000;0.644410
8447.000000;0.644456
8446.000000;0.644344
8445.000000;0.644073
8444.000000;0.643826
8443.000000;0.643793
8442.000000;0.643947
8441.000000;0.644090
8440.000000;0.644099
8439.000000;0.644009
8438.000000;0.643855
8437.000000;0.643586
8436.000000;0.643208
8435.000000;0.642855
8434.000000;0.642650
8433.000000;0.642567
8432.000000;0.642511
8431.000000;0.642439
8430.000000;0.642373
8429.000000;0.642356
8428.000000;0.642420
8427.000000;0.642539
8426.000000;0.642617
8425.000000;0.642574
8424.000000;0.642455
8423.000000;0.642356
8422.000000;0.642291
8421.000000;0.642206
8420.000000;0.642105
8419.000000;0.642020
8418.000000;0.641916
8417.000000;0.641739
8416.000000;0.641555
8415.000000;0.641476
8414.000000;0.641486
8413.000000;0.641464
8412.000000;0.641385
8411.000000;0.641335
8410.000000;0.641339
8409.000000;0.641332
8408.000000;0.641306
8407.000000;0.641332
8406.000000;0.641406
8405.000000;0.641415
8404.000000;0.641289
8403.000000;0.641085
8402.000000;0.640892
8401.000000;0.640782
8400.000000;0.640825
8399.000000;0.641023
8398.000000;0.641209
8397.000000;0.641173
8396.000000;0.640905
8395.000000;0.640598
8394.000000;0.640404
8393.000000;0.640310
8392.000000;0.640270
8391.000000;0.640283
8390.000000;0.640310
8389.000000;0.640252
8388.000000;0.640064
8387.000000;0.639805
8386.000000;0.639558
8385.000000;0.639396
8384.000000;0.639395
8383.000000;0.639554
8382.000000;0.639705
8381.000000;0.639653
8380.000000;0.639429
8379.000000;0.639247
8378.000000;0.639235
8377.000000;0.639329
8376.000000;0.639420
8375.000000;0.639457
8374.000000;0.639400
8373.000000;0.639228
8372.000000;0.639022
8371.000000;0.638888
8370.000000;0.638793
8369.000000;0.638637
8368.000000;0.638455
8367.000000;0.638389
8366.000000;0.638448
8365.000000;0.638488
8364.000000;0.638452
8363.000000;0.638430
8362.000000;0.638445
8361.000000;0.638379
8360.000000;0.638179
8359.000000;0.637968
8358.000000;0.637868
8357.000000;0.637847
8356.000000;0.637828
8355.000000;0.637793
8354.000000;0.637720
8353.000000;0.637553
8352.000000;0.637309
8351.000000;0.637104
8350.000000;0.637000
8349.000000;0.636939
8348.000000;0.636858
8347.000000;0.636776
8346.000000;0.636703
8345.000000;0.636625
8344.000000;0.636598
8343.000000;0.636721
8342.000000;0.636940
8341.000000;0.637023
8340.000000;0.636812
8339.000000;0.636420
8338.000000;0.636097
8337.000000;0.635992
8336.000000;0.636081
8335.000000;0.636226
8334.000000;0.636256
8333.000000;0.636094
8332.000000;0.635847
8331.000000;0.635715
8330.000000;0.635764
8329.000000;0.635877
8328.000000;0.635943
8327.000000;0.635970
8326.000000;0.635978
8325.000000;0.635918
8324.000000;0.635743
8323.000000;0.635489
8322.000000;0.635237
8321.000000;0.635052
8320.000000;0.634983
8319.000000;0.635018
8318.000000;0.635048
8317.000000;0.634965
8316.000000;0.634817
8315.000000;0.634750
8314.000000;0.634815
8313.000000;0.634928
8312.000000;0.635018
8311.000000;0.635065
8310.000000;0.635004
8309.000000;0.634749
8308.000000;0.634373
8307.000000;0.634091
8306.000000;0.634006
8305.000000;0.634007
8304.000000;0.633956
8303.000000;0.633867
8302.000000;0.633819
8301.000000;0.633804
8300.000000;0.633765
8299.000000;0.633693
8298.000000;0.633621
8297.000000;0.633568
8296.000000;0.633531
8295.000000;0.633490
8294.000000;0.633396
8293.000000;0.633219
8292.000000;0.633008
8291.000000;0.632851
8290.000000;0.632772
8289.000000;0.632753
8288.000000;0.632806
8287.000000;0.632938
8286.000000;0.633047
8285.000000;0.633001
8284.000000;0.632817
8283.000000;0.632646
8282.000000;0.632567
8281.000000;0.632513
8280.000000;0.632429
8279.000000;0.632380
8278.000000;0.632431
8277.000000;0.632535
8276.000000;0.632573
8275.000000;0.632470
8274.000000;0.632247
8273.000000;0.632003
8272.000000;0.631851
8271.000000;0.631807
8270.000000;0.631766
8269.000000;0.631651
8268.000000;0.631532
8267.000000;0.631507
8266.000000;0.631514
8265.000000;0.631397
8264.000000;0.631149
8263.000000;0.630937
8262.000000;0.630876
8261.000000;0.630917
8260.000000;0.630959
8259.000000;0.630968
8258.000000;0.630957
8257.000000;0.630946
8256.000000;0.630944
8255.000000;0.630911
8254.000000;0.630762
8253.000000;0.630505
8252.000000;0.630318
8251.000000;0.630358
8250.000000;0.630524
8249.000000;0.630573
8248.000000;0.630425
8247.000000;0.630220
8246.000000;0.630062
8245.000000;0.629918
8244.000000;0.629766
8243.000000;0.629687
8242.000000;0.629741
8241.000000;0.629874
8240.000000;0.629998
8239.000000;0.630068
8238.000000;0.630058
8237.000000;0.629967
8236.000000;0.629850
8235.000000;0.629741
8234.000000;0.629579
8233.000000;0.629314
8232.000000;0.629059
8231.000000;0.628983
8230.000000;0.629075
8229.000000;0.629169
8228.000000;0.629193
8227.000000;0.629222
8226.000000;0.629267
8225.000000;0.629210
8224.000000;0.629004
8223.000000;0.628758
8222.000000;0.628589
8221.000000;0.628494
8220.000000;0.628437
8219.000000;0.628420
8218.000000;0.628428
8217.000000;0.628419
8216.000000;0.628412
8215.000000;0.628469
8214.000000;0.628571
8213.000000;0.628617
8212.000000;0.628577
8211.000000;0.628499
8210.000000;0.628366
8209.000000;0.628100
8208.000000;0.627749
8207.000000;0.627506
8206.000000;0.627478
8205.000000;0.627566
8204.000000;0.627615
8203.000000;0.627587
8202.000000;0.627516
8201.000000;0.627414
8200.000000;0.627296
8199.000000;0.627204
8198.000000;0.627158
8197.000000;0.627129
8196.000000;0.627085
8195.000000;0.626998
8194.000000;0.626831
8193.000000;0.626612
8192.000000;0.626481
8191.000000;0.626536
8190.000000;0.626650
8189.000000;0.626603
8188.000000;0.626387
8187.000000;0.626211
8186.000000;0.626211
8185.000000;0.626304
8184.000000;0.626382
8183.000000;0.626455
8182.000000;0.626549
8181.000000;0.626619
8180.000000;0.626647
8179.000000;0.626689
8178.000000;0.626755
8177.000000;0.626766
8176.000000;0.626675
8175.000000;0.626530
8174.000000;0.626379
8173.000000;0.626221
8172.000000;0.626101
8171.000000;0.626095
8170.000000;0.626149
8169.000000;0.626075
8168.000000;0.625780
8167.000000;0.625402
8166.000000;0.625135
8165.000000;0.625034
8164.000000;0.625048
8163.000000;0.625126
8162.000000;0.625220
8161.000000;0.625271
8160.000000;0.625289
8159.000000;0.625334
8158.000000;0.625394
8157.000000;0.625359
8156.000000;0.625189
8155.000000;0.624998
8154.000000;0.624899
8153.000000;0.624858
8152.000000;0.624765
8151.000000;0.624594
8150.000000;0.624414
8149.000000;0.624305
8148.000000;0.624300
8147.000000;0.624369
8146.000000;0.624420
8145.000000;0.624375
8144.000000;0.624256
8143.000000;0.624150
8142.000000;0.624087
8141.000000;0.624028
8140.000000;0.623976
8139.000000;0.623967
8138.000000;0.623961
8137.000000;0.623852
8136.000000;0.623638
8135.000000;0.623469
8134.000000;0.623471
8133.000000;0.623607
8132.000000;0.623760
8131.000000;0.623867
8130.000000;0.623926
8129.000000;0.623939
8128.000000;0.623903
8127.000000;0.623806
8126.000000;0.623628
8125.000000;0.623387
8124.000000;0.623187
8123.000000;0.623113
8122.000000;0.623115
8121.000000;0.623065
8120.000000;0.622938
8119.000000;0.622814
8118.000000;0.622724
8117.000000;0.622626
8116.000000;0.622530
8115.000000;0.622519
8114.000000;0.622598
8113.000000;0.622663
8112.000000;0.622640
8111.000000;0.622563
8110.000000;0.622461
8109.000000;0.622306
8108.000000;0.622120
8107.000000;0.622015
8106.000000;0.622055
8105.000000;0.622160
8104.000000;0.622216
8103.000000;0.622196
8102.000000;0.622135
8101.000000;0.622059
8100.000000;0.622003
8099.000000;0.622020
8098.000000;0.622105
8097.000000;0.622178
8096.000000;0.622171
8095.000000;0.622096
8094.000000;0.622004
8093.000000;0.621914
8092.000000;0.621827
8091.000000;0.621733
8090.000000;0.621615
8089.000000;0.621481
8088.000000;0.621399
8087.000000;0.621406
8086.000000;0.621420
8085.000000;0.621322
8084.000000;0.621138
8083.000000;0.621022
8082.000000;0.621046
8081.000000;0.621107
8080.000000;0.621095
8079.000000;0.621019
8078.000000;0.620950
8077.000000;0.620899
8076.000000;0.620844
8075.000000;0.620787
8074.000000;0.620752
8073.000000;0.620755
8072.000000;0.620794
8071.000000;0.620834
8070.000000;0.620811
8069.000000;0.620698
8068.000000;0.620549
8067.000000;0.620436
8066.000000;0.620348
8065.000000;0.620239
8064.000000;0.620131
8063.000000;0.620076
8062.000000;0.620045
8061.000000;0.619972
8060.000000;0.619883
8059.000000;0.619866
8058.000000;0.619918
8057.000000;0.619930
8056.000000;0.619840
8055.000000;0.619690
8054.000000;0.619539
8053.000000;0.619406
8052.000000;0.619320
8051.000000;0.619307
8050.000000;0.619327
8049.000000;0.619320
8048.000000;0.619315
8047.000000;0.619392
8046.000000;0.619546
8045.000000;0.619687
8044.000000;0.619754
8043.000000;0.619732
8042.000000;0.619565
8041.000000;0.619230
8040.000000;0.618862
8039.000000;0.618670
8038.000000;0.618697
8037.000000;0.618806
8036.000000;0.618910
8035.000000;0.619044
8034.000000;0.619197
8033.000000;0.619252
8032.000000;0.619164
8031.000000;0.619044
8030.000000;0.618988
8029.000000;0.618945
8028.000000;0.618831
8027.000000;0.618658
8026.000000;0.618481
8025.000000;0.618321
8024.000000;0.618202
8023.000000;0.618166
8022.000000;0.618183
8021.000000;0.618148
8020.000000;0.618033
8019.000000;0.617943
8018.000000;0.617963
8017.000000;0.618041
8016.000000;0.618084
8015.000000;0.618085
8014.000000;0.618084
8013.000000;0.618083
8012.000000;0.618070
8011.000000;0.618057
8010.000000;0.618037
8009.000000;0.617995
8008.000000;0.617975
8007.000000;0.618058
8006.000000;0.618223
8005.000000;0.618322
8004.000000;0.618247
8003.000000;0.618043
8002.000000;0.617807
8001.000000;0.617575
8000.000000;0.617361
7999.000000;0.617224
7998.000000;0.617208
7997.000000;0.617265
7996.000000;0.617307
7995.000000;0.617295
7994.000000;0.617244
7993.000000;0.617181
7992.000000;0.617130
7991.000000;0.617087
7990.000000;0.616994
7989.000000;0.616808
7988.000000;0.616589
7987.000000;0.616462
7986.000000;0.616472
7985.000000;0.616553
7984.000000;0.616649
7983.000000;0.616762
7982.000000;0.616870
7981.000000;0.616897
7980.000000;0.616816
7979.000000;0.616692
7978.000000;0.616585
7977.000000;0.616493
7976.000000;0.616414
7975.000000;0.616378
7974.000000;0.616385
7973.000000;0.616375
7972.000000;0.616306
7971.000000;0.616189
7970.000000;0.616030
7969.000000;0.615827
7968.000000;0.615644
7967.000000;0.615598
7966.000000;0.615711
7965.000000;0.615860
7964.000000;0.615920
7963.000000;0.615882
7962.000000;0.615791
7961.000000;0.615660
7960.000000;0.615493
7959.000000;0.615332
7958.000000;0.615225
7957.000000;0.615191
7956.000000;0.615241
7955.000000;0.615366
7954.000000;0.615495
7953.000000;0.615535
7952.000000;0.615483
7951.000000;0.615422
7950.000000;0.615386
7949.000000;0.615331
7948.000000;0.615237
7947.000000;0.615163
7946.000000;0.615132
7945.000000;0.615070
7944.000000;0.614914
7943.000000;0.614716
7942.000000;0.614578
7941.000000;0.614542
7940.000000;0.614588
7939.000000;0.614680
7938.000000;0.614761
7937.000000;0.614769
7936.000000;0.614702
7935.000000;0.614628
7934.000000;0.614596
7933.000000;0.614581
7932.000000;0.614548
7931.000000;0.614502
7930.000000;0.614444
7929.000000;0.614355
7928.000000;0.614252
7927.000000;0.614196
7926.000000;0.614198
7925.000000;0.614188
7924.000000;0.614110
7923.000000;0.614006
7922.000000;0.613941
7921.000000;0.613921
7920.000000;0.613906
7919.000000;0.613864
7918.000000;0.613775
7917.000000;0.613636
7916.000000;0.613498
7915.000000;0.613453
7914.000000;0.613526
7913.000000;0.613638
7912.000000;0.613687
7911.000000;0.613638
7910.000000;0.613509
7909.000000;0.613329
7908.000000;0.613156
7907.000000;0.613071
7906.000000;0.613107
7905.000000;0.613204
7904.000000;0.613271
7903.000000;0.613262
7902.000000;0.613182
7901.000000;0.613067
7900.000000;0.612974
7899.000000;0.612953
7898.000000;0.612983
7897.000000;0.612993
7896.000000;0.612949
7895.000000;0.612892
7894.000000;0.612861
7893.000000;0.612840
7892.000000;0.612803
7891.000000;0.612769
7890.000000;0.612765
7889.000000;0.612772
7888.000000;0.612745
7887.000000;0.612663
7886.000000;0.612557
7885.000000;0.612482
7884.000000;0.612475
7883.000000;0.612514
7882.000000;0.612518
7881.000000;0.612436
7880.000000;0.612309
7879.000000;0.612213
7878.000000;0.612165
7877.000000;0.612124
7876.000000;0.612083
7875.000000;0.612080
7874.000000;0.612106
7873.000000;0.612082
7872.000000;0.611951
7871.000000;0.611757
7870.000000;0.611604
7869.000000;0.611564
7868.000000;0.611635
7867.000000;0.611749
7866.000000;0.611820
7865.000000;0.611800
7864.000000;0.611720
7863.000000;0.611648
7862.000000;0.611617
7861.000000;0.611611
7860.000000;0.611609
7859.000000;0.611602
7858.000000;0.611583
7857.000000;0.611549
7856.000000;0.611508
7855.000000;0.611474
7854.000000;0.611449
7853.000000;0.611442
7852.000000;0.611464
7851.000000;0.611494
7850.000000;0.611468
7849.000000;0.611361
7848.000000;0.611229
7847.000000;0.611133
7846.000000;0.611056
7845.000000;0.610949
7844.000000;0.610829
7843.000000;0.610748
7842.000000;0.610723
7841.000000;0.610744
7840.000000;0.610819
7839.000000;0.610931
7838.000000;0.610995
7837.000000;0.610935
7836.000000;0.610801
7835.000000;0.610713
7834.000000;0.610713
7833.000000;0.610729
7832.000000;0.610685
7831.000000;0.610577
7830.000000;0.610444
7829.000000;0.610343
7828.000000;0.610331
7827.000000;0.610411
7826.000000;0.610495
7825.000000;0.610496
7824.000000;0.610434
7823.000000;0.610392
7822.000000;0.610383
7821.000000;0.610348
7820.000000;0.610251
7819.000000;0.610121
7818.000000;0.609999
7817.000000;0.609907
7816.000000;0.609860
7815.000000;0.609833
7814.000000;0.609760
7813.000000;0.609612
7812.000000;0.609462
7811.000000;0.609385
7810.000000;0.609353
7809.000000;0.609315
7808.000000;0.609308
7807.000000;0.609393
7806.000000;0.609509
7805.000000;0.609530
7804.000000;0.609457
7803.000000;0.609410
7802.000000;0.609437
7801.000000;0.609469
7800.000000;0.609454
7799.000000;0.609430
7798.000000;0.609408
7797.000000;0.609332
7796.000000;0.609184
7795.000000;0.609025
7794.000000;0.608900
7793.000000;0.608778
7792.000000;0.608637
7791.000000;0.608528
7790.000000;0.608507
7789.000000;0.608561
7788.000000;0.608641
7787.000000;0.608703
7786.000000;0.608700
7785.000000;0.608605
7784.000000;0.608457
7783.000000;0.608330
7782.000000;0.608249
7781.000000;0.608190
7780.000000;0.608171
7779.000000;0.608245
7778.000000;0.608389
7777.000000;0.608476
7776.000000;0.608412
7775.000000;0.608221
7774.000000;0.607987
7773.000000;0.607766
7772.000000;0.607596
7771.000000;0.607511
7770.000000;0.607508
7769.000000;0.607556
7768.000000;0.607638
7767.000000;0.607749
7766.000000;0.607826
7765.000000;0.607784
7764.000000;0.607636
7763.000000;0.607522
7762.000000;0.607553
7761.000000;0.607687
7760.000000;0.607789
7759.000000;0.607779
7758.000000;0.607684
7757.000000;0.607559
7756.000000;0.607420
7755.000000;0.607238
7754.000000;0.607003
7753.000000;0.606787
7752.000000;0.606699
7751.000000;0.606774
7750.000000;0.606931
7749.000000;0.607071
7748.000000;0.607160
7747.000000;0.607206
7746.000000;0.607184
7745.000000;0.607075
7744.000000;0.606922
7743.000000;0.606787
7742.000000;0.606686
7741.000000;0.606629
7740.000000;0.606670
7739.000000;0.606820
7738.000000;0.606962
7737.000000;0.606957
7736.000000;0.606820
7735.000000;0.606691
7734.000000;0.606637
7733.000000;0.606598
7732.000000;0.606533
7731.000000;0.606491
7730.000000;0.606504
7729.000000;0.606518
7728.000000;0.606465
7727.000000;0.606351
7726.000000;0.606228
7725.000000;0.606132
7724.000000;0.606091
7723.000000;0.606114
7722.000000;0.606174
7721.000000;0.606212
7720.000000;0.606197
7719.000000;0.606124
7718.000000;0.605984
7717.000000;0.605778
7716.000000;0.605567
7715.000000;0.605433
7714.000000;0.605392
7713.000000;0.605402
7712.000000;0.605438
7711.000000;0.605507
7710.000000;0.605589
7709.000000;0.605639
7708.000000;0.605636
7707.000000;0.605584
7706.000000;0.605475
7705.000000;0.605324
7704.000000;0.605202
7703.000000;0.605166
7702.000000;0.605165
7701.000000;0.605102
7700.000000;0.604979
7699.000000;0.604897
7698.000000;0.604904
7697.000000;0.604931
7696.000000;0.604904
7695.000000;0.604847
7694.000000;0.604847
7693.000000;0.604961
7692.000000;0.605156
7691.000000;0.605313
7690.000000;0.605298
7689.000000;0.605082
7688.000000;0.604798
7687.000000;0.604606
7686.000000;0.604543
7685.000000;0.604542
7684.000000;0.604560
7683.000000;0.604593
7682.000000;0.604600
7681.000000;0.604520
7680.000000;0.604372
7679.000000;0.604251
7678.000000;0.604209
7677.000000;0.604219
7676.000000;0.604246
7675.000000;0.604284
7674.000000;0.604322
7673.000000;0.604330
7672.000000;0.604302
7671.000000;0.604241
7670.000000;0.604123
7669.000000;0.603938
7668.000000;0.603753
7667.000000;0.603647
7666.000000;0.603611
7665.000000;0.603574
7664.000000;0.603520
7663.000000;0.603489
7662.000000;0.603483
7661.000000;0.603474
7660.000000;0.603468
7659.000000;0.603491
7658.000000;0.603499
7657.000000;0.603428
7656.000000;0.603317
7655.000000;0.603277
7654.000000;0.603324
7653.000000;0.603362
7652.000000;0.603334
7651.000000;0.603287
7650.000000;0.603252
7649.000000;0.603188
7648.000000;0.603076
7647.000000;0.602982
7646.000000;0.602980
7645.000000;0.603058
7644.000000;0.603149
7643.000000;0.603191
7642.000000;0.603147
7641.000000;0.603034
7640.000000;0.602953
7639.000000;0.602999
7638.000000;0.603136
7637.000000;0.603209
7636.000000;0.603111
7635.000000;0.602884
7634.000000;0.602637
7633.000000;0.602458
7632.000000;0.602404
7631.000000;0.602491
7630.000000;0.602654
7629.000000;0.602767
7628.000000;0.602758
7627.000000;0.602653
7626.000000;0.602505
7625.000000;0.602367
7624.000000;0.602299
7623.000000;0.602332
7622.000000;0.602397
7621.000000;0.602378
7620.000000;0.602263
7619.000000;0.602161
7618.000000;0.602144
7617.000000;0.602158
7616.000000;0.602119
7615.000000;0.602026
7614.000000;0.601931
7613.000000;0.601857
7612.000000;0.601806
7611.000000;0.601783
7610.000000;0.601777
7609.000000;0.601761
7608.000000;0.601748
7607.000000;0.601797
7606.000000;0.601925
7605.000000;0.602057
7604.000000;0.602087
7603.000000;0.601972
7602.000000;0.601751
7601.000000;0.601511
7600.000000;0.601342
7599.000000;0.601283
7598.000000;0.601305
7597.000000;0.601357
7596.000000;0.601424
7595.000000;0.601504
7594.000000;0.601548
7593.000000;0.601492
7592.000000;0.601358
7591.000000;0.601240
7590.000000;0.601189
7589.000000;0.601160
7588.000000;0.601099
7587.000000;0.601028
7586.000000;0.601001
7585.000000;0.601025
7584.000000;0.601050
7583.000000;0.601019
7582.000000;0.600921
7581.000000;0.600805
7580.000000;0.600741
7579.000000;0.600752
7578.000000;0.600778
7577.000000;0.600754
7576.000000;0.600689
7575.000000;0.600653
7574.000000;0.600696
7573.000000;0.600800
7572.000000;0.600910
7571.000000;0.600961
7570.000000;0.600906
7569.000000;0.600776
7568.000000;0.600674
7567.000000;0.600671
7566.000000;0.600722
7565.000000;0.600736
7564.000000;0.600694
7563.000000;0.600646
7562.000000;0.600623
7561.000000;0.600617
7560.000000;0.600620
7559.000000;0.600612
7558.000000;0.600536
7557.000000;0.600370
7556.000000;0.600195
7555.000000;0.600132
7554.000000;0.600211
7553.000000;0.600370
7552.000000;0.600550
7551.000000;0.600711
7550.000000;0.600782
7549.000000;0.600696
7548.000000;0.600491
7547.000000;0.600303
7546.000000;0.600230
7545.000000;0.600264
7544.000000;0.600342
7543.000000;0.600404
7542.000000;0.600406
7541.000000;0.600344
7540.000000;0.600275
7539.000000;0.600260
7538.000000;0.600284
7537.000000;0.600289
7536.000000;0.600256
7535.000000;0.600208
7534.000000;0.600151
7533.000000;0.600070
7532.000000;0.599993
7531.000000;0.599964
7530.000000;0.599985
7529.000000;0.600036
7528.000000;0.600126
7527.000000;0.600259
7526.000000;0.600365
7525.000000;0.600357
7524.000000;0.600242
7523.000000;0.600117
7522.000000;0.600046
7521.000000;0.600030
7520.000000;0.600061
7519.000000;0.600138
7518.000000;0.600222
7517.000000;0.600262
7516.000000;0.600258
7515.000000;0.600257
7514.000000;0.600282
7513.000000;0.600316
7512.000000;0.600344
7511.000000;0.600332
7510.000000;0.600225
7509.000000;0.600019
7508.000000;0.599826
7507.000000;0.599764
7506.000000;0.599810
7505.000000;0.599864
7504.000000;0.599905
7503.000000;0.599994
7502.000000;0.600134
7501.000000;0.600239
7500.000000;0.600258
7499.000000;0.600218
7498.000000;0.600154
7497.000000;0.600083
7496.000000;0.600016
7495.000000;0.599996
7494.000000;0.600009
7493.000000;0.600022
7492.000000;0.600057
7491.000000;0.600159
7490.000000;0.600286
7489.000000;0.600342
7488.000000;0.600307
7487.000000;0.600254
7486.000000;0.600232
7485.000000;0.600223
7484.000000;0.600218
7483.000000;0.600235
7482.000000;0.600244
7481.000000;0.600179
7480.000000;0.600050
7479.000000;0.599948
7478.000000;0.599942
7477.000000;0.600017
7476.000000;0.600135
7475.000000;0.600252
7474.000000;0.600296
7473.000000;0.600213
7472.000000;0.600051
7471.000000;0.599922
7470.000000;0.599870
7469.000000;0.599863
7468.000000;0.599905
7467.000000;0.600035
7466.000000;0.600222
7465.000000;0.600363
7464.000000;0.600403
7463.000000;0.600389
7462.000000;0.600367
7461.000000;0.600331
7460.000000;0.600284
7459.000000;0.600259
7458.000000;0.600254
7457.000000;0.600239
7456.000000;0.600222
7455.000000;0.600244
7454.000000;0.600280
7453.000000;0.600260
7452.000000;0.600195
7451.000000;0.600205
7450.000000;0.600360
7449.000000;0.600607
7448.000000;0.600852
7447.000000;0.601046
7446.000000;0.601148
7445.000000;0.601108
7444.000000;0.600944
7443.000000;0.600763
7442.000000;0.600665
7441.000000;0.600662
7440.000000;0.600733
7439.000000;0.600870
7438.000000;0.601028
7437.000000;0.601101
7436.000000;0.601011
7435.000000;0.600811
7434.000000;0.600650
7433.000000;0.600654
7432.000000;0.600834
7431.000000;0.601075
7430.000000;0.601223
7429.000000;0.601210
7428.000000;0.601108
7427.000000;0.601030
7426.000000;0.601022
7425.000000;0.601070
7424.000000;0.601168
7423.000000;0.601304
7422.000000;0.601409
7421.000000;0.601427
7420.000000;0.601400
7419.000000;0.601405
7418.000000;0.601415
7417.000000;0.601333
7416.000000;0.601161
7415.000000;0.601028
7414.000000;0.601032
7413.000000;0.601150
7412.000000;0.601306
7411.000000;0.601441
7410.000000;0.601513
7409.000000;0.601506
7408.000000;0.601484
7407.000000;0.601535
7406.000000;0.601650
7405.000000;0.601720
7404.000000;0.601694
7403.000000;0.601634
7402.000000;0.601614
7401.000000;0.601642
7400.000000;0.601699
7399.000000;0.601784
7398.000000;0.601877
7397.000000;0.601936
7396.000000;0.601960
7395.000000;0.601994
7394.000000;0.602043
7393.000000;0.602056
7392.000000;0.602001
7391.000000;0.601912
7390.000000;0.601838
7389.000000;0.601805
7388.000000;0.601835
7387.000000;0.601927
7386.000000;0.602034
7385.000000;0.602106
7384.000000;0.602174
7383.000000;0.602310
7382.000000;0.602498
7381.000000;0.602622
7380.000000;0.602605
7379.000000;0.602486
7378.000000;0.602334
7377.000000;0.602191
7376.000000;0.602093
7375.000000;0.602084
7374.000000;0.602147
7373.000000;0.602221
7372.000000;0.602280
7371.000000;0.602353
7370.000000;0.602440
7369.000000;0.602496
7368.000000;0.602515
7367.000000;0.602549
7366.000000;0.602635
7365.000000;0.602763
7364.000000;0.602926
7363.000000;0.603147
7362.000000;0.603415
7361.000000;0.603656
7360.000000;0.603788
7359.000000;0.603778
7358.000000;0.603633
7357.000000;0.603403
7356.000000;0.603199
7355.000000;0.603129
7354.000000;0.603185
7353.000000;0.603259
7352.000000;0.603288
7351.000000;0.603328
7350.000000;0.603450
7349.000000;0.603628
7348.000000;0.603769
7347.000000;0.603808
7346.000000;0.603756
7345.000000;0.603671
7344.000000;0.603610
7343.000000;0.603599
7342.000000;0.603626
7341.000000;0.603681
7340.000000;0.603772
7339.000000;0.603905
7338.000000;0.604061
7337.000000;0.604228
7336.000000;0.604423
7335.000000;0.604650
7334.000000;0.604864
7333.000000;0.605011
7332.000000;0.605075
7331.000000;0.605056
7330.000000;0.604977
7329.000000;0.604918
7328.000000;0.604981
7327.000000;0.605147
7326.000000;0.605254
7325.000000;0.605212
7324.000000;0.605166
7323.000000;0.605329
7322.000000;0.605706
7321.000000;0.606102
7320.000000;0.606363
7319.000000;0.606486
7318.000000;0.606529
7317.000000;0.606553
7316.000000;0.606627
7315.000000;0.606792
7314.000000;0.606989
7313.000000;0.607127
7312.000000;0.607223
7311.000000;0.607352
7310.000000;0.607480
7309.000000;0.607486
7308.000000;0.607362
7307.000000;0.607248
7306.000000;0.607235
7305.000000;0.607284
7304.000000;0.607360
7303.000000;0.607521
7302.000000;0.607792
7301.000000;0.608083
7300.000000;0.608289
7299.000000;0.608406
7298.000000;0.608496
7297.000000;0.608613
7296.000000;0.608806
7295.000000;0.609106
7294.000000;0.609446
7293.000000;0.609679
7292.000000;0.609738
7291.000000;0.609736
7290.000000;0.609831
7289.000000;0.610080
7288.000000;0.610425
7287.000000;0.610788
7286.000000;0.611114
7285.000000;0.611373
7284.000000;0.611562
7283.000000;0.611705
7282.000000;0.611835
7281.000000;0.611981
7280.000000;0.612161
7279.000000;0.612363
7278.000000;0.612565
7277.000000;0.612777
7276.000000;0.613039
7275.000000;0.613341
7274.000000;0.613596
7273.000000;0.613758
7272.000000;0.613900
7271.000000;0.614123
7270.000000;0.614423
7269.000000;0.614737
7268.000000;0.615053
7267.000000;0.615383
7266.000000;0.615659
7265.000000;0.615798
7264.000000;0.615845
7263.000000;0.615941
7262.000000;0.616165
7261.000000;0.616481
7260.000000;0.616843
7259.000000;0.617245
7258.000000;0.617660
7257.000000;0.618039
7256.000000;0.618386
7255.000000;0.618748
7254.000000;0.619110
7253.000000;0.619393
7252.000000;0.619564
7251.000000;0.619666
7250.000000;0.619761
7249.000000;0.619893
7248.000000;0.620115
7247.000000;0.620449
7246.000000;0.620824
7245.000000;0.621145
7244.000000;0.621426
7243.000000;0.621752
7242.000000;0.622152
7241.000000;0.622566
7240.000000;0.622964
7239.000000;0.623392
7238.000000;0.623875
7237.000000;0.624363
7236.000000;0.624790
7235.000000;0.625114
7234.000000;0.625329
7233.000000;0.625486
7232.000000;0.625698
7231.000000;0.626026
7230.000000;0.626394
7229.000000;0.626718
7228.000000;0.627084
7227.000000;0.627628
7226.000000;0.628300
7225.000000;0.628890
7224.000000;0.629308
7223.000000;0.629671
7222.000000;0.630109
7221.000000;0.630625
7220.000000;0.631170
7219.000000;0.631714
7218.000000;0.632203
7217.000000;0.632579
7216.000000;0.632874
7215.000000;0.633197
7214.000000;0.633598
7213.000000;0.634035
7212.000000;0.634478
7211.000000;0.634947
7210.000000;0.635446
7209.000000;0.635959
7208.000000;0.636509
7207.000000;0.637130
7206.000000;0.637772
7205.000000;0.638353
7204.000000;0.638891
7203.000000;0.639479
7202.000000;0.640116
7201.000000;0.640707
7200.000000;0.641216
7199.000000;0.641703
7198.000000;0.642190
7197.000000;0.642650
7196.000000;0.643099
7195.000000;0.643587
7194.000000;0.644094
7193.000000;0.644567
7192.000000;0.645071
7191.000000;0.645728
7190.000000;0.646488
7189.000000;0.647125
7188.000000;0.647503
7187.000000;0.647739
7186.000000;0.648031
7185.000000;0.648459
7184.000000;0.648992
7183.000000;0.649567
7182.000000;0.650124
7181.000000;0.650646
7180.000000;0.651188
7179.000000;0.651817
7178.000000;0.652508
7177.000000;0.653193
7176.000000;0.653878
7175.000000;0.654611
7174.000000;0.655366
7173.000000;0.656082
7172.000000;0.656791
7171.000000;0.657556
7170.000000;0.658303
7169.000000;0.658896
7168.000000;0.659337
7167.000000;0.659752
7166.000000;0.660201
7165.000000;0.660679
7164.000000;0.661271
7163.000000;0.662070
7162.000000;0.662956
7161.000000;0.663694
7160.000000;0.664271
7159.000000;0.664919
7158.000000;0.665765
7157.000000;0.666649
7156.000000;0.667350
7155.000000;0.667801
7154.000000;0.668086
7153.000000;0.668387
7152.000000;0.668931
7151.000000;0.669801
7150.000000;0.670788
7149.000000;0.671599
7148.000000;0.672193
7147.000000;0.672755
7146.000000;0.673404
7145.000000;0.674106
7144.000000;0.674834
7143.000000;0.675536
7142.000000;0.676006
7141.000000;0.676093
7140.000000;0.676032
7139.000000;0.676255
7138.000000;0.676850
7137.000000;0.677471
7136.000000;0.677857
7135.000000;0.678133
7134.000000;0.678539
7133.000000;0.679122
7132.000000;0.679779
7131.000000;0.680416
7130.000000;0.680991
7129.000000;0.681554
7128.000000;0.682194
7127.000000;0.682854
7126.000000;0.683290
7125.000000;0.683401
7124.000000;0.683436
7123.000000;0.683640
7122.000000;0.683895
7121.000000;0.683981
7120.000000;0.683991
7119.000000;0.684157
7118.000000;0.684437
7117.000000;0.684639
7116.000000;0.684770
7115.000000;0.684897
7114.000000;0.684896
7113.000000;0.684737
7112.000000;0.684765
7111.000000;0.685228
7110.000000;0.685723
7109.000000;0.685648
7108.000000;0.685035
7107.000000;0.684427
7106.000000;0.684067
7105.000000;0.683795
7104.000000;0.683606
7103.000000;0.683663
7102.000000;0.683839
7101.000000;0.683848
7100.000000;0.683719
7099.000000;0.683609
7098.000000;0.683258
7097.000000;0.682314
7096.000000;0.681136
7095.000000;0.680538
7094.000000;0.680690
7093.000000;0.680941
7092.000000;0.680782
7091.000000;0.680340
7090.000000;0.679831
7089.000000;0.679185
7088.000000;0.678323
7087.000000;0.677272
7086.000000;0.676003
7085.000000;0.674628
7084.000000;0.673622
7083.000000;0.673289
7082.000000;0.673132
7081.000000;0.672403
7080.000000;0.671112
7079.000000;0.669800
7078.000000;0.668495
7077.000000;0.666752
7076.000000;0.664677
7075.000000;0.663019
7074.000000;0.662137
7073.000000;0.661611
7072.000000;0.660954
7071.000000;0.660049
7070.000000;0.658835
7069.000000;0.657286
7068.000000;0.655769
7067.000000;0.654724
7066.000000;0.653955
7065.000000;0.652899
7064.000000;0.651507
7063.000000;0.650129
7062.000000;0.648635
7061.000000;0.646525
7060.000000;0.643927
7059.000000;0.641632
7058.000000;0.640078
7057.000000;0.639041
7056.000000;0.638311
7055.000000;0.637812
7054.000000;0.637021
7053.000000;0.635217
7052.000000;0.632520
7051.000000;0.629862
7050.000000;0.627764
7049.000000;0.625875
7048.000000;0.623797
7047.000000;0.621584
7046.000000;0.619321
7045.000000;0.617000
7044.000000;0.614939
7043.000000;0.613574
7042.000000;0.612708
7041.000000;0.611668
7040.000000;0.610221
7039.000000;0.608618
7038.000000;0.606772
7037.000000;0.604283
7036.000000;0.601299
7035.000000;0.598441
7034.000000;0.595808
7033.000000;0.592923
7032.000000;0.589784
7031.000000;0.587065
7030.000000;0.585094
7029.000000;0.583461
7028.000000;0.581818
7027.000000;0.580251
7026.000000;0.578671
7025.000000;0.576642
7024.000000;0.574092
7023.000000;0.571473
7022.000000;0.569060
7021.000000;0.566760
7020.000000;0.564674
7019.000000;0.562970
7018.000000;0.561145
7017.000000;0.558349
7016.000000;0.554680
7015.000000;0.551277
7014.000000;0.548898
7013.000000;0.547156
7012.000000;0.545361
7011.000000;0.543339
7010.000000;0.541113
7009.000000;0.538518
7008.000000;0.535567
7007.000000;0.532604
7006.000000;0.529836
7005.000000;0.527188
7004.000000;0.524692
7003.000000;0.522403
7002.000000;0.519905
7001.000000;0.516641
7000.000000;0.512905
6999.000000;0.509742
6998.000000;0.507674
6997.000000;0.506141
6996.000000;0.504390
6995.000000;0.502261
6994.000000;0.499929
6993.000000;0.497530
6992.000000;0.495218
6991.000000;0.492999
6990.000000;0.490460
6989.000000;0.487324
6988.000000;0.484254
6987.000000;0.482228
6986.000000;0.481020
6985.000000;0.479158
6984.000000;0.475717
6983.000000;0.471368
6982.000000;0.467356
6981.000000;0.464242
6980.000000;0.461942
6979.000000;0.460274
6978.000000;0.458896
6977.000000;0.457231
6976.000000;0.454927
6975.000000;0.452161
6974.000000;0.449272
6973.000000;0.446415
6972.000000;0.443673
6971.000000;0.441074
6970.000000;0.438408
6969.000000;0.435401
6968.000000;0.432145
6967.000000;0.428979
6966.000000;0.426034
6965.000000;0.423318
6964.000000;0.421057
6963.000000;0.419366
6962.000000;0.417741
6961.000000;0.415598
6960.000000;0.413188
6959.000000;0.411180
6958.000000;0.409395
6957.000000;0.406886
6956.000000;0.403403
6955.000000;0.399887
6954.000000;0.397226
6953.000000;0.395286
6952.000000;0.393460
6951.000000;0.391476
6950.000000;0.389365
6949.000000;0.387211
6948.000000;0.385232
6947.000000;0.383625
6946.000000;0.382148
6945.000000;0.380307
6944.000000;0.378092
6943.000000;0.375958
6942.000000;0.373981
6941.000000;0.371668
6940.000000;0.368784
6939.000000;0.365757
6938.000000;0.363011
6937.000000;0.360434
6936.000000;0.357784
6935.000000;0.355156
6934.000000;0.352809
6933.000000;0.350865
6932.000000;0.349264
6931.000000;0.347715
6930.000000;0.345771
6929.000000;0.343406
6928.000000;0.341330
6927.000000;0.340122
6926.000000;0.339159
6925.000000;0.337146
6924.000000;0.333775
6923.000000;0.330104
6922.000000;0.327193
6921.000000;0.325144
6920.000000;0.323591
6919.000000;0.322342
6918.000000;0.321202
6917.000000;0.319871
6916.000000;0.318409
6915.000000;0.317286
6914.000000;0.316642
6913.000000;0.315992
6912.000000;0.314906
6911.000000;0.313517
6910.000000;0.312154
6909.000000;0.310884
6908.000000;0.309604
6907.000000;0.308141
6906.000000;0.306149
6905.000000;0.303409
6904.000000;0.300396
6903.000000;0.298097
6902.000000;0.297054
6901.000000;0.296941
6900.000000;0.297057
6899.000000;0.296791
6898.000000;0.295623
6897.000000;0.293295
6896.000000;0.290175
6895.000000;0.287043
6894.000000;0.284469
6893.000000;0.282710
6892.000000;0.281922
6891.000000;0.281827
6890.000000;0.281364
6889.000000;0.279584
6888.000000;0.277017
6887.000000;0.275317
6886.000000;0.275368
6885.000000;0.276416
6884.000000;0.277198
6883.000000;0.277123
6882.000000;0.276081
6881.000000;0.274038
6880.000000;0.271383
6879.000000;0.268952
6878.000000;0.267239
6877.000000;0.266090
6876.000000;0.265447
6875.000000;0.265671
6874.000000;0.266703
6873.000000;0.267632
6872.000000;0.267684
6871.000000;0.267062
6870.000000;0.266227
6869.000000;0.264956
6868.000000;0.262809
6867.000000;0.260108
6866.000000;0.257737
6865.000000;0.256200
6864.000000;0.255454
6863.000000;0.255455
6862.000000;0.256226
6861.000000;0.257422
6860.000000;0.258354
6859.000000;0.258503
6858.000000;0.257780
6857.000000;0.256421
6856.000000;0.254933
6855.000000;0.253945
6854.000000;0.253706
6853.000000;0.253714
6852.000000;0.253136
6851.000000;0.251649
6850.000000;0.249773
6849.000000;0.248475
6848.000000;0.248445
6847.000000;0.249545
6846.000000;0.250816
6845.000000;0.251148
6844.000000;0.250199
6843.000000;0.248682
6842.000000;0.247762
6841.000000;0.248198
6840.000000;0.249819
6839.000000;0.251543
6838.000000;0.252034
6837.000000;0.250747
6836.000000;0.248510
6835.000000;0.246852
6834.000000;0.246666
6833.000000;0.247624
6832.000000;0.248801
6831.000000;0.249579
6830.000000;0.249880
6829.000000;0.249856
6828.000000;0.249640
6827.000000;0.249352
6826.000000;0.249226
6825.000000;0.249585
6824.000000;0.250509
6823.000000;0.251513
6822.000000;0.251855
6821.000000;0.251430
6820.000000;0.251116
6819.000000;0.251840
6818.000000;0.253470
6817.000000;0.254972
6816.000000;0.255582
6815.000000;0.255467
6814.000000;0.255288
6813.000000;0.255497
6812.000000;0.256052
6811.000000;0.256596
6810.000000;0.256902
6809.000000;0.257243
6808.000000;0.258091
6807.000000;0.259311
6806.000000;0.260039
6805.000000;0.259751
6804.000000;0.259059
6803.000000;0.258983
6802.000000;0.259703
6801.000000;0.260564
6800.000000;0.261076
6799.000000;0.261300
6798.000000;0.261393
6797.000000;0.261387
6796.000000;0.261415
6795.000000;0.261644
6794.000000;0.262018
6793.000000;0.262496
6792.000000;0.263445
6791.000000;0.265299
6790.000000;0.267857
6789.000000;0.270343
6788.000000;0.272103
6787.000000;0.272858
6786.000000;0.272549
6785.000000;0.271549
6784.000000;0.270849
6783.000000;0.271280
6782.000000;0.272526
6781.000000;0.273533
6780.000000;0.273860
6779.000000;0.273998
6778.000000;0.274359
6777.000000;0.274766
6776.000000;0.275107
6775.000000;0.275739
6774.000000;0.276877
6773.000000;0.278129
6772.000000;0.278993
6771.000000;0.279387
6770.000000;0.279437
6769.000000;0.279188
6768.000000;0.278841
6767.000000;0.278915
6766.000000;0.279803
6765.000000;0.281367
6764.000000;0.283135
6763.000000;0.284695
6762.000000;0.285787
6761.000000;0.286337
6760.000000;0.286624
6759.000000;0.287154
6758.000000;0.288174
6757.000000;0.289409
6756.000000;0.290334
6755.000000;0.290596
6754.000000;0.290250
6753.000000;0.289825
6752.000000;0.290079
6751.000000;0.291302
6750.000000;0.292868
6749.000000;0.293828
6748.000000;0.293997
6747.000000;0.294097
6746.000000;0.294759
6745.000000;0.295804
6744.000000;0.296642
6743.000000;0.297038
6742.000000;0.297250
6741.000000;0.297655
6740.000000;0.298410
6739.000000;0.299377
6738.000000;0.300282
6737.000000;0.301068
6736.000000;0.301996
6735.000000;0.303234
6734.000000;0.304454
6733.000000;0.305159
6732.000000;0.305348
6731.000000;0.305519
6730.000000;0.306041
6729.000000;0.306853
6728.000000;0.307766
6727.000000;0.308664
6726.000000;0.309397
6725.000000;0.309849
6724.000000;0.310207
6723.000000;0.310792
6722.000000;0.311561
6721.000000;0.312158
6720.000000;0.312509
6719.000000;0.313007
6718.000000;0.313917
6717.000000;0.314991
6716.000000;0.315851
6715.000000;0.316477
6714.000000;0.317107
6713.000000;0.317868
6712.000000;0.318703
6711.000000;0.319497
6710.000000;0.320117
6709.000000;0.320497
6708.000000;0.320765
6707.000000;0.321135
6706.000000;0.321629
6705.000000;0.322068
6704.000000;0.322385
6703.000000;0.322729
6702.000000;0.323267
6701.000000;0.323952
6700.000000;0.324746
6699.000000;0.325713
6698.000000;0.326838
6697.000000;0.327931
6696.000000;0.328810
6695.000000;0.329428
6694.000000;0.329799
6693.000000;0.329980
6692.000000;0.330189
6691.000000;0.330728
6690.000000;0.331659
6689.000000;0.332676
6688.000000;0.333400
6687.000000;0.333720
6686.000000;0.333810
6685.000000;0.333965
6684.000000;0.334429
6683.000000;0.335250
6682.000000;0.336241
6681.000000;0.337159
6680.000000;0.337955
6679.000000;0.338747
6678.000000;0.339571
6677.000000;0.340319
6676.000000;0.340912
6675.000000;0.341398
6674.000000;0.341884
6673.000000;0.342454
6672.000000;0.343153
6671.000000;0.343937
6670.000000;0.344656
6669.000000;0.345205
6668.000000;0.345644
6667.000000;0.346086
6666.000000;0.346546
6665.000000;0.347010
6664.000000;0.347536
6663.000000;0.348138
6662.000000;0.348687
6661.000000;0.349108
6660.000000;0.349553
6659.000000;0.350191
6658.000000;0.350928
6657.000000;0.351568
6656.000000;0.352123
6655.000000;0.352735
6654.000000;0.353406
6653.000000;0.354070
6652.000000;0.354819
6651.000000;0.355735
6650.000000;0.356607
6649.000000;0.357136
6648.000000;0.357402
6647.000000;0.357783
6646.000000;0.358407
6645.000000;0.359026
6644.000000;0.359460
6643.000000;0.359831
6642.000000;0.360275
6641.000000;0.360737
6640.000000;0.361166
6639.000000;0.361650
6638.000000;0.362225
6637.000000;0.362772
6636.000000;0.363229
6635.000000;0.363707
6634.000000;0.364297
6633.000000;0.364921
6632.000000;0.365471
6631.000000;0.365957
6630.000000;0.366434
6629.000000;0.366933
6628.000000;0.367489
6627.000000;0.368098
6626.000000;0.368628
6625.000000;0.368951
6624.000000;0.369165
6623.000000;0.369512
6622.000000;0.370048
6621.000000;0.370620
6620.000000;0.371167
6619.000000;0.371811
6618.000000;0.372594
6617.000000;0.373351
6616.000000;0.373934
6615.000000;0.374372
6614.000000;0.374752
6613.000000;0.375091
6612.000000;0.375422
6611.000000;0.375827
6610.000000;0.376317
6609.000000;0.376842
6608.000000;0.377444
6607.000000;0.378206
6606.000000;0.379028
6605.000000;0.379649
6604.000000;0.379977
6603.000000;0.380203
6602.000000;0.380522
6601.000000;0.380923
6600.000000;0.381337
6599.000000;0.381788
6598.000000;0.382288
6597.000000;0.382753
6596.000000;0.383150
6595.000000;0.383571
6594.000000;0.384066
6593.000000;0.384546
6592.000000;0.384950
6591.000000;0.385360
6590.000000;0.385846
6589.000000;0.386334
6588.000000;0.386755
6587.000000;0.387186
6586.000000;0.387717
6585.000000;0.388291
6584.000000;0.388806
6583.000000;0.389269
6582.000000;0.389741
6581.000000;0.390224
6580.000000;0.390711
6579.000000;0.391257
6578.000000;0.391886
6577.000000;0.392495
6576.000000;0.392967
6575.000000;0.393306
6574.000000;0.393595
6573.000000;0.393873
6572.000000;0.394140
6571.000000;0.394423
6570.000000;0.394762
6569.000000;0.395168
6568.000000;0.395655
6567.000000;0.396252
6566.000000;0.396929
6565.000000;0.397557
6564.000000;0.398029
6563.000000;0.398363
6562.000000;0.398648
6561.000000;0.398936
6560.000000;0.399238
6559.000000;0.399582
6558.000000;0.400003
6557.000000;0.400496
6556.000000;0.401018
6555.000000;0.401530
6554.000000;0.402019
6553.000000;0.402508
6552.000000;0.403017
6551.000000;0.403518
6550.000000;0.403928
6549.000000;0.404210
6548.000000;0.404452
6547.000000;0.404767
6546.000000;0.405144
6545.000000;0.405490
6544.000000;0.405791
6543.000000;0.406139
6542.000000;0.406583
6541.000000;0.407068
6540.000000;0.407524
6539.000000;0.407930
6538.000000;0.408278
6537.000000;0.408561
6536.000000;0.408832
6535.000000;0.409167
6534.000000;0.409571
6533.000000;0.409979
6532.000000;0.410363
6531.000000;0.410754
6530.000000;0.411161
6529.000000;0.411567
6528.000000;0.412007
6527.000000;0.412541
6526.000000;0.413119
6525.000000;0.413592
6524.000000;0.413887
6523.000000;0.414090
6522.000000;0.414329
6521.000000;0.414654
6520.000000;0.415060
6519.000000;0.415519
6518.000000;0.415960
6517.000000;0.416300
6516.000000;0.416545
6515.000000;0.416793
6514.000000;0.417105
6513.000000;0.417459
6512.000000;0.417821
6511.000000;0.418182
6510.000000;0.418500
6509.000000;0.418718
6508.000000;0.418878
6507.000000;0.419109
6506.000000;0.419469
6505.000000;0.419892
6504.000000;0.420315
6503.000000;0.420747
6502.000000;0.421173
6501.000000;0.421512
6500.000000;0.421743
6499.000000;0.421988
6498.000000;0.422371
6497.000000;0.422865
6496.000000;0.423341
6495.000000;0.423711
6494.000000;0.423973
6493.000000;0.424175
6492.000000;0.424409
6491.000000;0.424772
6490.000000;0.425263
6489.000000;0.425775
6488.000000;0.426221
6487.000000;0.426624
6486.000000;0.427031
6485.000000;0.427403
6484.000000;0.427679
6483.000000;0.427874
6482.000000;0.428056
6481.000000;0.428247
6480.000000;0.428439
6479.000000;0.428665
6478.000000;0.428984
6477.000000;0.429387
6476.000000;0.429769
6475.000000;0.430028
6474.000000;0.430161
6473.000000;0.430262
6472.000000;0.430437
6471.000000;0.430724
6470.000000;0.431073
6469.000000;0.431417
6468.000000;0.431746
6467.000000;0.432098
6466.000000;0.432489
6465.000000;0.432883
6464.000000;0.433244
6463.000000;0.433563
6462.000000;0.433839
6461.000000;0.434066
6460.000000;0.434270
6459.000000;0.434499
6458.000000;0.434765
6457.000000;0.435019
6456.000000;0.435227
6455.000000;0.435421
6454.000000;0.435648
6453.000000;0.435916
6452.000000;0.436208
6451.000000;0.436530
6450.000000;0.436902
6449.000000;0.437311
6448.000000;0.437699
6447.000000;0.438008
6446.000000;0.438237
6445.000000;0.438438
6444.000000;0.438656
6443.000000;0.438883
6442.000000;0.439082
6441.000000;0.439257
6440.000000;0.439466
6439.000000;0.439748
6438.000000;0.440067
6437.000000;0.440368
6436.000000;0.440648
6435.000000;0.440945
6434.000000;0.441269
6433.000000;0.441581
6432.000000;0.441844
6431.000000;0.442052
6430.000000;0.442217
6429.000000;0.442371
6428.000000;0.442551
6427.000000;0.442779
6426.000000;0.443036
6425.000000;0.443285
6424.000000;0.443508
6423.000000;0.443695
6422.000000;0.443852
6421.000000;0.444022
6420.000000;0.444266
6419.000000;0.444579
6418.000000;0.444871
6417.000000;0.445069
6416.000000;0.445205
6415.000000;0.445359
6414.000000;0.445550
6413.000000;0.445759
6412.000000;0.445997
6411.000000;0.446289
6410.000000;0.446612
6409.000000;0.446914
6408.000000;0.447189
6407.000000;0.447464
6406.000000;0.447723
6405.000000;0.447924
6404.000000;0.448069
6403.000000;0.448216
6402.000000;0.448393
6401.000000;0.448592
6400.000000;0.448814
6399.000000;0.449069
6398.000000;0.449327
6397.000000;0.449534
6396.000000;0.449691
6395.000000;0.449858
6394.000000;0.450062
6393.000000;0.450276
6392.000000;0.450468
6391.000000;0.450631
6390.000000;0.450759
6389.000000;0.450853
6388.000000;0.450947
6387.000000;0.451094
6386.000000;0.451307
6385.000000;0.451562
6384.000000;0.451841
6383.000000;0.452130
6382.000000;0.452381
6381.000000;0.452546
6380.000000;0.452651
6379.000000;0.452780
6378.000000;0.452969
6377.000000;0.453168
6376.000000;0.453319
6375.000000;0.453425
6374.000000;0.453525
6373.000000;0.453646
6372.000000;0.453805
6371.000000;0.454014
6370.000000;0.454263
6369.000000;0.454511
6368.000000;0.454724
6367.000000;0.454892
6366.000000;0.455027
6365.000000;0.455153
6364.000000;0.455300
6363.000000;0.455476
6362.000000;0.455647
6361.000000;0.455781
6360.000000;0.455888
6359.000000;0.455992
6358.000000;0.456096
6357.000000;0.456198
6356.000000;0.456317
6355.000000;0.456470
6354.000000;0.456638
6353.000000;0.456794
6352.000000;0.456956
6351.000000;0.457157
6350.000000;0.457385
6349.000000;0.457605
6348.000000;0.457809
6347.000000;0.458011
6346.000000;0.458187
6345.000000;0.458312
6344.000000;0.458416
6343.000000;0.458550
6342.000000;0.458698
6341.000000;0.458790
6340.000000;0.458820
6339.000000;0.458859
6338.000000;0.458956
6337.000000;0.459081
6336.000000;0.459190
6335.000000;0.459279
6334.000000;0.459363
6333.000000;0.459443
6332.000000;0.459533
6331.000000;0.459672
6330.000000;0.459872
6329.000000;0.460085
6328.000000;0.460249
6327.000000;0.460339
6326.000000;0.460391
6325.000000;0.460460
6324.000000;0.460581
6323.000000;0.460736
6322.000000;0.460868
6321.000000;0.460948
6320.000000;0.461002
6319.000000;0.461065
6318.000000;0.461136
6317.000000;0.461210
6316.000000;0.461318
6315.000000;0.461493
6314.000000;0.461697
6313.000000;0.461857
6312.000000;0.461950
6311.000000;0.462013
6310.000000;0.462074
6309.000000;0.462129
6308.000000;0.462188
6307.000000;0.462291
6306.000000;0.462454
6305.000000;0.462632
6304.000000;0.462768
6303.000000;0.462843
6302.000000;0.462874
6301.000000;0.462897
6300.000000;0.462944
6299.000000;0.463023
6298.000000;0.463113
6297.000000;0.463193
6296.000000;0.463272
6295.000000;0.463369
6294.000000;0.463482
6293.000000;0.463602
6292.000000;0.463724
6291.000000;0.463839
6290.000000;0.463932
6289.000000;0.464021
6288.000000;0.464155
6287.000000;0.464330
6286.000000;0.464467
6285.000000;0.464501
6284.000000;0.464481
6283.000000;0.464503
6282.000000;0.464585
6281.000000;0.464667
6280.000000;0.464718
6279.000000;0.464766
6278.000000;0.464835
6277.000000;0.464916
6276.000000;0.465002
6275.000000;0.465097
6274.000000;0.465184
6273.000000;0.465242
6272.000000;0.465284
6271.000000;0.465338
6270.000000;0.465391
6269.000000;0.465410
6268.000000;0.465414
6267.000000;0.465463
6266.000000;0.465576
6265.000000;0.465708
6264.000000;0.465819
6263.000000;0.465912
6262.000000;0.465995
6261.000000;0.466063
6260.000000;0.466122
6259.000000;0.466195
6258.000000;0.466280
6257.000000;0.466347
6256.000000;0.466382
6255.000000;0.466403
6254.000000;0.466424
6253.000000;0.466445
6252.000000;0.466477
6251.000000;0.466539
6250.000000;0.466622
6249.000000;0.466685
6248.000000;0.466708
6247.000000;0.466707
6246.000000;0.466706
6245.000000;0.466717
6244.000000;0.466752
6243.000000;0.466815
6242.000000;0.466886
6241.000000;0.466942
6240.000000;0.466995
6239.000000;0.467069
6238.000000;0.467151
6237.000000;0.467205
6236.000000;0.467226
6235.000000;0.467245
6234.000000;0.467283
6233.000000;0.467335
6232.000000;0.467388
6231.000000;0.467429
6230.000000;0.467428
6229.000000;0.467372
6228.000000;0.467302
6227.000000;0.467287
6226.000000;0.467340
6225.000000;0.467412
6224.000000;0.467458
6223.000000;0.467479
6222.000000;0.467497
6221.000000;0.467532
6220.000000;0.467595
6219.000000;0.467678
6218.000000;0.467752
6217.000000;0.467800
6216.000000;0.467845
6215.000000;0.467917
6214.000000;0.468002
6213.000000;0.468068
6212.000000;0.468115
6211.000000;0.468154
6210.000000;0.468170
6209.000000;0.468145
6208.000000;0.468109
6207.000000;0.468119
6206.000000;0.468170
6205.000000;0.468212
6204.000000;0.468223
6203.000000;0.468231
6202.000000;0.468256
6201.000000;0.468281
6200.000000;0.468302
6199.000000;0.468336
6198.000000;0.468382
6197.000000;0.468415
6196.000000;0.468437
6195.000000;0.468484
6194.000000;0.468559
6193.000000;0.468608
6192.000000;0.468589
6191.000000;0.468532
6190.000000;0.468504
6189.000000;0.468537
6188.000000;0.468616
6187.000000;0.468707
6186.000000;0.468779
6185.000000;0.468822
6184.000000;0.468847
6183.000000;0.468867
6182.000000;0.468879
6181.000000;0.468874
6180.000000;0.468864
6179.000000;0.468861
6178.000000;0.468850
6177.000000;0.468800
6176.000000;0.468726
6175.000000;0.468682
6174.000000;0.468701
6173.000000;0.468773
6172.000000;0.468868
6171.000000;0.468961
6170.000000;0.469020
6169.000000;0.469024
6168.000000;0.468989
6167.000000;0.468956
6166.000000;0.468941
6165.000000;0.468934
6164.000000;0.468931
6163.000000;0.468945
6162.000000;0.468973
6161.000000;0.468983
6160.000000;0.468970
6159.000000;0.468968
6158.000000;0.469020
6157.000000;0.469120
6156.000000;0.469223
6155.000000;0.469282
6154.000000;0.469286
6153.000000;0.469264
6152.000000;0.469252
6151.000000;0.469251
6150.000000;0.469227
6149.000000;0.469169
6148.000000;0.469123
6147.000000;0.469140
6146.000000;0.469206
6145.000000;0.469265
6144.000000;0.469295
6143.000000;0.469315
6142.000000;0.469338
6141.000000;0.469352
6140.000000;0.469348
6139.000000;0.469340
6138.000000;0.469336
6137.000000;0.469317
6136.000000;0.469262
6135.000000;0.469179
6134.000000;0.469102
6133.000000;0.469070
6132.000000;0.469096
6131.000000;0.469152
6130.000000;0.469186
6129.000000;0.469174
6128.000000;0.469148
6127.000000;0.469140
6126.000000;0.469147
6125.000000;0.469150
6124.000000;0.469154
6123.000000;0.469178
6122.000000;0.469214
6121.000000;0.469243
6120.000000;0.469270
6119.000000;0.469308
6118.000000;0.469343
6117.000000;0.469349
6116.000000;0.469333
6115.000000;0.469334
6114.000000;0.469367
6113.000000;0.469414
6112.000000;0.469449
6111.000000;0.469458
6110.000000;0.469439
6109.000000;0.469403
6108.000000;0.469372
6107.000000;0.469358
6106.000000;0.469349
6105.000000;0.469337
6104.000000;0.469331
6103.000000;0.469334
6102.000000;0.469320
6101.000000;0.469280
6100.000000;0.469256
6099.000000;0.469286
6098.000000;0.469344
6097.000000;0.469372
6096.000000;0.469360
6095.000000;0.469343
6094.000000;0.469330
6093.000000;0.469299
6092.000000;0.469252
6091.000000;0.469223
6090.000000;0.469231
6089.000000;0.469258
6088.000000;0.469302
6087.000000;0.469382
6086.000000;0.469491
6085.000000;0.469574
6084.000000;0.469590
6083.000000;0.469552
6082.000000;0.469504
6081.000000;0.469477
6080.000000;0.469479
6079.000000;0.469502
6078.000000;0.469527
6077.000000;0.469532
6076.000000;0.469513
6075.000000;0.469488
6074.000000;0.469476
6073.000000;0.469480
6072.000000;0.469492
6071.000000;0.469494
6070.000000;0.469468
6069.000000;0.469416
6068.000000;0.469377
6067.000000;0.469383
6066.000000;0.469420
6065.000000;0.469453
6064.000000;0.469468
6063.000000;0.469477
6062.000000;0.469483
6061.000000;0.469481
6060.000000;0.469479
6059.000000;0.469498
6058.000000;0.469524
6057.000000;0.469519
6056.000000;0.469465
6055.000000;0.469397
6054.000000;0.469358
6053.000000;0.469353
6052.000000;0.469361
6051.000000;0.469369
6050.000000;0.469392
6049.000000;0.469449
6048.000000;0.469540
6047.000000;0.469629
6046.000000;0.469672
6045.000000;0.469660
6044.000000;0.469633
6043.000000;0.469634
6042.000000;0.469674
6041.000000;0.469730
6040.000000;0.469768
6039.000000;0.469769
6038.000000;0.469740
6037.000000;0.469705
6036.000000;0.469682
6035.000000;0.469659
6034.000000;0.469623
6033.000000;0.469592
6032.000000;0.469601
6031.000000;0.469636
6030.000000;0.469640
6029.000000;0.469595
6028.000000;0.469562
6027.000000;0.469596
6026.000000;0.469677
6025.000000;0.469740
6024.000000;0.469761
6023.000000;0.469767
6022.000000;0.469777
6021.000000;0.469789
6020.000000;0.469797
6019.000000;0.469793
6018.000000;0.469762
6017.000000;0.469704
6016.000000;0.469646
6015.000000;0.469628
6014.000000;0.469660
6013.000000;0.469733
6012.000000;0.469825
6011.000000;0.469907
6010.000000;0.469949
6009.000000;0.469957
6008.000000;0.469965
6007.000000;0.469991
6006.000000;0.470009
6005.000000;0.469997
6004.000000;0.469967
6003.000000;0.469936
6002.000000;0.469903
6001.000000;0.469875
6000.000000;0.469882
5999.000000;0.469935
5998.000000;0.469995
5997.000000;0.470018
5996.000000;0.469998
5995.000000;0.469943
5994.000000;0.469866
5993.000000;0.469801
5992.000000;0.469804
5991.000000;0.469882
5990.000000;0.469974
5989.000000;0.470015
5988.000000;0.470008
5987.000000;0.469988
5986.000000;0.469967
5985.000000;0.469961
5984.000000;0.470008
5983.000000;0.470108
5982.000000;0.470192
5981.000000;0.470198
5980.000000;0.470145
5979.000000;0.470094
5978.000000;0.470065
5977.000000;0.470050
5976.000000;0.470063
5975.000000;0.470113
5974.000000;0.470151
5973.000000;0.470135
5972.000000;0.470108
5971.000000;0.470150
5970.000000;0.470266
5969.000000;0.470380
5968.000000;0.470442
5967.000000;0.470464
5966.000000;0.470472
5965.000000;0.470468
5964.000000;0.470451
5963.000000;0.470426
5962.000000;0.470385
5961.000000;0.470329
5960.000000;0.470296
5959.000000;0.470320
5958.000000;0.470378
5957.000000;0.470421
5956.000000;0.470442
5955.000000;0.470460
5954.000000;0.470466
5953.000000;0.470435
5952.000000;0.470382
5951.000000;0.470359
5950.000000;0.470383
5949.000000;0.470433
5948.000000;0.470491
5947.000000;0.470551
5946.000000;0.470593
5945.000000;0.470612
5944.000000;0.470641
5943.000000;0.470712
5942.000000;0.470799
5941.000000;0.470849
5940.000000;0.470861
5939.000000;0.470871
5938.000000;0.470880
5937.000000;0.470872
5936.000000;0.470867
5935.000000;0.470905
5934.000000;0.470964
5933.000000;0.470989
5932.000000;0.470981
5931.000000;0.471003
5930.000000;0.471071
5929.000000;0.471132
5928.000000;0.471153
5927.000000;0.471163
5926.000000;0.471184
5925.000000;0.471192
5924.000000;0.471182
5923.000000;0.471190
5922.000000;0.471235
5921.000000;0.471281
5920.000000;0.471299
5919.000000;0.471306
5918.000000;0.471318
5917.000000;0.471309
5916.000000;0.471258
5915.000000;0.471188
5914.000000;0.471147
5913.000000;0.471154
5912.000000;0.471204
5911.000000;0.471282
5910.000000;0.471360
5909.000000;0.471408
5908.000000;0.471420
5907.000000;0.471425
5906.000000;0.471442
5905.000000;0.471472
5904.000000;0.471515
5903.000000;0.471574
5902.000000;0.471631
5901.000000;0.471657
5900.000000;0.471645
5899.000000;0.471619
5898.000000;0.471592
5897.000000;0.471571
5896.000000;0.471583
5895.000000;0.471656
5894.000000;0.471766
5893.000000;0.471846
5892.000000;0.471871
5891.000000;0.471874
5890.000000;0.471882
5889.000000;0.471874
5888.000000;0.471829
5887.000000;0.471777
5886.000000;0.471751
5885.000000;0.471737
5884.000000;0.471706
5883.000000;0.471663
5882.000000;0.471647
5881.000000;0.471685
5880.000000;0.471771
5879.000000;0.471877
5878.000000;0.471959
5877.000000;0.471991
5876.000000;0.471984
5875.000000;0.471983
5874.000000;0.472012
5873.000000;0.472052
5872.000000;0.472078
5871.000000;0.472086
5870.000000;0.472088
5869.000000;0.472092
5868.000000;0.472100
5867.000000;0.472111
5866.000000;0.472122
5865.000000;0.472128
5864.000000;0.472134
5863.000000;0.472150
5862.000000;0.472173
5861.000000;0.472190
5860.000000;0.472194
5859.000000;0.472184
5858.000000;0.472162
5857.000000;0.472133
5856.000000;0.472116
5855.000000;0.472120
5854.000000;0.472135
5853.000000;0.472151
5852.000000;0.472194
5851.000000;0.472302
5850.000000;0.472463
5849.000000;0.472615
5848.000000;0.472708
5847.000000;0.472742
5846.000000;0.472741
5845.000000;0.472711
5844.000000;0.472653
5843.000000;0.472584
5842.000000;0.472531
5841.000000;0.472507
5840.000000;0.472516
5839.000000;0.472550
5838.000000;0.472598
5837.000000;0.472649
5836.000000;0.472691
5835.000000;0.472707
5834.000000;0.472678
5833.000000;0.472608
5832.000000;0.472537
5831.000000;0.472517
5830.000000;0.472571
5829.000000;0.472683
5828.000000;0.472816
5827.000000;0.472930
5826.000000;0.472991
5825.000000;0.472991
5824.000000;0.472953
5823.000000;0.472917
5822.000000;0.472914
5821.000000;0.472965
5820.000000;0.473064
5819.000000;0.473168
5818.000000;0.473222
5817.000000;0.473215
5816.000000;0.473193
5815.000000;0.473207
5814.000000;0.473261
5813.000000;0.473334
5812.000000;0.473409
5811.000000;0.473462
5810.000000;0.473460
5809.000000;0.473407
5808.000000;0.473360
5807.000000;0.473365
5806.000000;0.473399
5805.000000;0.473412
5804.000000;0.473395
5803.000000;0.473368
5802.000000;0.473332
5801.000000;0.473276
5800.000000;0.473226
5799.000000;0.473223
5798.000000;0.473271
5797.000000;0.473338
5796.000000;0.473412
5795.000000;0.473503
5794.000000;0.473590
5793.000000;0.473630
5792.000000;0.473616
5791.000000;0.473594
5790.000000;0.473600
5789.000000;0.473625
5788.000000;0.473650
5787.000000;0.473678
5786.000000;0.473729
5785.000000;0.473806
5784.000000;0.473891
5783.000000;0.473948
5782.000000;0.473944
5781.000000;0.473884
5780.000000;0.473820
5779.000000;0.473811
5778.000000;0.473857
5777.000000;0.473910
5776.000000;0.473929
5775.000000;0.473917
5774.000000;0.473906
5773.000000;0.473913
5772.000000;0.473932
5771.000000;0.473941
5770.000000;0.473929
5769.000000;0.473908
5768.000000;0.473907
5767.000000;0.473940
5766.000000;0.474000
5765.000000;0.474078
5764.000000;0.474167
5763.000000;0.474232
5762.000000;0.474234
5761.000000;0.474182
5760.000000;0.474135
5759.000000;0.474122
5758.000000;0.474105
5757.000000;0.474047
5756.000000;0.473980
5755.000000;0.473956
5754.000000;0.473978
5753.000000;0.474011
5752.000000;0.474035
5751.000000;0.474048
5750.000000;0.474027
5749.000000;0.473955
5748.000000;0.473866
5747.000000;0.473825
5746.000000;0.473845
5745.000000;0.473889
5744.000000;0.473922
5743.000000;0.473945
5742.000000;0.473958
5741.000000;0.473959
5740.000000;0.473954
5739.000000;0.473958
5738.000000;0.473972
5737.000000;0.473993
5736.000000;0.474032
5735.000000;0.474091
5734.000000;0.474149
5733.000000;0.474182
5732.000000;0.474192
5731.000000;0.474192
5730.000000;0.474172
5729.000000;0.474117
5728.000000;0.474052
5727.000000;0.474022
5726.000000;0.474040
5725.000000;0.474083
5724.000000;0.474120
5723.000000;0.474135
5722.000000;0.474127
5721.000000;0.474113
5720.000000;0.474114
5719.000000;0.474122
5718.000000;0.474093
5717.000000;0.474013
5716.000000;0.473934
5715.000000;0.473912
5714.000000;0.473946
5713.000000;0.474000
5712.000000;0.474055
5711.000000;0.474093
5710.000000;0.474076
5709.000000;0.473995
5708.000000;0.473916
5707.000000;0.473911
5706.000000;0.473975
5705.000000;0.474039
5704.000000;0.474068
5703.000000;0.474084
5702.000000;0.474105
5701.000000;0.474126
5700.000000;0.474153
5699.000000;0.474205
5698.000000;0.474284
5697.000000;0.474350
5696.000000;0.474384
5695.000000;0.474387
5694.000000;0.474365
5693.000000;0.474337
5692.000000;0.474330
5691.000000;0.474347
5690.000000;0.474352
5689.000000;0.474324
5688.000000;0.474292
5687.000000;0.474286
5686.000000;0.474295
5685.000000;0.474291
5684.000000;0.474292
5683.000000;0.474315
5682.000000;0.474327
5681.000000;0.474287
5680.000000;0.474216
5679.000000;0.474181
5678.000000;0.474203
5677.000000;0.474258
5676.000000;0.474333
5675.000000;0.474437
5674.000000;0.474551
5673.000000;0.474637
5672.000000;0.474689
5671.000000;0.474722
5670.000000;0.474727
5669.000000;0.474691
5668.000000;0.474656
5667.000000;0.474690
5666.000000;0.474793
5665.000000;0.474900
5664.000000;0.474970
5663.000000;0.475019
5662.000000;0.475067
5661.000000;0.475107
5660.000000;0.475145
5659.000000;0.475202
5658.000000;0.475278
5657.000000;0.475337
5656.000000;0.475363
5655.000000;0.475383
5654.000000;0.475429
5653.000000;0.475502
5652.000000;0.475578
5651.000000;0.475642
5650.000000;0.475692
5649.000000;0.475752
5648.000000;0.475858
5647.000000;0.476019
5646.000000;0.476188
5645.000000;0.476310
5644.000000;0.476368
5643.000000;0.476386
5642.000000;0.476392
5641.000000;0.476418
5640.000000;0.476499
5639.000000;0.476644
5638.000000;0.476809
5637.000000;0.476939
5636.000000;0.477012
5635.000000;0.477033
5634.000000;0.477016
5633.000000;0.477013
5632.000000;0.477108
5631.000000;0.477322
5630.000000;0.477564
5629.000000;0.477726
5628.000000;0.477798
5627.000000;0.477859
5626.000000;0.477955
5625.000000;0.478065
5624.000000;0.478167
5623.000000;0.478272
5622.000000;0.478395
5621.000000;0.478533
5620.000000;0.478664
5619.000000;0.478769
5618.000000;0.478841
5617.000000;0.478923
5616.000000;0.479082
5615.000000;0.479324
5614.000000;0.479568
5613.000000;0.479739
5612.000000;0.479852
5611.000000;0.479962
5610.000000;0.480078
5609.000000;0.480196
5608.000000;0.480342
5607.000000;0.480529
5606.000000;0.480691
5605.000000;0.480763
5604.000000;0.480789
5603.000000;0.480870
5602.000000;0.481035
5601.000000;0.481228
5600.000000;0.481410
5599.000000;0.481585
5598.000000;0.481740
5597.000000;0.481842
5596.000000;0.481903
5595.000000;0.481975
5594.000000;0.482067
5593.000000;0.482149
5592.000000;0.482221
5591.000000;0.482326
5590.000000;0.482484
5589.000000;0.482672
5588.000000;0.482869
5587.000000;0.483076
5586.000000;0.483271
5585.000000;0.483432
5584.000000;0.483583
5583.000000;0.483762
5582.000000;0.483948
5581.000000;0.484079
5580.000000;0.484141
5579.000000;0.484183
5578.000000;0.484249
5577.000000;0.484347
5576.000000;0.484491
5575.000000;0.484686
5574.000000;0.484884
5573.000000;0.485014
5572.000000;0.485079
5571.000000;0.485166
5570.000000;0.485335
5569.000000;0.485556
5568.000000;0.485768
5567.000000;0.485945
5566.000000;0.486092
5565.000000;0.486218
5564.000000;0.486336
5563.000000;0.486454
5562.000000;0.486560
5561.000000;0.486640
5560.000000;0.486717
5559.000000;0.486837
5558.000000;0.487011
5557.000000;0.487206
5556.000000;0.487384
5555.000000;0.487520
5554.000000;0.487603
5553.000000;0.487665
5552.000000;0.487779
5551.000000;0.487986
5550.000000;0.488220
5549.000000;0.488381
5548.000000;0.488453
5547.000000;0.488498
5546.000000;0.488551
5545.000000;0.488592
5544.000000;0.488628
5543.000000;0.488711
5542.000000;0.488861
5541.000000;0.489031
5540.000000;0.489169
5539.000000;0.489277
5538.000000;0.489383
5537.000000;0.489491
5536.000000;0.489587
5535.000000;0.489664
5534.000000;0.489724
5533.000000;0.489789
5532.000000;0.489894
5531.000000;0.490053
5530.000000;0.490225
5529.000000;0.490351
5528.000000;0.490423
5527.000000;0.490489
5526.000000;0.490593
5525.000000;0.490740
5524.000000;0.490907
5523.000000;0.491054
5522.000000;0.491141
5521.000000;0.491161
5520.000000;0.491170
5519.000000;0.491238
5518.000000;0.491382
5517.000000;0.491563
5516.000000;0.491730
5515.000000;0.491842
5514.000000;0.491881
5513.000000;0.491872
5512.000000;0.491885
5511.000000;0.491978
5510.000000;0.492150
5509.000000;0.492352
5508.000000;0.492528
5507.000000;0.492628
5506.000000;0.492628
5505.000000;0.492569
5504.000000;0.492541
5503.000000;0.492601
5502.000000;0.492726
5501.000000;0.492871
5500.000000;0.493028
5499.000000;0.493183
5498.000000;0.493297
5497.000000;0.493364
5496.000000;0.493462
5495.000000;0.493663
5494.000000;0.493917
5493.000000;0.494090
5492.000000;0.494118
5491.000000;0.494056
5490.000000;0.493997
5489.000000;0.493995
5488.000000;0.494063
5487.000000;0.494186
5486.000000;0.494330
5485.000000;0.494472
5484.000000;0.494609
5483.000000;0.494727
5482.000000;0.494785
5481.000000;0.494771
5480.000000;0.494728
5479.000000;0.494709
5478.000000;0.494731
5477.000000;0.494796
5476.000000;0.494905
5475.000000;0.495024
5474.000000;0.495101
5473.000000;0.495165
5472.000000;0.495332
5471.000000;0.495650
5470.000000;0.496024
5469.000000;0.496320
5468.000000;0.496498
5467.000000;0.496598
5466.000000;0.496645
5465.000000;0.496638
5464.000000;0.496619
5463.000000;0.496650
5462.000000;0.496749
5461.000000;0.496885
5460.000000;0.497036
5459.000000;0.497190
5458.000000;0.497323
5457.000000;0.497429
5456.000000;0.497560
5455.000000;0.497759
5454.000000;0.497965
5453.000000;0.498091
5452.000000;0.498157
5451.000000;0.498271
5450.000000;0.498458
5449.000000;0.498613
5448.000000;0.498669
5447.000000;0.498693
5446.000000;0.498774
5445.000000;0.498894
5444.000000;0.498992
5443.000000;0.499067
5442.000000;0.499147
5441.000000;0.499238
5440.000000;0.499342
5439.000000;0.499491
5438.000000;0.499716
5437.000000;0.499998
5436.000000;0.500295
5435.000000;0.500584
5434.000000;0.500837
5433.000000;0.501023
5432.000000;0.501174
5431.000000;0.501387
5430.000000;0.501706
5429.000000;0.502056
5428.000000;0.502327
5427.000000;0.502507
5426.000000;0.502678
5425.000000;0.502907
5424.000000;0.503206
5423.000000;0.503544
5422.000000;0.503855
5421.000000;0.504088
5420.000000;0.504267
5419.000000;0.504473
5418.000000;0.504738
5417.000000;0.505015
5416.000000;0.505238
5415.000000;0.505401
5414.000000;0.505542
5413.000000;0.505701
5412.000000;0.505918
5411.000000;0.506220
5410.000000;0.506594
5409.000000;0.506994
5408.000000;0.507391
5407.000000;0.507795
5406.000000;0.508211
5405.000000;0.508627
5404.000000;0.509034
5403.000000;0.509440
5402.000000;0.509830
5401.000000;0.510174
5400.000000;0.510482
5399.000000;0.510807
5398.000000;0.511174
5397.000000;0.511559
5396.000000;0.511942
5395.000000;0.512319
5394.000000;0.512660
5393.000000;0.512931
5392.000000;0.513201
5391.000000;0.513591
5390.000000;0.514124
5389.000000;0.514707
5388.000000;0.515274
5387.000000;0.515849
5386.000000;0.516467
5385.000000;0.517091
5384.000000;0.517681
5383.000000;0.518289
5382.000000;0.518975
5381.000000;0.519694
5380.000000;0.520359
5379.000000;0.520972
5378.000000;0.521615
5377.000000;0.522326
5376.000000;0.523047
5375.000000;0.523723
5374.000000;0.524392
5373.000000;0.525137
5372.000000;0.525993
5371.000000;0.526926
5370.000000;0.527853
5369.000000;0.528722
5368.000000;0.529560
5367.000000;0.530449
5366.000000;0.531428
5365.000000;0.532456
5364.000000;0.533480
5363.000000;0.534487
5362.000000;0.535479
5361.000000;0.536464
5360.000000;0.537489
5359.000000;0.538616
5358.000000;0.539814
5357.000000;0.540982
5356.000000;0.542099
5355.000000;0.543292
5354.000000;0.544657
5353.000000;0.546081
5352.000000;0.547390
5351.000000;0.548603
5350.000000;0.549894
5349.000000;0.551323
5348.000000;0.552746
5347.000000;0.554010
5346.000000;0.555154
5345.000000;0.556375
5344.000000;0.557815
5343.000000;0.559434
5342.000000;0.561071
5341.000000;0.562591
5340.000000;0.563998
5339.000000;0.565442
5338.000000;0.567107
5337.000000;0.569020
5336.000000;0.570995
5335.000000;0.572809
5334.000000;0.574402
5333.000000;0.575908
5332.000000;0.577470
5331.000000;0.579094
5330.000000;0.580725
5329.000000;0.582382
5328.000000;0.584046
5327.000000;0.585460
5326.000000;0.586339
5325.000000;0.586819
5324.000000;0.587355
5323.000000;0.588010
5322.000000;0.588261
5321.000000;0.587735
5320.000000;0.586761
5319.000000;0.585744
5318.000000;0.584325
5317.000000;0.581796
5316.000000;0.578169
5315.000000;0.574162
5314.000000;0.570131
5313.000000;0.565721
5312.000000;0.560497
5311.000000;0.554055
5310.000000;0.545575
5309.000000;0.534374
5308.000000;0.521198
5307.000000;0.507800
5306.000000;0.494604
5305.000000;0.480003
5304.000000;0.462574
5303.000000;0.442636
5302.000000;0.421533
5301.000000;0.401293
5300.000000;0.385156
5299.000000;0.376152
5298.000000;0.375458
5297.000000;0.383968
5296.000000;0.402900
5295.000000;0.431516
5294.000000;0.467432
5293.000000;0.508087
5292.000000;0.549927
5291.000000;0.588955
5290.000000;0.623082
5289.000000;0.652339
5288.000000;0.678404
5287.000000;0.704557
5286.000000;0.733065
5285.000000;0.761523
5284.000000;0.784554
5283.000000;0.800269
5282.000000;0.811720
5281.000000;0.821943
5280.000000;0.831784
5279.000000;0.842229
5278.000000;0.854153
5277.000000;0.865328
5276.000000;0.872384
5275.000000;0.876336
5274.000000;0.881276
5273.000000;0.888149
5272.000000;0.894853
5271.000000;0.901522
5270.000000;0.909908
5269.000000;0.917885
5268.000000;0.921048
5267.000000;0.920529
5266.000000;0.922346
5265.000000;0.928290
5264.000000;0.933914
5263.000000;0.936483
5262.000000;0.938192
5261.000000;0.939821
5260.000000;0.938301
5259.000000;0.932996
5258.000000;0.928297
5257.000000;0.927231
5256.000000;0.927439
5255.000000;0.926337
5254.000000;0.925785
5253.000000;0.928384
5252.000000;0.933094
5251.000000;0.937233
5250.000000;0.940022
5249.000000;0.941653
5248.000000;0.941278
5247.000000;0.938835
5246.000000;0.936600
5245.000000;0.936340
5244.000000;0.936432
5243.000000;0.933602
5242.000000;0.927150
5241.000000;0.920231
5240.000000;0.916973
5239.000000;0.919101
5238.000000;0.924608
5237.000000;0.929424
5236.000000;0.931473
5235.000000;0.932503
5234.000000;0.934865
5233.000000;0.937608
5232.000000;0.937316
5231.000000;0.932258
5230.000000;0.924317
5229.000000;0.917574
5228.000000;0.915813
5227.000000;0.920243
5226.000000;0.928065
5225.000000;0.933732
5224.000000;0.933591
5223.000000;0.929096
5222.000000;0.924286
5221.000000;0.921484
5220.000000;0.920786
5219.000000;0.921251
5218.000000;0.920719
5217.000000;0.917154
5216.000000;0.911925
5215.000000;0.909538
5214.000000;0.912799
5213.000000;0.919822
5212.000000;0.926506
5211.000000;0.930268
5210.000000;0.930662
5209.000000;0.928687
5208.000000;0.926772
5207.000000;0.927411
5206.000000;0.930377
5205.000000;0.932412
5204.000000;0.930466
5203.000000;0.924515
5202.000000;0.916982
5201.000000;0.911519
5200.000000;0.912539
5199.000000;0.921932
5198.000000;0.934926
5197.000000;0.942887
5196.000000;0.942732
5195.000000;0.939308
5194.000000;0.936722
5193.000000;0.933633
5192.000000;0.929001
5191.000000;0.926303
5190.000000;0.928407
5189.000000;0.932770
5188.000000;0.935324
5187.000000;0.935817
5186.000000;0.935768
5185.000000;0.935038
5184.000000;0.933333
5183.000000;0.932057
5182.000000;0.932423
5181.000000;0.933780
5180.000000;0.935471
5179.000000;0.937725
5178.000000;0.939160
5177.000000;0.936896
5176.000000;0.930937
5175.000000;0.924903
5174.000000;0.921337
5173.000000;0.919960
5172.000000;0.921236
5171.000000;0.926851
5170.000000;0.934699
5169.000000;0.938099
5168.000000;0.933876
5167.000000;0.927370
5166.000000;0.925102
5165.000000;0.927242
5164.000000;0.930485
5163.000000;0.933921
5162.000000;0.937662
5161.000000;0.938662
5160.000000;0.933892
5159.000000;0.926893
5158.000000;0.925477
5157.000000;0.932511
5156.000000;0.942007
5155.000000;0.944538
5154.000000;0.936484
5153.000000;0.923633
5152.000000;0.915346
5151.000000;0.916399
5150.000000;0.924419
5149.000000;0.933959
5148.000000;0.941867
5147.000000;0.947444
5146.000000;0.949775
5145.000000;0.948946
5144.000000;0.947369
5143.000000;0.945997
5142.000000;0.940902
5141.000000;0.929374
5140.000000;0.917155
5139.000000;0.912058
5138.000000;0.913567
5137.000000;0.914690
5136.000000;0.913920
5135.000000;0.916244
5134.000000;0.921724
5133.000000;0.923228
5132.000000;0.917923
5131.000000;0.912742
5130.000000;0.913723
5129.000000;0.917738
5128.000000;0.919445
5127.000000;0.919830
5126.000000;0.922684
5125.000000;0.928009
5124.000000;0.933429
5123.000000;0.938258
5122.000000;0.941757
5121.000000;0.940624
5120.000000;0.933297
5119.000000;0.923911
5118.000000;0.917756
5117.000000;0.916948
5116.000000;0.921699
5115.000000;0.931011
5114.000000;0.940306
5113.000000;0.942945
5112.000000;0.937489
5111.000000;0.928810
5110.000000;0.921090
5109.000000;0.915486
5108.000000;0.914139
5107.000000;0.919864
5106.000000;0.930034
5105.000000;0.936252
5104.000000;0.934167
5103.000000;0.928103
5102.000000;0.922115
5101.000000;0.914846
5100.000000;0.906700
5099.000000;0.903592
5098.000000;0.909235
5097.000000;0.919476
5096.000000;0.927677
5095.000000;0.932113
5094.000000;0.933807
5093.000000;0.931760
5092.000000;0.926310
5091.000000;0.922203
5090.000000;0.922628
5089.000000;0.924424
5088.000000;0.923814
5087.000000;0.922866
5086.000000;0.924895
5085.000000;0.927454
5084.000000;0.925805
5083.000000;0.920952
5082.000000;0.917380
5081.000000;0.916000
5080.000000;0.915356
5079.000000;0.916113
5078.000000;0.919201
5077.000000;0.922164
5076.000000;0.921920
5075.000000;0.918565
5074.000000;0.913004
5073.000000;0.904871
5072.000000;0.895673
5071.000000;0.890109
5070.000000;0.890879
5069.000000;0.894797
5068.000000;0.897719
5067.000000;0.900538
5066.000000;0.905466
5065.000000;0.910035
5064.000000;0.910348
5063.000000;0.907491
5062.000000;0.904948
5061.000000;0.902525
5060.000000;0.899150
5059.000000;0.899034
5058.000000;0.907728
5057.000000;0.922455
5056.000000;0.931723
5055.000000;0.927450
5054.000000;0.913611
5053.000000;0.899791
5052.000000;0.892378
5051.000000;0.892832
5050.000000;0.898714
5049.000000;0.904917
5048.000000;0.907570
5047.000000;0.907558
5046.000000;0.907291
5045.000000;0.905553
5044.000000;0.899112
5043.000000;0.888651
5042.000000;0.879391
5041.000000;0.875657
5040.000000;0.877631
5039.000000;0.883011
5038.000000;0.888869
5037.000000;0.891732
5036.000000;0.889096
5035.000000;0.882228
5034.000000;0.875469
5033.000000;0.872114
5032.000000;0.871951
5031.000000;0.872201
5030.000000;0.869598
5029.000000;0.862534
5028.000000;0.852657
5027.000000;0.843626
5026.000000;0.837676
5025.000000;0.834174
5024.000000;0.831783
5023.000000;0.830979
5022.000000;0.833336
5021.000000;0.838989
5020.000000;0.845766
5019.000000;0.850279
5018.000000;0.849373
5017.000000;0.841910
5016.000000;0.830402
5015.000000;0.819719
5014.000000;0.813043
5013.000000;0.809931
5012.000000;0.808828
5011.000000;0.809875
5010.000000;0.813675
5009.000000;0.818428
5008.000000;0.820506
5007.000000;0.817734
5006.000000;0.810822
5005.000000;0.802337
5004.000000;0.795064
5003.000000;0.790481
5002.000000;0.787657
5001.000000;0.783877
5000.000000;0.777431
4999.000000;0.769555
4998.000000;0.762866
4997.000000;0.758353
4996.000000;0.754645
4995.000000;0.750103
4994.000000;0.745069
4993.000000;0.741706
4992.000000;0.741277
4991.000000;0.741803
4990.000000;0.739011
4989.000000;0.730493
4988.000000;0.718970
4987.000000;0.709369
4986.000000;0.703513
4985.000000;0.699715
4984.000000;0.695861
4983.000000;0.691048
4982.000000;0.685155
4981.000000;0.678677
4980.000000;0.672901
4979.000000;0.668652
4978.000000;0.664630
4977.000000;0.658765
4976.000000;0.651447
4975.000000;0.645051
4974.000000;0.640369
4973.000000;0.635892
4972.000000;0.630568
4971.000000;0.625029
4970.000000;0.619654
4969.000000;0.613560
4968.000000;0.606446
4967.000000;0.599747
4966.000000;0.594532
4965.000000;0.589290
4964.000000;0.581377
4963.000000;0.570489
4962.000000;0.559272
4961.000000;0.550717
4960.000000;0.545703
4959.000000;0.542528
4958.000000;0.538222
4957.000000;0.530951
4956.000000;0.521756
4955.000000;0.513511
4954.000000;0.507956
4953.000000;0.504019
4952.000000;0.499149
4951.000000;0.491820
4950.000000;0.482479
4949.000000;0.472773
4948.000000;0.464375
4947.000000;0.458243
4946.000000;0.454195
4945.000000;0.451102
4944.000000;0.447589
4943.000000;0.442712
4942.000000;0.436255
4941.000000;0.428832
4940.000000;0.421393
4939.000000;0.414335
4938.000000;0.407277
4937.000000;0.399751
4936.000000;0.391694
4935.000000;0.383125
4934.000000;0.373948
4933.000000;0.364554
4932.000000;0.355929
4931.000000;0.348518
4930.000000;0.341575
4929.000000;0.334462
4928.000000;0.327714
4927.000000;0.321735
4926.000000;0.315337
4925.000000;0.307125
4924.000000;0.297898
4923.000000;0.290044
4922.000000;0.284513
4921.000000;0.279707
4920.000000;0.273749
4919.000000;0.266295
4918.000000;0.257829
4917.000000;0.248899
4916.000000;0.240408
4915.000000;0.233198
4914.000000;0.226688
4913.000000;0.219068
4912.000000;0.209614
4911.000000;0.199773
4910.000000;0.191202
4909.000000;0.183783
4908.000000;0.176376
4907.000000;0.168610
4906.000000;0.160995
4905.000000;0.153840
4904.000000;0.147042
4903.000000;0.140542
4902.000000;0.134025
4901.000000;0.126513
4900.000000;0.117276
4899.000000;0.107057
4898.000000;0.097663
4897.000000;0.090307
4896.000000;0.084690
4895.000000;0.079590
4894.000000;0.073892
4893.000000;0.067122
4892.000000;0.059609
4891.000000;0.052309
4890.000000;0.046180
4889.000000;0.041494
4888.000000;0.037757
4887.000000;0.034265
4886.000000;0.030678
4885.000000;0.027028
4884.000000;0.023259
4883.000000;0.019022
4882.000000;0.014145
4881.000000;0.009256
4880.000000;0.005392
4879.000000;0.002726
4878.000000;0.000145
4877.000000;-0.003580
4876.000000;-0.008591
4875.000000;-0.014131
4874.000000;-0.019288
4873.000000;-0.023154
4872.000000;-0.025053
4871.000000;-0.025316
4870.000000;-0.025260
4869.000000;-0.025698
4868.000000;-0.026072
4867.000000;-0.025723
4866.000000;-0.025223
4865.000000;-0.025557
4864.000000;-0.026666
4863.000000;-0.027651
4862.000000;-0.027947
4861.000000;-0.027449
4860.000000;-0.025894
4859.000000;-0.023230
4858.000000;-0.020355
4857.000000;-0.018474
4856.000000;-0.017679
4855.000000;-0.016844
4854.000000;-0.014970
4853.000000;-0.012189
4852.000000;-0.009408
4851.000000;-0.007281
4850.000000;-0.005540
4849.000000;-0.003305
4848.000000;-0.000222
4847.000000;0.002919
4846.000000;0.005155
4845.000000;0.006718
4844.000000;0.008683
4843.000000;0.011433
4842.000000;0.014437
4841.000000;0.017477
4840.000000;0.020980
4839.000000;0.024879
4838.000000;0.028339
4837.000000;0.031038
4836.000000;0.033673
4835.000000;0.036722
4834.000000;0.039744
4833.000000;0.042395
4832.000000;0.045096
4831.000000;0.048062
4830.000000;0.050739
4829.000000;0.052953
4828.000000;0.055609
4827.000000;0.059424
4826.000000;0.063789
4825.000000;0.067738
4824.000000;0.071227
4823.000000;0.074579
4822.000000;0.077486
4821.000000;0.079657
4820.000000;0.081849
4819.000000;0.085076
4818.000000;0.089142
4817.000000;0.092967
4816.000000;0.096091
4815.000000;0.098981
4814.000000;0.102046
4813.000000;0.105214
4812.000000;0.108393
4811.000000;0.111617
4810.000000;0.114691
4809.000000;0.117365
4808.000000;0.119815
4807.000000;0.122522
4806.000000;0.125624
4805.000000;0.128866
4804.000000;0.132087
4803.000000;0.135311
4802.000000;0.138403
4801.000000;0.141070
4800.000000;0.143253
4799.000000;0.145269
4798.000000;0.147483
4797.000000;0.150024
4796.000000;0.152767
4795.000000;0.155480
4794.000000;0.158051
4793.000000;0.160629
4792.000000;0.163419
4791.000000;0.166376
4790.000000;0.169244
4789.000000;0.171857
4788.000000;0.174153
4787.000000;0.176027
4786.000000;0.177544
4785.000000;0.179231
4784.000000;0.181702
4783.000000;0.184878
4782.000000;0.187984
4781.000000;0.190401
4780.000000;0.192187
4779.000000;0.193748
4778.000000;0.195476
4777.000000;0.197709
4776.000000;0.200523
4775.000000;0.203452
4774.000000;0.205886
4773.000000;0.207898
4772.000000;0.210151
4771.000000;0.212874
4770.000000;0.215489
4769.000000;0.217445
4768.000000;0.218882
4767.000000;0.220224
4766.000000;0.221636
4765.000000;0.223170
4764.000000;0.224991
4763.000000;0.227110
4762.000000;0.229248
4761.000000;0.231210
4760.000000;0.233078
4759.000000;0.234902
4758.000000;0.236594
4757.000000;0.238257
4756.000000;0.240188
4755.000000;0.242372
4754.000000;0.244426
4753.000000;0.246190
4752.000000;0.247903
4751.000000;0.249646
4750.000000;0.251127
4749.000000;0.252250
4748.000000;0.253385
4747.000000;0.254820
4746.000000;0.256422
4745.000000;0.258052
4744.000000;0.259821
4743.000000;0.261721
4742.000000;0.263513
4741.000000;0.265207
4740.000000;0.267106
4739.000000;0.269119
4738.000000;0.270677
4737.000000;0.271652
4736.000000;0.272731
4735.000000;0.274440
4734.000000;0.276405
4733.000000;0.278045
4732.000000;0.279442
4731.000000;0.280964
4730.000000;0.282535
4729.000000;0.283888
4728.000000;0.285139
4727.000000;0.286521
4726.000000;0.287871
4725.000000;0.288954
4724.000000;0.289983
4723.000000;0.291269
4722.000000;0.292630
4721.000000;0.293710
4720.000000;0.294637
4719.000000;0.295780
4718.000000;0.297081
4717.000000;0.298211
4716.000000;0.299234
4715.000000;0.300540
4714.000000;0.302190
4713.000000;0.303830
4712.000000;0.305230
4711.000000;0.306442
4710.000000;0.307486
4709.000000;0.308340
4708.000000;0.309196
4707.000000;0.310314
4706.000000;0.311603
4705.000000;0.312711
4704.000000;0.313531
4703.000000;0.314293
4702.000000;0.315177
4701.000000;0.316166
4700.000000;0.317269
4699.000000;0.318535
4698.000000;0.319832
4697.000000;0.320895
4696.000000;0.321662
4695.000000;0.322358
4694.000000;0.323207
4693.000000;0.324244
4692.000000;0.325396
4691.000000;0.326554
4690.000000;0.327587
4689.000000;0.328436
4688.000000;0.329217
4687.000000;0.330129
4686.000000;0.331281
4685.000000;0.332623
4684.000000;0.333952
4683.000000;0.334971
4682.000000;0.335511
4681.000000;0.335783
4680.000000;0.336212
4679.000000;0.336965
4678.000000;0.337835
4677.000000;0.338665
4676.000000;0.339585
4675.000000;0.340709
4674.000000;0.341894
4673.000000;0.342987
4672.000000;0.344046
4671.000000;0.345105
4670.000000;0.346006
4669.000000;0.346678
4668.000000;0.347316
4667.000000;0.348046
4666.000000;0.348682
4665.000000;0.349096
4664.000000;0.349526
4663.000000;0.350213
4662.000000;0.350987
4661.000000;0.351566
4660.000000;0.352068
4659.000000;0.352827
4658.000000;0.353836
4657.000000;0.354757
4656.000000;0.355422
4655.000000;0.355983
4654.000000;0.356598
4653.000000;0.357272
4652.000000;0.357994
4651.000000;0.358796
4650.000000;0.359650
4649.000000;0.360475
4648.000000;0.361231
4647.000000;0.361887
4646.000000;0.362387
4645.000000;0.362758
4644.000000;0.363171
4643.000000;0.363759
4642.000000;0.364490
4641.000000;0.365301
4640.000000;0.366205
4639.000000;0.367151
4638.000000;0.367955
4637.000000;0.368516
4636.000000;0.368934
4635.000000;0.369308
4634.000000;0.369625
4633.000000;0.369982
4632.000000;0.370631
4631.000000;0.371629
4630.000000;0.372667
4629.000000;0.373453
4628.000000;0.374039
4627.000000;0.374568
4626.000000;0.374945
4625.000000;0.375043
4624.000000;0.375038
4623.000000;0.375265
4622.000000;0.375853
4621.000000;0.376711
4620.000000;0.377690
4619.000000;0.378572
4618.000000;0.379097
4617.000000;0.379237
4616.000000;0.379308
4615.000000;0.379608
4614.000000;0.380122
4613.000000;0.380710
4612.000000;0.381335
4611.000000;0.381911
4610.000000;0.382214
4609.000000;0.382213
4608.000000;0.382249
4607.000000;0.382607
4606.000000;0.383146
4605.000000;0.383624
4604.000000;0.384123
4603.000000;0.384837
4602.000000;0.385651
4601.000000;0.386296
4600.000000;0.386748
4599.000000;0.387143
4598.000000;0.387458
4597.000000;0.387628
4596.000000;0.387812
4595.000000;0.388201
4594.000000;0.388695
4593.000000;0.389072
4592.000000;0.389363
4591.000000;0.389742
4590.000000;0.390177
4589.000000;0.390521
4588.000000;0.390831
4587.000000;0.391262
4586.000000;0.391737
4585.000000;0.392031
4584.000000;0.392120
4583.000000;0.392171
4582.000000;0.392269
4581.000000;0.392418
4580.000000;0.392713
4579.000000;0.393221
4578.000000;0.393777
4577.000000;0.394152
4576.000000;0.394350
4575.000000;0.394504
4574.000000;0.394624
4573.000000;0.394686
4572.000000;0.394835
4571.000000;0.395210
4570.000000;0.395680
4569.000000;0.396033
4568.000000;0.396275
4567.000000;0.396485
4566.000000;0.396563
4565.000000;0.396455
4564.000000;0.396449
4563.000000;0.396875
4562.000000;0.397611
4561.000000;0.398252
4560.000000;0.398656
4559.000000;0.398977
4558.000000;0.399259
4557.000000;0.399402
4556.000000;0.399464
4555.000000;0.399609
4554.000000;0.399780
4553.000000;0.399795
4552.000000;0.399749
4551.000000;0.399941
4550.000000;0.400405
4549.000000;0.400862
4548.000000;0.401140
4547.000000;0.401316
4546.000000;0.401428
4545.000000;0.401407
4544.000000;0.401339
4543.000000;0.401445
4542.000000;0.401748
4541.000000;0.402035
4540.000000;0.402202
4539.000000;0.402337
4538.000000;0.402450
4537.000000;0.402435
4536.000000;0.402364
4535.000000;0.402494
4534.000000;0.402871
4533.000000;0.403208
4532.000000;0.403277
4531.000000;0.403186
4530.000000;0.403164
4529.000000;0.403262
4528.000000;0.403406
4527.000000;0.403572
4526.000000;0.403784
4525.000000;0.404028
4524.000000;0.404257
4523.000000;0.404412
4522.000000;0.404454
4521.000000;0.404441
4520.000000;0.404518
4519.000000;0.404757
4518.000000;0.405065
4517.000000;0.405370
4516.000000;0.405741
4515.000000;0.406187
4514.000000;0.406456
4513.000000;0.406308
4512.000000;0.405875
4511.000000;0.405533
4510.000000;0.405471
4509.000000;0.405616
4508.000000;0.405891
4507.000000;0.406280
4506.000000;0.406662
4505.000000;0.406853
4504.000000;0.406852
4503.000000;0.406845
4502.000000;0.406927
4501.000000;0.406975
4500.000000;0.406834
4499.000000;0.406499
4498.000000;0.406113
4497.000000;0.405901
4496.000000;0.406050
4495.000000;0.406550
4494.000000;0.407159
4493.000000;0.407635
4492.000000;0.407949
4491.000000;0.408184
4490.000000;0.408344
4489.000000;0.408367
4488.000000;0.408231
4487.000000;0.407967
4486.000000;0.407652
4485.000000;0.407459
4484.000000;0.407535
4483.000000;0.407752
4482.000000;0.407790
4481.000000;0.407575
4480.000000;0.407409
4479.000000;0.407521
4478.000000;0.407753
4477.000000;0.407881
4476.000000;0.407985
4475.000000;0.408224
4474.000000;0.408488
4473.000000;0.408591
4472.000000;0.408611
4471.000000;0.408713
4470.000000;0.408817
4469.000000;0.408762
4468.000000;0.408665
4467.000000;0.408786
4466.000000;0.409123
4465.000000;0.409427
4464.000000;0.409545
4463.000000;0.409478
4462.000000;0.409223
4461.000000;0.408849
4460.000000;0.408621
4459.000000;0.408753
4458.000000;0.409070
4457.000000;0.409206
4456.000000;0.409067
4455.000000;0.408863
4454.000000;0.408724
4453.000000;0.408573
4452.000000;0.408367
4451.000000;0.408212
4450.000000;0.408198
4449.000000;0.408276
4448.000000;0.408314
4447.000000;0.408204
4446.000000;0.407929
4445.000000;0.407608
4444.000000;0.407405
4443.000000;0.407376
4442.000000;0.407493
4441.000000;0.407777
4440.000000;0.408213
4439.000000;0.408566
4438.000000;0.408571
4437.000000;0.408328
4436.000000;0.408190
4435.000000;0.408232
4434.000000;0.408191
4433.000000;0.407989
4432.000000;0.407866
4431.000000;0.407882
4430.000000;0.407764
4429.000000;0.407421
4428.000000;0.407122
4427.000000;0.406944
4426.000000;0.406586
4425.000000;0.405996
4424.000000;0.405631
4423.000000;0.405746
4422.000000;0.405939
4421.000000;0.405801
4420.000000;0.405553
4419.000000;0.405608
4418.000000;0.405956
4417.000000;0.406395
4416.000000;0.406869
4415.000000;0.407144
4414.000000;0.406694
4413.000000;0.405469
4412.000000;0.404274
4411.000000;0.403822
4410.000000;0.403846
4409.000000;0.403695
4408.000000;0.403309
4407.000000;0.402969
4406.000000;0.402600
4405.000000;0.402060
4404.000000;0.401708
4403.000000;0.401890
4402.000000;0.402188
4401.000000;0.401956
4400.000000;0.401307
4399.000000;0.400805
4398.000000;0.400462
4397.000000;0.399852
4396.000000;0.399018
4395.000000;0.398398
4394.000000;0.397963
4393.000000;0.397269
4392.000000;0.396291
4391.000000;0.395463
4390.000000;0.394900
4389.000000;0.394293
4388.000000;0.393591
4387.000000;0.393125
4386.000000;0.393004
4385.000000;0.392955
4384.000000;0.392823
4383.000000;0.392660
4382.000000;0.392296
4381.000000;0.391341
4380.000000;0.389747
4379.000000;0.388005
4378.000000;0.386746
4377.000000;0.386298
4376.000000;0.386459
4375.000000;0.386463
4374.000000;0.385517
4373.000000;0.383683
4372.000000;0.381859
4371.000000;0.380617
4370.000000;0.379615
4369.000000;0.378474
4368.000000;0.377527
4367.000000;0.377096
4366.000000;0.376711
4365.000000;0.375837
4364.000000;0.374804
4363.000000;0.374194
4362.000000;0.373825
4361.000000;0.373159
4360.000000;0.372213
4359.000000;0.371194
4358.000000;0.369757
4357.000000;0.367650
4356.000000;0.365639
4355.000000;0.364725
4354.000000;0.364697
4353.000000;0.364448
4352.000000;0.363480
4351.000000;0.362171
4350.000000;0.360802
4349.000000;0.359330
4348.000000;0.357926
4347.000000;0.356761
4346.000000;0.355382
4345.000000;0.353255
4344.000000;0.350825
4343.000000;0.349215
4342.000000;0.348916
4341.000000;0.349438
4340.000000;0.350007
4339.000000;0.349952
4338.000000;0.348770
4337.000000;0.346631
4336.000000;0.344526
4335.000000;0.343186
4334.000000;0.342188
4333.000000;0.340705
4332.000000;0.338558
4331.000000;0.335884
4330.000000;0.332641
4329.000000;0.329383
4328.000000;0.327648
4327.000000;0.328394
4326.000000;0.330553
4325.000000;0.332159
4324.000000;0.332312
4323.000000;0.331098
4322.000000;0.328533
4321.000000;0.325002
4320.000000;0.321863
4319.000000;0.320121
4318.000000;0.319113
4317.000000;0.317782
4316.000000;0.316411
4315.000000;0.315704
4314.000000;0.315100
4313.000000;0.313667
4312.000000;0.311882
4311.000000;0.310678
4310.000000;0.309567
4309.000000;0.307608
4308.000000;0.305467
4307.000000;0.304512
4306.000000;0.304508
4305.000000;0.304196
4304.000000;0.303565
4303.000000;0.303460
4302.000000;0.303511
4301.000000;0.302651
4300.000000;0.301307
4299.000000;0.300868
4298.000000;0.301259
4297.000000;0.301113
4296.000000;0.299989
4295.000000;0.298397
4294.000000;0.296206
4293.000000;0.293286
4292.000000;0.291166
4291.000000;0.291572
4290.000000;0.293724
4289.000000;0.295405
4288.000000;0.296200
4287.000000;0.297465
4286.000000;0.299569
4285.000000;0.301659
4284.000000;0.303694
4283.000000;0.306092
4282.000000;0.307945
4281.000000;0.308508
4280.000000;0.309883
4279.000000;0.314812
4278.000000;0.322027
4277.000000;0.327091
4276.000000;0.328065
4275.000000;0.327218
4274.000000;0.326866
4273.000000;0.327218
4272.000000;0.328793
4271.000000;0.333115
4270.000000;0.339861
4269.000000;0.346408
4268.000000;0.351533
4267.000000;0.357041
4266.000000;0.364370
4265.000000;0.372247
4264.000000;0.379122
4263.000000;0.385311
4262.000000;0.391244
4261.000000;0.396169
4260.000000;0.400217
4259.000000;0.405624
4258.000000;0.414347
4257.000000;0.425850
4256.000000;0.437973
4255.000000;0.448646
4254.000000;0.456431
4253.000000;0.461285
4252.000000;0.465173
4251.000000;0.470125
4250.000000;0.475946
4249.000000;0.481759
4248.000000;0.489184
4247.000000;0.501133
4246.000000;0.516935
4245.000000;0.531710
4244.000000;0.541292
4243.000000;0.545950
4242.000000;0.548558
4241.000000;0.551645
4240.000000;0.557266
4239.000000;0.567111
4238.000000;0.580864
4237.000000;0.595760
4236.000000;0.609012
4235.000000;0.620188
4234.000000;0.630859
4233.000000;0.642460
4232.000000;0.654589
4231.000000;0.665064
4230.000000;0.672728
4229.000000;0.680203
4228.000000;0.691046
4227.000000;0.704599
4226.000000;0.716677
4225.000000;0.726050
4224.000000;0.736263
4223.000000;0.749131
4222.000000;0.761834
4221.000000;0.773175
4220.000000;0.785863
4219.000000;0.799295
4218.000000;0.806567
4217.000000;0.805111
4216.000000;0.804032
4215.000000;0.812659
4214.000000;0.829445
4213.000000;0.846783
4212.000000;0.862067
4211.000000;0.876670
4210.000000;0.887551
4209.000000;0.891484
4208.000000;0.893125
4207.000000;0.898352
4206.000000;0.906197
4205.000000;0.913082
4204.000000;0.921867
4203.000000;0.938017
4202.000000;0.957963
4201.000000;0.972573
4200.000000;0.981197
4199.000000;0.990496
4198.000000;1.001248
4197.000000;1.008739
4196.000000;1.014403
4195.000000;1.023276
4194.000000;1.031687
4193.000000;1.032072
4192.000000;1.027886
4191.000000;1.029785
4190.000000;1.040007
4189.000000;1.051072
4188.000000;1.060178
4187.000000;1.074345
4186.000000;1.097687
4185.000000;1.125358
4184.000000;1.153729
4183.000000;1.182954
4182.000000;1.208568
4181.000000;1.224199
4180.000000;1.232737
4179.000000;1.242627
4178.000000;1.251587
4177.000000;1.251176
4176.000000;1.246921
4175.000000;1.253215
4174.000000;1.271518
4173.000000;1.289126
4172.000000;1.299873
4171.000000;1.310975
4170.000000;1.323152
4169.000000;1.326082
4168.000000;1.319998
4167.000000;1.318294
4166.000000;1.323864
4165.000000;1.323660
4164.000000;1.312286
4163.000000;1.302766
4162.000000;1.305033
4161.000000;1.315000
4160.000000;1.327089
4159.000000;1.343622
4158.000000;1.369197
4157.000000;1.400999
4156.000000;1.427975
4155.000000;1.437683
4154.000000;1.427042
4153.000000;1.410387
4152.000000;1.408414
4151.000000;1.430059
4150.000000;1.467083
4149.000000;1.505117
4148.000000;1.537244
4147.000000;1.550175
4146.000000;1.525763
4145.000000;1.480256
4144.000000;1.449201
4143.000000;1.456616
4142.000000;1.499390
4141.000000;1.549661
4140.000000;1.581312
4139.000000;1.585485
4138.000000;1.565479
4137.000000;1.547029
4136.000000;1.557017
4135.000000;1.599780
4134.000000;1.659960
4133.000000;1.706085
4132.000000;1.715343
4131.000000;1.695005
4130.000000;1.660082
4129.000000;1.629214
4128.000000;1.622884
4127.000000;1.640753
4126.000000;1.653738
4125.000000;1.639296
4124.000000;1.625202
4123.000000;1.650021
4122.000000;1.711467
4121.000000;1.771333
4120.000000;1.805276
4119.000000;1.818916
4118.000000;1.790219
4117.000000;1.716972
4116.000000;1.656145
4115.000000;1.641315
4114.000000;1.667652
4113.000000;1.709092
4112.000000;1.755862
4111.000000;1.823370
4110.000000;1.892957
4109.000000;1.871193
4108.000000;1.763500
4107.000000;1.677993
4106.000000;1.642846
4105.000000;1.645933
4104.000000;1.685060
4103.000000;1.766870
4102.000000;1.859904
4101.000000;1.897195
4100.000000;1.863386
4099.000000;1.801486
4098.000000;1.759705
4097.000000;1.775606
4096.000000;1.865010
4095.000000;1.997976
4094.000000;2.080356
4093.000000;2.037717
4092.000000;1.957985
4091.000000;1.926016
4090.000000;1.910066
4089.000000;1.884942
4088.000000;1.903806
4087.000000;2.007475
4086.000000;2.105124
4085.000000;2.052807
4084.000000;1.975100
4083.000000;1.940534
4082.000000;1.912704
4081.000000;1.868695
4080.000000;1.854490
4079.000000;1.905469
4078.000000;1.978280
4077.000000;1.968461
4076.000000;1.911063
4075.000000;1.896930
4074.000000;1.891283
4073.000000;1.850081
4072.000000;1.843334
4071.000000;1.927010
4070.000000;2.074748
4069.000000;2.156273
4068.000000;2.098877
4067.000000;2.034797
4066.000000;2.016111
4065.000000;1.967430
4064.000000;1.886605
4063.000000;1.855153
4062.000000;1.888018
4061.000000;1.955557
4060.000000;2.046071
4059.000000;2.199768
4058.000000;2.388657
4057.000000;2.276218
4056.000000;2.063322
4055.000000;1.920852
4054.000000;1.847528
4053.000000;1.827929
4052.000000;1.852348
4051.000000;1.918013
4050.000000;1.990444
4049.000000;1.998861
4048.000000;1.957406
4047.000000;1.952537
4046.000000;2.010098
4045.000000;2.077345
4044.000000;2.104826
4043.000000;2.124442
4042.000000;2.164323
4041.000000;2.204788
4040.000000;2.232619
4039.000000;2.257191
4038.000000;2.244018
4037.000000;2.171212
4036.000000;2.087371
4035.000000;2.044993
4034.000000;2.059649
4033.000000;2.113148
4032.000000;2.192379
4031.000000;2.276655
4030.000000;2.263907
4029.000000;2.211917
4028.000000;2.245617
4027.000000;2.254618
4026.000000;2.125379
4025.000000;2.010520
4024.000000;1.958729
4023.000000;1.972671
4022.000000;2.045933
4021.000000;2.122055
4020.000000;2.124258
4019.000000;2.072682
4018.000000;2.030338
4017.000000;2.011962
4016.000000;2.015644
4015.000000;2.043261
4014.000000;2.085432
4013.000000;2.111561
4012.000000;2.088529
4011.000000;2.021968
4010.000000;1.969656
4009.000000;1.978642
4008.000000;2.073018
4007.000000;2.253651
4006.000000;2.443523
4005.000000;2.443491
4004.000000;2.251182
4003.000000;2.118429
4002.000000;2.062087
4001.000000;2.058644
4000.000000;2.085187
3999.000000;2.117951
3998.000000;2.128855
3997.000000;2.077530
3996.000000;2.014088
3995.000000;2.031614
3994.000000;2.146227
3993.000000;2.327735
3992.000000;2.485502
3991.000000;2.378303
3990.000000;2.186214
3989.000000;2.084716
3988.000000;2.069854
3987.000000;2.102428
3986.000000;2.108388
3985.000000;2.086801
3984.000000;2.113563
3983.000000;2.206588
3982.000000;2.269927
3981.000000;2.231285
3980.000000;2.264662
3979.000000;2.512921
3978.000000;2.445099
3977.000000;2.236023
3976.000000;2.154821
3975.000000;2.085538
3974.000000;1.980977
3973.000000;1.853954
3972.000000;1.787298
3971.000000;1.812465
3970.000000;1.887972
3969.000000;1.930363
3968.000000;1.940557
3967.000000;1.998140
3966.000000;2.122870
3965.000000;2.212989
3964.000000;2.250727
3963.000000;2.340335
3962.000000;2.428299
3961.000000;2.508134
3960.000000;2.222346
3959.000000;1.971330
3958.000000;1.902859
3957.000000;1.974890
3956.000000;2.153689
3955.000000;2.494539
3954.000000;2.568650
3953.000000;2.218731
3952.000000;2.046311
3951.000000;1.938796
3950.000000;1.880008
3949.000000;1.867540
3948.000000;2.001787
3947.000000;2.450708
3946.000000;8.000000
3945.000000;2.936115
3944.000000;2.292508
3943.000000;2.177783
3942.000000;2.232993
3941.000000;2.252970
3940.000000;2.966559
3939.000000;2.625069
3938.000000;2.121695
3937.000000;2.123140
3936.000000;2.172885
3935.000000;2.104248
3934.000000;2.018921
3933.000000;1.993921
3932.000000;2.030309
3931.000000;2.126446
3930.000000;2.138966
3929.000000;2.232471
3928.000000;2.562131
3927.000000;3.104998
3926.000000;2.485488
3925.000000;2.290868
3924.000000;2.264572
3923.000000;2.242532
3922.000000;2.117404
3921.000000;2.140158
3920.000000;2.308448
3919.000000;2.548030
3918.000000;2.512263
3917.000000;2.309166
3916.000000;2.203734
3915.000000;2.447943
3914.000000;2.764203
3913.000000;2.650210
3912.000000;2.549908
3911.000000;2.320681
3910.000000;2.282541
3909.000000;2.329689
3908.000000;2.295385
3907.000000;2.257303
3906.000000;2.289344
3905.000000;3.036716
3904.000000;2.412841
3903.000000;2.110253
3902.000000;2.124636
3901.000000;2.200059
3900.000000;2.223674
3899.000000;2.271925
3898.000000;2.322123
3897.000000;2.265937
3896.000000;2.250007
3895.000000;2.308049
3894.000000;2.469103
3893.000000;2.665887
3892.000000;2.753352
3891.000000;2.648152
3890.000000;2.481561
3889.000000;2.412673
3888.000000;2.566896
3887.000000;3.088989
3886.000000;2.878487
3885.000000;2.529565
3884.000000;2.335407
3883.000000;2.194608
3882.000000;2.235118
3881.000000;2.601272
3880.000000;2.903177
3879.000000;2.451440
3878.000000;2.356295
3877.000000;2.423852
3876.000000;2.365752
3875.000000;2.253002
3874.000000;2.226690
3873.000000;2.415755
3872.000000;2.273873
3871.000000;2.220067
3870.000000;2.418756
3869.000000;2.496524
3868.000000;2.655940
3867.000000;2.428995
3866.000000;2.397181
3865.000000;2.445325
3864.000000;2.343248
3863.000000;2.146072
3862.000000;2.023210
3861.000000;2.144999
3860.000000;2.431627
3859.000000;2.503915
3858.000000;2.531655
3857.000000;2.732066
3856.000000;2.665716
3855.000000;2.758382
3854.000000;2.637545
3853.000000;2.434826
3852.000000;2.405261
3851.000000;2.500730
3850.000000;2.695025
3849.000000;2.698833
3848.000000;2.652131
3847.000000;2.786340
3846.000000;3.077602
3845.000000;2.532651
3844.000000;2.272654
3843.000000;2.134504
3842.000000;2.075803
3841.000000;2.075953
3840.000000;2.132257
3839.000000;2.199301
3838.000000;2.218925
3837.000000;2.541114
3836.000000;2.498912
3835.000000;2.056457
3834.000000;2.006875
3833.000000;2.085056
3832.000000;2.194654
3831.000000;2.337136
3830.000000;2.449677
3829.000000;2.451946
3828.000000;2.541983
3827.000000;2.731488
3826.000000;2.847422
3825.000000;2.892256
3824.000000;3.089152
3823.000000;3.072286
3822.000000;3.367956
3821.000000;3.528805
3820.000000;2.803288
3819.000000;2.374727
3818.000000;2.145077
3817.000000;2.124173
3816.000000;2.216630
3815.000000;2.167336
3814.000000;2.114043
3813.000000;2.258086
3812.000000;2.289867
3811.000000;2.357041
3810.000000;2.438218
3809.000000;2.371653
3808.000000;2.271631
3807.000000;2.177097
3806.000000;2.165192
3805.000000;2.312438
3804.000000;2.270956
3803.000000;2.337456
3802.000000;2.410994
3801.000000;2.048586
3800.000000;1.775123
3799.000000;1.738638
3798.000000;1.931003
3797.000000;2.208747
3796.000000;2.301827
3795.000000;2.217393
3794.000000;2.202427
3793.000000;2.481622
3792.000000;3.161604
3791.000000;2.543116
3790.000000;2.562206
3789.000000;2.505037
3788.000000;2.262806
3787.000000;2.113722
3786.000000;2.092678
3785.000000;2.119025
3784.000000;2.111035
3783.000000;2.130918
3782.000000;2.230161
3781.000000;2.347872
3780.000000;2.408623
3779.000000;2.347506
3778.000000;2.207599
3777.000000;2.147987
3776.000000;2.230477
3775.000000;2.654052
3774.000000;2.558881
3773.000000;2.307959
3772.000000;2.309051
3771.000000;2.371004
3770.000000;2.333805
3769.000000;2.245072
3768.000000;2.204587
3767.000000;2.232290
3766.000000;2.376653
3765.000000;2.853995
3764.000000;2.574811
3763.000000;2.344563
3762.000000;2.386796
3761.000000;2.542461
3760.000000;2.819632
3759.000000;2.657998
3758.000000;2.191732
3757.000000;2.248416
3756.000000;2.590220
3755.000000;2.083797
3754.000000;1.849934
3753.000000;1.816514
3752.000000;1.868332
3751.000000;1.961175
3750.000000;1.936500
3749.000000;1.891247
3748.000000;2.187257
3747.000000;2.358488
3746.000000;2.146211
3745.000000;2.190000
3744.000000;2.236142
3743.000000;2.491664
3742.000000;2.438484
3741.000000;2.216219
3740.000000;2.290426
3739.000000;2.292446
3738.000000;2.226321
3737.000000;2.143824
3736.000000;2.131864
3735.000000;2.293065
3734.000000;2.140475
3733.000000;1.978796
3732.000000;2.015940
3731.000000;2.079001
3730.000000;2.055217
3729.000000;1.973513
3728.000000;1.975292
3727.000000;2.075876
3726.000000;2.188516
3725.000000;2.122758
3724.000000;2.048856
3723.000000;2.108042
3722.000000;2.176692
3721.000000;2.193145
3720.000000;2.061882
3719.000000;1.975311
3718.000000;2.056992
3717.000000;2.310724
3716.000000;2.772973
3715.000000;2.275446
3714.000000;2.082787
3713.000000;2.037772
3712.000000;2.002288
3711.000000;1.990945
3710.000000;2.207605
3709.000000;3.039511
3708.000000;2.188408
3707.000000;2.120154
3706.000000;2.237345
3705.000000;2.737997
3704.000000;2.915240
3703.000000;2.507698
3702.000000;2.442724
3701.000000;2.353842
3700.000000;2.294880
3699.000000;2.245525
3698.000000;2.573244
3697.000000;2.763349
3696.000000;2.279946
3695.000000;2.150001
3694.000000;2.174740
3693.000000;2.289253
3692.000000;2.388320
3691.000000;2.349236
3690.000000;2.207523
3689.000000;2.072526
3688.000000;2.139253
3687.000000;2.097786
3686.000000;1.751774
3685.000000;1.774804
3684.000000;1.984707
3683.000000;2.290479
3682.000000;2.786284
3681.000000;3.380695
3680.000000;2.678511
3679.000000;2.764287
3678.000000;3.043378
3677.000000;2.478650
3676.000000;2.160976
3675.000000;1.954169
3674.000000;1.818637
3673.000000;1.781169
3672.000000;2.053058
3671.000000;2.385210
3670.000000;1.957965
3669.000000;1.735245
3668.000000;1.738198
3667.000000;1.923050
3666.000000;2.491615
3665.000000;2.602392
3664.000000;2.360923
3663.000000;2.407838
3662.000000;2.278146
3661.000000;2.157395
3660.000000;2.216705
3659.000000;2.498231
3658.000000;3.279286
3657.000000;2.898548
3656.000000;2.641494
3655.000000;2.495447
3654.000000;2.235318
3653.000000;2.188574
3652.000000;2.320324
3651.000000;2.447683
3650.000000;2.407270
3649.000000;2.090156
3648.000000;1.804791
3647.000000;1.712099
3646.000000;1.740543
3645.000000;2.010808
3644.000000;2.310466
3643.000000;3.002710
3642.000000;2.453805
3641.000000;2.103358
3640.000000;2.190330
3639.000000;2.765529
3638.000000;2.936567
3637.000000;2.490605
3636.000000;2.288619
3635.000000;2.292146
3634.000000;2.446168
3633.000000;2.474695
3632.000000;2.310105
3631.000000;2.210037
3630.000000;2.185640
3629.000000;2.195959
3628.000000;2.378482
3627.000000;2.458969
3626.000000;1.975009
3625.000000;1.895590
3624.000000;1.950409
3623.000000;2.072348
3622.000000;2.237426
3621.000000;2.361619
3620.000000;2.266041
3619.000000;2.125618
3618.000000;2.113545
3617.000000;2.514406
3616.000000;2.124511
3615.000000;1.813678
3614.000000;1.771309
3613.000000;1.761309
3612.000000;1.772480
3611.000000;1.828324
3610.000000;1.960449
3609.000000;2.055274
3608.000000;1.965825
3607.000000;1.875502
3606.000000;1.920004
3605.000000;2.149350
3604.000000;2.558926
3603.000000;2.904635
3602.000000;2.280967
3601.000000;2.042356
3600.000000;2.025827
3599.000000;2.149685
3598.000000;2.090007
3597.000000;1.943790
3596.000000;1.902917
3595.000000;1.984328
3594.000000;2.111402
3593.000000;2.019688
3592.000000;1.945146
3591.000000;2.032314
3590.000000;2.172837
3589.000000;2.163663
3588.000000;2.108133
3587.000000;2.411071
3586.000000;2.483158
3585.000000;2.393107
3584.000000;2.538665
3583.000000;2.427941
3582.000000;2.413561
3581.000000;2.246565
3580.000000;2.057457
3579.000000;2.024949
3578.000000;2.079201
3577.000000;2.124831
3576.000000;2.157617
3575.000000;2.191688
3574.000000;2.277858
3573.000000;2.406977
3572.000000;2.766513
3571.000000;2.718110
3570.000000;2.176787
3569.000000;2.209888
3568.000000;2.155683
3567.000000;2.065300
3566.000000;1.990411
3565.000000;2.036286
3564.000000;2.254170
3563.000000;2.886061
3562.000000;2.790937
3561.000000;2.383555
3560.000000;2.287961
3559.000000;2.339477
3558.000000;2.301172
3557.000000;2.170742
3556.000000;2.165222
3555.000000;2.295523
3554.000000;2.552446
3553.000000;2.481812
3552.000000;2.402205
3551.000000;2.460648
3550.000000;2.674837
3549.000000;2.776344
3548.000000;2.466969
3547.000000;2.263925
3546.000000;2.273089
3545.000000;2.580822
3544.000000;2.581614
3543.000000;2.371342
3542.000000;2.296664
3541.000000;2.269491
3540.000000;2.240957
3539.000000;2.139548
3538.000000;2.093650
3537.000000;2.106516
3536.000000;2.091709
3535.000000;2.117794
3534.000000;2.210313
3533.000000;2.306807
3532.000000;2.452365
3531.000000;2.364758
3530.000000;2.163903
3529.000000;2.070629
3528.000000;1.988582
3527.000000;1.888329
3526.000000;1.867796
3525.000000;1.959992
3524.000000;1.931476
3523.000000;1.889092
3522.000000;1.992417
3521.000000;2.219376
3520.000000;2.326020
3519.000000;2.155596
3518.000000;2.116809
3517.000000;2.219554
3516.000000;2.373287
3515.000000;2.598019
3514.000000;2.660354
3513.000000;2.353951
3512.000000;2.183952
3511.000000;2.072195
3510.000000;2.257337
3509.000000;2.421471
3508.000000;2.038438
3507.000000;1.938504
3506.000000;1.979136
3505.000000;1.998769
3504.000000;1.992397
3503.000000;2.187479
3502.000000;2.337793
3501.000000;2.037089
3500.000000;1.951431
3499.000000;1.982685
3498.000000;2.092554
3497.000000;2.290824
3496.000000;2.458913
3495.000000;2.269198
3494.000000;2.160093
3493.000000;2.202516
3492.000000;2.395062
3491.000000;2.829268
3490.000000;2.946899
3489.000000;2.603597
3488.000000;2.554214
3487.000000;2.864872
3486.000000;3.077471
3485.000000;2.639164
3484.000000;2.556974
3483.000000;2.535344
3482.000000;2.619316
3481.000000;2.646332
3480.000000;2.632904
3479.000000;2.609305
3478.000000;2.456228
3477.000000;2.322576
3476.000000;2.201537
3475.000000;2.133693
3474.000000;2.198736
3473.000000;3.087081
3472.000000;2.357195
3471.000000;2.160958
3470.000000;2.145468
3469.000000;2.146143
3468.000000;2.180524
3467.000000;2.231903
3466.000000;2.261391
3465.000000;2.262069
3464.000000;2.330970
3463.000000;2.418885
3462.000000;2.147429
3461.000000;1.994286
3460.000000;1.999893
3459.000000;2.048093
3458.000000;2.085400
3457.000000;2.148992
3456.000000;2.464897
3455.000000;2.742192
3454.000000;2.302829
3453.000000;2.170873
3452.000000;2.271448
3451.000000;2.472897
3450.000000;2.210149
3449.000000;2.045625
3448.000000;2.080819
3447.000000;2.267112
3446.000000;2.470962
3445.000000;2.338372
3444.000000;2.151251
3443.000000;2.020244
3442.000000;1.998958
3441.000000;2.159369
3440.000000;2.467523
3439.000000;2.269168
3438.000000;2.113838
3437.000000;2.081147
3436.000000;2.168322
3435.000000;2.319005
3434.000000;2.320583
3433.000000;2.226343
3432.000000;2.162654
3431.000000;2.228618
3430.000000;2.302543
3429.000000;2.811639
3428.000000;2.853369
3427.000000;2.329849
3426.000000;2.297101
3425.000000;2.323951
3424.000000;2.987658
3423.000000;2.510636
3422.000000;2.113583
3421.000000;2.015275
3420.000000;2.050480
3419.000000;2.297983
3418.000000;2.724931
3417.000000;2.198460
3416.000000;2.051966
3415.000000;2.057042
3414.000000;2.165631
3413.000000;2.213604
3412.000000;2.108867
3411.000000;2.092540
3410.000000;2.190513
3409.000000;2.297190
3408.000000;2.406153
3407.000000;2.624744
3406.000000;2.781788
3405.000000;2.623825
3404.000000;2.549746
3403.000000;2.722383
3402.000000;2.856959
3401.000000;2.540815
3400.000000;2.287379
3399.000000;2.159483
3398.000000;2.085506
3397.000000;2.094164
3396.000000;2.195980
3395.000000;2.264986
3394.000000;2.187491
3393.000000;2.011743
3392.000000;1.855322
3391.000000;1.794628
3390.000000;1.816152
3389.000000;1.877710
3388.000000;1.927167
3387.000000;1.910203
3386.000000;1.871572
3385.000000;1.889041
3384.000000;1.950646
3383.000000;2.042966
3382.000000;2.207561
3381.000000;2.510260
3380.000000;2.939272
3379.000000;2.719223
3378.000000;2.497332
3377.000000;2.757660
3376.000000;2.737362
3375.000000;2.377914
3374.000000;2.330988
3373.000000;2.348051
3372.000000;2.327490
3371.000000;2.342452
3370.000000;2.447325
3369.000000;2.612752
3368.000000;2.559957
3367.000000;2.500970
3366.000000;2.657900
3365.000000;3.548678
3364.000000;2.863276
3363.000000;2.678059
3362.000000;2.704486
3361.000000;2.560828
3360.000000;2.155636
3359.000000;2.069801
3358.000000;2.139720
3357.000000;2.256458
3356.000000;2.377673
3355.000000;2.510390
3354.000000;2.576235
3353.000000;2.504064
3352.000000;2.492674
3351.000000;2.630689
3350.000000;2.547039
3349.000000;2.505130
3348.000000;2.926376
3347.000000;2.753686
3346.000000;2.360070
3345.000000;2.147922
3344.000000;2.014688
3343.000000;1.990848
3342.000000;2.107621
3341.000000;2.404858
3340.000000;3.145822
3339.000000;2.636722
3338.000000;2.371056
3337.000000;2.305072
3336.000000;2.287747
3335.000000;2.274629
3334.000000;2.301672
3333.000000;2.342234
3332.000000;2.481566
3331.000000;2.634584
3330.000000;2.422964
3329.000000;2.328970
3328.000000;2.192072
3327.000000;2.109231
3326.000000;2.068375
3325.000000;2.011347
3324.000000;2.035415
3323.000000;2.081214
3322.000000;2.034376
3321.000000;2.067706
3320.000000;2.363201
3319.000000;2.472958
3318.000000;2.220873
3317.000000;2.084906
3316.000000;1.978653
3315.000000;1.957241
3314.000000;2.045356
3313.000000;2.247117
3312.000000;2.447925
3311.000000;2.437254
3310.000000;2.495248
3309.000000;2.738629
3308.000000;2.626401
3307.000000;2.313948
3306.000000;2.287798
3305.000000;2.472869
3304.000000;2.473582
3303.000000;2.336379
3302.000000;2.439294
3301.000000;2.819182
3300.000000;2.653640
3299.000000;2.279690
3298.000000;2.264001
3297.000000;2.420051
3296.000000;3.041024
3295.000000;2.723936
3294.000000;2.219269
3293.000000;2.034742
3292.000000;1.983315
3291.000000;2.079574
3290.000000;2.390676
3289.000000;2.805763
3288.000000;2.284590
3287.000000;2.056033
3286.000000;1.988498
3285.000000;2.014513
3284.000000;2.157215
3283.000000;2.470237
3282.000000;3.758902
3281.000000;2.526726
3280.000000;2.196829
3279.000000;2.085354
3278.000000;2.294610
3277.000000;2.800756
3276.000000;2.090557
3275.000000;1.969462
3274.000000;2.004747
3273.000000;2.129098
3272.000000;2.228847
3271.000000;2.735942
3270.000000;2.824080
3269.000000;2.335157
3268.000000;2.415515
3267.000000;2.541487
3266.000000;2.533852
3265.000000;2.556559
3264.000000;2.700111
3263.000000;2.649265
3262.000000;2.800715
3261.000000;2.560207
3260.000000;2.238999
3259.000000;2.051531
3258.000000;1.986700
3257.000000;2.063701
3256.000000;2.188997
3255.000000;1.985201
3254.000000;1.803027
3253.000000;1.756236
3252.000000;1.785029
3251.000000;1.808749
3250.000000;1.826154
3249.000000;1.902229
3248.000000;2.060399
3247.000000;2.221232
3246.000000;2.311458
3245.000000;2.270746
3244.000000;2.104670
3243.000000;2.021440
3242.000000;2.072766
3241.000000;2.146912
3240.000000;2.125904
3239.000000;2.142600
3238.000000;2.174328
3237.000000;2.108398
3236.000000;2.011905
3235.000000;1.950891
3234.000000;1.960340
3233.000000;2.087235
3232.000000;2.372320
3231.000000;2.459789
3230.000000;2.202815
3229.000000;2.141409
3228.000000;2.172532
3227.000000;2.245126
3226.000000;2.580047
3225.000000;3.022177
3224.000000;2.545664
3223.000000;2.537994
3222.000000;2.438542
3221.000000;2.336024
3220.000000;2.204076
3219.000000;2.067950
3218.000000;2.037397
3217.000000;2.142123
3216.000000;2.409513
3215.000000;2.397969
3214.000000;2.157474
3213.000000;2.187608
3212.000000;2.381362
3211.000000;2.403140
3210.000000;2.292135
3209.000000;2.651112
3208.000000;2.414117
3207.000000;2.007897
3206.000000;1.885229
3205.000000;1.907620
3204.000000;1.993503
3203.000000;2.086647
3202.000000;2.256924
3201.000000;2.490007
3200.000000;2.267092
3199.000000;2.148168
3198.000000;2.153681
3197.000000;2.184567
3196.000000;2.237610
3195.000000;2.368689
3194.000000;2.670858
3193.000000;3.124880
3192.000000;2.936574
3191.000000;2.854932
3190.000000;2.470590
3189.000000;2.091306
3188.000000;1.869984
3187.000000;1.783564
3186.000000;1.813284
3185.000000;1.921845
3184.000000;1.907653
3183.000000;1.794074
3182.000000;1.768815
3181.000000;1.805442
3180.000000;1.802749
3179.000000;1.846377
3178.000000;2.015405
3177.000000;2.157696
3176.000000;2.136805
3175.000000;2.135735
3174.000000;2.272535
3173.000000;2.859145
3172.000000;2.436566
3171.000000;2.186724
3170.000000;2.000138
3169.000000;1.880156
3168.000000;1.866803
3167.000000;1.926066
3166.000000;1.964770
3165.000000;1.907625
3164.000000;1.854583
3163.000000;1.920115
3162.000000;2.162673
3161.000000;2.347571
3160.000000;2.190507
3159.000000;2.060783
3158.000000;1.986456
3157.000000;1.930012
3156.000000;1.894223
3155.000000;1.881953
3154.000000;1.866136
3153.000000;1.821211
3152.000000;1.783665
3151.000000;1.830404
3150.000000;2.002549
3149.000000;2.296840
3148.000000;2.424166
3147.000000;2.385846
3146.000000;2.496308
3145.000000;2.226006
3144.000000;1.984006
3143.000000;1.886003
3142.000000;1.841401
3141.000000;1.837073
3140.000000;1.933966
3139.000000;2.185636
3138.000000;2.283066
3137.000000;2.111756
3136.000000;2.045660
3135.000000;2.161822
3134.000000;2.578335
3133.000000;2.644701
3132.000000;2.323643
3131.000000;2.072280
3130.000000;1.957950
3129.000000;1.962559
3128.000000;2.036029
3127.000000;2.008290
3126.000000;1.885917
3125.000000;1.878932
3124.000000;1.980682
3123.000000;2.093428
3122.000000;2.141779
3121.000000;2.126168
3120.000000;2.114855
3119.000000;2.112070
3118.000000;2.080675
3117.000000;2.068953
3116.000000;2.131648
3115.000000;2.226733
3114.000000;2.265922
3113.000000;2.514279
3112.000000;2.888363
3111.000000;2.248083
3110.000000;2.095465
3109.000000;2.369943
3108.000000;2.562471
3107.000000;2.078409
3106.000000;2.032375
3105.000000;2.128628
3104.000000;2.211232
3103.000000;2.163221
3102.000000;2.192506
3101.000000;2.200097
3100.000000;2.035416
3099.000000;1.952440
3098.000000;1.958185
3097.000000;1.970754
3096.000000;1.983459
3095.000000;2.015377
3094.000000;2.068770
3093.000000;2.220669
3092.000000;2.452732
3091.000000;2.505379
3090.000000;2.335876
3089.000000;2.211056
3088.000000;2.227048
3087.000000;2.337413
3086.000000;2.229335
3085.000000;1.956824
3084.000000;1.803490
3083.000000;1.747349
3082.000000;1.748199
3081.000000;1.770091
3080.000000;1.771629
3079.000000;1.742149
3078.000000;1.731975
3077.000000;1.777206
3076.000000;1.886296
3075.000000;2.053815
3074.000000;2.245367
3073.000000;2.307310
3072.000000;2.413809
3071.000000;2.828768
3070.000000;2.177304
3069.000000;1.986129
3068.000000;1.996366
3067.000000;2.112430
3066.000000;2.335750
3065.000000;2.389434
3064.000000;2.099395
3063.000000;1.981101
3062.000000;1.990218
3061.000000;2.126954
3060.000000;2.321953
3059.000000;2.409125
3058.000000;2.455328
3057.000000;2.475957
3056.000000;2.356200
3055.000000;2.165199
3054.000000;2.097438
3053.000000;2.132165
3052.000000;2.251656
3051.000000;2.200608
3050.000000;1.907030
3049.000000;1.753512
3048.000000;1.741501
3047.000000;1.813608
3046.000000;1.907821
3045.000000;1.915651
3044.000000;1.840850
3043.000000;1.800065
3042.000000;1.799938
3041.000000;1.801986
3040.000000;1.836884
3039.000000;1.970608
3038.000000;2.244712
3037.000000;2.495858
3036.000000;2.329384
3035.000000;2.126599
3034.000000;2.042097
3033.000000;2.107271
3032.000000;2.381394
3031.000000;2.467714
3030.000000;2.195090
3029.000000;2.230576
3028.000000;2.285858
3027.000000;2.221054
3026.000000;2.236254
3025.000000;2.438255
3024.000000;2.532094
3023.000000;2.415892
3022.000000;2.591954
3021.000000;2.832381
3020.000000;2.724926
3019.000000;2.529579
3018.000000;2.169044
3017.000000;2.061679
3016.000000;2.119727
3015.000000;2.195334
3014.000000;2.286351
3013.000000;2.425441
3012.000000;2.550356
3011.000000;2.425643
3010.000000;2.152861
3009.000000;2.039301
3008.000000;2.133741
3007.000000;2.503055
3006.000000;2.217175
3005.000000;1.948167
3004.000000;1.939117
3003.000000;2.047026
3002.000000;2.124529
3001.000000;2.069795
3000.000000;2.098355
2999.000000;2.154503
2998.000000;2.124971
2997.000000;2.338268
2996.000000;2.866989
2995.000000;2.517605
2994.000000;2.318953
2993.000000;2.255152
2992.000000;2.066467
2991.000000;1.948026
2990.000000;1.962242
2989.000000;2.029980
2988.000000;2.050566
2987.000000;2.058020
2986.000000;2.084825
2985.000000;2.055774
2984.000000;1.989075
2983.000000;2.044403
2982.000000;2.270621
2981.000000;2.445192
2980.000000;2.323062
2979.000000;2.335674
2978.000000;2.467712
2977.000000;2.176525
2976.000000;1.996253
2975.000000;1.956163
2974.000000;1.841833
2973.000000;1.729783
2972.000000;1.715637
2971.000000;1.729343
2970.000000;1.768364
2969.000000;1.851577
2968.000000;1.861797
2967.000000;1.824510
2966.000000;1.888382
2965.000000;2.091091
2964.000000;2.352237
2963.000000;2.446242
2962.000000;2.404358
2961.000000;2.292488
2960.000000;2.199617
2959.000000;2.162109
2958.000000;2.143231
2957.000000;2.132438
2956.000000;2.152101
2955.000000;2.095718
2954.000000;1.949490
2953.000000;1.889994
2952.000000;1.945332
2951.000000;2.172229
2950.000000;2.378670
2949.000000;2.116471
2948.000000;1.943010
2947.000000;1.826865
2946.000000;1.745625
2945.000000;1.736563
2944.000000;1.818627
2943.000000;1.994442
2942.000000;2.098638
2941.000000;2.066156
2940.000000;2.118370
2939.000000;2.322409
2938.000000;2.561926
2937.000000;2.427920
2936.000000;2.102473
2935.000000;1.929325
2934.000000;1.926169
2933.000000;2.054287
2932.000000;2.259676
2931.000000;2.351197
2930.000000;2.175091
2929.000000;2.068976
2928.000000;2.073176
2927.000000;2.120365
2926.000000;2.159160
2925.000000;2.171488
2924.000000;2.118364
2923.000000;2.098574
2922.000000;2.095545
2921.000000;2.006037
2920.000000;1.968021
2919.000000;2.062194
2918.000000;2.201306
2917.000000;2.306134
2916.000000;2.174447
2915.000000;1.900709
2914.000000;1.767673
2913.000000;1.789735
2912.000000;1.951569
2911.000000;2.181205
2910.000000;2.502385
2909.000000;2.604115
2908.000000;2.345284
2907.000000;2.335909
2906.000000;2.448672
2905.000000;2.506835
2904.000000;2.565962
2903.000000;2.604965
2902.000000;2.502430
2901.000000;2.360018
2900.000000;2.310668
2899.000000;2.220557
2898.000000;2.036246
2897.000000;1.950739
2896.000000;1.958401
2895.000000;2.009033
2894.000000;2.079813
2893.000000;2.125892
2892.000000;2.104470
2891.000000;2.076450
2890.000000;2.060371
2889.000000;2.150870
2888.000000;2.020689
2887.000000;1.836916
2886.000000;1.814453
2885.000000;1.815524
2884.000000;1.768190
2883.000000;1.745756
2882.000000;1.801985
2881.000000;1.933059
2880.000000;2.050842
2879.000000;2.212434
2878.000000;2.816230
2877.000000;2.165856
2876.000000;2.045875
2875.000000;2.156241
2874.000000;2.470432
2873.000000;2.243935
2872.000000;2.010682
2871.000000;1.961695
2870.000000;1.980662
2869.000000;2.013593
2868.000000;2.077950
2867.000000;2.144180
2866.000000;2.154244
2865.000000;2.184233
2864.000000;2.292923
2863.000000;2.463179
2862.000000;2.413015
2861.000000;2.197506
2860.000000;2.063442
2859.000000;1.999394
2858.000000;2.003166
2857.000000;2.022181
2856.000000;2.013825
2855.000000;2.037510
2854.000000;2.091098
2853.000000;2.136624
2852.000000;2.214846
2851.000000;2.327157
2850.000000;2.316795
2849.000000;2.281119
2848.000000;2.197524
2847.000000;2.067966
2846.000000;2.023434
2845.000000;2.035447
2844.000000;1.965475
2843.000000;1.904293
2842.000000;1.917687
2841.000000;1.917987
2840.000000;1.894023
2839.000000;1.902914
2838.000000;1.861308
2837.000000;1.776983
2836.000000;1.776156
2835.000000;1.888698
2834.000000;2.071131
2833.000000;2.106590
2832.000000;2.007428
2831.000000;1.947430
2830.000000;1.966808
2829.000000;1.997764
2828.000000;1.998942
2827.000000;2.046313
2826.000000;2.129564
2825.000000;2.176240
2824.000000;2.125490
2823.000000;1.956899
2822.000000;1.813449
2821.000000;1.747136
2820.000000;1.739808
2819.000000;1.782641
2818.000000;1.918084
2817.000000;2.125199
2816.000000;2.100876
2815.000000;2.004742
2814.000000;1.999369
2813.000000;1.985067
2812.000000;1.980638
2811.000000;2.035894
2810.000000;2.210878
2809.000000;2.311338
2808.000000;2.161063
2807.000000;2.078965
2806.000000;1.987572
2805.000000;1.897886
2804.000000;1.863464
2803.000000;1.831407
2802.000000;1.841330
2801.000000;1.930395
2800.000000;2.034266
2799.000000;2.059504
2798.000000;2.042451
2797.000000;2.052786
2796.000000;1.975702
2795.000000;1.865766
2794.000000;1.861196
2793.000000;1.925170
2792.000000;1.934153
2791.000000;1.882505
2790.000000;2.122273
2789.000000;2.599010
2788.000000;2.015377
2787.000000;1.984481
2786.000000;2.191804
2785.000000;2.725147
2784.000000;3.088645
2783.000000;2.796313
2782.000000;2.617625
2781.000000;2.399160
2780.000000;2.301967
2779.000000;2.223745
2778.000000;2.192543
2777.000000;2.435137
2776.000000;2.511466
2775.000000;2.485811
2774.000000;2.625468
2773.000000;2.420618
2772.000000;2.292510
2771.000000;2.346067
2770.000000;2.418690
2769.000000;2.321794
2768.000000;2.024620
2767.000000;1.856035
2766.000000;1.854365
2765.000000;2.040970
2764.000000;2.310237
2763.000000;2.147251
2762.000000;2.052505
2761.000000;2.068659
2760.000000;2.045122
2759.000000;1.927139
2758.000000;1.819122
2757.000000;1.794390
2756.000000;1.834751
2755.000000;1.856891
2754.000000;1.853602
2753.000000;1.894190
2752.000000;2.063548
2751.000000;2.367908
2750.000000;3.008698
2749.000000;2.523064
2748.000000;2.089494
2747.000000;1.941995
2746.000000;1.904754
2745.000000;1.928139
2744.000000;1.923940
2743.000000;1.816545
2742.000000;1.756656
2741.000000;1.817096
2740.000000;1.888638
2739.000000;1.795428
2738.000000;1.770199
2737.000000;1.856518
2736.000000;1.934223
2735.000000;1.957451
2734.000000;1.968267
2733.000000;1.995946
2732.000000;2.034655
2731.000000;2.040585
2730.000000;2.075300
2729.000000;2.163471
2728.000000;2.497976
2727.000000;2.722537
2726.000000;2.856104
2725.000000;2.619146
2724.000000;2.063790
2723.000000;1.860902
2722.000000;1.827069
2721.000000;1.871730
2720.000000;1.963459
2719.000000;2.131083
2718.000000;2.584809
2717.000000;2.429921
2716.000000;2.337400
2715.000000;2.324061
2714.000000;2.273691
2713.000000;2.272963
2712.000000;1.944589
2711.000000;1.844687
2710.000000;1.909592
2709.000000;1.967817
2708.000000;1.909706
2707.000000;1.924177
2706.000000;2.034581
2705.000000;2.384509
2704.000000;2.560609
2703.000000;2.118394
2702.000000;1.990985
2701.000000;2.258285
2700.000000;2.251000
2699.000000;1.964686
2698.000000;1.912791
2697.000000;1.957345
2696.000000;2.063063
2695.000000;1.989845
2694.000000;1.876733
2693.000000;1.863293
2692.000000;1.890979
2691.000000;1.850989
2690.000000;1.749272
2689.000000;1.683913
2688.000000;1.686947
2687.000000;1.720676
2686.000000;1.742821
2685.000000;1.762314
2684.000000;1.825271
2683.000000;1.919687
2682.000000;1.849023
2681.000000;1.737261
2680.000000;1.787193
2679.000000;1.979046
2678.000000;2.152978
2677.000000;2.109623
2676.000000;2.038378
2675.000000;2.011056
2674.000000;1.870172
2673.000000;1.714957
2672.000000;1.671849
2671.000000;1.738671
2670.000000;1.915903
2669.000000;1.886694
2668.000000;1.757952
2667.000000;1.805051
2666.000000;1.996719
2665.000000;2.132192
2664.000000;2.293715
2663.000000;3.084061
2662.000000;2.377616
2661.000000;2.160852
2660.000000;2.203454
2659.000000;2.170762
2658.000000;2.014333
2657.000000;2.052341
2656.000000;2.097223
2655.000000;2.042027
2654.000000;2.030091
2653.000000;1.990938
2652.000000;1.876677
2651.000000;1.816221
2650.000000;1.882463
2649.000000;2.089049
2648.000000;2.102316
2647.000000;1.947062
2646.000000;1.919757
2645.000000;1.940727
2644.000000;1.906036
2643.000000;1.939585
2642.000000;2.073218
2641.000000;3.243278
2640.000000;2.264272
2639.000000;2.025794
2638.000000;2.123940
2637.000000;2.479775
2636.000000;3.084023
2635.000000;2.384227
2634.000000;2.269338
2633.000000;2.203964
2632.000000;2.120714
2631.000000;2.011684
2630.000000;1.915236
2629.000000;1.872247
2628.000000;1.853398
2627.000000;1.844141
2626.000000;1.841723
2625.000000;1.890745
2624.000000;1.951808
2623.000000;1.972057
2622.000000;1.991636
2621.000000;2.180497
2620.000000;2.428258
2619.000000;2.055216
2618.000000;1.804666
2617.000000;1.701974
2616.000000;1.691970
2615.000000;1.663538
2614.000000;1.582250
2613.000000;1.570946
2612.000000;1.589950
2611.000000;1.576879
2610.000000;1.590529
2609.000000;1.673558
2608.000000;1.823342
2607.000000;1.870824
2606.000000;1.784608
2605.000000;1.720259
2604.000000;1.709718
2603.000000;1.751781
2602.000000;1.745926
2601.000000;1.723221
2600.000000;1.799292
2599.000000;1.912348
2598.000000;1.840661
2597.000000;1.706957
2596.000000;1.683591
2595.000000;1.796140
2594.000000;1.986765
2593.000000;2.057303
2592.000000;2.135524
2591.000000;2.439435
2590.000000;2.395105
2589.000000;2.342535
2588.000000;2.558481
2587.000000;2.586164
2586.000000;2.448928
2585.000000;2.356123
2584.000000;2.306672
2583.000000;2.185090
2582.000000;2.052416
2581.000000;2.033033
2580.000000;2.124178
2579.000000;2.135588
2578.000000;2.022984
2577.000000;1.991244
2576.000000;2.087534
2575.000000;2.100188
2574.000000;1.986248
2573.000000;1.973190
2572.000000;1.915283
2571.000000;1.883844
2570.000000;2.016559
2569.000000;2.268691
2568.000000;2.132497
2567.000000;1.921397
2566.000000;1.875422
2565.000000;1.961243
2564.000000;2.163204
2563.000000;2.321526
2562.000000;2.353139
2561.000000;2.792423
2560.000000;2.476775
2559.000000;2.118429
2558.000000;2.040291
2557.000000;2.047432
2556.000000;2.043612
2555.000000;2.117865
2554.000000;2.302171
2553.000000;2.323809
2552.000000;2.110547
2551.000000;1.910011
2550.000000;1.839361
2549.000000;1.920083
2548.000000;2.125758
2547.000000;2.280249
2546.000000;2.320092
2545.000000;2.279480
2544.000000;2.759966
2543.000000;2.608383
2542.000000;1.971650
2541.000000;1.855667
2540.000000;1.867706
2539.000000;1.986888
2538.000000;2.251679
2537.000000;2.480599
2536.000000;2.278236
2535.000000;2.321358
2534.000000;2.540362
2533.000000;2.439037
2532.000000;2.131498
2531.000000;1.981251
2530.000000;2.006543
2529.000000;2.053192
2528.000000;2.032792
2527.000000;2.032575
2526.000000;2.040275
2525.000000;2.071286
2524.000000;2.149806
2523.000000;2.112603
2522.000000;1.940323
2521.000000;1.835261
2520.000000;1.819113
2519.000000;1.820342
2518.000000;1.791035
2517.000000;1.815566
2516.000000;1.937115
2515.000000;2.115343
2514.000000;2.194681
2513.000000;2.216081
2512.000000;2.326126
2511.000000;2.462072
2510.000000;2.531082
2509.000000;2.644190
2508.000000;2.367126
2507.000000;2.137683
2506.000000;2.017099
2505.000000;1.969619
2504.000000;1.987716
2503.000000;1.946539
2502.000000;1.825067
2501.000000;1.772984
2500.000000;1.822626
2499.000000;1.924957
2498.000000;1.971533
2497.000000;1.946008
2496.000000;1.928756
2495.000000;1.830229
2494.000000;1.677593
2493.000000;1.630196
2492.000000;1.714608
2491.000000;1.817200
2490.000000;1.767277
2489.000000;1.729314
2488.000000;1.774432
2487.000000;1.847074
2486.000000;1.942705
2485.000000;2.059613
2484.000000;1.995639
2483.000000;1.836727
2482.000000;1.752528
2481.000000;1.785673
2480.000000;1.915859
2479.000000;2.007064
2478.000000;1.993599
2477.000000;2.029008
2476.000000;2.219984
2475.000000;1.965134
2474.000000;1.780449
2473.000000;1.793665
2472.000000;1.943451
2471.000000;2.094172
2470.000000;2.102647
2469.000000;2.072888
2468.000000;2.020876
2467.000000;1.894947
2466.000000;1.807437
2465.000000;1.752879
2464.000000;1.728439
2463.000000;1.761635
2462.000000;1.810773
2461.000000;1.831048
2460.000000;1.880027
2459.000000;1.907936
2458.000000;1.900028
2457.000000;2.003068
2456.000000;2.254604
2455.000000;2.046999
2454.000000;1.921525
2453.000000;2.097017
2452.000000;2.700154
2451.000000;2.167648
2450.000000;2.085890
2449.000000;2.388368
2448.000000;2.327447
2447.000000;1.928021
2446.000000;1.774840
2445.000000;1.760391
2444.000000;1.826031
2443.000000;1.905656
2442.000000;1.866392
2441.000000;1.857200
2440.000000;1.920331
2439.000000;1.930389
2438.000000;1.953465
2437.000000;1.715726
2436.000000;1.555504
2435.000000;1.592155
2434.000000;1.728180
2433.000000;1.785505
2432.000000;1.718062
2431.000000;1.689537
2430.000000;1.765968
2429.000000;1.743453
2428.000000;1.664909
2427.000000;1.742481
2426.000000;2.181107
2425.000000;2.241119
2424.000000;2.097269
2423.000000;2.165743
2422.000000;2.172713
2421.000000;2.434000
2420.000000;2.363847
2419.000000;2.224454
2418.000000;2.351127
2417.000000;1.997231
2416.000000;1.972167
2415.000000;2.045125
2414.000000;2.197595
2413.000000;2.205900
2412.000000;1.739584
2411.000000;1.621562
2410.000000;1.625372
2409.000000;1.658301
2408.000000;1.655460
2407.000000;1.657370
2406.000000;1.713712
2405.000000;1.904317
2404.000000;2.082382
2403.000000;1.850759
2402.000000;1.739334
2401.000000;1.846355
2400.000000;2.334672
2399.000000;2.015545
2398.000000;1.796595
2397.000000;1.784895
2396.000000;1.816719
2395.000000;1.785343
2394.000000;1.758737
2393.000000;1.929133
2392.000000;2.664112
2391.000000;2.249101
2390.000000;2.246737
2389.000000;2.351881
2388.000000;2.234736
2387.000000;2.047926
2386.000000;1.883206
2385.000000;1.842242
2384.000000;1.815808
2383.000000;1.830530
2382.000000;1.973403
2381.000000;1.956130
2380.000000;1.801837
2379.000000;1.747960
2378.000000;1.777054
2377.000000;1.865765
2376.000000;1.879700
2375.000000;1.826739
2374.000000;1.859331
2373.000000;1.963249
2372.000000;1.918199
2371.000000;1.879636
2370.000000;2.588010
2369.000000;1.977757
2368.000000;1.727029
2367.000000;1.781936
2366.000000;1.983208
2365.000000;2.051009
2364.000000;2.246409
2363.000000;2.505975
2362.000000;1.926443
2361.000000;1.732411
2360.000000;1.681493
2359.000000;1.673019
2358.000000;1.610640
2357.000000;1.631655
2356.000000;1.801785
2355.000000;2.131954
2354.000000;2.259759
2353.000000;2.230530
2352.000000;2.231475
2351.000000;1.947170
2350.000000;1.769089
2349.000000;2.334337
2348.000000;1.781182
2347.000000;1.617426
2346.000000;1.711911
2345.000000;1.738576
2344.000000;1.730897
2343.000000;1.774126
2342.000000;1.878259
2341.000000;1.834616
2340.000000;1.681232
2339.000000;1.638459
2338.000000;1.657319
2337.000000;1.680480
2336.000000;1.722855
2335.000000;1.724852
2334.000000;1.690718
2333.000000;1.653686
2332.000000;1.707351
2331.000000;1.769483
2330.000000;1.740892
2329.000000;1.700427
2328.000000;1.696734
2327.000000;1.686443
2326.000000;1.651436
2325.000000;1.608414
2324.000000;1.590930
2323.000000;1.617905
2322.000000;1.653374
2321.000000;1.670207
2320.000000;1.701789
2319.000000;1.755176
2318.000000;1.783260
2317.000000;1.736328
2316.000000;1.672040
2315.000000;1.618842
2314.000000;1.615063
2313.000000;1.666513
2312.000000;1.752491
2311.000000;1.772938
2310.000000;1.726699
2309.000000;1.701313
2308.000000;1.731971
2307.000000;1.823457
2306.000000;2.056658
2305.000000;2.493932
2304.000000;2.222038
2303.000000;1.929474
2302.000000;1.852817
2301.000000;1.878272
2300.000000;1.955088
2299.000000;2.041565
2298.000000;2.085732
2297.000000;1.945454
2296.000000;1.788902
2295.000000;1.724243
2294.000000;1.723385
2293.000000;1.730320
2292.000000;1.747222
2291.000000;1.774651
2290.000000;1.795026
2289.000000;1.690234
2288.000000;1.541562
2287.000000;1.474872
2286.000000;1.440817
2285.000000;1.392653
2284.000000;1.396862
2283.000000;1.501351
2282.000000;1.667233
2281.000000;1.732011
2280.000000;1.857721
2279.000000;2.245697
2278.000000;2.183432
2277.000000;2.175929
2276.000000;2.061750
2275.000000;1.798816
2274.000000;1.780830
2273.000000;1.832329
2272.000000;1.940021
2271.000000;2.291954
2270.000000;2.610975
2269.000000;2.311512
2268.000000;2.159304
2267.000000;2.659193
2266.000000;1.943087
2265.000000;1.560302
2264.000000;1.417094
2263.000000;1.388860
2262.000000;1.430818
2261.000000;1.474118
2260.000000;1.507225
2259.000000;1.563382
2258.000000;1.624061
2257.000000;1.660079
2256.000000;1.705872
2255.000000;1.686183
2254.000000;1.581960
2253.000000;1.491859
2252.000000;1.442841
2251.000000;1.443561
2250.000000;1.502351
2249.000000;1.569323
2248.000000;1.594494
2247.000000;1.668021
2246.000000;1.770172
2245.000000;1.794766
2244.000000;1.783275
2243.000000;1.728577
2242.000000;1.638207
2241.000000;1.599377
2240.000000;1.635577
2239.000000;1.671652
2238.000000;1.687625
2237.000000;1.759696
2236.000000;1.889759
2235.000000;1.983612
2234.000000;2.160943
2233.000000;2.297517
2232.000000;1.900686
2231.000000;1.721824
2230.000000;1.663040
2229.000000;1.615627
2228.000000;1.561193
2227.000000;1.623437
2226.000000;1.835802
2225.000000;1.965287
2224.000000;1.950549
2223.000000;1.937092
2222.000000;1.837498
2221.000000;1.804027
2220.000000;1.887387
2219.000000;2.036111
2218.000000;2.075493
2217.000000;2.027491
2216.000000;1.891434
2215.000000;1.772079
2214.000000;1.766106
2213.000000;1.784670
2212.000000;1.722688
2211.000000;1.555695
2210.000000;1.379314
2209.000000;1.295834
2208.000000;1.322098
2207.000000;1.411286
2206.000000;1.496099
2205.000000;1.536150
2204.000000;1.487112
2203.000000;1.398684
2202.000000;1.372823
2201.000000;1.438922
2200.000000;1.574682
2199.000000;1.642351
2198.000000;1.590637
2197.000000;1.648483
2196.000000;1.862116
2195.000000;2.199964
2194.000000;2.103427
2193.000000;1.699882
2192.000000;1.599925
2191.000000;1.784003
2190.000000;1.846777
2189.000000;1.803595
2188.000000;2.018837
2187.000000;2.223848
2186.000000;2.008960
2185.000000;1.783239
2184.000000;1.715845
2183.000000;1.798248
2182.000000;1.969698
2181.000000;1.957611
2180.000000;1.908899
2179.000000;2.057546
2178.000000;2.051149
2177.000000;1.839028
2176.000000;1.776485
2175.000000;1.791840
2174.000000;1.889957
2173.000000;2.037988
2172.000000;2.027616
2171.000000;1.903389
2170.000000;1.860156
2169.000000;1.798057
2168.000000;1.637906
2167.000000;1.547854
2166.000000;1.571280
2165.000000;1.719685
2164.000000;1.786698
2163.000000;1.536802
2162.000000;1.376898
2161.000000;1.385003
2160.000000;1.514378
2159.000000;1.614296
2158.000000;1.643952
2157.000000;1.726496
2156.000000;1.803343
2155.000000;1.823157
2154.000000;1.897485
2153.000000;2.052716
2152.000000;2.063058
2151.000000;1.870525
2150.000000;1.667238
2149.000000;1.536891
2148.000000;1.508229
2147.000000;1.539205
2146.000000;1.586089
2145.000000;1.660886
2144.000000;1.716990
2143.000000;1.615813
2142.000000;1.484154
2141.000000;1.470452
2140.000000;1.591066
2139.000000;1.749455
2138.000000;1.780465
2137.000000;1.779651
2136.000000;1.814609
2135.000000;1.695154
2134.000000;1.529644
2133.000000;1.467358
2132.000000;1.497511
2131.000000;1.596651
2130.000000;1.759869
2129.000000;2.075060
2128.000000;2.439978
2127.000000;2.196384
2126.000000;3.070702
2125.000000;1.916024
2124.000000;1.618435
2123.000000;1.544537
2122.000000;1.466799
2121.000000;1.366570
2120.000000;1.376851
2119.000000;1.463959
2118.000000;1.483927
2117.000000;1.475049
2116.000000;1.469799
2115.000000;1.428546
2114.000000;1.403356
2113.000000;1.395286
2112.000000;1.410427
2111.000000;1.453336
2110.000000;1.439084
2109.000000;1.381887
2108.000000;1.372918
2107.000000;1.403938
2106.000000;1.471697
2105.000000;1.606315
2104.000000;1.674888
2103.000000;1.645778
2102.000000;1.695098
2101.000000;1.769160
2100.000000;1.721446
2099.000000;1.733131
2098.000000;2.059071
2097.000000;1.983567
2096.000000;1.732248
2095.000000;1.766460
2094.000000;2.014456
2093.000000;2.351083
2092.000000;2.068429
2091.000000;1.917801
2090.000000;1.683490
2089.000000;1.473668
2088.000000;1.441325
2087.000000;1.513963
2086.000000;1.465788
2085.000000;1.390858
2084.000000;1.448961
2083.000000;1.678438
2082.000000;1.863455
2081.000000;1.774390
2080.000000;2.033222
2079.000000;1.941049
2078.000000;1.712280
2077.000000;1.827263
2076.000000;2.186675
2075.000000;1.871502
2074.000000;1.728712
2073.000000;1.801565
2072.000000;1.844151
2071.000000;1.616148
2070.000000;1.501040
2069.000000;1.481661
2068.000000;1.418109
2067.000000;1.273150
2066.000000;1.175001
2065.000000;1.161225
2064.000000;1.216053
2063.000000;1.299534
2062.000000;1.386343
2061.000000;1.497067
2060.000000;1.694778
2059.000000;1.673674
2058.000000;1.475943
2057.000000;1.443028
2056.000000;1.485770
2055.000000;1.521161
2054.000000;1.532515
2053.000000;1.574504
2052.000000;1.685881
2051.000000;1.898220
2050.000000;2.109832
2049.000000;2.123342
2048.000000;1.887765
2047.000000;1.679202
2046.000000;1.606298
2045.000000;1.555110
2044.000000;1.420138
2043.000000;1.346828
2042.000000;1.365629
2041.000000;1.366906
2040.000000;1.319450
2039.000000;1.312407
2038.000000;1.381774
2037.000000;1.538242
2036.000000;1.728360
2035.000000;1.842081
2034.000000;1.749738
2033.000000;1.639183
2032.000000;1.712747
2031.000000;2.213907
2030.000000;2.038839
2029.000000;1.711004
2028.000000;1.752944
2027.000000;1.907718
2026.000000;2.295520
2025.000000;2.106381
2024.000000;1.868047
2023.000000;1.760293
2022.000000;1.702886
2021.000000;1.726793
2020.000000;1.898403
2019.000000;2.007402
2018.000000;1.731568
2017.000000;1.576145
2016.000000;1.507491
2015.000000;1.496205
2014.000000;1.577804
2013.000000;1.718405
2012.000000;1.682072
2011.000000;1.603958
2010.000000;1.583739
2009.000000;1.613335
2008.000000;1.706589
2007.000000;1.867989
2006.000000;1.955177
2005.000000;2.265384
2004.000000;2.293566
2003.000000;1.755278
2002.000000;1.626673
2001.000000;1.909937
2000.000000;1.912564
1999.000000;1.673597
1998.000000;1.750549
1997.000000;1.753911
1996.000000;1.656758
1995.000000;1.669822
1994.000000;1.680365
1993.000000;1.588132
1992.000000;1.475018
1991.000000;1.452778
1990.000000;1.590605
1989.000000;2.153348
1988.000000;1.768688
1987.000000;1.464689
1986.000000;1.395929
1985.000000;1.428221
1984.000000;1.491109
1983.000000;1.517450
1982.000000;1.534567
1981.000000;1.693874
1980.000000;2.188395
1979.000000;1.997170
1978.000000;1.788410
1977.000000;1.911181
1976.000000;1.745308
1975.000000;1.555908
1974.000000;1.496585
1973.000000;1.546232
1972.000000;1.673584
1971.000000;1.861444
1970.000000;2.106553
1969.000000;2.244937
1968.000000;1.724469
1967.000000;1.470545
1966.000000;1.458941
1965.000000;1.678263
1964.000000;2.008439
1963.000000;1.767484
1962.000000;1.550819
1961.000000;1.448595
1960.000000;1.539439
1959.000000;1.806627
1958.000000;1.674549
1957.000000;1.549368
1956.000000;1.575045
1955.000000;1.665279
1954.000000;1.781259
1953.000000;1.982637
1952.000000;2.284729
1951.000000;1.913849
1950.000000;1.723440
1949.000000;1.736960
1948.000000;1.713097
1947.000000;1.587295
1946.000000;1.441904
1945.000000;1.324837
1944.000000;1.262083
1943.000000;1.268382
1942.000000;1.305113
1941.000000;1.342965
1940.000000;1.412013
1939.000000;1.541427
1938.000000;1.608076
1937.000000;1.624497
1936.000000;1.839139
1935.000000;2.551924
1934.000000;2.300177
1933.000000;1.979049
1932.000000;1.708688
1931.000000;1.542114
1930.000000;1.560905
1929.000000;1.645304
1928.000000;1.499706
1927.000000;1.428254
1926.000000;1.464992
1925.000000;1.473681
1924.000000;1.467956
1923.000000;1.493790
1922.000000;1.511341
1921.000000;1.493206
1920.000000;1.482010
1919.000000;1.504599
1918.000000;1.553516
1917.000000;1.627942
1916.000000;1.777319
1915.000000;1.872652
1914.000000;1.987927
1913.000000;1.822051
1912.000000;1.620920
1911.000000;1.559301
1910.000000;1.546820
1909.000000;1.554422
1908.000000;1.557864
1907.000000;1.459656
1906.000000;1.350049
1905.000000;1.297395
1904.000000;1.244935
1903.000000;1.190390
1902.000000;1.200915
1901.000000;1.325432
1900.000000;1.500993
1899.000000;1.519572
1898.000000;1.522930
1897.000000;1.581491
1896.000000;1.482322
1895.000000;1.362734
1894.000000;1.383867
1893.000000;1.535401
1892.000000;1.689439
1891.000000;1.570243
1890.000000;1.404497
1889.000000;1.401717
1888.000000;1.506767
1887.000000;1.457737
1886.000000;1.482340
1885.000000;2.188994
1884.000000;1.741438
1883.000000;1.551504
1882.000000;1.455386
1881.000000;1.311072
1880.000000;1.248904
1879.000000;1.252376
1878.000000;1.303561
1877.000000;1.438630
1876.000000;1.714900
1875.000000;1.730640
1874.000000;1.545019
1873.000000;1.680044
1872.000000;1.933708
1871.000000;1.838898
1870.000000;1.721308
1869.000000;1.701098
1868.000000;1.670490
1867.000000;1.685020
1866.000000;1.787000
1865.000000;2.327447
1864.000000;2.357737
1863.000000;1.976566
1862.000000;1.973431
1861.000000;2.127893
1860.000000;2.249046
1859.000000;1.966015
1858.000000;1.769648
1857.000000;1.576366
1856.000000;1.400659
1855.000000;1.348888
1854.000000;1.362682
1853.000000;1.297936
1852.000000;1.228919
1851.000000;1.268300
1850.000000;1.372380
1849.000000;1.388683
1848.000000;1.384876
1847.000000;1.443964
1846.000000;1.493732
1845.000000;1.465444
1844.000000;1.444933
1843.000000;1.568088
1842.000000;1.845791
1841.000000;2.519894
1840.000000;2.216247
1839.000000;1.799927
1838.000000;1.693905
1837.000000;1.469631
1836.000000;1.337455
1835.000000;1.372842
1834.000000;1.556504
1833.000000;1.567261
1832.000000;1.486096
1831.000000;1.463679
1830.000000;1.281494
1829.000000;1.208810
1828.000000;1.297002
1827.000000;1.285826
1826.000000;1.233675
1825.000000;1.297341
1824.000000;1.412866
1823.000000;1.490320
1822.000000;1.595946
1821.000000;1.875698
1820.000000;2.383244
1819.000000;2.051485
1818.000000;1.595253
1817.000000;1.295459
1816.000000;1.123792
1815.000000;1.066622
1814.000000;1.096815
1813.000000;1.126917
1812.000000;1.108880
1811.000000;1.122368
1810.000000;1.200002
1809.000000;1.276756
1808.000000;1.329839
1807.000000;1.431200
1806.000000;1.752168
1805.000000;1.769070
1804.000000;1.483416
1803.000000;1.491598
1802.000000;1.673497
1801.000000;1.777707
1800.000000;1.779009
1799.000000;1.864690
1798.000000;1.839782
1797.000000;1.731142
1796.000000;1.695624
1795.000000;1.788694
1794.000000;1.971151
1793.000000;1.917095
1792.000000;1.934854
1791.000000;2.083330
1790.000000;1.979089
1789.000000;2.034445
1788.000000;2.450572
1787.000000;2.655953
1786.000000;2.363224
1785.000000;1.848151
1784.000000;1.618916
1783.000000;1.551406
1782.000000;1.530526
1781.000000;1.567852
1780.000000;1.648340
1779.000000;1.621912
1778.000000;1.589239
1777.000000;1.710900
1776.000000;1.766769
1775.000000;1.693838
1774.000000;1.653332
1773.000000;1.450519
1772.000000;1.297659
1771.000000;1.308966
1770.000000;1.485026
1769.000000;1.891419
1768.000000;2.411461
1767.000000;1.745078
1766.000000;1.437734
1765.000000;1.397292
1764.000000;1.446120
1763.000000;1.280808
1762.000000;1.162737
1761.000000;1.173102
1760.000000;1.211939
1759.000000;1.211021
1758.000000;1.216032
1757.000000;1.255168
1756.000000;1.286750
1755.000000;1.279417
1754.000000;1.270189
1753.000000;1.349696
1752.000000;1.572577
1751.000000;2.173958
1750.000000;2.181126
1749.000000;1.950948
1748.000000;1.868882
1747.000000;1.537691
1746.000000;1.421550
1745.000000;1.429578
1744.000000;1.353979
1743.000000;1.281354
1742.000000;1.288769
1741.000000;1.237783
1740.000000;1.147356
1739.000000;1.170113
1738.000000;1.272580
1737.000000;1.387769
1736.000000;1.441760
1735.000000;1.364454
1734.000000;1.291093
1733.000000;1.313922
1732.000000;1.379559
1731.000000;1.454398
1730.000000;1.539657
1729.000000;1.865978
1728.000000;1.859629
1727.000000;1.494392
1726.000000;1.386709
1725.000000;1.413711
1724.000000;1.496314
1723.000000;1.566977
1722.000000;1.563895
1721.000000;1.449897
1720.000000;1.352007
1719.000000;1.349741
1718.000000;1.400266
1717.000000;1.414576
1716.000000;1.392040
1715.000000;1.348337
1714.000000;1.258617
1713.000000;1.152769
1712.000000;1.087020
1711.000000;1.090600
1710.000000;1.177430
1709.000000;1.289205
1708.000000;1.282533
1707.000000;1.261299
1706.000000;1.302988
1705.000000;1.266570
1704.000000;1.196628
1703.000000;1.182021
1702.000000;1.235362
1701.000000;1.299261
1700.000000;1.287345
1699.000000;1.354281
1698.000000;1.712910
1697.000000;1.629914
1696.000000;1.388869
1695.000000;1.316448
1694.000000;1.286198
1693.000000;1.324494
1692.000000;1.509370
1691.000000;1.660022
1690.000000;1.465065
1689.000000;1.500323
1688.000000;1.636829
1687.000000;1.571061
1686.000000;1.526135
1685.000000;1.524210
1684.000000;1.567338
1683.000000;1.473312
1682.000000;1.346772
1681.000000;1.316776
1680.000000;1.294113
1679.000000;1.278484
1678.000000;1.266505
1677.000000;1.297373
1676.000000;1.408180
1675.000000;1.732835
1674.000000;1.780829
1673.000000;1.505757
1672.000000;1.412423
1671.000000;1.316130
1670.000000;1.119385
1669.000000;0.991009
1668.000000;0.973120
1667.000000;1.021888
1666.000000;1.068620
1665.000000;1.086133
1664.000000;1.131157
1663.000000;1.269200
1662.000000;1.465693
1661.000000;1.473387
1660.000000;1.373852
1659.000000;1.328060
1658.000000;1.380068
1657.000000;1.694664
1656.000000;1.827733
1655.000000;1.416531
1654.000000;1.239996
1653.000000;1.246138
1652.000000;1.276799
1651.000000;1.188832
1650.000000;1.198188
1649.000000;1.319557
1648.000000;1.511705
1647.000000;1.574830
1646.000000;1.656293
1645.000000;1.428827
1644.000000;1.270436
1643.000000;1.272192
1642.000000;1.392851
1641.000000;1.639443
1640.000000;2.207167
1639.000000;2.091841
1638.000000;1.740690
1637.000000;1.641085
1636.000000;1.826186
1635.000000;2.205016
1634.000000;1.587559
1633.000000;1.561767
1632.000000;1.430401
1631.000000;1.292129
1630.000000;1.332507
1629.000000;1.725734
1628.000000;1.719630
1627.000000;1.309366
1626.000000;1.158986
1625.000000;1.085307
1624.000000;1.142957
1623.000000;1.281724
1622.000000;1.386788
1621.000000;1.519250
1620.000000;1.716444
1619.000000;1.284373
1618.000000;1.029199
1617.000000;0.996615
1616.000000;1.153397
1615.000000;1.424059
1614.000000;1.648043
1613.000000;1.691336
1612.000000;1.450257
1611.000000;1.380611
1610.000000;1.523548
1609.000000;1.682039
1608.000000;1.420223
1607.000000;1.240984
1606.000000;1.176202
1605.000000;1.195457
1604.000000;1.304175
1603.000000;1.513317
1602.000000;1.702633
1601.000000;1.639312
1600.000000;1.487876
1599.000000;1.437728
1598.000000;1.445036
1597.000000;1.421633
1596.000000;1.456932
1595.000000;1.535621
1594.000000;1.462610
1593.000000;1.335824
1592.000000;1.331929
1591.000000;1.479214
1590.000000;1.410762
1589.000000;1.247899
1588.000000;1.174502
1587.000000;1.180387
1586.000000;1.271233
1585.000000;1.446942
1584.000000;1.415239
1583.000000;1.200121
1582.000000;1.132682
1581.000000;1.169179
1580.000000;1.185236
1579.000000;1.110970
1578.000000;1.041701
1577.000000;1.028196
1576.000000;0.997120
1575.000000;0.979045
1574.000000;1.113260
1573.000000;1.428093
1572.000000;2.057497
1571.000000;1.695540
1570.000000;1.359837
1569.000000;1.247310
1568.000000;1.144108
1567.000000;1.061194
1566.000000;1.025004
1565.000000;1.047705
1564.000000;1.058998
1563.000000;1.056535
1562.000000;1.142356
1561.000000;1.324534
1560.000000;1.385135
1559.000000;1.263121
1558.000000;1.153978
1557.000000;1.138315
1556.000000;1.233825
1555.000000;1.259505
1554.000000;1.120501
1553.000000;1.055261
1552.000000;1.127450
1551.000000;1.287918
1550.000000;1.460991
1549.000000;1.486197
1548.000000;1.282945
1547.000000;1.170795
1546.000000;1.166064
1545.000000;1.225928
1544.000000;1.368111
1543.000000;1.549131
1542.000000;1.648872
1541.000000;1.336972
1540.000000;1.039824
1539.000000;0.956705
1538.000000;0.947607
1537.000000;0.930616
1536.000000;0.904890
1535.000000;0.895261
1534.000000;0.940387
1533.000000;1.065490
1532.000000;1.188646
1531.000000;1.186468
1530.000000;1.141037
1529.000000;1.124121
1528.000000;1.125151
1527.000000;1.110761
1526.000000;1.066336
1525.000000;1.014702
1524.000000;1.011319
1523.000000;1.103197
1522.000000;1.215816
1521.000000;1.178149
1520.000000;1.131631
1519.000000;1.184763
1518.000000;1.370016
1517.000000;1.442328
1516.000000;1.370795
1515.000000;1.395655
1514.000000;1.429274
1513.000000;1.315937
1512.000000;1.244032
1511.000000;1.327980
1510.000000;1.495480
1509.000000;1.512049
1508.000000;1.379164
1507.000000;1.252441
1506.000000;1.233209
1505.000000;1.306371
1504.000000;1.357105
1503.000000;1.320587
1502.000000;1.209527
1501.000000;1.099525
1500.000000;1.029093
1499.000000;0.998225
1498.000000;0.986567
1497.000000;0.986754
1496.000000;1.032900
1495.000000;1.142255
1494.000000;1.293258
1493.000000;1.452591
1492.000000;1.492305
1491.000000;1.406506
1490.000000;1.351614
1489.000000;1.327762
1488.000000;1.304333
1487.000000;1.320264
1486.000000;1.479233
1485.000000;1.695917
1484.000000;1.339803
1483.000000;1.139066
1482.000000;1.070143
1481.000000;1.052232
1480.000000;1.083233
1479.000000;1.182347
1478.000000;1.379178
1477.000000;1.636701
1476.000000;1.579267
1475.000000;1.388990
1474.000000;1.308044
1473.000000;1.405174
1472.000000;1.644599
1471.000000;1.537025
1470.000000;1.453742
1469.000000;1.495678
1468.000000;1.600107
1467.000000;1.893629
1466.000000;1.543303
1465.000000;1.219315
1464.000000;1.156213
1463.000000;1.267356
1462.000000;1.769096
1461.000000;1.360851
1460.000000;1.089246
1459.000000;1.046883
1458.000000;1.081406
1457.000000;1.198337
1456.000000;1.385737
1455.000000;1.684216
1454.000000;2.101619
1453.000000;2.148229
1452.000000;1.878630
1451.000000;1.418027
1450.000000;1.322533
1449.000000;1.326345
1448.000000;1.298545
1447.000000;1.367875
1446.000000;1.587921
1445.000000;1.562415
1444.000000;1.333553
1443.000000;1.251395
1442.000000;1.204822
1441.000000;1.099693
1440.000000;0.991262
1439.000000;0.985834
1438.000000;1.096033
1437.000000;1.244711
1436.000000;1.334216
1435.000000;1.435859
1434.000000;1.619296
1433.000000;1.701725
1432.000000;1.722651
1431.000000;1.768668
1430.000000;1.802534
1429.000000;1.717631
1428.000000;1.895877
1427.000000;2.059021
1426.000000;1.938568
1425.000000;1.596954
1424.000000;1.293866
1423.000000;1.230085
1422.000000;1.442652
1421.000000;2.058642
1420.000000;1.522701
1419.000000;1.317832
1418.000000;1.209807
1417.000000;1.152321
1416.000000;1.126138
1415.000000;1.151666
1414.000000;1.218831
1413.000000;1.262023
1412.000000;1.235101
1411.000000;1.175164
1410.000000;1.119345
1409.000000;1.069231
1408.000000;1.035651
1407.000000;1.047550
1406.000000;1.104926
1405.000000;1.144444
1404.000000;1.123672
1403.000000;1.123179
1402.000000;1.232759
1401.000000;1.484291
1400.000000;1.818606
1399.000000;1.955893
1398.000000;1.629052
1397.000000;1.341328
1396.000000;1.217205
1395.000000;1.222532
1394.000000;1.267311
1393.000000;1.266738
1392.000000;1.313547
1391.000000;1.232599
1390.000000;1.060833
1389.000000;1.078665
1388.000000;1.286388
1387.000000;1.680868
1386.000000;1.714941
1385.000000;1.618697
1384.000000;1.617473
1383.000000;1.413958
1382.000000;1.358937
1381.000000;1.421609
1380.000000;1.429855
1379.000000;1.490419
1378.000000;1.553177
1377.000000;1.563612
1376.000000;1.486310
1375.000000;1.302603
1374.000000;1.192380
1373.000000;1.118326
1372.000000;1.078197
1371.000000;1.123237
1370.000000;1.206079
1369.000000;1.184440
1368.000000;1.157450
1367.000000;1.161548
1366.000000;1.110976
1365.000000;1.031900
1364.000000;1.036279
1363.000000;1.145143
1362.000000;1.305639
1361.000000;1.298709
1360.000000;1.157731
1359.000000;1.114607
1358.000000;1.250128
1357.000000;1.516283
1356.000000;1.332216
1355.000000;1.153433
1354.000000;1.189932
1353.000000;1.259438
1352.000000;1.185329
1351.000000;1.183998
1350.000000;1.955315
1349.000000;1.424898
1348.000000;1.199491
1347.000000;1.264884
1346.000000;1.225206
1345.000000;1.086081
1344.000000;1.056534
1343.000000;1.013335
1342.000000;0.943390
1341.000000;0.979258
1340.000000;1.079844
1339.000000;1.165507
1338.000000;1.216851
1337.000000;1.345105
1336.000000;1.558351
1335.000000;1.360413
1334.000000;1.311465
1333.000000;1.501071
1332.000000;1.329857
1331.000000;1.245446
1330.000000;1.187098
1329.000000;1.009287
1328.000000;0.939839
1327.000000;0.995670
1326.000000;1.076764
1325.000000;1.034349
1324.000000;0.998099
1323.000000;1.072229
1322.000000;1.260970
1321.000000;1.339919
1320.000000;1.205772
1319.000000;1.087471
1318.000000;1.038392
1317.000000;1.013822
1316.000000;0.970990
1315.000000;1.017255
1314.000000;1.193524
1313.000000;1.235476
1312.000000;1.145830
1311.000000;1.179073
1310.000000;1.397569
1309.000000;1.825866
1308.000000;1.720113
1307.000000;1.686115
1306.000000;1.923202
1305.000000;2.035646
1304.000000;1.705594
1303.000000;1.520402
1302.000000;1.496840
1301.000000;1.514486
1300.000000;1.940856
1299.000000;1.758687
1298.000000;1.171173
1297.000000;0.890546
1296.000000;0.768478
1295.000000;0.781932
1294.000000;0.897865
1293.000000;1.062419
1292.000000;1.286164
1291.000000;2.364091
1290.000000;1.183927
1289.000000;0.909523
1288.000000;0.839906
1287.000000;0.902783
1286.000000;0.964590
1285.000000;0.970713
1284.000000;0.975417
1283.000000;0.993773
1282.000000;1.057656
1281.000000;1.160372
1280.000000;1.266693
1279.000000;1.352936
1278.000000;1.675296
1277.000000;1.980557
1276.000000;1.588721
1275.000000;1.724792
1274.000000;1.548710
1273.000000;1.326131
1272.000000;1.389422
1271.000000;1.470780
1270.000000;2.000839
1269.000000;1.603012
1268.000000;1.193218
1267.000000;1.080819
1266.000000;1.130713
1265.000000;1.195953
1264.000000;1.051445
1263.000000;0.967838
1262.000000;0.981049
1261.000000;1.174352
1260.000000;1.808247
1259.000000;1.261771
1258.000000;1.082100
1257.000000;1.000427
1256.000000;0.886776
1255.000000;0.814073
1254.000000;0.834338
1253.000000;0.973452
1252.000000;1.102836
1251.000000;0.918916
1250.000000;0.740958
1249.000000;0.690870
1248.000000;0.745429
1247.000000;0.881628
1246.000000;1.013244
1245.000000;1.081057
1244.000000;1.028280
1243.000000;0.918816
1242.000000;0.902567
1241.000000;1.015434
1240.000000;1.223605
1239.000000;1.264108
1238.000000;1.270853
1237.000000;1.317227
1236.000000;1.230404
1235.000000;1.257105
1234.000000;1.337475
1233.000000;1.237807
1232.000000;1.230918
1231.000000;1.344657
1230.000000;1.104595
1229.000000;0.889984
1228.000000;0.878152
1227.000000;1.037604
1226.000000;1.225819
1225.000000;1.215408
1224.000000;1.206266
1223.000000;1.181836
1222.000000;1.048069
1221.000000;0.935678
1220.000000;0.905404
1219.000000;0.929408
1218.000000;1.015016
1217.000000;1.146582
1216.000000;1.215408
1215.000000;1.212043
1214.000000;1.236270
1213.000000;1.135864
1212.000000;0.980632
1211.000000;0.926681
1210.000000;0.945191
1209.000000;0.890383
1208.000000;0.764023
1207.000000;0.711383
1206.000000;0.748018
1205.000000;0.776038
1204.000000;0.736476
1203.000000;0.755786
1202.000000;0.925859
1201.000000;1.235864
1200.000000;1.325758
