Criado como novo conjunto de dados;"2706_e01_daniel.spp","16562.8 Secs"
cm-1;Abs
10000.000000;0.693588
9999.000000;0.692721
9998.000000;0.691851
9997.000000;0.690989
9996.000000;0.690138
9995.000000;0.689528
9994.000000;0.689255
9993.000000;0.689172
9992.000000;0.689269
9991.000000;0.689630
9990.000000;0.690160
9989.000000;0.690487
9988.000000;0.690342
9987.000000;0.689893
9986.000000;0.689556
9985.000000;0.689509
9984.000000;0.689564
9983.000000;0.689531
9982.000000;0.689502
9981.000000;0.689642
9980.000000;0.689834
9979.000000;0.689749
9978.000000;0.689282
9977.000000;0.688747
9976.000000;0.688526
9975.000000;0.688643
9974.000000;0.688815
9973.000000;0.688859
9972.000000;0.688859
9971.000000;0.688912
9970.000000;0.688914
9969.000000;0.688729
9968.000000;0.688452
9967.000000;0.688328
9966.000000;0.688427
9965.000000;0.688546
9964.000000;0.688447
9963.000000;0.688105
9962.000000;0.687719
9961.000000;0.687526
9960.000000;0.687631
9959.000000;0.687914
9958.000000;0.688122
9957.000000;0.688086
9956.000000;0.687843
9955.000000;0.687509
9954.000000;0.687077
9953.000000;0.686485
9952.000000;0.685838
9951.000000;0.685411
9950.000000;0.685393
9949.000000;0.685718
9948.000000;0.686192
9947.000000;0.686636
9946.000000;0.686880
9945.000000;0.686796
9944.000000;0.686462
9943.000000;0.686189
9942.000000;0.686257
9941.000000;0.686668
9940.000000;0.687214
9939.000000;0.687686
9938.000000;0.687928
9937.000000;0.687820
9936.000000;0.687391
9935.000000;0.686903
9934.000000;0.686620
9933.000000;0.686498
9932.000000;0.686245
9931.000000;0.685710
9930.000000;0.685052
9929.000000;0.684492
9928.000000;0.684075
9927.000000;0.683757
9926.000000;0.683600
9925.000000;0.683728
9924.000000;0.684150
9923.000000;0.684716
9922.000000;0.685233
9921.000000;0.685554
9920.000000;0.685581
9919.000000;0.685296
9918.000000;0.684809
9917.000000;0.684311
9916.000000;0.683937
9915.000000;0.683686
9914.000000;0.683501
9913.000000;0.683377
9912.000000;0.683385
9911.000000;0.683576
9910.000000;0.683869
9909.000000;0.684048
9908.000000;0.683934
9907.000000;0.683586
9906.000000;0.683300
9905.000000;0.683313
9904.000000;0.683538
9903.000000;0.683629
9902.000000;0.683350
9901.000000;0.682814
9900.000000;0.682319
9899.000000;0.682056
9898.000000;0.682025
9897.000000;0.682179
9896.000000;0.682455
9895.000000;0.682657
9894.000000;0.682491
9893.000000;0.681844
9892.000000;0.680981
9891.000000;0.680337
9890.000000;0.680145
9889.000000;0.680314
9888.000000;0.680615
9887.000000;0.680866
9886.000000;0.680955
9885.000000;0.680853
9884.000000;0.680664
9883.000000;0.680569
9882.000000;0.680635
9881.000000;0.680759
9880.000000;0.680833
9879.000000;0.680874
9878.000000;0.680915
9877.000000;0.680843
9876.000000;0.680505
9875.000000;0.679946
9874.000000;0.679441
9873.000000;0.679242
9872.000000;0.679346
9871.000000;0.679567
9870.000000;0.679773
9869.000000;0.679987
9868.000000;0.680274
9867.000000;0.680574
9866.000000;0.680713
9865.000000;0.680571
9864.000000;0.680180
9863.000000;0.679654
9862.000000;0.679107
9861.000000;0.678704
9860.000000;0.678683
9859.000000;0.679156
9858.000000;0.679887
9857.000000;0.680405
9856.000000;0.680423
9855.000000;0.680069
9854.000000;0.679661
9853.000000;0.679357
9852.000000;0.679125
9851.000000;0.678916
9850.000000;0.678723
9849.000000;0.678524
9848.000000;0.678329
9847.000000;0.678290
9846.000000;0.678591
9845.000000;0.679204
9844.000000;0.679836
9843.000000;0.680176
9842.000000;0.680105
9841.000000;0.679667
9840.000000;0.678961
9839.000000;0.678151
9838.000000;0.677468
9837.000000;0.677045
9836.000000;0.676775
9835.000000;0.676450
9834.000000;0.676050
9833.000000;0.675788
9832.000000;0.675844
9831.000000;0.676149
9830.000000;0.676490
9829.000000;0.676756
9828.000000;0.676975
9827.000000;0.677164
9826.000000;0.677268
9825.000000;0.677273
9824.000000;0.677257
9823.000000;0.677249
9822.000000;0.677119
9821.000000;0.676718
9820.000000;0.676112
9819.000000;0.675571
9818.000000;0.675337
9817.000000;0.675446
9816.000000;0.675752
9815.000000;0.676044
9814.000000;0.676135
9813.000000;0.675969
9812.000000;0.675715
9811.000000;0.675670
9810.000000;0.675954
9809.000000;0.676370
9808.000000;0.676618
9807.000000;0.676636
9806.000000;0.676615
9805.000000;0.676701
9804.000000;0.676786
9803.000000;0.676640
9802.000000;0.676182
9801.000000;0.675588
9800.000000;0.675122
9799.000000;0.674903
9798.000000;0.674833
9797.000000;0.674742
9796.000000;0.674550
9795.000000;0.674284
9794.000000;0.673985
9793.000000;0.673685
9792.000000;0.673470
9791.000000;0.673444
9790.000000;0.673586
9789.000000;0.673725
9788.000000;0.673742
9787.000000;0.673722
9786.000000;0.673811
9785.000000;0.673974
9784.000000;0.674024
9783.000000;0.673902
9782.000000;0.673766
9781.000000;0.673764
9780.000000;0.673825
9779.000000;0.673797
9778.000000;0.673678
9777.000000;0.673593
9776.000000;0.673560
9775.000000;0.673455
9774.000000;0.673230
9773.000000;0.673045
9772.000000;0.673055
9771.000000;0.673171
9770.000000;0.673171
9769.000000;0.673044
9768.000000;0.673024
9767.000000;0.673231
9766.000000;0.673443
9765.000000;0.673395
9764.000000;0.673163
9763.000000;0.673053
9762.000000;0.673130
9761.000000;0.673108
9760.000000;0.672774
9759.000000;0.672295
9758.000000;0.671984
9757.000000;0.671908
9756.000000;0.671919
9755.000000;0.671937
9754.000000;0.672002
9753.000000;0.672089
9752.000000;0.672085
9751.000000;0.671991
9750.000000;0.671950
9749.000000;0.672022
9748.000000;0.672044
9747.000000;0.671820
9746.000000;0.671358
9745.000000;0.670838
9744.000000;0.670429
9743.000000;0.670214
9742.000000;0.670225
9741.000000;0.670456
9740.000000;0.670823
9739.000000;0.671166
9738.000000;0.671293
9737.000000;0.671047
9736.000000;0.670413
9735.000000;0.669611
9734.000000;0.669013
9733.000000;0.668866
9732.000000;0.669102
9731.000000;0.669462
9730.000000;0.669782
9729.000000;0.670087
9728.000000;0.670434
9727.000000;0.670749
9726.000000;0.670866
9725.000000;0.670720
9724.000000;0.670420
9723.000000;0.670136
9722.000000;0.669932
9721.000000;0.669740
9720.000000;0.669497
9719.000000;0.669271
9718.000000;0.669227
9717.000000;0.669461
9716.000000;0.669900
9715.000000;0.670332
9714.000000;0.670510
9713.000000;0.670277
9712.000000;0.669702
9711.000000;0.669098
9710.000000;0.668831
9709.000000;0.669019
9708.000000;0.669425
9707.000000;0.669665
9706.000000;0.669510
9705.000000;0.668994
9704.000000;0.668328
9703.000000;0.667779
9702.000000;0.667543
9701.000000;0.667631
9700.000000;0.667863
9699.000000;0.668047
9698.000000;0.668157
9697.000000;0.668277
9696.000000;0.668407
9695.000000;0.668434
9694.000000;0.668290
9693.000000;0.668056
9692.000000;0.667866
9691.000000;0.667784
9690.000000;0.667813
9689.000000;0.667942
9688.000000;0.668120
9687.000000;0.668242
9686.000000;0.668211
9685.000000;0.668003
9684.000000;0.667634
9683.000000;0.667165
9682.000000;0.666749
9681.000000;0.666596
9680.000000;0.666767
9679.000000;0.667048
9678.000000;0.667121
9677.000000;0.666859
9676.000000;0.666391
9675.000000;0.665924
9674.000000;0.665612
9673.000000;0.665560
9672.000000;0.665801
9671.000000;0.666201
9670.000000;0.666514
9669.000000;0.666595
9668.000000;0.666513
9667.000000;0.666396
9666.000000;0.666268
9665.000000;0.666092
9664.000000;0.665903
9663.000000;0.665775
9662.000000;0.665703
9661.000000;0.665604
9660.000000;0.665432
9659.000000;0.665210
9658.000000;0.664988
9657.000000;0.664815
9656.000000;0.664767
9655.000000;0.664887
9654.000000;0.665101
9653.000000;0.665255
9652.000000;0.665255
9651.000000;0.665125
9650.000000;0.664900
9649.000000;0.664564
9648.000000;0.664152
9647.000000;0.663826
9646.000000;0.663761
9645.000000;0.663959
9644.000000;0.664257
9643.000000;0.664518
9642.000000;0.664721
9641.000000;0.664839
9640.000000;0.664741
9639.000000;0.664331
9638.000000;0.663777
9637.000000;0.663439
9636.000000;0.663507
9635.000000;0.663769
9634.000000;0.663840
9633.000000;0.663598
9632.000000;0.663286
9631.000000;0.663192
9630.000000;0.663348
9629.000000;0.663587
9628.000000;0.663778
9627.000000;0.663883
9626.000000;0.663854
9625.000000;0.663622
9624.000000;0.663251
9623.000000;0.662985
9622.000000;0.663054
9621.000000;0.663450
9620.000000;0.663914
9619.000000;0.664152
9618.000000;0.664045
9617.000000;0.663695
9616.000000;0.663319
9615.000000;0.663087
9614.000000;0.663026
9613.000000;0.663030
9612.000000;0.662978
9611.000000;0.662836
9610.000000;0.662641
9609.000000;0.662394
9608.000000;0.662041
9607.000000;0.661617
9606.000000;0.661352
9605.000000;0.661485
9604.000000;0.661914
9603.000000;0.662185
9602.000000;0.661957
9601.000000;0.661419
9600.000000;0.661091
9599.000000;0.661208
9598.000000;0.661498
9597.000000;0.661588
9596.000000;0.661457
9595.000000;0.661358
9594.000000;0.661429
9593.000000;0.661570
9592.000000;0.661644
9591.000000;0.661647
9590.000000;0.661629
9589.000000;0.661578
9588.000000;0.661420
9587.000000;0.661095
9586.000000;0.660647
9585.000000;0.660239
9584.000000;0.660053
9583.000000;0.660092
9582.000000;0.660143
9581.000000;0.660026
9580.000000;0.659849
9579.000000;0.659874
9578.000000;0.660142
9577.000000;0.660382
9576.000000;0.660371
9575.000000;0.660256
9574.000000;0.660375
9573.000000;0.660805
9572.000000;0.661196
9571.000000;0.661093
9570.000000;0.660391
9569.000000;0.659455
9568.000000;0.658812
9567.000000;0.658714
9566.000000;0.658992
9565.000000;0.659293
9564.000000;0.659416
9563.000000;0.659421
9562.000000;0.659477
9561.000000;0.659680
9560.000000;0.659994
9559.000000;0.660266
9558.000000;0.660307
9557.000000;0.660040
9556.000000;0.659592
9555.000000;0.659174
9554.000000;0.658876
9553.000000;0.658633
9552.000000;0.658412
9551.000000;0.658312
9550.000000;0.658429
9549.000000;0.658699
9548.000000;0.658946
9547.000000;0.659049
9546.000000;0.658981
9545.000000;0.658769
9544.000000;0.658493
9543.000000;0.658302
9542.000000;0.658319
9541.000000;0.658484
9540.000000;0.658557
9539.000000;0.658335
9538.000000;0.657862
9537.000000;0.657423
9536.000000;0.657315
9535.000000;0.657618
9534.000000;0.658122
9533.000000;0.658463
9532.000000;0.658352
9531.000000;0.657756
9530.000000;0.656909
9529.000000;0.656172
9528.000000;0.655842
9527.000000;0.656003
9526.000000;0.656495
9525.000000;0.656999
9524.000000;0.657212
9523.000000;0.657013
9522.000000;0.656518
9521.000000;0.655995
9520.000000;0.655679
9519.000000;0.655638
9518.000000;0.655776
9517.000000;0.655941
9516.000000;0.656028
9515.000000;0.656003
9514.000000;0.655891
9513.000000;0.655756
9512.000000;0.655658
9511.000000;0.655628
9510.000000;0.655702
9509.000000;0.655948
9508.000000;0.656360
9507.000000;0.656737
9506.000000;0.656790
9505.000000;0.656449
9504.000000;0.655986
9503.000000;0.655731
9502.000000;0.655747
9501.000000;0.655872
9500.000000;0.655976
9499.000000;0.656037
9498.000000;0.655995
9497.000000;0.655740
9496.000000;0.655295
9495.000000;0.654845
9494.000000;0.654520
9493.000000;0.654263
9492.000000;0.653968
9491.000000;0.653670
9490.000000;0.653508
9489.000000;0.653570
9488.000000;0.653837
9487.000000;0.654218
9486.000000;0.654573
9485.000000;0.654762
9484.000000;0.654741
9483.000000;0.654591
9482.000000;0.654407
9481.000000;0.654202
9480.000000;0.653944
9479.000000;0.653633
9478.000000;0.653303
9477.000000;0.653009
9476.000000;0.652852
9475.000000;0.652949
9474.000000;0.653295
9473.000000;0.653682
9472.000000;0.653869
9471.000000;0.653812
9470.000000;0.653672
9469.000000;0.653605
9468.000000;0.653628
9467.000000;0.653667
9466.000000;0.653659
9465.000000;0.653558
9464.000000;0.653319
9463.000000;0.652951
9462.000000;0.652580
9461.000000;0.652388
9460.000000;0.652426
9459.000000;0.652519
9458.000000;0.652414
9457.000000;0.652063
9456.000000;0.651696
9455.000000;0.651561
9454.000000;0.651663
9453.000000;0.651797
9452.000000;0.651799
9451.000000;0.651646
9450.000000;0.651379
9449.000000;0.651077
9448.000000;0.650912
9447.000000;0.651072
9446.000000;0.651503
9445.000000;0.651876
9444.000000;0.651901
9443.000000;0.651639
9442.000000;0.651409
9441.000000;0.651436
9440.000000;0.651680
9439.000000;0.651944
9438.000000;0.652061
9437.000000;0.651952
9436.000000;0.651616
9435.000000;0.651118
9434.000000;0.650585
9433.000000;0.650169
9432.000000;0.649990
9431.000000;0.650030
9430.000000;0.650113
9429.000000;0.650070
9428.000000;0.649928
9427.000000;0.649885
9426.000000;0.650047
9425.000000;0.650285
9424.000000;0.650387
9423.000000;0.650290
9422.000000;0.650087
9421.000000;0.649907
9420.000000;0.649824
9419.000000;0.649840
9418.000000;0.649848
9417.000000;0.649711
9416.000000;0.649435
9415.000000;0.649240
9414.000000;0.649334
9413.000000;0.649674
9412.000000;0.650019
9411.000000;0.650170
9410.000000;0.650086
9409.000000;0.649822
9408.000000;0.649507
9407.000000;0.649338
9406.000000;0.649451
9405.000000;0.649756
9404.000000;0.650014
9403.000000;0.650082
9402.000000;0.650012
9401.000000;0.649915
9400.000000;0.649824
9399.000000;0.649734
9398.000000;0.649658
9397.000000;0.649608
9396.000000;0.649569
9395.000000;0.649510
9394.000000;0.649377
9393.000000;0.649100
9392.000000;0.648700
9391.000000;0.648366
9390.000000;0.648312
9389.000000;0.648533
9388.000000;0.648800
9387.000000;0.648905
9386.000000;0.648831
9385.000000;0.648651
9384.000000;0.648389
9383.000000;0.648054
9382.000000;0.647719
9381.000000;0.647480
9380.000000;0.647371
9379.000000;0.647394
9378.000000;0.647554
9377.000000;0.647810
9376.000000;0.648042
9375.000000;0.648148
9374.000000;0.648130
9373.000000;0.648016
9372.000000;0.647762
9371.000000;0.647327
9370.000000;0.646819
9369.000000;0.646457
9368.000000;0.646363
9367.000000;0.646468
9366.000000;0.646608
9365.000000;0.646673
9364.000000;0.646630
9363.000000;0.646511
9362.000000;0.646396
9361.000000;0.646358
9360.000000;0.646371
9359.000000;0.646315
9358.000000;0.646119
9357.000000;0.645877
9356.000000;0.645762
9355.000000;0.645832
9354.000000;0.645972
9353.000000;0.646047
9352.000000;0.646052
9351.000000;0.646073
9350.000000;0.646150
9349.000000;0.646219
9348.000000;0.646189
9347.000000;0.646047
9346.000000;0.645881
9345.000000;0.645817
9344.000000;0.645927
9343.000000;0.646153
9342.000000;0.646330
9341.000000;0.646316
9340.000000;0.646118
9339.000000;0.645870
9338.000000;0.645686
9337.000000;0.645572
9336.000000;0.645480
9335.000000;0.645382
9334.000000;0.645258
9333.000000;0.645075
9332.000000;0.644843
9331.000000;0.644662
9330.000000;0.644661
9329.000000;0.644849
9328.000000;0.645077
9327.000000;0.645158
9326.000000;0.645008
9325.000000;0.644689
9324.000000;0.644342
9323.000000;0.644083
9322.000000;0.643940
9321.000000;0.643875
9320.000000;0.643857
9319.000000;0.643904
9318.000000;0.644032
9317.000000;0.644211
9316.000000;0.644375
9315.000000;0.644467
9314.000000;0.644443
9313.000000;0.644267
9312.000000;0.643969
9311.000000;0.643675
9310.000000;0.643547
9309.000000;0.643663
9308.000000;0.643958
9307.000000;0.644270
9306.000000;0.644431
9305.000000;0.644352
9304.000000;0.644062
9303.000000;0.643680
9302.000000;0.643337
9301.000000;0.643142
9300.000000;0.643186
9299.000000;0.643473
9298.000000;0.643826
9297.000000;0.643960
9296.000000;0.643739
9295.000000;0.643341
9294.000000;0.643072
9293.000000;0.643053
9292.000000;0.643162
9291.000000;0.643247
9290.000000;0.643283
9289.000000;0.643305
9288.000000;0.643283
9287.000000;0.643139
9286.000000;0.642843
9285.000000;0.642482
9284.000000;0.642251
9283.000000;0.642310
9282.000000;0.642594
9281.000000;0.642794
9280.000000;0.642646
9279.000000;0.642242
9278.000000;0.641936
9277.000000;0.641914
9276.000000;0.641988
9275.000000;0.641874
9274.000000;0.641566
9273.000000;0.641303
9272.000000;0.641252
9271.000000;0.641346
9270.000000;0.641430
9269.000000;0.641439
9268.000000;0.641398
9267.000000;0.641336
9266.000000;0.641275
9265.000000;0.641263
9264.000000;0.641343
9263.000000;0.641469
9262.000000;0.641500
9261.000000;0.641333
9260.000000;0.641027
9259.000000;0.640755
9258.000000;0.640612
9257.000000;0.640541
9256.000000;0.640456
9255.000000;0.640380
9254.000000;0.640391
9253.000000;0.640466
9252.000000;0.640500
9251.000000;0.640460
9250.000000;0.640418
9249.000000;0.640409
9248.000000;0.640343
9247.000000;0.640118
9246.000000;0.639756
9245.000000;0.639391
9244.000000;0.639187
9243.000000;0.639253
9242.000000;0.639574
9241.000000;0.639972
9240.000000;0.640202
9239.000000;0.640153
9238.000000;0.639920
9237.000000;0.639655
9236.000000;0.639425
9235.000000;0.639244
9234.000000;0.639135
9233.000000;0.639085
9232.000000;0.639042
9231.000000;0.639036
9230.000000;0.639209
9229.000000;0.639609
9228.000000;0.640001
9227.000000;0.640038
9226.000000;0.639603
9225.000000;0.638898
9224.000000;0.638232
9223.000000;0.637814
9222.000000;0.637723
9221.000000;0.637918
9220.000000;0.638218
9219.000000;0.638402
9218.000000;0.638398
9217.000000;0.638310
9216.000000;0.638254
9215.000000;0.638235
9214.000000;0.638213
9213.000000;0.638192
9212.000000;0.638188
9211.000000;0.638167
9210.000000;0.638071
9209.000000;0.637858
9208.000000;0.637522
9207.000000;0.637135
9206.000000;0.636884
9205.000000;0.636933
9204.000000;0.637206
9203.000000;0.637404
9202.000000;0.637331
9201.000000;0.637107
9200.000000;0.636967
9199.000000;0.636946
9198.000000;0.636914
9197.000000;0.636846
9196.000000;0.636878
9195.000000;0.637079
9194.000000;0.637308
9193.000000;0.637369
9192.000000;0.637215
9191.000000;0.636952
9190.000000;0.636736
9189.000000;0.636696
9188.000000;0.636872
9187.000000;0.637148
9186.000000;0.637303
9185.000000;0.637215
9184.000000;0.636965
9183.000000;0.636700
9182.000000;0.636459
9181.000000;0.636211
9180.000000;0.636001
9179.000000;0.635937
9178.000000;0.636032
9177.000000;0.636181
9176.000000;0.636293
9175.000000;0.636372
9174.000000;0.636430
9173.000000;0.636436
9172.000000;0.636379
9171.000000;0.636307
9170.000000;0.636229
9169.000000;0.636058
9168.000000;0.635742
9167.000000;0.635399
9166.000000;0.635214
9165.000000;0.635196
9164.000000;0.635166
9163.000000;0.635005
9162.000000;0.634823
9161.000000;0.634797
9160.000000;0.634933
9159.000000;0.635061
9158.000000;0.635055
9157.000000;0.634956
9156.000000;0.634853
9155.000000;0.634758
9154.000000;0.634643
9153.000000;0.634563
9152.000000;0.634613
9151.000000;0.634785
9150.000000;0.634924
9149.000000;0.634879
9148.000000;0.634656
9147.000000;0.634392
9146.000000;0.634202
9145.000000;0.634115
9144.000000;0.634110
9143.000000;0.634151
9142.000000;0.634173
9141.000000;0.634099
9140.000000;0.633908
9139.000000;0.633663
9138.000000;0.633451
9137.000000;0.633333
9136.000000;0.633345
9135.000000;0.633503
9134.000000;0.633748
9133.000000;0.633945
9132.000000;0.633997
9131.000000;0.633944
9130.000000;0.633893
9129.000000;0.633860
9128.000000;0.633760
9127.000000;0.633559
9126.000000;0.633357
9125.000000;0.633273
9124.000000;0.633297
9123.000000;0.633299
9122.000000;0.633171
9121.000000;0.632928
9120.000000;0.632686
9119.000000;0.632565
9118.000000;0.632601
9117.000000;0.632722
9116.000000;0.632826
9115.000000;0.632864
9114.000000;0.632867
9113.000000;0.632875
9112.000000;0.632882
9111.000000;0.632852
9110.000000;0.632749
9109.000000;0.632557
9108.000000;0.632298
9107.000000;0.632060
9106.000000;0.631949
9105.000000;0.631981
9104.000000;0.632028
9103.000000;0.631943
9102.000000;0.631719
9101.000000;0.631491
9100.000000;0.631394
9099.000000;0.631459
9098.000000;0.631620
9097.000000;0.631775
9096.000000;0.631818
9095.000000;0.631693
9094.000000;0.631460
9093.000000;0.631274
9092.000000;0.631258
9091.000000;0.631397
9090.000000;0.631567
9089.000000;0.631657
9088.000000;0.631652
9087.000000;0.631614
9086.000000;0.631604
9085.000000;0.631620
9084.000000;0.631601
9083.000000;0.631497
9082.000000;0.631348
9081.000000;0.631256
9080.000000;0.631252
9079.000000;0.631226
9078.000000;0.631030
9077.000000;0.630651
9076.000000;0.630235
9075.000000;0.629939
9074.000000;0.629804
9073.000000;0.629784
9072.000000;0.629844
9071.000000;0.629984
9070.000000;0.630175
9069.000000;0.630331
9068.000000;0.630363
9067.000000;0.630247
9066.000000;0.630039
9065.000000;0.629843
9064.000000;0.629738
9063.000000;0.629732
9062.000000;0.629767
9061.000000;0.629778
9060.000000;0.629742
9059.000000;0.629660
9058.000000;0.629529
9057.000000;0.629374
9056.000000;0.629276
9055.000000;0.629297
9054.000000;0.629384
9053.000000;0.629417
9052.000000;0.629363
9051.000000;0.629316
9050.000000;0.629337
9049.000000;0.629343
9048.000000;0.629229
9047.000000;0.629022
9046.000000;0.628836
9045.000000;0.628703
9044.000000;0.628585
9043.000000;0.628523
9042.000000;0.628651
9041.000000;0.629000
9040.000000;0.629392
9039.000000;0.629587
9038.000000;0.629492
9037.000000;0.629192
9036.000000;0.628834
9035.000000;0.628544
9034.000000;0.628381
9033.000000;0.628317
9032.000000;0.628257
9031.000000;0.628150
9030.000000;0.628065
9029.000000;0.628116
9028.000000;0.628328
9027.000000;0.628585
9026.000000;0.628706
9025.000000;0.628564
9024.000000;0.628186
9023.000000;0.627774
9022.000000;0.627569
9021.000000;0.627640
9020.000000;0.627838
9019.000000;0.627974
9018.000000;0.627990
9017.000000;0.627923
9016.000000;0.627790
9015.000000;0.627608
9014.000000;0.627465
9013.000000;0.627458
9012.000000;0.627537
9011.000000;0.627550
9010.000000;0.627434
9009.000000;0.627293
9008.000000;0.627250
9007.000000;0.627282
9006.000000;0.627256
9005.000000;0.627067
9004.000000;0.626735
9003.000000;0.626393
9002.000000;0.626198
9001.000000;0.626195
9000.000000;0.626279
8999.000000;0.626323
8998.000000;0.626340
8997.000000;0.626433
8996.000000;0.626586
8995.000000;0.626627
8994.000000;0.626445
8993.000000;0.626149
8992.000000;0.625932
8991.000000;0.625862
8990.000000;0.625865
8989.000000;0.625872
8988.000000;0.625882
8987.000000;0.625895
8986.000000;0.625885
8985.000000;0.625835
8984.000000;0.625773
8983.000000;0.625744
8982.000000;0.625761
8981.000000;0.625773
8980.000000;0.625678
8979.000000;0.625419
8978.000000;0.625091
8977.000000;0.624886
8976.000000;0.624885
8975.000000;0.624971
8974.000000;0.624985
8973.000000;0.624926
8972.000000;0.624907
8971.000000;0.624973
8970.000000;0.625071
8969.000000;0.625167
8968.000000;0.625267
8967.000000;0.625322
8966.000000;0.625229
8965.000000;0.624993
8964.000000;0.624775
8963.000000;0.624727
8962.000000;0.624814
8961.000000;0.624870
8960.000000;0.624795
8959.000000;0.624638
8958.000000;0.624511
8957.000000;0.624468
8956.000000;0.624451
8955.000000;0.624359
8954.000000;0.624154
8953.000000;0.623918
8952.000000;0.623767
8951.000000;0.623728
8950.000000;0.623734
8949.000000;0.623739
8948.000000;0.623767
8947.000000;0.623827
8946.000000;0.623844
8945.000000;0.623746
8944.000000;0.623568
8943.000000;0.623411
8942.000000;0.623319
8941.000000;0.623263
8940.000000;0.623217
8939.000000;0.623197
8938.000000;0.623206
8937.000000;0.623205
8936.000000;0.623171
8935.000000;0.623159
8934.000000;0.623260
8933.000000;0.623489
8932.000000;0.623712
8931.000000;0.623725
8930.000000;0.623434
8929.000000;0.622961
8928.000000;0.622558
8927.000000;0.622393
8926.000000;0.622428
8925.000000;0.622514
8924.000000;0.622557
8923.000000;0.622569
8922.000000;0.622588
8921.000000;0.622597
8920.000000;0.622545
8919.000000;0.622416
8918.000000;0.622266
8917.000000;0.622179
8916.000000;0.622178
8915.000000;0.622189
8914.000000;0.622098
8913.000000;0.621880
8912.000000;0.621640
8911.000000;0.621491
8910.000000;0.621444
8909.000000;0.621420
8908.000000;0.621370
8907.000000;0.621322
8906.000000;0.621325
8905.000000;0.621402
8904.000000;0.621550
8903.000000;0.621751
8902.000000;0.621942
8901.000000;0.622029
8900.000000;0.621951
8899.000000;0.621727
8898.000000;0.621439
8897.000000;0.621188
8896.000000;0.621062
8895.000000;0.621094
8894.000000;0.621222
8893.000000;0.621310
8892.000000;0.621245
8891.000000;0.621032
8890.000000;0.620789
8889.000000;0.620648
8888.000000;0.620649
8887.000000;0.620695
8886.000000;0.620627
8885.000000;0.620382
8884.000000;0.620102
8883.000000;0.620027
8882.000000;0.620236
8881.000000;0.620523
8880.000000;0.620595
8879.000000;0.620369
8878.000000;0.620032
8877.000000;0.619815
8876.000000;0.619776
8875.000000;0.619813
8874.000000;0.619836
8873.000000;0.619856
8872.000000;0.619915
8871.000000;0.620001
8870.000000;0.620042
8869.000000;0.619988
8868.000000;0.619880
8867.000000;0.619820
8866.000000;0.619883
8865.000000;0.620045
8864.000000;0.620200
8863.000000;0.620238
8862.000000;0.620130
8861.000000;0.619935
8860.000000;0.619756
8859.000000;0.619662
8858.000000;0.619645
8857.000000;0.619649
8856.000000;0.619626
8855.000000;0.619572
8854.000000;0.619488
8853.000000;0.619375
8852.000000;0.619274
8851.000000;0.619281
8850.000000;0.619438
8849.000000;0.619629
8848.000000;0.619646
8847.000000;0.619395
8846.000000;0.618995
8845.000000;0.618659
8844.000000;0.618513
8843.000000;0.618547
8842.000000;0.618687
8841.000000;0.618858
8840.000000;0.619000
8839.000000;0.619085
8838.000000;0.619132
8837.000000;0.619175
8836.000000;0.619194
8835.000000;0.619120
8834.000000;0.618908
8833.000000;0.618611
8832.000000;0.618360
8831.000000;0.618263
8830.000000;0.618297
8829.000000;0.618323
8828.000000;0.618233
8827.000000;0.618070
8826.000000;0.617982
8825.000000;0.618042
8824.000000;0.618192
8823.000000;0.618360
8822.000000;0.618537
8821.000000;0.618699
8820.000000;0.618740
8819.000000;0.618586
8818.000000;0.618345
8817.000000;0.618202
8816.000000;0.618202
8815.000000;0.618227
8814.000000;0.618202
8813.000000;0.618198
8812.000000;0.618288
8811.000000;0.618388
8810.000000;0.618336
8809.000000;0.618084
8808.000000;0.617747
8807.000000;0.617493
8806.000000;0.617409
8805.000000;0.617454
8804.000000;0.617506
8803.000000;0.617471
8802.000000;0.617375
8801.000000;0.617309
8800.000000;0.617304
8799.000000;0.617306
8798.000000;0.617284
8797.000000;0.617293
8796.000000;0.617397
8795.000000;0.617589
8794.000000;0.617830
8793.000000;0.618090
8792.000000;0.618304
8791.000000;0.618356
8790.000000;0.618200
8789.000000;0.617956
8788.000000;0.617793
8787.000000;0.617751
8786.000000;0.617751
8785.000000;0.617743
8784.000000;0.617736
8783.000000;0.617698
8782.000000;0.617553
8781.000000;0.617292
8780.000000;0.617017
8779.000000;0.616822
8778.000000;0.616719
8777.000000;0.616695
8776.000000;0.616762
8775.000000;0.616915
8774.000000;0.617081
8773.000000;0.617172
8772.000000;0.617166
8771.000000;0.617089
8770.000000;0.616971
8769.000000;0.616863
8768.000000;0.616857
8767.000000;0.617008
8766.000000;0.617232
8765.000000;0.617350
8764.000000;0.617262
8763.000000;0.617054
8762.000000;0.616909
8761.000000;0.616911
8760.000000;0.616970
8759.000000;0.616943
8758.000000;0.616790
8757.000000;0.616587
8756.000000;0.616411
8755.000000;0.616263
8754.000000;0.616115
8753.000000;0.615983
8752.000000;0.615900
8751.000000;0.615865
8750.000000;0.615857
8749.000000;0.615891
8748.000000;0.616004
8747.000000;0.616213
8746.000000;0.616508
8745.000000;0.616840
8744.000000;0.617091
8743.000000;0.617098
8742.000000;0.616812
8741.000000;0.616409
8740.000000;0.616165
8739.000000;0.616194
8738.000000;0.616374
8737.000000;0.616535
8736.000000;0.616614
8735.000000;0.616616
8734.000000;0.616517
8733.000000;0.616323
8732.000000;0.616147
8731.000000;0.616127
8730.000000;0.616253
8729.000000;0.616350
8728.000000;0.616254
8727.000000;0.615984
8726.000000;0.615712
8725.000000;0.615585
8724.000000;0.615606
8723.000000;0.615696
8722.000000;0.615839
8721.000000;0.616123
8720.000000;0.616589
8719.000000;0.617089
8718.000000;0.617357
8717.000000;0.617245
8716.000000;0.616856
8715.000000;0.616441
8714.000000;0.616205
8713.000000;0.616193
8712.000000;0.616311
8711.000000;0.616399
8710.000000;0.616345
8709.000000;0.616167
8708.000000;0.615988
8707.000000;0.615908
8706.000000;0.615914
8705.000000;0.615922
8704.000000;0.615864
8703.000000;0.615735
8702.000000;0.615591
8701.000000;0.615525
8700.000000;0.615599
8699.000000;0.615769
8698.000000;0.615903
8697.000000;0.615901
8696.000000;0.615770
8695.000000;0.615576
8694.000000;0.615387
8693.000000;0.615277
8692.000000;0.615306
8691.000000;0.615435
8690.000000;0.615514
8689.000000;0.615436
8688.000000;0.615254
8687.000000;0.615097
8686.000000;0.615007
8685.000000;0.614947
8684.000000;0.614929
8683.000000;0.615031
8682.000000;0.615255
8681.000000;0.615475
8680.000000;0.615573
8679.000000;0.615572
8678.000000;0.615575
8677.000000;0.615602
8676.000000;0.615560
8675.000000;0.615373
8674.000000;0.615105
8673.000000;0.614918
8672.000000;0.614905
8671.000000;0.615000
8670.000000;0.615063
8669.000000;0.615043
8668.000000;0.614999
8667.000000;0.614959
8666.000000;0.614844
8665.000000;0.614590
8664.000000;0.614289
8663.000000;0.614113
8662.000000;0.614117
8661.000000;0.614195
8660.000000;0.614242
8659.000000;0.614259
8658.000000;0.614263
8657.000000;0.614192
8656.000000;0.613982
8655.000000;0.613693
8654.000000;0.613483
8653.000000;0.613437
8652.000000;0.613493
8651.000000;0.613537
8650.000000;0.613504
8649.000000;0.613391
8648.000000;0.613206
8647.000000;0.612945
8646.000000;0.612636
8645.000000;0.612358
8644.000000;0.612223
8643.000000;0.612290
8642.000000;0.612489
8641.000000;0.612634
8640.000000;0.612548
8639.000000;0.612216
8638.000000;0.611795
8637.000000;0.611480
8636.000000;0.611379
8635.000000;0.611485
8634.000000;0.611719
8633.000000;0.611951
8632.000000;0.612039
8631.000000;0.611920
8630.000000;0.611684
8629.000000;0.611491
8628.000000;0.611396
8627.000000;0.611311
8626.000000;0.611143
8625.000000;0.610919
8624.000000;0.610740
8623.000000;0.610665
8622.000000;0.610691
8621.000000;0.610804
8620.000000;0.610957
8619.000000;0.611024
8618.000000;0.610869
8617.000000;0.610501
8616.000000;0.610095
8615.000000;0.609834
8614.000000;0.609777
8613.000000;0.609870
8612.000000;0.610020
8611.000000;0.610146
8610.000000;0.610210
8609.000000;0.610240
8608.000000;0.610282
8607.000000;0.610301
8606.000000;0.610191
8605.000000;0.609915
8604.000000;0.609578
8603.000000;0.609320
8602.000000;0.609176
8601.000000;0.609087
8600.000000;0.608991
8599.000000;0.608855
8598.000000;0.608662
8597.000000;0.608437
8596.000000;0.608266
8595.000000;0.608200
8594.000000;0.608173
8593.000000;0.608075
8592.000000;0.607880
8591.000000;0.607652
8590.000000;0.607434
8589.000000;0.607220
8588.000000;0.607033
8587.000000;0.606944
8586.000000;0.606972
8585.000000;0.607032
8584.000000;0.607028
8583.000000;0.606943
8582.000000;0.606816
8581.000000;0.606672
8580.000000;0.606516
8579.000000;0.606387
8578.000000;0.606362
8577.000000;0.606476
8576.000000;0.606659
8575.000000;0.606744
8574.000000;0.606586
8573.000000;0.606205
8572.000000;0.605807
8571.000000;0.605601
8570.000000;0.605621
8569.000000;0.605732
8568.000000;0.605816
8567.000000;0.605864
8566.000000;0.605883
8565.000000;0.605812
8564.000000;0.605594
8563.000000;0.605282
8562.000000;0.604998
8561.000000;0.604814
8560.000000;0.604706
8559.000000;0.604624
8558.000000;0.604546
8557.000000;0.604454
8556.000000;0.604335
8555.000000;0.604203
8554.000000;0.604100
8553.000000;0.604035
8552.000000;0.603969
8551.000000;0.603889
8550.000000;0.603844
8549.000000;0.603886
8548.000000;0.603972
8547.000000;0.603969
8546.000000;0.603778
8545.000000;0.603417
8544.000000;0.602990
8543.000000;0.602594
8542.000000;0.602294
8541.000000;0.602140
8540.000000;0.602155
8539.000000;0.602282
8538.000000;0.602384
8537.000000;0.602359
8536.000000;0.602254
8535.000000;0.602210
8534.000000;0.602298
8533.000000;0.602427
8532.000000;0.602439
8531.000000;0.602271
8530.000000;0.601989
8529.000000;0.601699
8528.000000;0.601449
8527.000000;0.601243
8526.000000;0.601100
8525.000000;0.601059
8524.000000;0.601123
8523.000000;0.601225
8522.000000;0.601268
8521.000000;0.601198
8520.000000;0.601038
8519.000000;0.600858
8518.000000;0.600716
8517.000000;0.600607
8516.000000;0.600474
8515.000000;0.600270
8514.000000;0.600027
8513.000000;0.599843
8512.000000;0.599766
8511.000000;0.599725
8510.000000;0.599628
8509.000000;0.599511
8508.000000;0.599513
8507.000000;0.599678
8506.000000;0.599849
8505.000000;0.599844
8504.000000;0.599669
8503.000000;0.599470
8502.000000;0.599308
8501.000000;0.599106
8500.000000;0.598820
8499.000000;0.598546
8498.000000;0.598391
8497.000000;0.598323
8496.000000;0.598233
8495.000000;0.598099
8494.000000;0.597987
8493.000000;0.597952
8492.000000;0.597982
8491.000000;0.598049
8490.000000;0.598100
8489.000000;0.598036
8488.000000;0.597782
8487.000000;0.597409
8486.000000;0.597101
8485.000000;0.596968
8484.000000;0.596945
8483.000000;0.596905
8482.000000;0.596801
8481.000000;0.596671
8480.000000;0.596553
8479.000000;0.596475
8478.000000;0.596483
8477.000000;0.596589
8476.000000;0.596701
8475.000000;0.596665
8474.000000;0.596422
8473.000000;0.596084
8472.000000;0.595853
8471.000000;0.595855
8470.000000;0.596051
8469.000000;0.596264
8468.000000;0.596328
8467.000000;0.596221
8466.000000;0.596071
8465.000000;0.595994
8464.000000;0.595974
8463.000000;0.595918
8462.000000;0.595800
8461.000000;0.595685
8460.000000;0.595611
8459.000000;0.595532
8458.000000;0.595393
8457.000000;0.595212
8456.000000;0.595047
8455.000000;0.594925
8454.000000;0.594854
8453.000000;0.594850
8452.000000;0.594911
8451.000000;0.594971
8450.000000;0.594944
8449.000000;0.594797
8448.000000;0.594567
8447.000000;0.594319
8446.000000;0.594115
8445.000000;0.593987
8444.000000;0.593923
8443.000000;0.593869
8442.000000;0.593778
8441.000000;0.593653
8440.000000;0.593518
8439.000000;0.593376
8438.000000;0.593217
8437.000000;0.593051
8436.000000;0.592902
8435.000000;0.592801
8434.000000;0.592781
8433.000000;0.592866
8432.000000;0.593008
8431.000000;0.593087
8430.000000;0.593010
8429.000000;0.592809
8428.000000;0.592602
8427.000000;0.592472
8426.000000;0.592433
8425.000000;0.592476
8424.000000;0.592565
8423.000000;0.592599
8422.000000;0.592471
8421.000000;0.592195
8420.000000;0.591909
8419.000000;0.591722
8418.000000;0.591611
8417.000000;0.591491
8416.000000;0.591343
8415.000000;0.591205
8414.000000;0.591088
8413.000000;0.590964
8412.000000;0.590827
8411.000000;0.590699
8410.000000;0.590593
8409.000000;0.590493
8408.000000;0.590399
8407.000000;0.590352
8406.000000;0.590382
8405.000000;0.590463
8404.000000;0.590527
8403.000000;0.590552
8402.000000;0.590594
8401.000000;0.590704
8400.000000;0.590819
8399.000000;0.590783
8398.000000;0.590508
8397.000000;0.590088
8396.000000;0.589721
8395.000000;0.589528
8394.000000;0.589488
8393.000000;0.589525
8392.000000;0.589591
8391.000000;0.589656
8390.000000;0.589670
8389.000000;0.589591
8388.000000;0.589421
8387.000000;0.589206
8386.000000;0.589013
8385.000000;0.588919
8384.000000;0.588955
8383.000000;0.589048
8382.000000;0.589047
8381.000000;0.588860
8380.000000;0.588552
8379.000000;0.588285
8378.000000;0.588163
8377.000000;0.588152
8376.000000;0.588146
8375.000000;0.588081
8374.000000;0.588002
8373.000000;0.587994
8372.000000;0.588067
8371.000000;0.588129
8370.000000;0.588089
8369.000000;0.587975
8368.000000;0.587875
8367.000000;0.587801
8366.000000;0.587680
8365.000000;0.587498
8364.000000;0.587348
8363.000000;0.587297
8362.000000;0.587276
8361.000000;0.587193
8360.000000;0.587065
8359.000000;0.586981
8358.000000;0.586942
8357.000000;0.586860
8356.000000;0.586708
8355.000000;0.586580
8354.000000;0.586580
8353.000000;0.586696
8352.000000;0.586822
8351.000000;0.586857
8350.000000;0.586748
8349.000000;0.586501
8348.000000;0.586176
8347.000000;0.585886
8346.000000;0.585740
8345.000000;0.585782
8344.000000;0.585950
8343.000000;0.586107
8342.000000;0.586122
8341.000000;0.585947
8340.000000;0.585649
8339.000000;0.585356
8338.000000;0.585171
8337.000000;0.585144
8336.000000;0.585269
8335.000000;0.585487
8334.000000;0.585675
8333.000000;0.585710
8332.000000;0.585563
8331.000000;0.585330
8330.000000;0.585140
8329.000000;0.585044
8328.000000;0.585000
8327.000000;0.584944
8326.000000;0.584838
8325.000000;0.584661
8324.000000;0.584413
8323.000000;0.584147
8322.000000;0.583976
8321.000000;0.583981
8320.000000;0.584105
8319.000000;0.584183
8318.000000;0.584103
8317.000000;0.583898
8316.000000;0.583659
8315.000000;0.583413
8314.000000;0.583139
8313.000000;0.582876
8312.000000;0.582723
8311.000000;0.582715
8310.000000;0.582786
8309.000000;0.582853
8308.000000;0.582899
8307.000000;0.582934
8306.000000;0.582929
8305.000000;0.582852
8304.000000;0.582716
8303.000000;0.582560
8302.000000;0.582400
8301.000000;0.582251
8300.000000;0.582157
8299.000000;0.582156
8298.000000;0.582226
8297.000000;0.582294
8296.000000;0.582312
8295.000000;0.582283
8294.000000;0.582237
8293.000000;0.582194
8292.000000;0.582154
8291.000000;0.582099
8290.000000;0.582012
8289.000000;0.581894
8288.000000;0.581751
8287.000000;0.581566
8286.000000;0.581325
8285.000000;0.581087
8284.000000;0.580983
8283.000000;0.581082
8282.000000;0.581290
8281.000000;0.581426
8280.000000;0.581386
8279.000000;0.581186
8278.000000;0.580889
8277.000000;0.580545
8276.000000;0.580216
8275.000000;0.580000
8274.000000;0.579970
8273.000000;0.580114
8272.000000;0.580331
8271.000000;0.580498
8270.000000;0.580540
8269.000000;0.580460
8268.000000;0.580310
8267.000000;0.580137
8266.000000;0.579962
8265.000000;0.579814
8264.000000;0.579732
8263.000000;0.579717
8262.000000;0.579705
8261.000000;0.579639
8260.000000;0.579526
8259.000000;0.579421
8258.000000;0.579365
8257.000000;0.579364
8256.000000;0.579401
8255.000000;0.579418
8254.000000;0.579340
8253.000000;0.579152
8252.000000;0.578938
8251.000000;0.578786
8250.000000;0.578681
8249.000000;0.578550
8248.000000;0.578399
8247.000000;0.578316
8246.000000;0.578337
8245.000000;0.578406
8244.000000;0.578467
8243.000000;0.578531
8242.000000;0.578607
8241.000000;0.578644
8240.000000;0.578587
8239.000000;0.578456
8238.000000;0.578309
8237.000000;0.578170
8236.000000;0.578019
8235.000000;0.577836
8234.000000;0.577619
8233.000000;0.577383
8232.000000;0.577172
8231.000000;0.577048
8230.000000;0.577032
8229.000000;0.577071
8228.000000;0.577095
8227.000000;0.577090
8226.000000;0.577088
8225.000000;0.577089
8224.000000;0.577038
8223.000000;0.576890
8222.000000;0.576677
8221.000000;0.576491
8220.000000;0.576410
8219.000000;0.576432
8218.000000;0.576483
8217.000000;0.576476
8216.000000;0.576373
8215.000000;0.576207
8214.000000;0.576040
8213.000000;0.575928
8212.000000;0.575902
8211.000000;0.575950
8210.000000;0.576012
8209.000000;0.576007
8208.000000;0.575896
8207.000000;0.575711
8206.000000;0.575529
8205.000000;0.575407
8204.000000;0.575353
8203.000000;0.575329
8202.000000;0.575286
8201.000000;0.575202
8200.000000;0.575092
8199.000000;0.575000
8198.000000;0.574966
8197.000000;0.575001
8196.000000;0.575083
8195.000000;0.575159
8194.000000;0.575168
8193.000000;0.575074
8192.000000;0.574901
8191.000000;0.574697
8190.000000;0.574489
8189.000000;0.574286
8188.000000;0.574123
8187.000000;0.574062
8186.000000;0.574127
8185.000000;0.574259
8184.000000;0.574367
8183.000000;0.574410
8182.000000;0.574416
8181.000000;0.574419
8180.000000;0.574409
8179.000000;0.574328
8178.000000;0.574129
8177.000000;0.573831
8176.000000;0.573514
8175.000000;0.573268
8174.000000;0.573130
8173.000000;0.573067
8172.000000;0.573039
8171.000000;0.573042
8170.000000;0.573093
8169.000000;0.573172
8168.000000;0.573211
8167.000000;0.573147
8166.000000;0.572997
8165.000000;0.572845
8164.000000;0.572757
8163.000000;0.572711
8162.000000;0.572639
8161.000000;0.572527
8160.000000;0.572438
8159.000000;0.572419
8158.000000;0.572436
8157.000000;0.572425
8156.000000;0.572389
8155.000000;0.572376
8154.000000;0.572381
8153.000000;0.572327
8152.000000;0.572172
8151.000000;0.571979
8150.000000;0.571835
8149.000000;0.571741
8148.000000;0.571627
8147.000000;0.571465
8146.000000;0.571320
8145.000000;0.571282
8144.000000;0.571376
8143.000000;0.571562
8142.000000;0.571764
8141.000000;0.571885
8140.000000;0.571841
8139.000000;0.571619
8138.000000;0.571316
8137.000000;0.571069
8136.000000;0.570946
8135.000000;0.570911
8134.000000;0.570899
8133.000000;0.570884
8132.000000;0.570862
8131.000000;0.570809
8130.000000;0.570712
8129.000000;0.570621
8128.000000;0.570628
8127.000000;0.570766
8126.000000;0.570939
8125.000000;0.570981
8124.000000;0.570795
8123.000000;0.570437
8122.000000;0.570079
8121.000000;0.569875
8120.000000;0.569839
8119.000000;0.569857
8118.000000;0.569811
8117.000000;0.569690
8116.000000;0.569566
8115.000000;0.569496
8114.000000;0.569472
8113.000000;0.569467
8112.000000;0.569487
8111.000000;0.569533
8110.000000;0.569562
8109.000000;0.569526
8108.000000;0.569423
8107.000000;0.569303
8106.000000;0.569219
8105.000000;0.569192
8104.000000;0.569210
8103.000000;0.569232
8102.000000;0.569209
8101.000000;0.569122
8100.000000;0.569011
8099.000000;0.568927
8098.000000;0.568877
8097.000000;0.568827
8096.000000;0.568759
8095.000000;0.568685
8094.000000;0.568604
8093.000000;0.568487
8092.000000;0.568326
8091.000000;0.568191
8090.000000;0.568172
8089.000000;0.568273
8088.000000;0.568384
8087.000000;0.568389
8086.000000;0.568290
8085.000000;0.568177
8084.000000;0.568106
8083.000000;0.568041
8082.000000;0.567927
8081.000000;0.567792
8080.000000;0.567714
8079.000000;0.567716
8078.000000;0.567740
8077.000000;0.567728
8076.000000;0.567682
8075.000000;0.567631
8074.000000;0.567584
8073.000000;0.567538
8072.000000;0.567503
8071.000000;0.567484
8070.000000;0.567455
8069.000000;0.567385
8068.000000;0.567266
8067.000000;0.567126
8066.000000;0.566995
8065.000000;0.566896
8064.000000;0.566832
8063.000000;0.566782
8062.000000;0.566723
8061.000000;0.566670
8060.000000;0.566663
8059.000000;0.566722
8058.000000;0.566801
8057.000000;0.566837
8056.000000;0.566792
8055.000000;0.566662
8054.000000;0.566456
8053.000000;0.566217
8052.000000;0.566018
8051.000000;0.565906
8050.000000;0.565853
8049.000000;0.565797
8048.000000;0.565723
8047.000000;0.565677
8046.000000;0.565702
8045.000000;0.565772
8044.000000;0.565822
8043.000000;0.565804
8042.000000;0.565732
8041.000000;0.565666
8040.000000;0.565649
8039.000000;0.565655
8038.000000;0.565618
8037.000000;0.565521
8036.000000;0.565412
8035.000000;0.565331
8034.000000;0.565252
8033.000000;0.565146
8032.000000;0.565057
8031.000000;0.565045
8030.000000;0.565077
8029.000000;0.565043
8028.000000;0.564883
8027.000000;0.564670
8026.000000;0.564525
8025.000000;0.564508
8024.000000;0.564589
8023.000000;0.564687
8022.000000;0.564721
8021.000000;0.564649
8020.000000;0.564512
8019.000000;0.564401
8018.000000;0.564375
8017.000000;0.564405
8016.000000;0.564415
8015.000000;0.564377
8014.000000;0.564333
8013.000000;0.564339
8012.000000;0.564385
8011.000000;0.564407
8010.000000;0.564351
8009.000000;0.564236
8008.000000;0.564125
8007.000000;0.564045
8006.000000;0.563960
8005.000000;0.563844
8004.000000;0.563719
8003.000000;0.563613
8002.000000;0.563506
8001.000000;0.563377
8000.000000;0.563271
7999.000000;0.563263
7998.000000;0.563337
7997.000000;0.563371
7996.000000;0.563278
7995.000000;0.563116
7994.000000;0.563019
7993.000000;0.563040
7992.000000;0.563103
7991.000000;0.563094
7990.000000;0.562982
7989.000000;0.562834
7988.000000;0.562737
7987.000000;0.562716
7986.000000;0.562731
7985.000000;0.562726
7984.000000;0.562686
7983.000000;0.562630
7982.000000;0.562578
7981.000000;0.562532
7980.000000;0.562475
7979.000000;0.562390
7978.000000;0.562286
7977.000000;0.562203
7976.000000;0.562180
7975.000000;0.562195
7974.000000;0.562182
7973.000000;0.562113
7972.000000;0.562047
7971.000000;0.562063
7970.000000;0.562162
7969.000000;0.562261
7968.000000;0.562280
7967.000000;0.562209
7966.000000;0.562084
7965.000000;0.561948
7964.000000;0.561818
7963.000000;0.561689
7962.000000;0.561556
7961.000000;0.561444
7960.000000;0.561391
7959.000000;0.561387
7958.000000;0.561360
7957.000000;0.561251
7956.000000;0.561095
7955.000000;0.560983
7954.000000;0.560940
7953.000000;0.560905
7952.000000;0.560825
7951.000000;0.560725
7950.000000;0.560662
7949.000000;0.560660
7948.000000;0.560695
7947.000000;0.560723
7946.000000;0.560706
7945.000000;0.560639
7944.000000;0.560555
7943.000000;0.560491
7942.000000;0.560440
7941.000000;0.560375
7940.000000;0.560292
7939.000000;0.560207
7938.000000;0.560115
7937.000000;0.560011
7936.000000;0.559937
7935.000000;0.559956
7934.000000;0.560042
7933.000000;0.560085
7932.000000;0.560026
7931.000000;0.559933
7930.000000;0.559890
7929.000000;0.559872
7928.000000;0.559785
7927.000000;0.559599
7926.000000;0.559372
7925.000000;0.559167
7924.000000;0.559012
7923.000000;0.558939
7922.000000;0.558990
7921.000000;0.559151
7920.000000;0.559321
7919.000000;0.559385
7918.000000;0.559308
7917.000000;0.559152
7916.000000;0.559018
7915.000000;0.558967
7914.000000;0.558978
7913.000000;0.558975
7912.000000;0.558905
7911.000000;0.558794
7910.000000;0.558713
7909.000000;0.558702
7908.000000;0.558736
7907.000000;0.558769
7906.000000;0.558773
7905.000000;0.558740
7904.000000;0.558678
7903.000000;0.558616
7902.000000;0.558601
7901.000000;0.558648
7900.000000;0.558712
7899.000000;0.558714
7898.000000;0.558614
7897.000000;0.558444
7896.000000;0.558281
7895.000000;0.558179
7894.000000;0.558137
7893.000000;0.558123
7892.000000;0.558114
7891.000000;0.558111
7890.000000;0.558114
7889.000000;0.558100
7888.000000;0.558033
7887.000000;0.557903
7886.000000;0.557746
7885.000000;0.557620
7884.000000;0.557569
7883.000000;0.557585
7882.000000;0.557608
7881.000000;0.557572
7880.000000;0.557455
7879.000000;0.557307
7878.000000;0.557208
7877.000000;0.557200
7876.000000;0.557250
7875.000000;0.557277
7874.000000;0.557221
7873.000000;0.557097
7872.000000;0.556981
7871.000000;0.556941
7870.000000;0.556975
7869.000000;0.557026
7868.000000;0.557047
7867.000000;0.557037
7866.000000;0.557000
7865.000000;0.556914
7864.000000;0.556753
7863.000000;0.556546
7862.000000;0.556372
7861.000000;0.556282
7860.000000;0.556242
7859.000000;0.556197
7858.000000;0.556157
7857.000000;0.556198
7856.000000;0.556329
7855.000000;0.556426
7854.000000;0.556341
7853.000000;0.556091
7852.000000;0.555880
7851.000000;0.555895
7850.000000;0.556123
7849.000000;0.556378
7848.000000;0.556491
7847.000000;0.556433
7846.000000;0.556277
7845.000000;0.556102
7844.000000;0.555952
7843.000000;0.555830
7842.000000;0.555718
7841.000000;0.555597
7840.000000;0.555471
7839.000000;0.555368
7838.000000;0.555300
7837.000000;0.555259
7836.000000;0.555234
7835.000000;0.555225
7834.000000;0.555233
7833.000000;0.555247
7832.000000;0.555242
7831.000000;0.555191
7830.000000;0.555084
7829.000000;0.554944
7828.000000;0.554825
7827.000000;0.554779
7826.000000;0.554828
7825.000000;0.554954
7824.000000;0.555106
7823.000000;0.555189
7822.000000;0.555102
7821.000000;0.554826
7820.000000;0.554476
7819.000000;0.554214
7818.000000;0.554104
7817.000000;0.554080
7816.000000;0.554057
7815.000000;0.554019
7814.000000;0.553992
7813.000000;0.553986
7812.000000;0.553992
7811.000000;0.554004
7810.000000;0.554018
7809.000000;0.554031
7808.000000;0.554051
7807.000000;0.554096
7806.000000;0.554145
7805.000000;0.554136
7804.000000;0.554036
7803.000000;0.553882
7802.000000;0.553742
7801.000000;0.553651
7800.000000;0.553605
7799.000000;0.553584
7798.000000;0.553551
7797.000000;0.553463
7796.000000;0.553328
7795.000000;0.553222
7794.000000;0.553209
7793.000000;0.553256
7792.000000;0.553269
7791.000000;0.553217
7790.000000;0.553162
7789.000000;0.553159
7788.000000;0.553181
7787.000000;0.553164
7786.000000;0.553081
7785.000000;0.552947
7784.000000;0.552784
7783.000000;0.552606
7782.000000;0.552446
7781.000000;0.552350
7780.000000;0.552347
7779.000000;0.552427
7778.000000;0.552534
7777.000000;0.552591
7776.000000;0.552556
7775.000000;0.552444
7774.000000;0.552308
7773.000000;0.552184
7772.000000;0.552087
7771.000000;0.552041
7770.000000;0.552078
7769.000000;0.552190
7768.000000;0.552298
7767.000000;0.552321
7766.000000;0.552242
7765.000000;0.552106
7764.000000;0.551959
7763.000000;0.551827
7762.000000;0.551725
7761.000000;0.551670
7760.000000;0.551662
7759.000000;0.551688
7758.000000;0.551743
7757.000000;0.551821
7756.000000;0.551875
7755.000000;0.551838
7754.000000;0.551692
7753.000000;0.551507
7752.000000;0.551378
7751.000000;0.551335
7750.000000;0.551323
7749.000000;0.551262
7748.000000;0.551120
7747.000000;0.550933
7746.000000;0.550776
7745.000000;0.550701
7744.000000;0.550688
7743.000000;0.550663
7742.000000;0.550586
7741.000000;0.550503
7740.000000;0.550483
7739.000000;0.550524
7738.000000;0.550560
7737.000000;0.550535
7736.000000;0.550459
7735.000000;0.550376
7734.000000;0.550313
7733.000000;0.550272
7732.000000;0.550241
7731.000000;0.550198
7730.000000;0.550129
7729.000000;0.550056
7728.000000;0.550027
7727.000000;0.550058
7726.000000;0.550108
7725.000000;0.550118
7724.000000;0.550072
7723.000000;0.549986
7722.000000;0.549877
7721.000000;0.549759
7720.000000;0.549650
7719.000000;0.549573
7718.000000;0.549526
7717.000000;0.549487
7716.000000;0.549427
7715.000000;0.549333
7714.000000;0.549217
7713.000000;0.549124
7712.000000;0.549098
7711.000000;0.549135
7710.000000;0.549188
7709.000000;0.549214
7708.000000;0.549200
7707.000000;0.549141
7706.000000;0.549028
7705.000000;0.548889
7704.000000;0.548790
7703.000000;0.548772
7702.000000;0.548797
7701.000000;0.548805
7700.000000;0.548784
7699.000000;0.548750
7698.000000;0.548687
7697.000000;0.548571
7696.000000;0.548436
7695.000000;0.548368
7694.000000;0.548417
7693.000000;0.548543
7692.000000;0.548657
7691.000000;0.548682
7690.000000;0.548583
7689.000000;0.548392
7688.000000;0.548196
7687.000000;0.548064
7686.000000;0.547981
7685.000000;0.547894
7684.000000;0.547813
7683.000000;0.547804
7682.000000;0.547872
7681.000000;0.547934
7680.000000;0.547921
7679.000000;0.547867
7678.000000;0.547846
7677.000000;0.547865
7676.000000;0.547871
7675.000000;0.547834
7674.000000;0.547767
7673.000000;0.547685
7672.000000;0.547577
7671.000000;0.547434
7670.000000;0.547277
7669.000000;0.547143
7668.000000;0.547075
7667.000000;0.547086
7666.000000;0.547143
7665.000000;0.547180
7664.000000;0.547161
7663.000000;0.547103
7662.000000;0.547036
7661.000000;0.546968
7660.000000;0.546899
7659.000000;0.546863
7658.000000;0.546890
7657.000000;0.546963
7656.000000;0.547020
7655.000000;0.547011
7654.000000;0.546936
7653.000000;0.546828
7652.000000;0.546727
7651.000000;0.546658
7650.000000;0.546612
7649.000000;0.546549
7648.000000;0.546446
7647.000000;0.546334
7646.000000;0.546272
7645.000000;0.546276
7644.000000;0.546296
7643.000000;0.546267
7642.000000;0.546181
7641.000000;0.546098
7640.000000;0.546090
7639.000000;0.546165
7638.000000;0.546240
7637.000000;0.546214
7636.000000;0.546060
7635.000000;0.545854
7634.000000;0.545700
7633.000000;0.545640
7632.000000;0.545660
7631.000000;0.545720
7630.000000;0.545776
7629.000000;0.545787
7628.000000;0.545744
7627.000000;0.545686
7626.000000;0.545655
7625.000000;0.545643
7624.000000;0.545617
7623.000000;0.545580
7622.000000;0.545551
7621.000000;0.545511
7620.000000;0.545411
7619.000000;0.545262
7618.000000;0.545140
7617.000000;0.545101
7616.000000;0.545109
7615.000000;0.545092
7614.000000;0.545025
7613.000000;0.544938
7612.000000;0.544872
7611.000000;0.544855
7610.000000;0.544903
7609.000000;0.544996
7608.000000;0.545073
7607.000000;0.545089
7606.000000;0.545072
7605.000000;0.545083
7604.000000;0.545130
7603.000000;0.545154
7602.000000;0.545099
7601.000000;0.544963
7600.000000;0.544775
7599.000000;0.544550
7598.000000;0.544312
7597.000000;0.544113
7596.000000;0.544011
7595.000000;0.544016
7594.000000;0.544088
7593.000000;0.544176
7592.000000;0.544251
7591.000000;0.544310
7590.000000;0.544366
7589.000000;0.544429
7588.000000;0.544489
7587.000000;0.544501
7586.000000;0.544414
7585.000000;0.544221
7584.000000;0.543982
7583.000000;0.543794
7582.000000;0.543725
7581.000000;0.543778
7580.000000;0.543891
7579.000000;0.543983
7578.000000;0.544009
7577.000000;0.543969
7576.000000;0.543889
7575.000000;0.543799
7574.000000;0.543737
7573.000000;0.543738
7572.000000;0.543790
7571.000000;0.543815
7570.000000;0.543744
7569.000000;0.543598
7568.000000;0.543471
7567.000000;0.543424
7566.000000;0.543431
7565.000000;0.543439
7564.000000;0.543443
7563.000000;0.543469
7562.000000;0.543505
7561.000000;0.543503
7560.000000;0.543445
7559.000000;0.543372
7558.000000;0.543346
7557.000000;0.543384
7556.000000;0.543450
7555.000000;0.543491
7554.000000;0.543483
7553.000000;0.543448
7552.000000;0.543423
7551.000000;0.543411
7550.000000;0.543366
7549.000000;0.543241
7548.000000;0.543047
7547.000000;0.542858
7546.000000;0.542759
7545.000000;0.542784
7544.000000;0.542896
7543.000000;0.543017
7542.000000;0.543082
7541.000000;0.543088
7540.000000;0.543084
7539.000000;0.543105
7538.000000;0.543126
7537.000000;0.543096
7536.000000;0.543008
7535.000000;0.542905
7534.000000;0.542831
7533.000000;0.542799
7532.000000;0.542805
7531.000000;0.542845
7530.000000;0.542893
7529.000000;0.542905
7528.000000;0.542854
7527.000000;0.542759
7526.000000;0.542675
7525.000000;0.542643
7524.000000;0.542661
7523.000000;0.542693
7522.000000;0.542706
7521.000000;0.542695
7520.000000;0.542688
7519.000000;0.542703
7518.000000;0.542732
7517.000000;0.542746
7516.000000;0.542734
7515.000000;0.542709
7514.000000;0.542683
7513.000000;0.542651
7512.000000;0.542613
7511.000000;0.542591
7510.000000;0.542616
7509.000000;0.542697
7508.000000;0.542802
7507.000000;0.542859
7506.000000;0.542800
7505.000000;0.542624
7504.000000;0.542426
7503.000000;0.542325
7502.000000;0.542361
7501.000000;0.542458
7500.000000;0.542517
7499.000000;0.542513
7498.000000;0.542504
7497.000000;0.542537
7496.000000;0.542606
7495.000000;0.542667
7494.000000;0.542670
7493.000000;0.542641
7492.000000;0.542593
7491.000000;0.542525
7490.000000;0.542434
7489.000000;0.542341
7488.000000;0.542290
7487.000000;0.542312
7486.000000;0.542394
7485.000000;0.542488
7484.000000;0.542547
7483.000000;0.542553
7482.000000;0.542513
7481.000000;0.542457
7480.000000;0.542427
7479.000000;0.542466
7478.000000;0.542574
7477.000000;0.542695
7476.000000;0.542758
7475.000000;0.542739
7474.000000;0.542668
7473.000000;0.542587
7472.000000;0.542513
7471.000000;0.542448
7470.000000;0.542411
7469.000000;0.542433
7468.000000;0.542516
7467.000000;0.542620
7466.000000;0.542695
7465.000000;0.542718
7464.000000;0.542703
7463.000000;0.542668
7462.000000;0.542623
7461.000000;0.542568
7460.000000;0.542512
7459.000000;0.542467
7458.000000;0.542454
7457.000000;0.542485
7456.000000;0.542551
7455.000000;0.542613
7454.000000;0.542627
7453.000000;0.542582
7452.000000;0.542519
7451.000000;0.542495
7450.000000;0.542540
7449.000000;0.542630
7448.000000;0.542709
7447.000000;0.542743
7446.000000;0.542753
7445.000000;0.542790
7444.000000;0.542866
7443.000000;0.542929
7442.000000;0.542927
7441.000000;0.542879
7440.000000;0.542849
7439.000000;0.542865
7438.000000;0.542896
7437.000000;0.542915
7436.000000;0.542935
7435.000000;0.542971
7434.000000;0.543009
7433.000000;0.543022
7432.000000;0.543013
7431.000000;0.543010
7430.000000;0.543029
7429.000000;0.543057
7428.000000;0.543051
7427.000000;0.542972
7426.000000;0.542838
7425.000000;0.542741
7424.000000;0.542786
7423.000000;0.542980
7422.000000;0.543216
7421.000000;0.543372
7420.000000;0.543404
7419.000000;0.543340
7418.000000;0.543227
7417.000000;0.543119
7416.000000;0.543065
7415.000000;0.543090
7414.000000;0.543181
7413.000000;0.543306
7412.000000;0.543430
7411.000000;0.543507
7410.000000;0.543487
7409.000000;0.543380
7408.000000;0.543253
7407.000000;0.543168
7406.000000;0.543129
7405.000000;0.543130
7404.000000;0.543199
7403.000000;0.543341
7402.000000;0.543491
7401.000000;0.543571
7400.000000;0.543584
7399.000000;0.543603
7398.000000;0.543667
7397.000000;0.543748
7396.000000;0.543810
7395.000000;0.543850
7394.000000;0.543881
7393.000000;0.543914
7392.000000;0.543959
7391.000000;0.544024
7390.000000;0.544103
7389.000000;0.544177
7388.000000;0.544233
7387.000000;0.544264
7386.000000;0.544265
7385.000000;0.544255
7384.000000;0.544269
7383.000000;0.544316
7382.000000;0.544374
7381.000000;0.544429
7380.000000;0.544490
7379.000000;0.544524
7378.000000;0.544440
7377.000000;0.544209
7376.000000;0.543959
7375.000000;0.543883
7374.000000;0.544033
7373.000000;0.544273
7372.000000;0.544453
7371.000000;0.544544
7370.000000;0.544609
7369.000000;0.544705
7368.000000;0.544844
7367.000000;0.545009
7366.000000;0.545157
7365.000000;0.545253
7364.000000;0.545313
7363.000000;0.545377
7362.000000;0.545454
7361.000000;0.545533
7360.000000;0.545628
7359.000000;0.545736
7358.000000;0.545792
7357.000000;0.545723
7356.000000;0.545568
7355.000000;0.545480
7354.000000;0.545572
7353.000000;0.545800
7352.000000;0.546025
7351.000000;0.546136
7350.000000;0.546114
7349.000000;0.546033
7348.000000;0.546023
7347.000000;0.546152
7346.000000;0.546354
7345.000000;0.546500
7344.000000;0.546551
7343.000000;0.546560
7342.000000;0.546532
7341.000000;0.546418
7340.000000;0.546261
7339.000000;0.546230
7338.000000;0.546400
7337.000000;0.546633
7336.000000;0.546757
7335.000000;0.546786
7334.000000;0.546871
7333.000000;0.547090
7332.000000;0.547381
7331.000000;0.547620
7330.000000;0.547711
7329.000000;0.547643
7328.000000;0.547538
7327.000000;0.547584
7326.000000;0.547823
7325.000000;0.548062
7324.000000;0.548100
7323.000000;0.547993
7322.000000;0.547974
7321.000000;0.548145
7320.000000;0.548380
7319.000000;0.548530
7318.000000;0.548593
7317.000000;0.548656
7316.000000;0.548785
7315.000000;0.548986
7314.000000;0.549221
7313.000000;0.549437
7312.000000;0.549621
7311.000000;0.549821
7310.000000;0.550078
7309.000000;0.550322
7308.000000;0.550426
7307.000000;0.550372
7306.000000;0.550292
7305.000000;0.550310
7304.000000;0.550419
7303.000000;0.550541
7302.000000;0.550642
7301.000000;0.550747
7300.000000;0.550897
7299.000000;0.551139
7298.000000;0.551471
7297.000000;0.551784
7296.000000;0.551928
7295.000000;0.551884
7294.000000;0.551835
7293.000000;0.551988
7292.000000;0.552347
7291.000000;0.552700
7290.000000;0.552850
7289.000000;0.552805
7288.000000;0.552748
7287.000000;0.552865
7286.000000;0.553191
7285.000000;0.553608
7284.000000;0.553966
7283.000000;0.554199
7282.000000;0.554345
7281.000000;0.554464
7280.000000;0.554595
7279.000000;0.554753
7278.000000;0.554927
7277.000000;0.555090
7276.000000;0.555226
7275.000000;0.555361
7274.000000;0.555526
7273.000000;0.555716
7272.000000;0.555900
7271.000000;0.556074
7270.000000;0.556266
7269.000000;0.556505
7268.000000;0.556808
7267.000000;0.557183
7266.000000;0.557608
7265.000000;0.558012
7264.000000;0.558345
7263.000000;0.558639
7262.000000;0.558960
7261.000000;0.559318
7260.000000;0.559669
7259.000000;0.560000
7258.000000;0.560345
7257.000000;0.560698
7256.000000;0.560990
7255.000000;0.561188
7254.000000;0.561373
7253.000000;0.561667
7252.000000;0.562093
7251.000000;0.562553
7250.000000;0.562919
7249.000000;0.563147
7248.000000;0.563312
7247.000000;0.563526
7246.000000;0.563820
7245.000000;0.564119
7244.000000;0.564365
7243.000000;0.564633
7242.000000;0.565058
7241.000000;0.565631
7240.000000;0.566164
7239.000000;0.566502
7238.000000;0.566716
7237.000000;0.567010
7236.000000;0.567463
7235.000000;0.567950
7234.000000;0.568319
7233.000000;0.568583
7232.000000;0.568896
7231.000000;0.569355
7230.000000;0.569878
7229.000000;0.570304
7228.000000;0.570579
7227.000000;0.570818
7226.000000;0.571189
7225.000000;0.571762
7224.000000;0.572452
7223.000000;0.573108
7222.000000;0.573627
7221.000000;0.574021
7220.000000;0.574408
7219.000000;0.574893
7218.000000;0.575418
7217.000000;0.575799
7216.000000;0.575972
7215.000000;0.576144
7214.000000;0.576594
7213.000000;0.577339
7212.000000;0.578112
7211.000000;0.578668
7210.000000;0.579021
7209.000000;0.579351
7208.000000;0.579774
7207.000000;0.580268
7206.000000;0.580779
7205.000000;0.581304
7204.000000;0.581876
7203.000000;0.582508
7202.000000;0.583170
7201.000000;0.583809
7200.000000;0.584399
7199.000000;0.584962
7198.000000;0.585535
7197.000000;0.586118
7196.000000;0.586685
7195.000000;0.587231
7194.000000;0.587766
7193.000000;0.588274
7192.000000;0.588727
7191.000000;0.589130
7190.000000;0.589525
7189.000000;0.589940
7188.000000;0.590395
7187.000000;0.590936
7186.000000;0.591617
7185.000000;0.592398
7184.000000;0.593139
7183.000000;0.593742
7182.000000;0.594277
7181.000000;0.594897
7180.000000;0.595644
7179.000000;0.596399
7178.000000;0.597034
7177.000000;0.597565
7176.000000;0.598126
7175.000000;0.598836
7174.000000;0.599722
7173.000000;0.600727
7172.000000;0.601729
7171.000000;0.602593
7170.000000;0.603244
7169.000000;0.603726
7168.000000;0.604174
7167.000000;0.604722
7166.000000;0.605422
7165.000000;0.606238
7164.000000;0.607060
7163.000000;0.607741
7162.000000;0.608210
7161.000000;0.608599
7160.000000;0.609184
7159.000000;0.610087
7158.000000;0.611093
7157.000000;0.611858
7156.000000;0.612300
7155.000000;0.612670
7154.000000;0.613250
7153.000000;0.614057
7152.000000;0.614916
7151.000000;0.615709
7150.000000;0.616447
7149.000000;0.617131
7148.000000;0.617705
7147.000000;0.618160
7146.000000;0.618625
7145.000000;0.619262
7144.000000;0.620059
7143.000000;0.620785
7142.000000;0.621202
7141.000000;0.621336
7140.000000;0.621512
7139.000000;0.622090
7138.000000;0.623110
7137.000000;0.624198
7136.000000;0.624900
7135.000000;0.625124
7134.000000;0.625216
7133.000000;0.625570
7132.000000;0.626199
7131.000000;0.626762
7130.000000;0.626999
7129.000000;0.627037
7128.000000;0.627225
7127.000000;0.627723
7126.000000;0.628345
7125.000000;0.628804
7124.000000;0.629053
7123.000000;0.629326
7122.000000;0.629875
7121.000000;0.630674
7120.000000;0.631374
7119.000000;0.631567
7118.000000;0.631172
7117.000000;0.630560
7116.000000;0.630250
7115.000000;0.630422
7114.000000;0.630828
7113.000000;0.631174
7112.000000;0.631421
7111.000000;0.631658
7110.000000;0.631859
7109.000000;0.631940
7108.000000;0.631963
7107.000000;0.632070
7106.000000;0.632263
7105.000000;0.632412
7104.000000;0.632479
7103.000000;0.632538
7102.000000;0.632527
7101.000000;0.632194
7100.000000;0.631393
7099.000000;0.630282
7098.000000;0.629137
7097.000000;0.628085
7096.000000;0.627147
7095.000000;0.626433
7094.000000;0.626118
7093.000000;0.626202
7092.000000;0.626402
7091.000000;0.626375
7090.000000;0.626003
7089.000000;0.625441
7088.000000;0.624900
7087.000000;0.624415
7086.000000;0.623849
7085.000000;0.623096
7084.000000;0.622178
7083.000000;0.621115
7082.000000;0.619881
7081.000000;0.618609
7080.000000;0.617639
7079.000000;0.617093
7078.000000;0.616516
7077.000000;0.615302
7076.000000;0.613484
7075.000000;0.611765
7074.000000;0.610711
7073.000000;0.610225
7072.000000;0.609891
7071.000000;0.609461
7070.000000;0.608757
7069.000000;0.607484
7068.000000;0.605538
7067.000000;0.603312
7066.000000;0.601338
7065.000000;0.599732
7064.000000;0.598261
7063.000000;0.596806
7062.000000;0.595405
7061.000000;0.593968
7060.000000;0.592356
7059.000000;0.590736
7058.000000;0.589444
7057.000000;0.588395
7056.000000;0.586960
7055.000000;0.584630
7054.000000;0.581604
7053.000000;0.578604
7052.000000;0.576261
7051.000000;0.574743
7050.000000;0.573743
7049.000000;0.572697
7048.000000;0.571188
7047.000000;0.569264
7046.000000;0.567283
7045.000000;0.565449
7044.000000;0.563679
7043.000000;0.561909
7042.000000;0.560215
7041.000000;0.558486
7040.000000;0.556318
7039.000000;0.553537
7038.000000;0.550630
7037.000000;0.548346
7036.000000;0.546946
7035.000000;0.546056
7034.000000;0.545118
7033.000000;0.543691
7032.000000;0.541418
7031.000000;0.538134
7030.000000;0.534216
7029.000000;0.530560
7028.000000;0.527891
7027.000000;0.526099
7026.000000;0.524415
7025.000000;0.522202
7024.000000;0.519417
7023.000000;0.516344
7022.000000;0.513217
7021.000000;0.510335
7020.000000;0.508233
7019.000000;0.507233
7018.000000;0.506724
7017.000000;0.505377
7016.000000;0.502438
7015.000000;0.498609
7014.000000;0.495288
7013.000000;0.493069
7012.000000;0.491316
7011.000000;0.489132
7010.000000;0.486340
7009.000000;0.483406
7008.000000;0.480730
7007.000000;0.478226
7006.000000;0.475511
7005.000000;0.472407
7004.000000;0.469262
7003.000000;0.466684
7002.000000;0.464820
7001.000000;0.463060
7000.000000;0.460709
6999.000000;0.457795
6998.000000;0.454874
6997.000000;0.452161
6996.000000;0.449346
6995.000000;0.446289
6994.000000;0.443365
6993.000000;0.440957
6992.000000;0.439060
6991.000000;0.437559
6990.000000;0.436446
6989.000000;0.435433
6988.000000;0.433806
6987.000000;0.431128
6986.000000;0.427788
6985.000000;0.424422
6984.000000;0.420977
6983.000000;0.416894
6982.000000;0.412159
6981.000000;0.407721
6980.000000;0.404695
6979.000000;0.403362
6978.000000;0.402931
6977.000000;0.402065
6976.000000;0.399784
6975.000000;0.396203
6974.000000;0.392434
6973.000000;0.389555
6972.000000;0.387563
6971.000000;0.385465
6970.000000;0.382427
6969.000000;0.378655
6968.000000;0.375015
6967.000000;0.372017
6966.000000;0.369447
6965.000000;0.366882
6964.000000;0.364234
6963.000000;0.361624
6962.000000;0.359012
6961.000000;0.356321
6960.000000;0.353855
6959.000000;0.352086
6958.000000;0.350870
6957.000000;0.349327
6956.000000;0.346876
6955.000000;0.344039
6954.000000;0.341713
6953.000000;0.339985
6952.000000;0.338224
6951.000000;0.336134
6950.000000;0.334046
6949.000000;0.332151
6948.000000;0.330105
6947.000000;0.327556
6946.000000;0.324539
6945.000000;0.321195
6944.000000;0.317561
6943.000000;0.313904
6942.000000;0.310845
6941.000000;0.308847
6940.000000;0.307770
6939.000000;0.307044
6938.000000;0.306017
6937.000000;0.304181
6936.000000;0.301483
6935.000000;0.298492
6934.000000;0.295857
6933.000000;0.293578
6932.000000;0.291210
6931.000000;0.288745
6930.000000;0.286696
6929.000000;0.285176
6928.000000;0.283571
6927.000000;0.281438
6926.000000;0.279127
6925.000000;0.277145
6924.000000;0.275445
6923.000000;0.273722
6922.000000;0.271944
6921.000000;0.270135
6920.000000;0.268081
6919.000000;0.265704
6918.000000;0.263396
6917.000000;0.261573
6916.000000;0.260130
6915.000000;0.258722
6914.000000;0.257292
6913.000000;0.255951
6912.000000;0.254594
6911.000000;0.253009
6910.000000;0.251157
6909.000000;0.249117
6908.000000;0.246998
6907.000000;0.245076
6906.000000;0.243665
6905.000000;0.242605
6904.000000;0.241264
6903.000000;0.239346
6902.000000;0.237343
6901.000000;0.235848
6900.000000;0.234803
6899.000000;0.233730
6898.000000;0.232312
6897.000000;0.230393
6896.000000;0.227841
6895.000000;0.224897
6894.000000;0.222396
6893.000000;0.221092
6892.000000;0.220833
6891.000000;0.220743
6890.000000;0.220101
6889.000000;0.218777
6888.000000;0.217064
6887.000000;0.215437
6886.000000;0.214369
6885.000000;0.214033
6884.000000;0.214124
6883.000000;0.214090
6882.000000;0.213438
6881.000000;0.211908
6880.000000;0.209668
6879.000000;0.207382
6878.000000;0.205758
6877.000000;0.204922
6876.000000;0.204496
6875.000000;0.204221
6874.000000;0.204090
6873.000000;0.203979
6872.000000;0.203713
6871.000000;0.203480
6870.000000;0.203506
6869.000000;0.203317
6868.000000;0.202095
6867.000000;0.199932
6866.000000;0.197916
6865.000000;0.196696
6864.000000;0.195842
6863.000000;0.195009
6862.000000;0.194754
6861.000000;0.195488
6860.000000;0.196407
6859.000000;0.196292
6858.000000;0.194913
6857.000000;0.192981
6856.000000;0.191172
6855.000000;0.189869
6854.000000;0.189368
6853.000000;0.189504
6852.000000;0.189398
6851.000000;0.188329
6850.000000;0.186729
6849.000000;0.185746
6848.000000;0.185960
6847.000000;0.187002
6846.000000;0.188165
6845.000000;0.188808
6844.000000;0.188469
6843.000000;0.187261
6842.000000;0.186056
6841.000000;0.185740
6840.000000;0.186289
6839.000000;0.186935
6838.000000;0.187066
6837.000000;0.186567
6836.000000;0.185572
6835.000000;0.184469
6834.000000;0.183908
6833.000000;0.184247
6832.000000;0.185097
6831.000000;0.185841
6830.000000;0.186396
6829.000000;0.186994
6828.000000;0.187510
6827.000000;0.187625
6826.000000;0.187507
6825.000000;0.187669
6824.000000;0.188155
6823.000000;0.188417
6822.000000;0.188042
6821.000000;0.187210
6820.000000;0.186438
6819.000000;0.186217
6818.000000;0.186828
6817.000000;0.188132
6816.000000;0.189588
6815.000000;0.190774
6814.000000;0.191768
6813.000000;0.192728
6812.000000;0.193356
6811.000000;0.193276
6810.000000;0.192798
6809.000000;0.192718
6808.000000;0.193332
6807.000000;0.194124
6806.000000;0.194510
6805.000000;0.194467
6804.000000;0.194331
6803.000000;0.194349
6802.000000;0.194582
6801.000000;0.194978
6800.000000;0.195438
6799.000000;0.195968
6798.000000;0.196746
6797.000000;0.197821
6796.000000;0.198838
6795.000000;0.199370
6794.000000;0.199457
6793.000000;0.199524
6792.000000;0.199831
6791.000000;0.200348
6790.000000;0.201121
6789.000000;0.202306
6788.000000;0.203696
6787.000000;0.204648
6786.000000;0.204785
6785.000000;0.204547
6784.000000;0.204759
6783.000000;0.205740
6782.000000;0.207070
6781.000000;0.208197
6780.000000;0.209007
6779.000000;0.209706
6778.000000;0.210315
6777.000000;0.210559
6776.000000;0.210334
6775.000000;0.210073
6774.000000;0.210369
6773.000000;0.211233
6772.000000;0.212030
6771.000000;0.212250
6770.000000;0.212136
6769.000000;0.212358
6768.000000;0.213227
6767.000000;0.214467
6766.000000;0.215632
6765.000000;0.216488
6764.000000;0.217056
6763.000000;0.217523
6762.000000;0.218133
6761.000000;0.218993
6760.000000;0.219981
6759.000000;0.220925
6758.000000;0.221814
6757.000000;0.222692
6756.000000;0.223443
6755.000000;0.223925
6754.000000;0.224306
6753.000000;0.224988
6752.000000;0.226101
6751.000000;0.227245
6750.000000;0.227885
6749.000000;0.227963
6748.000000;0.227969
6747.000000;0.228429
6746.000000;0.229362
6745.000000;0.230293
6744.000000;0.230795
6743.000000;0.230959
6742.000000;0.231230
6741.000000;0.231810
6740.000000;0.232387
6739.000000;0.232585
6738.000000;0.232543
6737.000000;0.232863
6736.000000;0.233956
6735.000000;0.235558
6734.000000;0.236977
6733.000000;0.237752
6732.000000;0.238036
6731.000000;0.238347
6730.000000;0.239016
6729.000000;0.239934
6728.000000;0.240784
6727.000000;0.241413
6726.000000;0.241913
6725.000000;0.242437
6724.000000;0.243059
6723.000000;0.243760
6722.000000;0.244426
6721.000000;0.244894
6720.000000;0.245155
6719.000000;0.245494
6718.000000;0.246222
6717.000000;0.247274
6716.000000;0.248265
6715.000000;0.249001
6714.000000;0.249714
6713.000000;0.250662
6712.000000;0.251708
6711.000000;0.252478
6710.000000;0.252833
6709.000000;0.252990
6708.000000;0.253240
6707.000000;0.253731
6706.000000;0.254462
6705.000000;0.255326
6704.000000;0.256130
6703.000000;0.256699
6702.000000;0.257017
6701.000000;0.257273
6700.000000;0.257721
6699.000000;0.258495
6698.000000;0.259538
6697.000000;0.260581
6696.000000;0.261335
6695.000000;0.261745
6694.000000;0.262058
6693.000000;0.262589
6692.000000;0.263447
6691.000000;0.264480
6690.000000;0.265406
6689.000000;0.265964
6688.000000;0.266096
6687.000000;0.266052
6686.000000;0.266226
6685.000000;0.266802
6684.000000;0.267621
6683.000000;0.268448
6682.000000;0.269248
6681.000000;0.270090
6680.000000;0.270930
6679.000000;0.271651
6678.000000;0.272256
6677.000000;0.272869
6676.000000;0.273559
6675.000000;0.274286
6674.000000;0.274991
6673.000000;0.275613
6672.000000;0.276056
6671.000000;0.276280
6670.000000;0.276439
6669.000000;0.276786
6668.000000;0.277399
6667.000000;0.278104
6666.000000;0.278720
6665.000000;0.279283
6664.000000;0.279972
6663.000000;0.280848
6662.000000;0.281745
6661.000000;0.282416
6660.000000;0.282794
6659.000000;0.283088
6658.000000;0.283578
6657.000000;0.284304
6656.000000;0.285011
6655.000000;0.285444
6654.000000;0.285657
6653.000000;0.285957
6652.000000;0.286569
6651.000000;0.287455
6650.000000;0.288404
6649.000000;0.289235
6648.000000;0.289897
6647.000000;0.290454
6646.000000;0.290997
6645.000000;0.291527
6644.000000;0.291940
6643.000000;0.292178
6642.000000;0.292373
6641.000000;0.292755
6640.000000;0.293410
6639.000000;0.294181
6638.000000;0.294841
6637.000000;0.295294
6636.000000;0.295600
6635.000000;0.295883
6634.000000;0.296257
6633.000000;0.296786
6632.000000;0.297450
6631.000000;0.298159
6630.000000;0.298824
6629.000000;0.299421
6628.000000;0.299976
6627.000000;0.300496
6626.000000;0.300962
6625.000000;0.301360
6624.000000;0.301714
6623.000000;0.302071
6622.000000;0.302484
6621.000000;0.302998
6620.000000;0.303645
6619.000000;0.304426
6618.000000;0.305282
6617.000000;0.306086
6616.000000;0.306703
6615.000000;0.307099
6614.000000;0.307373
6613.000000;0.307675
6612.000000;0.308078
6611.000000;0.308554
6610.000000;0.309054
6609.000000;0.309585
6608.000000;0.310201
6607.000000;0.310915
6606.000000;0.311638
6605.000000;0.312214
6604.000000;0.312555
6603.000000;0.312736
6602.000000;0.312939
6601.000000;0.313286
6600.000000;0.313735
6599.000000;0.314165
6598.000000;0.314533
6597.000000;0.314920
6596.000000;0.315425
6595.000000;0.316059
6594.000000;0.316743
6593.000000;0.317376
6592.000000;0.317884
6591.000000;0.318245
6590.000000;0.318512
6589.000000;0.318808
6588.000000;0.319252
6587.000000;0.319847
6586.000000;0.320471
6585.000000;0.320988
6584.000000;0.321389
6583.000000;0.321773
6582.000000;0.322218
6581.000000;0.322702
6580.000000;0.323175
6579.000000;0.323639
6578.000000;0.324122
6577.000000;0.324611
6576.000000;0.325066
6575.000000;0.325478
6574.000000;0.325872
6573.000000;0.326247
6572.000000;0.326585
6571.000000;0.326895
6570.000000;0.327231
6569.000000;0.327632
6568.000000;0.328089
6567.000000;0.328560
6566.000000;0.328991
6565.000000;0.329355
6564.000000;0.329684
6563.000000;0.330070
6562.000000;0.330563
6561.000000;0.331108
6560.000000;0.331617
6559.000000;0.332078
6558.000000;0.332543
6557.000000;0.332996
6556.000000;0.333354
6555.000000;0.333592
6554.000000;0.333812
6553.000000;0.334131
6552.000000;0.334574
6551.000000;0.335105
6550.000000;0.335701
6549.000000;0.336332
6548.000000;0.336922
6547.000000;0.337401
6546.000000;0.337772
6545.000000;0.338086
6544.000000;0.338392
6543.000000;0.338732
6542.000000;0.339142
6541.000000;0.339609
6540.000000;0.340058
6539.000000;0.340437
6538.000000;0.340783
6537.000000;0.341168
6536.000000;0.341608
6535.000000;0.342068
6534.000000;0.342521
6533.000000;0.342943
6532.000000;0.343284
6531.000000;0.343514
6530.000000;0.343690
6529.000000;0.343917
6528.000000;0.344240
6527.000000;0.344616
6526.000000;0.344995
6525.000000;0.345366
6524.000000;0.345729
6523.000000;0.346063
6522.000000;0.346362
6521.000000;0.346661
6520.000000;0.347009
6519.000000;0.347431
6518.000000;0.347907
6517.000000;0.348383
6516.000000;0.348802
6515.000000;0.349153
6514.000000;0.349499
6513.000000;0.349906
6512.000000;0.350363
6511.000000;0.350780
6510.000000;0.351078
6509.000000;0.351262
6508.000000;0.351414
6507.000000;0.351633
6506.000000;0.351979
6505.000000;0.352448
6504.000000;0.352975
6503.000000;0.353473
6502.000000;0.353883
6501.000000;0.354189
6500.000000;0.354420
6499.000000;0.354644
6498.000000;0.354947
6497.000000;0.355348
6496.000000;0.355761
6495.000000;0.356068
6494.000000;0.356248
6493.000000;0.356411
6492.000000;0.356686
6491.000000;0.357090
6490.000000;0.357534
6489.000000;0.357919
6488.000000;0.358236
6487.000000;0.358551
6486.000000;0.358924
6485.000000;0.359334
6484.000000;0.359711
6483.000000;0.360011
6482.000000;0.360262
6481.000000;0.360504
6480.000000;0.360739
6479.000000;0.360954
6478.000000;0.361180
6477.000000;0.361480
6476.000000;0.361869
6475.000000;0.362282
6474.000000;0.362633
6473.000000;0.362890
6472.000000;0.363086
6471.000000;0.363283
6470.000000;0.363529
6469.000000;0.363823
6468.000000;0.364129
6467.000000;0.364431
6466.000000;0.364750
6465.000000;0.365103
6464.000000;0.365445
6463.000000;0.365713
6462.000000;0.365929
6461.000000;0.366191
6460.000000;0.366552
6459.000000;0.366941
6458.000000;0.367243
6457.000000;0.367438
6456.000000;0.367611
6455.000000;0.367841
6454.000000;0.368113
6453.000000;0.368374
6452.000000;0.368613
6451.000000;0.368887
6450.000000;0.369248
6449.000000;0.369672
6448.000000;0.370055
6447.000000;0.370296
6446.000000;0.370386
6445.000000;0.370430
6444.000000;0.370565
6443.000000;0.370845
6442.000000;0.371213
6441.000000;0.371571
6440.000000;0.371872
6439.000000;0.372136
6438.000000;0.372397
6437.000000;0.372660
6436.000000;0.372925
6435.000000;0.373216
6434.000000;0.373553
6433.000000;0.373893
6432.000000;0.374156
6431.000000;0.374312
6430.000000;0.374425
6429.000000;0.374582
6428.000000;0.374807
6427.000000;0.375053
6426.000000;0.375280
6425.000000;0.375500
6424.000000;0.375741
6423.000000;0.376003
6422.000000;0.376248
6421.000000;0.376442
6420.000000;0.376591
6419.000000;0.376739
6418.000000;0.376930
6417.000000;0.377171
6416.000000;0.377430
6415.000000;0.377680
6414.000000;0.377933
6413.000000;0.378211
6412.000000;0.378502
6411.000000;0.378765
6410.000000;0.378980
6409.000000;0.379166
6408.000000;0.379355
6407.000000;0.379550
6406.000000;0.379732
6405.000000;0.379885
6404.000000;0.380022
6403.000000;0.380182
6402.000000;0.380409
6401.000000;0.380720
6400.000000;0.381086
6399.000000;0.381440
6398.000000;0.381721
6397.000000;0.381923
6396.000000;0.382087
6395.000000;0.382259
6394.000000;0.382433
6393.000000;0.382562
6392.000000;0.382613
6391.000000;0.382626
6390.000000;0.382689
6389.000000;0.382860
6388.000000;0.383118
6387.000000;0.383398
6386.000000;0.383657
6385.000000;0.383901
6384.000000;0.384147
6383.000000;0.384391
6382.000000;0.384603
6381.000000;0.384757
6380.000000;0.384863
6379.000000;0.384975
6378.000000;0.385144
6377.000000;0.385364
6376.000000;0.385575
6375.000000;0.385739
6374.000000;0.385880
6373.000000;0.386034
6372.000000;0.386187
6371.000000;0.386303
6370.000000;0.386401
6369.000000;0.386539
6368.000000;0.386725
6367.000000;0.386909
6366.000000;0.387061
6365.000000;0.387234
6364.000000;0.387486
6363.000000;0.387795
6362.000000;0.388071
6361.000000;0.388249
6360.000000;0.388330
6359.000000;0.388371
6358.000000;0.388435
6357.000000;0.388565
6356.000000;0.388743
6355.000000;0.388906
6354.000000;0.389015
6353.000000;0.389116
6352.000000;0.389290
6351.000000;0.389542
6350.000000;0.389787
6349.000000;0.389947
6348.000000;0.390035
6347.000000;0.390120
6346.000000;0.390251
6345.000000;0.390427
6344.000000;0.390624
6343.000000;0.390813
6342.000000;0.390964
6341.000000;0.391057
6340.000000;0.391106
6339.000000;0.391159
6338.000000;0.391256
6337.000000;0.391392
6336.000000;0.391525
6335.000000;0.391628
6334.000000;0.391713
6333.000000;0.391815
6332.000000;0.391954
6331.000000;0.392115
6330.000000;0.392264
6329.000000;0.392373
6328.000000;0.392436
6327.000000;0.392472
6326.000000;0.392518
6325.000000;0.392605
6324.000000;0.392726
6323.000000;0.392842
6322.000000;0.392928
6321.000000;0.393007
6320.000000;0.393113
6319.000000;0.393252
6318.000000;0.393402
6317.000000;0.393551
6316.000000;0.393700
6315.000000;0.393830
6314.000000;0.393911
6313.000000;0.393951
6312.000000;0.394001
6311.000000;0.394107
6310.000000;0.394263
6309.000000;0.394428
6308.000000;0.394579
6307.000000;0.394711
6306.000000;0.394821
6305.000000;0.394906
6304.000000;0.394977
6303.000000;0.395058
6302.000000;0.395152
6301.000000;0.395249
6300.000000;0.395334
6299.000000;0.395404
6298.000000;0.395461
6297.000000;0.395504
6296.000000;0.395534
6295.000000;0.395555
6294.000000;0.395579
6293.000000;0.395625
6292.000000;0.395711
6291.000000;0.395828
6290.000000;0.395951
6289.000000;0.396059
6288.000000;0.396155
6287.000000;0.396254
6286.000000;0.396366
6285.000000;0.396491
6284.000000;0.396621
6283.000000;0.396740
6282.000000;0.396819
6281.000000;0.396850
6280.000000;0.396860
6279.000000;0.396888
6278.000000;0.396944
6277.000000;0.397015
6276.000000;0.397093
6275.000000;0.397184
6274.000000;0.397279
6273.000000;0.397362
6272.000000;0.397431
6271.000000;0.397503
6270.000000;0.397586
6269.000000;0.397663
6268.000000;0.397717
6267.000000;0.397749
6266.000000;0.397767
6265.000000;0.397783
6264.000000;0.397810
6263.000000;0.397865
6262.000000;0.397952
6261.000000;0.398053
6260.000000;0.398147
6259.000000;0.398226
6258.000000;0.398274
6257.000000;0.398278
6256.000000;0.398250
6255.000000;0.398241
6254.000000;0.398287
6253.000000;0.398368
6252.000000;0.398439
6251.000000;0.398486
6250.000000;0.398538
6249.000000;0.398614
6248.000000;0.398686
6247.000000;0.398712
6246.000000;0.398693
6245.000000;0.398673
6244.000000;0.398701
6243.000000;0.398774
6242.000000;0.398853
6241.000000;0.398906
6240.000000;0.398939
6239.000000;0.398979
6238.000000;0.399036
6237.000000;0.399090
6236.000000;0.399123
6235.000000;0.399144
6234.000000;0.399183
6233.000000;0.399263
6232.000000;0.399385
6231.000000;0.399515
6230.000000;0.399597
6229.000000;0.399600
6228.000000;0.399556
6227.000000;0.399538
6226.000000;0.399580
6225.000000;0.399645
6224.000000;0.399672
6223.000000;0.399641
6222.000000;0.399592
6221.000000;0.399569
6220.000000;0.399598
6219.000000;0.399670
6218.000000;0.399764
6217.000000;0.399859
6216.000000;0.399951
6215.000000;0.400038
6214.000000;0.400103
6213.000000;0.400117
6212.000000;0.400079
6211.000000;0.400032
6210.000000;0.400023
6209.000000;0.400063
6208.000000;0.400132
6207.000000;0.400211
6206.000000;0.400281
6205.000000;0.400314
6204.000000;0.400299
6203.000000;0.400260
6202.000000;0.400235
6201.000000;0.400226
6200.000000;0.400208
6199.000000;0.400176
6198.000000;0.400157
6197.000000;0.400172
6196.000000;0.400217
6195.000000;0.400276
6194.000000;0.400341
6193.000000;0.400404
6192.000000;0.400454
6191.000000;0.400480
6190.000000;0.400486
6189.000000;0.400478
6188.000000;0.400466
6187.000000;0.400463
6186.000000;0.400482
6185.000000;0.400517
6184.000000;0.400543
6183.000000;0.400542
6182.000000;0.400517
6181.000000;0.400489
6180.000000;0.400477
6179.000000;0.400488
6178.000000;0.400503
6177.000000;0.400497
6176.000000;0.400472
6175.000000;0.400464
6174.000000;0.400503
6173.000000;0.400573
6172.000000;0.400624
6171.000000;0.400626
6170.000000;0.400594
6169.000000;0.400558
6168.000000;0.400543
6167.000000;0.400567
6166.000000;0.400632
6165.000000;0.400708
6164.000000;0.400754
6163.000000;0.400757
6162.000000;0.400733
6161.000000;0.400693
6160.000000;0.400638
6159.000000;0.400592
6158.000000;0.400599
6157.000000;0.400669
6156.000000;0.400757
6155.000000;0.400812
6154.000000;0.400824
6153.000000;0.400811
6152.000000;0.400789
6151.000000;0.400767
6150.000000;0.400758
6149.000000;0.400773
6148.000000;0.400799
6147.000000;0.400816
6146.000000;0.400817
6145.000000;0.400804
6144.000000;0.400778
6143.000000;0.400754
6142.000000;0.400758
6141.000000;0.400806
6140.000000;0.400871
6139.000000;0.400908
6138.000000;0.400906
6137.000000;0.400884
6136.000000;0.400864
6135.000000;0.400853
6134.000000;0.400853
6133.000000;0.400863
6132.000000;0.400870
6131.000000;0.400863
6130.000000;0.400849
6129.000000;0.400854
6128.000000;0.400888
6127.000000;0.400930
6126.000000;0.400952
6125.000000;0.400945
6124.000000;0.400927
6123.000000;0.400914
6122.000000;0.400913
6121.000000;0.400918
6120.000000;0.400927
6119.000000;0.400938
6118.000000;0.400944
6117.000000;0.400931
6116.000000;0.400893
6115.000000;0.400848
6114.000000;0.400827
6113.000000;0.400839
6112.000000;0.400858
6111.000000;0.400856
6110.000000;0.400842
6109.000000;0.400842
6108.000000;0.400861
6107.000000;0.400874
6106.000000;0.400861
6105.000000;0.400829
6104.000000;0.400790
6103.000000;0.400746
6102.000000;0.400698
6101.000000;0.400658
6100.000000;0.400651
6099.000000;0.400679
6098.000000;0.400724
6097.000000;0.400763
6096.000000;0.400787
6095.000000;0.400800
6094.000000;0.400809
6093.000000;0.400814
6092.000000;0.400816
6091.000000;0.400815
6090.000000;0.400818
6089.000000;0.400836
6088.000000;0.400876
6087.000000;0.400937
6086.000000;0.401001
6085.000000;0.401046
6084.000000;0.401058
6083.000000;0.401036
6082.000000;0.400991
6081.000000;0.400949
6080.000000;0.400940
6079.000000;0.400965
6078.000000;0.400984
6077.000000;0.400952
6076.000000;0.400861
6075.000000;0.400760
6074.000000;0.400702
6073.000000;0.400706
6072.000000;0.400758
6071.000000;0.400834
6070.000000;0.400899
6069.000000;0.400913
6068.000000;0.400863
6067.000000;0.400782
6066.000000;0.400724
6065.000000;0.400698
6064.000000;0.400674
6063.000000;0.400630
6062.000000;0.400592
6061.000000;0.400596
6060.000000;0.400651
6059.000000;0.400742
6058.000000;0.400837
6057.000000;0.400896
6056.000000;0.400889
6055.000000;0.400825
6054.000000;0.400760
6053.000000;0.400737
6052.000000;0.400751
6051.000000;0.400773
6050.000000;0.400801
6049.000000;0.400857
6048.000000;0.400945
6047.000000;0.401030
6046.000000;0.401069
6045.000000;0.401045
6044.000000;0.400980
6043.000000;0.400919
6042.000000;0.400901
6041.000000;0.400932
6040.000000;0.400980
6039.000000;0.401000
6038.000000;0.400978
6037.000000;0.400930
6036.000000;0.400877
6035.000000;0.400832
6034.000000;0.400799
6033.000000;0.400784
6032.000000;0.400784
6031.000000;0.400790
6030.000000;0.400799
6029.000000;0.400821
6028.000000;0.400868
6027.000000;0.400926
6026.000000;0.400966
6025.000000;0.400961
6024.000000;0.400918
6023.000000;0.400865
6022.000000;0.400830
6021.000000;0.400823
6020.000000;0.400842
6019.000000;0.400891
6018.000000;0.400964
6017.000000;0.401034
6016.000000;0.401063
6015.000000;0.401041
6014.000000;0.401003
6013.000000;0.400996
6012.000000;0.401040
6011.000000;0.401117
6010.000000;0.401197
6009.000000;0.401263
6008.000000;0.401312
6007.000000;0.401345
6006.000000;0.401355
6005.000000;0.401327
6004.000000;0.401259
6003.000000;0.401168
6002.000000;0.401089
6001.000000;0.401044
6000.000000;0.401034
5999.000000;0.401051
5998.000000;0.401084
5997.000000;0.401125
5996.000000;0.401157
5995.000000;0.401169
5994.000000;0.401162
5993.000000;0.401153
5992.000000;0.401167
5991.000000;0.401211
5990.000000;0.401261
5989.000000;0.401276
5988.000000;0.401242
5987.000000;0.401197
5986.000000;0.401192
5985.000000;0.401241
5984.000000;0.401310
5983.000000;0.401359
5982.000000;0.401375
5981.000000;0.401368
5980.000000;0.401356
5979.000000;0.401351
5978.000000;0.401362
5977.000000;0.401378
5976.000000;0.401373
5975.000000;0.401343
5974.000000;0.401308
5973.000000;0.401301
5972.000000;0.401335
5971.000000;0.401400
5970.000000;0.401466
5969.000000;0.401504
5968.000000;0.401503
5967.000000;0.401483
5966.000000;0.401477
5965.000000;0.401489
5964.000000;0.401490
5963.000000;0.401463
5962.000000;0.401436
5961.000000;0.401441
5960.000000;0.401474
5959.000000;0.401507
5958.000000;0.401529
5957.000000;0.401548
5956.000000;0.401560
5955.000000;0.401550
5954.000000;0.401514
5953.000000;0.401474
5952.000000;0.401456
5951.000000;0.401472
5950.000000;0.401523
5949.000000;0.401599
5948.000000;0.401674
5947.000000;0.401722
5946.000000;0.401746
5945.000000;0.401778
5944.000000;0.401841
5943.000000;0.401920
5942.000000;0.401974
5941.000000;0.401988
5940.000000;0.401985
5939.000000;0.401998
5938.000000;0.402032
5937.000000;0.402055
5936.000000;0.402043
5935.000000;0.402014
5934.000000;0.402012
5933.000000;0.402052
5932.000000;0.402103
5931.000000;0.402126
5930.000000;0.402131
5929.000000;0.402162
5928.000000;0.402244
5927.000000;0.402355
5926.000000;0.402450
5925.000000;0.402494
5924.000000;0.402468
5923.000000;0.402388
5922.000000;0.402295
5921.000000;0.402241
5920.000000;0.402249
5919.000000;0.402305
5918.000000;0.402377
5917.000000;0.402433
5916.000000;0.402454
5915.000000;0.402436
5914.000000;0.402398
5913.000000;0.402364
5912.000000;0.402348
5911.000000;0.402341
5910.000000;0.402327
5909.000000;0.402304
5908.000000;0.402288
5907.000000;0.402306
5906.000000;0.402377
5905.000000;0.402494
5904.000000;0.402619
5903.000000;0.402704
5902.000000;0.402732
5901.000000;0.402720
5900.000000;0.402692
5899.000000;0.402660
5898.000000;0.402636
5897.000000;0.402629
5896.000000;0.402644
5895.000000;0.402666
5894.000000;0.402674
5893.000000;0.402664
5892.000000;0.402647
5891.000000;0.402623
5890.000000;0.402583
5889.000000;0.402522
5888.000000;0.402460
5887.000000;0.402436
5886.000000;0.402474
5885.000000;0.402557
5884.000000;0.402635
5883.000000;0.402672
5882.000000;0.402675
5881.000000;0.402681
5880.000000;0.402724
5879.000000;0.402799
5878.000000;0.402879
5877.000000;0.402938
5876.000000;0.402972
5875.000000;0.402999
5874.000000;0.403040
5873.000000;0.403101
5872.000000;0.403163
5871.000000;0.403194
5870.000000;0.403183
5869.000000;0.403148
5868.000000;0.403114
5867.000000;0.403093
5866.000000;0.403082
5865.000000;0.403081
5864.000000;0.403090
5863.000000;0.403109
5862.000000;0.403131
5861.000000;0.403141
5860.000000;0.403132
5859.000000;0.403111
5858.000000;0.403102
5857.000000;0.403131
5856.000000;0.403194
5855.000000;0.403254
5854.000000;0.403272
5853.000000;0.403248
5852.000000;0.403221
5851.000000;0.403226
5850.000000;0.403262
5849.000000;0.403308
5848.000000;0.403347
5847.000000;0.403379
5846.000000;0.403392
5845.000000;0.403369
5844.000000;0.403316
5843.000000;0.403276
5842.000000;0.403292
5841.000000;0.403370
5840.000000;0.403471
5839.000000;0.403552
5838.000000;0.403590
5837.000000;0.403586
5836.000000;0.403560
5835.000000;0.403545
5834.000000;0.403556
5833.000000;0.403579
5832.000000;0.403584
5831.000000;0.403569
5830.000000;0.403556
5829.000000;0.403563
5828.000000;0.403583
5827.000000;0.403610
5826.000000;0.403656
5825.000000;0.403726
5824.000000;0.403800
5823.000000;0.403854
5822.000000;0.403895
5821.000000;0.403943
5820.000000;0.403995
5819.000000;0.404025
5818.000000;0.404031
5817.000000;0.404043
5816.000000;0.404084
5815.000000;0.404139
5814.000000;0.404170
5813.000000;0.404153
5812.000000;0.404107
5811.000000;0.404073
5810.000000;0.404083
5809.000000;0.404134
5808.000000;0.404191
5807.000000;0.404221
5806.000000;0.404221
5805.000000;0.404213
5804.000000;0.404216
5803.000000;0.404218
5802.000000;0.404202
5801.000000;0.404160
5800.000000;0.404111
5799.000000;0.404089
5798.000000;0.404126
5797.000000;0.404225
5796.000000;0.404353
5795.000000;0.404456
5794.000000;0.404501
5793.000000;0.404497
5792.000000;0.404484
5791.000000;0.404489
5790.000000;0.404518
5789.000000;0.404557
5788.000000;0.404592
5787.000000;0.404619
5786.000000;0.404641
5785.000000;0.404661
5784.000000;0.404681
5783.000000;0.404690
5782.000000;0.404683
5781.000000;0.404668
5780.000000;0.404676
5779.000000;0.404724
5778.000000;0.404787
5777.000000;0.404811
5776.000000;0.404770
5775.000000;0.404702
5774.000000;0.404670
5773.000000;0.404690
5772.000000;0.404711
5771.000000;0.404680
5770.000000;0.404598
5769.000000;0.404518
5768.000000;0.404496
5767.000000;0.404553
5766.000000;0.404674
5765.000000;0.404821
5764.000000;0.404937
5763.000000;0.404983
5762.000000;0.404959
5761.000000;0.404899
5760.000000;0.404843
5759.000000;0.404806
5758.000000;0.404775
5757.000000;0.404730
5756.000000;0.404666
5755.000000;0.404604
5754.000000;0.404580
5753.000000;0.404614
5752.000000;0.404693
5751.000000;0.404775
5750.000000;0.404831
5749.000000;0.404859
5748.000000;0.404874
5747.000000;0.404878
5746.000000;0.404863
5745.000000;0.404833
5744.000000;0.404810
5743.000000;0.404810
5742.000000;0.404822
5741.000000;0.404823
5740.000000;0.404802
5739.000000;0.404775
5738.000000;0.404766
5737.000000;0.404787
5736.000000;0.404836
5735.000000;0.404901
5734.000000;0.404961
5733.000000;0.404998
5732.000000;0.405018
5731.000000;0.405046
5730.000000;0.405093
5729.000000;0.405128
5728.000000;0.405110
5727.000000;0.405035
5726.000000;0.404938
5725.000000;0.404853
5724.000000;0.404796
5723.000000;0.404778
5722.000000;0.404807
5721.000000;0.404872
5720.000000;0.404931
5719.000000;0.404948
5718.000000;0.404921
5717.000000;0.404878
5716.000000;0.404841
5715.000000;0.404820
5714.000000;0.404811
5713.000000;0.404808
5712.000000;0.404812
5711.000000;0.404829
5710.000000;0.404857
5709.000000;0.404883
5708.000000;0.404892
5707.000000;0.404888
5706.000000;0.404885
5705.000000;0.404878
5704.000000;0.404849
5703.000000;0.404811
5702.000000;0.404810
5701.000000;0.404879
5700.000000;0.404991
5699.000000;0.405087
5698.000000;0.405130
5697.000000;0.405120
5696.000000;0.405068
5695.000000;0.404989
5694.000000;0.404910
5693.000000;0.404857
5692.000000;0.404842
5691.000000;0.404866
5690.000000;0.404918
5689.000000;0.404979
5688.000000;0.405020
5687.000000;0.405024
5686.000000;0.404997
5685.000000;0.404967
5684.000000;0.404966
5683.000000;0.405018
5682.000000;0.405120
5681.000000;0.405218
5680.000000;0.405246
5679.000000;0.405190
5678.000000;0.405114
5677.000000;0.405082
5676.000000;0.405096
5675.000000;0.405118
5674.000000;0.405144
5673.000000;0.405210
5672.000000;0.405337
5671.000000;0.405493
5670.000000;0.405612
5669.000000;0.405651
5668.000000;0.405613
5667.000000;0.405551
5666.000000;0.405537
5665.000000;0.405596
5664.000000;0.405691
5663.000000;0.405765
5662.000000;0.405806
5661.000000;0.405837
5660.000000;0.405863
5659.000000;0.405865
5658.000000;0.405843
5657.000000;0.405839
5656.000000;0.405892
5655.000000;0.406007
5654.000000;0.406158
5653.000000;0.406305
5652.000000;0.406405
5651.000000;0.406434
5650.000000;0.406410
5649.000000;0.406398
5648.000000;0.406451
5647.000000;0.406570
5646.000000;0.406713
5645.000000;0.406826
5644.000000;0.406876
5643.000000;0.406870
5642.000000;0.406857
5641.000000;0.406895
5640.000000;0.407008
5639.000000;0.407174
5638.000000;0.407364
5637.000000;0.407568
5636.000000;0.407775
5635.000000;0.407946
5634.000000;0.408041
5633.000000;0.408057
5632.000000;0.408042
5631.000000;0.408063
5630.000000;0.408159
5629.000000;0.408316
5628.000000;0.408480
5627.000000;0.408596
5626.000000;0.408659
5625.000000;0.408713
5624.000000;0.408811
5623.000000;0.408961
5622.000000;0.409122
5621.000000;0.409249
5620.000000;0.409337
5619.000000;0.409427
5618.000000;0.409567
5617.000000;0.409767
5616.000000;0.409987
5615.000000;0.410171
5614.000000;0.410288
5613.000000;0.410354
5612.000000;0.410412
5611.000000;0.410499
5610.000000;0.410625
5609.000000;0.410784
5608.000000;0.410968
5607.000000;0.411173
5606.000000;0.411377
5605.000000;0.411540
5604.000000;0.411631
5603.000000;0.411663
5602.000000;0.411691
5601.000000;0.411765
5600.000000;0.411899
5599.000000;0.412081
5598.000000;0.412294
5597.000000;0.412521
5596.000000;0.412738
5595.000000;0.412925
5594.000000;0.413067
5593.000000;0.413164
5592.000000;0.413232
5591.000000;0.413320
5590.000000;0.413470
5589.000000;0.413670
5588.000000;0.413856
5587.000000;0.413993
5586.000000;0.414120
5585.000000;0.414297
5584.000000;0.414518
5583.000000;0.414713
5582.000000;0.414841
5581.000000;0.414934
5580.000000;0.415050
5579.000000;0.415217
5578.000000;0.415422
5577.000000;0.415635
5576.000000;0.415829
5575.000000;0.415987
5574.000000;0.416102
5573.000000;0.416176
5572.000000;0.416223
5571.000000;0.416260
5570.000000;0.416313
5569.000000;0.416407
5568.000000;0.416569
5567.000000;0.416805
5566.000000;0.417086
5565.000000;0.417332
5564.000000;0.417463
5563.000000;0.417470
5562.000000;0.417438
5561.000000;0.417468
5560.000000;0.417597
5559.000000;0.417789
5558.000000;0.418003
5557.000000;0.418216
5556.000000;0.418411
5555.000000;0.418558
5554.000000;0.418639
5553.000000;0.418672
5552.000000;0.418702
5551.000000;0.418777
5550.000000;0.418917
5549.000000;0.419092
5548.000000;0.419242
5547.000000;0.419334
5546.000000;0.419392
5545.000000;0.419469
5544.000000;0.419580
5543.000000;0.419704
5542.000000;0.419819
5541.000000;0.419934
5540.000000;0.420056
5539.000000;0.420172
5538.000000;0.420271
5537.000000;0.420362
5536.000000;0.420458
5535.000000;0.420565
5534.000000;0.420683
5533.000000;0.420815
5532.000000;0.420956
5531.000000;0.421082
5530.000000;0.421177
5529.000000;0.421255
5528.000000;0.421345
5527.000000;0.421473
5526.000000;0.421637
5525.000000;0.421808
5524.000000;0.421943
5523.000000;0.422013
5522.000000;0.422024
5521.000000;0.422014
5520.000000;0.422028
5519.000000;0.422095
5518.000000;0.422230
5517.000000;0.422425
5516.000000;0.422637
5515.000000;0.422795
5514.000000;0.422860
5513.000000;0.422866
5512.000000;0.422891
5511.000000;0.422980
5510.000000;0.423116
5509.000000;0.423253
5508.000000;0.423376
5507.000000;0.423486
5506.000000;0.423563
5505.000000;0.423559
5504.000000;0.423464
5503.000000;0.423362
5502.000000;0.423386
5501.000000;0.423596
5500.000000;0.423920
5499.000000;0.424233
5498.000000;0.424467
5497.000000;0.424630
5496.000000;0.424749
5495.000000;0.424828
5494.000000;0.424888
5493.000000;0.424967
5492.000000;0.425051
5491.000000;0.425063
5490.000000;0.424952
5489.000000;0.424782
5488.000000;0.424685
5487.000000;0.424741
5486.000000;0.424944
5485.000000;0.425258
5484.000000;0.425641
5483.000000;0.426020
5482.000000;0.426296
5481.000000;0.426425
5480.000000;0.426454
5479.000000;0.426449
5478.000000;0.426416
5477.000000;0.426341
5476.000000;0.426258
5475.000000;0.426213
5474.000000;0.426192
5473.000000;0.426165
5472.000000;0.426188
5471.000000;0.426387
5470.000000;0.426799
5469.000000;0.427310
5468.000000;0.427765
5467.000000;0.428079
5466.000000;0.428256
5465.000000;0.428326
5464.000000;0.428314
5463.000000;0.428251
5462.000000;0.428190
5461.000000;0.428185
5460.000000;0.428250
5459.000000;0.428361
5458.000000;0.428488
5457.000000;0.428646
5456.000000;0.428873
5455.000000;0.429172
5454.000000;0.429494
5453.000000;0.429768
5452.000000;0.429967
5451.000000;0.430112
5450.000000;0.430240
5449.000000;0.430352
5448.000000;0.430400
5447.000000;0.430377
5446.000000;0.430388
5445.000000;0.430561
5444.000000;0.430864
5443.000000;0.431107
5442.000000;0.431177
5441.000000;0.431181
5440.000000;0.431313
5439.000000;0.431618
5438.000000;0.431964
5437.000000;0.432222
5436.000000;0.432392
5435.000000;0.432559
5434.000000;0.432786
5433.000000;0.433063
5432.000000;0.433317
5431.000000;0.433514
5430.000000;0.433732
5429.000000;0.434080
5428.000000;0.434547
5427.000000;0.434963
5426.000000;0.435182
5425.000000;0.435244
5424.000000;0.435312
5423.000000;0.435498
5422.000000;0.435796
5421.000000;0.436118
5420.000000;0.436402
5419.000000;0.436677
5418.000000;0.437018
5417.000000;0.437430
5416.000000;0.437823
5415.000000;0.438136
5414.000000;0.438434
5413.000000;0.438823
5412.000000;0.439292
5411.000000;0.439721
5410.000000;0.440045
5409.000000;0.440315
5408.000000;0.440593
5407.000000;0.440871
5406.000000;0.441142
5405.000000;0.441455
5404.000000;0.441854
5403.000000;0.442300
5402.000000;0.442709
5401.000000;0.443046
5400.000000;0.443347
5399.000000;0.443688
5398.000000;0.444160
5397.000000;0.444799
5396.000000;0.445511
5395.000000;0.446138
5394.000000;0.446593
5393.000000;0.446911
5392.000000;0.447165
5391.000000;0.447416
5390.000000;0.447743
5389.000000;0.448210
5388.000000;0.448817
5387.000000;0.449493
5386.000000;0.450162
5385.000000;0.450794
5384.000000;0.451379
5383.000000;0.451919
5382.000000;0.452490
5381.000000;0.453209
5380.000000;0.454065
5379.000000;0.454903
5378.000000;0.455626
5377.000000;0.456327
5376.000000;0.457116
5375.000000;0.457918
5374.000000;0.458582
5373.000000;0.459142
5372.000000;0.459803
5371.000000;0.460684
5370.000000;0.461724
5369.000000;0.462796
5368.000000;0.463834
5367.000000;0.464822
5366.000000;0.465751
5365.000000;0.466640
5364.000000;0.467559
5363.000000;0.468595
5362.000000;0.469797
5361.000000;0.471133
5360.000000;0.472481
5359.000000;0.473717
5358.000000;0.474838
5357.000000;0.475953
5356.000000;0.477145
5355.000000;0.478402
5354.000000;0.479684
5353.000000;0.480987
5352.000000;0.482295
5351.000000;0.483580
5350.000000;0.484908
5349.000000;0.486411
5348.000000;0.488082
5347.000000;0.489700
5346.000000;0.491116
5345.000000;0.492543
5344.000000;0.494376
5343.000000;0.496671
5342.000000;0.499015
5341.000000;0.500983
5340.000000;0.502546
5339.000000;0.504014
5338.000000;0.505697
5337.000000;0.507614
5336.000000;0.509543
5335.000000;0.511343
5334.000000;0.513131
5333.000000;0.515110
5332.000000;0.517266
5331.000000;0.519252
5330.000000;0.520652
5329.000000;0.521416
5328.000000;0.521981
5327.000000;0.522906
5326.000000;0.524353
5325.000000;0.525993
5324.000000;0.527433
5323.000000;0.528539
5322.000000;0.529210
5321.000000;0.529136
5320.000000;0.528113
5319.000000;0.526535
5318.000000;0.525140
5317.000000;0.524150
5316.000000;0.522967
5315.000000;0.520853
5314.000000;0.517598
5313.000000;0.513294
5312.000000;0.507801
5311.000000;0.500809
5310.000000;0.492208
5309.000000;0.482203
5308.000000;0.471274
5307.000000;0.459968
5306.000000;0.448151
5305.000000;0.434555
5304.000000;0.417943
5303.000000;0.399016
5302.000000;0.380401
5301.000000;0.364514
5300.000000;0.352371
5299.000000;0.345072
5298.000000;0.346004
5297.000000;0.359383
5296.000000;0.384487
5295.000000;0.414617
5294.000000;0.445363
5293.000000;0.478542
5292.000000;0.515563
5291.000000;0.554513
5290.000000;0.594032
5289.000000;0.632738
5288.000000;0.666617
5287.000000;0.693963
5286.000000;0.719321
5285.000000;0.745887
5284.000000;0.769812
5283.000000;0.788836
5282.000000;0.809182
5281.000000;0.835210
5280.000000;0.859349
5279.000000;0.871539
5278.000000;0.874357
5277.000000;0.878954
5276.000000;0.889755
5275.000000;0.901577
5274.000000;0.908570
5273.000000;0.908304
5272.000000;0.900793
5271.000000;0.891398
5270.000000;0.890017
5269.000000;0.900053
5268.000000;0.911767
5267.000000;0.914306
5266.000000;0.911270
5265.000000;0.913602
5264.000000;0.922922
5263.000000;0.931976
5262.000000;0.937020
5261.000000;0.939452
5260.000000;0.938433
5259.000000;0.933574
5258.000000;0.930567
5257.000000;0.934080
5256.000000;0.939118
5255.000000;0.937436
5254.000000;0.930335
5253.000000;0.926696
5252.000000;0.930635
5251.000000;0.938358
5250.000000;0.945079
5249.000000;0.949417
5248.000000;0.951748
5247.000000;0.953127
5246.000000;0.954630
5245.000000;0.954128
5244.000000;0.947052
5243.000000;0.934457
5242.000000;0.924932
5241.000000;0.924322
5240.000000;0.928709
5239.000000;0.930827
5238.000000;0.929588
5237.000000;0.928275
5236.000000;0.927343
5235.000000;0.925643
5234.000000;0.925350
5233.000000;0.929220
5232.000000;0.935509
5231.000000;0.940363
5230.000000;0.942425
5229.000000;0.941279
5228.000000;0.935593
5227.000000;0.927364
5226.000000;0.923216
5225.000000;0.926689
5224.000000;0.933069
5223.000000;0.936317
5222.000000;0.937880
5221.000000;0.942062
5220.000000;0.945826
5219.000000;0.941951
5218.000000;0.931025
5217.000000;0.921093
5216.000000;0.919458
5215.000000;0.930140
5214.000000;0.951618
5213.000000;0.972394
5212.000000;0.975972
5211.000000;0.958787
5210.000000;0.935841
5209.000000;0.923081
5208.000000;0.924119
5207.000000;0.934131
5206.000000;0.948032
5205.000000;0.960485
5204.000000;0.963568
5203.000000;0.953841
5202.000000;0.939446
5201.000000;0.932065
5200.000000;0.935464
5199.000000;0.945253
5198.000000;0.954362
5197.000000;0.955747
5196.000000;0.944852
5195.000000;0.924739
5194.000000;0.907346
5193.000000;0.905379
5192.000000;0.922211
5191.000000;0.949008
5190.000000;0.969243
5189.000000;0.969059
5188.000000;0.948929
5187.000000;0.923483
5186.000000;0.908259
5185.000000;0.908216
5184.000000;0.916938
5183.000000;0.925235
5182.000000;0.930366
5181.000000;0.935927
5180.000000;0.945091
5179.000000;0.957153
5178.000000;0.968116
5177.000000;0.971594
5176.000000;0.962455
5175.000000;0.944153
5174.000000;0.928545
5173.000000;0.924826
5172.000000;0.932398
5171.000000;0.944330
5170.000000;0.953148
5169.000000;0.953131
5168.000000;0.943621
5167.000000;0.932676
5166.000000;0.930985
5165.000000;0.939407
5164.000000;0.946198
5163.000000;0.940584
5162.000000;0.926123
5161.000000;0.913773
5160.000000;0.908794
5159.000000;0.910452
5158.000000;0.917803
5157.000000;0.929664
5156.000000;0.940799
5155.000000;0.943670
5154.000000;0.935976
5153.000000;0.922971
5152.000000;0.912170
5151.000000;0.909262
5150.000000;0.915644
5149.000000;0.925885
5148.000000;0.931157
5147.000000;0.930570
5146.000000;0.933835
5145.000000;0.946978
5144.000000;0.962033
5143.000000;0.965580
5142.000000;0.955286
5141.000000;0.941151
5140.000000;0.932095
5139.000000;0.929136
5138.000000;0.928961
5137.000000;0.928216
5136.000000;0.927016
5135.000000;0.930426
5134.000000;0.941040
5133.000000;0.951150
5132.000000;0.948408
5131.000000;0.931268
5130.000000;0.913038
5129.000000;0.907027
5128.000000;0.914017
5127.000000;0.925679
5126.000000;0.935666
5125.000000;0.943068
5124.000000;0.947202
5123.000000;0.946734
5122.000000;0.942933
5121.000000;0.938647
5120.000000;0.935684
5119.000000;0.935473
5118.000000;0.939374
5117.000000;0.945307
5116.000000;0.946535
5115.000000;0.938699
5114.000000;0.926670
5113.000000;0.919429
5112.000000;0.921342
5111.000000;0.930497
5110.000000;0.940356
5109.000000;0.941874
5108.000000;0.930131
5107.000000;0.911290
5106.000000;0.897939
5105.000000;0.897580
5104.000000;0.909405
5103.000000;0.929623
5102.000000;0.952467
5101.000000;0.966504
5100.000000;0.961684
5099.000000;0.940569
5098.000000;0.915916
5097.000000;0.901080
5096.000000;0.902221
5095.000000;0.915838
5094.000000;0.931299
5093.000000;0.937410
5092.000000;0.931223
5091.000000;0.920773
5090.000000;0.917382
5089.000000;0.924574
5088.000000;0.935139
5087.000000;0.940198
5086.000000;0.938261
5085.000000;0.932013
5084.000000;0.921957
5083.000000;0.909128
5082.000000;0.899235
5081.000000;0.897842
5080.000000;0.904122
5079.000000;0.913285
5078.000000;0.922778
5077.000000;0.932342
5076.000000;0.940025
5075.000000;0.942658
5074.000000;0.939203
5073.000000;0.930255
5072.000000;0.916613
5071.000000;0.902158
5070.000000;0.894701
5069.000000;0.899215
5068.000000;0.911608
5067.000000;0.922027
5066.000000;0.923767
5065.000000;0.917057
5064.000000;0.906407
5063.000000;0.897767
5062.000000;0.896833
5061.000000;0.905491
5060.000000;0.918352
5059.000000;0.925767
5058.000000;0.922787
5057.000000;0.913112
5056.000000;0.903523
5055.000000;0.898228
5054.000000;0.897864
5053.000000;0.900177
5052.000000;0.902554
5051.000000;0.905536
5050.000000;0.911377
5049.000000;0.917839
5048.000000;0.917476
5047.000000;0.907058
5046.000000;0.893480
5045.000000;0.885205
5044.000000;0.882496
5043.000000;0.879857
5042.000000;0.874755
5041.000000;0.870043
5040.000000;0.869257
5039.000000;0.872654
5038.000000;0.877409
5037.000000;0.880137
5036.000000;0.878546
5035.000000;0.872494
5034.000000;0.864943
5033.000000;0.859187
5032.000000;0.854921
5031.000000;0.850270
5030.000000;0.846790
5029.000000;0.848230
5028.000000;0.854288
5027.000000;0.859444
5026.000000;0.858922
5025.000000;0.852946
5024.000000;0.844524
5023.000000;0.836321
5022.000000;0.830904
5021.000000;0.831436
5020.000000;0.838937
5019.000000;0.848509
5018.000000;0.850565
5017.000000;0.838605
5016.000000;0.815746
5015.000000;0.792944
5014.000000;0.781991
5013.000000;0.788220
5012.000000;0.806263
5011.000000;0.821859
5010.000000;0.822045
5009.000000;0.807084
5008.000000;0.787941
5007.000000;0.773842
5006.000000;0.766715
5005.000000;0.763232
5004.000000;0.759041
5003.000000;0.752645
5002.000000;0.746322
5001.000000;0.742722
5000.000000;0.741538
4999.000000;0.740589
4998.000000;0.738720
4997.000000;0.736420
4996.000000;0.734773
4995.000000;0.734844
4994.000000;0.736325
4993.000000;0.735524
4992.000000;0.727453
4991.000000;0.712126
4990.000000;0.696137
4989.000000;0.686482
4988.000000;0.685027
4987.000000;0.689333
4986.000000;0.695906
4985.000000;0.700328
4984.000000;0.697355
4983.000000;0.685115
4982.000000;0.667542
4981.000000;0.650453
4980.000000;0.636973
4979.000000;0.627733
4978.000000;0.623269
4977.000000;0.623474
4976.000000;0.625355
4975.000000;0.624399
4974.000000;0.618675
4973.000000;0.609526
4972.000000;0.598454
4971.000000;0.585625
4970.000000;0.571779
4969.000000;0.559634
4968.000000;0.551866
4967.000000;0.548552
4966.000000;0.547332
4965.000000;0.545637
4964.000000;0.542379
4963.000000;0.537544
4962.000000;0.530729
4961.000000;0.520953
4960.000000;0.508348
4959.000000;0.495323
4958.000000;0.484919
4957.000000;0.478250
4956.000000;0.474349
4955.000000;0.472126
4954.000000;0.471105
4953.000000;0.469839
4952.000000;0.465278
4951.000000;0.455157
4950.000000;0.440528
4949.000000;0.425392
4948.000000;0.414059
4947.000000;0.408746
4946.000000;0.408420
4945.000000;0.409188
4944.000000;0.406714
4943.000000;0.399221
4942.000000;0.388002
4941.000000;0.375380
4940.000000;0.363298
4939.000000;0.353601
4938.000000;0.347716
4937.000000;0.344816
4936.000000;0.341346
4935.000000;0.333937
4934.000000;0.322542
4933.000000;0.309896
4932.000000;0.298786
4931.000000;0.290554
4930.000000;0.285096
4929.000000;0.281028
4928.000000;0.276238
4927.000000;0.269114
4926.000000;0.259254
4925.000000;0.247377
4924.000000;0.235492
4923.000000;0.226650
4922.000000;0.222669
4921.000000;0.221521
4920.000000;0.218369
4919.000000;0.210216
4918.000000;0.198671
4917.000000;0.187608
4916.000000;0.179197
4915.000000;0.172725
4914.000000;0.166122
4913.000000;0.157877
4912.000000;0.148108
4911.000000;0.138316
4910.000000;0.129829
4909.000000;0.122455
4908.000000;0.115128
4907.000000;0.107685
4906.000000;0.100922
4905.000000;0.094628
4904.000000;0.086966
4903.000000;0.076820
4902.000000;0.065598
4901.000000;0.055548
4900.000000;0.047208
4899.000000;0.039531
4898.000000;0.031895
4897.000000;0.024897
4896.000000;0.019204
4895.000000;0.014451
4894.000000;0.009474
4893.000000;0.003203
4892.000000;-0.004557
4891.000000;-0.012776
4890.000000;-0.019717
4889.000000;-0.024275
4888.000000;-0.026878
4887.000000;-0.028955
4886.000000;-0.031608
4885.000000;-0.034993
4884.000000;-0.038800
4883.000000;-0.042981
4882.000000;-0.047870
4881.000000;-0.053632
4880.000000;-0.059789
4879.000000;-0.065421
4878.000000;-0.069831
4877.000000;-0.072979
4876.000000;-0.075468
4875.000000;-0.078236
4874.000000;-0.081986
4873.000000;-0.086532
4872.000000;-0.090797
4871.000000;-0.093688
4870.000000;-0.094908
4869.000000;-0.094722
4868.000000;-0.093333
4867.000000;-0.091110
4866.000000;-0.089214
4865.000000;-0.089113
4864.000000;-0.091181
4863.000000;-0.094182
4862.000000;-0.096402
4861.000000;-0.096959
4860.000000;-0.095907
4859.000000;-0.093731
4858.000000;-0.091093
4857.000000;-0.088647
4856.000000;-0.086620
4855.000000;-0.084645
4854.000000;-0.082243
4853.000000;-0.079420
4852.000000;-0.076686
4851.000000;-0.074579
4850.000000;-0.073311
4849.000000;-0.072708
4848.000000;-0.072251
4847.000000;-0.071164
4846.000000;-0.068765
4845.000000;-0.064997
4844.000000;-0.060610
4843.000000;-0.056549
4842.000000;-0.053113
4841.000000;-0.050001
4840.000000;-0.047137
4839.000000;-0.044954
4838.000000;-0.043601
4837.000000;-0.042296
4836.000000;-0.039949
4835.000000;-0.036255
4834.000000;-0.031820
4833.000000;-0.027420
4832.000000;-0.023536
4831.000000;-0.020524
4830.000000;-0.018593
4829.000000;-0.017434
4828.000000;-0.016248
4827.000000;-0.014316
4826.000000;-0.011332
4825.000000;-0.007245
4824.000000;-0.002272
4823.000000;0.002823
4822.000000;0.007031
4821.000000;0.010018
4820.000000;0.012436
4819.000000;0.015070
4818.000000;0.017984
4817.000000;0.020806
4816.000000;0.023516
4815.000000;0.026542
4814.000000;0.030135
4813.000000;0.033984
4812.000000;0.037563
4811.000000;0.040698
4810.000000;0.043633
4809.000000;0.046636
4808.000000;0.049589
4807.000000;0.052109
4806.000000;0.054097
4805.000000;0.056049
4804.000000;0.058656
4803.000000;0.062073
4802.000000;0.065755
4801.000000;0.069026
4800.000000;0.071682
4799.000000;0.074023
4798.000000;0.076425
4797.000000;0.078994
4796.000000;0.081560
4795.000000;0.083945
4794.000000;0.086226
4793.000000;0.088660
4792.000000;0.091316
4791.000000;0.093928
4790.000000;0.096220
4789.000000;0.098252
4788.000000;0.100281
4787.000000;0.102414
4786.000000;0.104609
4785.000000;0.106940
4784.000000;0.109549
4783.000000;0.112345
4782.000000;0.115015
4781.000000;0.117399
4780.000000;0.119617
4779.000000;0.121784
4778.000000;0.123857
4777.000000;0.125854
4776.000000;0.127978
4775.000000;0.130350
4774.000000;0.132818
4773.000000;0.135181
4772.000000;0.137478
4771.000000;0.139896
4770.000000;0.142476
4769.000000;0.145057
4768.000000;0.147416
4767.000000;0.149349
4766.000000;0.150709
4765.000000;0.151576
4764.000000;0.152379
4763.000000;0.153668
4762.000000;0.155674
4761.000000;0.158135
4760.000000;0.160576
4759.000000;0.162732
4758.000000;0.164666
4757.000000;0.166510
4756.000000;0.168248
4755.000000;0.169820
4754.000000;0.171371
4753.000000;0.173176
4752.000000;0.175273
4751.000000;0.177314
4750.000000;0.178951
4749.000000;0.180275
4748.000000;0.181715
4747.000000;0.183547
4746.000000;0.185628
4745.000000;0.187603
4744.000000;0.189224
4743.000000;0.190504
4742.000000;0.191706
4741.000000;0.193171
4740.000000;0.194993
4739.000000;0.196839
4738.000000;0.198228
4737.000000;0.199061
4736.000000;0.199764
4735.000000;0.200899
4734.000000;0.202733
4733.000000;0.205169
4732.000000;0.207849
4731.000000;0.210215
4730.000000;0.211719
4729.000000;0.212264
4728.000000;0.212405
4727.000000;0.212975
4726.000000;0.214447
4725.000000;0.216625
4724.000000;0.218848
4723.000000;0.220466
4722.000000;0.221250
4721.000000;0.221537
4720.000000;0.221978
4719.000000;0.223024
4718.000000;0.224583
4717.000000;0.226210
4716.000000;0.227600
4715.000000;0.228846
4714.000000;0.230217
4713.000000;0.231795
4712.000000;0.233353
4711.000000;0.234541
4710.000000;0.235167
4709.000000;0.235369
4708.000000;0.235596
4707.000000;0.236369
4706.000000;0.237937
4705.000000;0.240032
4704.000000;0.241986
4703.000000;0.243211
4702.000000;0.243688
4701.000000;0.243993
4700.000000;0.244774
4699.000000;0.246178
4698.000000;0.247776
4697.000000;0.249039
4696.000000;0.249868
4695.000000;0.250651
4694.000000;0.251841
4693.000000;0.253490
4692.000000;0.255201
4691.000000;0.256490
4690.000000;0.257203
4689.000000;0.257568
4688.000000;0.257935
4687.000000;0.258553
4686.000000;0.259551
4685.000000;0.260937
4684.000000;0.262490
4683.000000;0.263781
4682.000000;0.264485
4681.000000;0.264712
4680.000000;0.264921
4679.000000;0.265481
4678.000000;0.266391
4677.000000;0.267423
4676.000000;0.268392
4675.000000;0.269259
4674.000000;0.270068
4673.000000;0.270877
4672.000000;0.271730
4671.000000;0.272632
4670.000000;0.273571
4669.000000;0.274564
4668.000000;0.275614
4667.000000;0.276621
4666.000000;0.277424
4665.000000;0.277991
4664.000000;0.278495
4663.000000;0.279141
4662.000000;0.279968
4661.000000;0.280852
4660.000000;0.281656
4659.000000;0.282335
4658.000000;0.282940
4657.000000;0.283579
4656.000000;0.284330
4655.000000;0.285150
4654.000000;0.285902
4653.000000;0.286524
4652.000000;0.287122
4651.000000;0.287830
4650.000000;0.288632
4649.000000;0.289422
4648.000000;0.290201
4647.000000;0.291094
4646.000000;0.292129
4645.000000;0.293104
4644.000000;0.293741
4643.000000;0.293967
4642.000000;0.294010
4641.000000;0.294213
4640.000000;0.294758
4639.000000;0.295535
4638.000000;0.296273
4637.000000;0.296829
4636.000000;0.297345
4635.000000;0.298072
4634.000000;0.299048
4633.000000;0.300017
4632.000000;0.300682
4631.000000;0.300988
4630.000000;0.301115
4629.000000;0.301258
4628.000000;0.301502
4627.000000;0.301866
4626.000000;0.302351
4625.000000;0.302903
4624.000000;0.303424
4623.000000;0.303897
4622.000000;0.304451
4621.000000;0.305223
4620.000000;0.306165
4619.000000;0.307064
4618.000000;0.307744
4617.000000;0.308187
4616.000000;0.308461
4615.000000;0.308637
4614.000000;0.308834
4613.000000;0.309223
4612.000000;0.309878
4611.000000;0.310650
4610.000000;0.311305
4609.000000;0.311795
4608.000000;0.312288
4607.000000;0.312887
4606.000000;0.313448
4605.000000;0.313743
4604.000000;0.313774
4603.000000;0.313835
4602.000000;0.314252
4601.000000;0.315101
4600.000000;0.316142
4599.000000;0.316985
4598.000000;0.317341
4597.000000;0.317226
4596.000000;0.316953
4595.000000;0.316903
4594.000000;0.317257
4593.000000;0.317912
4592.000000;0.318646
4591.000000;0.319301
4590.000000;0.319827
4589.000000;0.320222
4588.000000;0.320492
4587.000000;0.320676
4586.000000;0.320826
4585.000000;0.320961
4584.000000;0.321082
4583.000000;0.321252
4582.000000;0.321605
4581.000000;0.322196
4580.000000;0.322874
4579.000000;0.323367
4578.000000;0.323520
4577.000000;0.323421
4576.000000;0.323311
4575.000000;0.323425
4574.000000;0.323910
4573.000000;0.324769
4572.000000;0.325786
4571.000000;0.326551
4570.000000;0.326705
4569.000000;0.326256
4568.000000;0.325634
4567.000000;0.325388
4566.000000;0.325781
4565.000000;0.326611
4564.000000;0.327386
4563.000000;0.327746
4562.000000;0.327769
4561.000000;0.327866
4560.000000;0.328316
4559.000000;0.328949
4558.000000;0.329333
4557.000000;0.329261
4556.000000;0.328966
4555.000000;0.328857
4554.000000;0.329130
4553.000000;0.329674
4552.000000;0.330242
4551.000000;0.330634
4550.000000;0.330770
4549.000000;0.330710
4548.000000;0.330627
4547.000000;0.330704
4546.000000;0.330986
4545.000000;0.331340
4544.000000;0.331584
4543.000000;0.331680
4542.000000;0.331768
4541.000000;0.332013
4540.000000;0.332396
4539.000000;0.332687
4538.000000;0.332660
4537.000000;0.332342
4536.000000;0.332018
4535.000000;0.331975
4534.000000;0.332266
4533.000000;0.332727
4532.000000;0.333164
4531.000000;0.333503
4530.000000;0.333770
4529.000000;0.333994
4528.000000;0.334154
4527.000000;0.334212
4526.000000;0.334209
4525.000000;0.334283
4524.000000;0.334522
4523.000000;0.334808
4522.000000;0.334858
4521.000000;0.334525
4520.000000;0.334020
4519.000000;0.333755
4518.000000;0.333977
4517.000000;0.334587
4516.000000;0.335314
4515.000000;0.335938
4514.000000;0.336344
4513.000000;0.336456
4512.000000;0.336275
4511.000000;0.335961
4510.000000;0.335763
4509.000000;0.335809
4508.000000;0.335997
4507.000000;0.336146
4506.000000;0.336224
4505.000000;0.336379
4504.000000;0.336735
4503.000000;0.337206
4502.000000;0.337550
4501.000000;0.337604
4500.000000;0.337424
4499.000000;0.337203
4498.000000;0.337081
4497.000000;0.337095
4496.000000;0.337264
4495.000000;0.337645
4494.000000;0.338214
4493.000000;0.338751
4492.000000;0.338939
4491.000000;0.338626
4490.000000;0.337964
4489.000000;0.337248
4488.000000;0.336688
4487.000000;0.336373
4486.000000;0.336382
4485.000000;0.336773
4484.000000;0.337422
4483.000000;0.337993
4482.000000;0.338188
4481.000000;0.338024
4480.000000;0.337809
4479.000000;0.337857
4478.000000;0.338238
4477.000000;0.338762
4476.000000;0.339125
4475.000000;0.339092
4474.000000;0.338661
4473.000000;0.338133
4472.000000;0.337954
4471.000000;0.338361
4470.000000;0.339137
4469.000000;0.339761
4468.000000;0.339876
4467.000000;0.339605
4466.000000;0.339356
4465.000000;0.339361
4464.000000;0.339471
4463.000000;0.339426
4462.000000;0.339184
4461.000000;0.338931
4460.000000;0.338803
4459.000000;0.338758
4458.000000;0.338715
4457.000000;0.338690
4456.000000;0.338713
4455.000000;0.338703
4454.000000;0.338545
4453.000000;0.338299
4452.000000;0.338206
4451.000000;0.338436
4450.000000;0.338862
4449.000000;0.339139
4448.000000;0.339027
4447.000000;0.338627
4446.000000;0.338298
4445.000000;0.338356
4444.000000;0.338836
4443.000000;0.339515
4442.000000;0.340090
4441.000000;0.340304
4440.000000;0.340004
4439.000000;0.339252
4438.000000;0.338413
4437.000000;0.337972
4436.000000;0.338116
4435.000000;0.338499
4434.000000;0.338550
4433.000000;0.338064
4432.000000;0.337419
4431.000000;0.337210
4430.000000;0.337736
4429.000000;0.338803
4428.000000;0.339882
4427.000000;0.340425
4426.000000;0.340146
4425.000000;0.339155
4424.000000;0.337863
4423.000000;0.336714
4422.000000;0.335970
4421.000000;0.335699
4420.000000;0.335870
4419.000000;0.336350
4418.000000;0.336845
4417.000000;0.337031
4416.000000;0.336836
4415.000000;0.336512
4414.000000;0.336321
4413.000000;0.336165
4412.000000;0.335709
4411.000000;0.334862
4410.000000;0.333983
4409.000000;0.333492
4408.000000;0.333407
4407.000000;0.333407
4406.000000;0.333306
4405.000000;0.333223
4404.000000;0.333215
4403.000000;0.332980
4402.000000;0.332164
4401.000000;0.330936
4400.000000;0.330037
4399.000000;0.330132
4398.000000;0.331150
4397.000000;0.332304
4396.000000;0.332796
4395.000000;0.332473
4394.000000;0.331757
4393.000000;0.330974
4392.000000;0.329903
4391.000000;0.328101
4390.000000;0.325667
4389.000000;0.323539
4388.000000;0.322848
4387.000000;0.323913
4386.000000;0.325803
4385.000000;0.326898
4384.000000;0.326076
4383.000000;0.323548
4382.000000;0.320610
4381.000000;0.318583
4380.000000;0.317944
4379.000000;0.318284
4378.000000;0.318887
4377.000000;0.319251
4376.000000;0.319160
4375.000000;0.318537
4374.000000;0.317394
4373.000000;0.315881
4372.000000;0.314230
4371.000000;0.312665
4370.000000;0.311368
4369.000000;0.310452
4368.000000;0.309845
4367.000000;0.309264
4366.000000;0.308455
4365.000000;0.307474
4364.000000;0.306629
4363.000000;0.306126
4362.000000;0.305813
4361.000000;0.305245
4360.000000;0.304032
4359.000000;0.302212
4358.000000;0.300343
4357.000000;0.299095
4356.000000;0.298630
4355.000000;0.298392
4354.000000;0.297597
4353.000000;0.295916
4352.000000;0.293729
4351.000000;0.291763
4350.000000;0.290608
4349.000000;0.290500
4348.000000;0.291215
4347.000000;0.292016
4346.000000;0.291982
4345.000000;0.290684
4344.000000;0.288547
4343.000000;0.286435
4342.000000;0.284875
4341.000000;0.283649
4340.000000;0.282156
4339.000000;0.280222
4338.000000;0.278425
4337.000000;0.277427
4336.000000;0.277170
4335.000000;0.276873
4334.000000;0.275815
4333.000000;0.273944
4332.000000;0.271663
4331.000000;0.269363
4330.000000;0.267329
4329.000000;0.265917
4328.000000;0.265368
4327.000000;0.265295
4326.000000;0.264827
4325.000000;0.263519
4324.000000;0.261736
4323.000000;0.259982
4322.000000;0.258186
4321.000000;0.255879
4320.000000;0.253049
4319.000000;0.250728
4318.000000;0.250454
4317.000000;0.252855
4316.000000;0.256467
4315.000000;0.258128
4314.000000;0.255280
4313.000000;0.248327
4312.000000;0.240491
4311.000000;0.235250
4310.000000;0.234071
4309.000000;0.236140
4308.000000;0.239534
4307.000000;0.242599
4306.000000;0.244696
4305.000000;0.245931
4304.000000;0.246218
4303.000000;0.244827
4302.000000;0.241133
4301.000000;0.235822
4300.000000;0.231051
4299.000000;0.229185
4298.000000;0.231136
4297.000000;0.235438
4296.000000;0.238741
4295.000000;0.238053
4294.000000;0.233434
4293.000000;0.228350
4292.000000;0.226938
4291.000000;0.230566
4290.000000;0.236827
4289.000000;0.241665
4288.000000;0.242393
4287.000000;0.239220
4286.000000;0.234870
4285.000000;0.232957
4284.000000;0.235515
4283.000000;0.240907
4282.000000;0.244640
4281.000000;0.243705
4280.000000;0.240169
4279.000000;0.239201
4278.000000;0.243724
4277.000000;0.252024
4276.000000;0.260220
4275.000000;0.266099
4274.000000;0.270096
4273.000000;0.273230
4272.000000;0.275696
4271.000000;0.277593
4270.000000;0.279902
4269.000000;0.284108
4268.000000;0.290816
4267.000000;0.298790
4266.000000;0.305401
4265.000000;0.308653
4264.000000;0.309369
4263.000000;0.311078
4262.000000;0.317034
4261.000000;0.327131
4260.000000;0.338190
4259.000000;0.347474
4258.000000;0.354995
4257.000000;0.361814
4256.000000;0.367707
4255.000000;0.372404
4254.000000;0.378120
4253.000000;0.388010
4252.000000;0.401775
4251.000000;0.414886
4250.000000;0.423636
4249.000000;0.429489
4248.000000;0.436343
4247.000000;0.445068
4246.000000;0.453502
4245.000000;0.461022
4244.000000;0.470244
4243.000000;0.483661
4242.000000;0.500272
4241.000000;0.516119
4240.000000;0.527791
4239.000000;0.535367
4238.000000;0.541782
4237.000000;0.549327
4236.000000;0.557593
4235.000000;0.565020
4234.000000;0.571847
4233.000000;0.580714
4232.000000;0.593904
4231.000000;0.610070
4230.000000;0.624438
4229.000000;0.632942
4228.000000;0.635424
4227.000000;0.634961
4226.000000;0.635789
4225.000000;0.641735
4224.000000;0.655023
4223.000000;0.674966
4222.000000;0.697534
4221.000000;0.717888
4220.000000;0.733679
4219.000000;0.744676
4218.000000;0.751610
4217.000000;0.756363
4216.000000;0.761224
4215.000000;0.768847
4214.000000;0.781803
4213.000000;0.799581
4212.000000;0.817376
4211.000000;0.829066
4210.000000;0.831401
4209.000000;0.826635
4208.000000;0.822411
4207.000000;0.828099
4206.000000;0.848504
4205.000000;0.878314
4204.000000;0.903639
4203.000000;0.915499
4202.000000;0.921017
4201.000000;0.934270
4200.000000;0.959926
4199.000000;0.987479
4198.000000;0.998296
4197.000000;0.985238
4196.000000;0.965228
4195.000000;0.960009
4194.000000;0.979051
4193.000000;1.019327
4192.000000;1.061820
4191.000000;1.073900
4190.000000;1.044865
4189.000000;1.002546
4188.000000;0.978662
4187.000000;0.989380
4186.000000;1.034327
4185.000000;1.094552
4184.000000;1.133877
4183.000000;1.128534
4182.000000;1.099427
4181.000000;1.083460
4180.000000;1.100109
4179.000000;1.150521
4178.000000;1.218420
4177.000000;1.245477
4176.000000;1.193306
4175.000000;1.128293
4174.000000;1.100600
4173.000000;1.114542
4172.000000;1.165063
4171.000000;1.243960
4170.000000;1.314857
4169.000000;1.335359
4168.000000;1.330322
4167.000000;1.317737
4166.000000;1.299141
4165.000000;1.293839
4164.000000;1.299456
4163.000000;1.296326
4162.000000;1.281970
4161.000000;1.267159
4160.000000;1.272035
4159.000000;1.316611
4158.000000;1.397680
4157.000000;1.473774
4156.000000;1.486276
4155.000000;1.439765
4154.000000;1.396717
4153.000000;1.393764
4152.000000;1.421416
4151.000000;1.453240
4150.000000;1.470766
4149.000000;1.465329
4148.000000;1.466676
4147.000000;1.494489
4146.000000;1.515704
4145.000000;1.523757
4144.000000;1.524683
4143.000000;1.502358
4142.000000;1.488361
4141.000000;1.490309
4140.000000;1.480526
4139.000000;1.479281
4138.000000;1.511970
4137.000000;1.563084
4136.000000;1.599933
4135.000000;1.606292
4134.000000;1.597283
4133.000000;1.573670
4132.000000;1.520738
4131.000000;1.471327
4130.000000;1.463401
4129.000000;1.503403
4128.000000;1.581811
4127.000000;1.666040
4126.000000;1.714386
4125.000000;1.714182
4124.000000;1.694300
4123.000000;1.716211
4122.000000;1.766830
4121.000000;1.742115
4120.000000;1.689787
4119.000000;1.676768
4118.000000;1.673020
4117.000000;1.628681
4116.000000;1.560746
4115.000000;1.524376
4114.000000;1.550563
4113.000000;1.650371
4112.000000;1.820152
4111.000000;2.007279
4110.000000;2.125517
4109.000000;2.074108
4108.000000;1.916019
4107.000000;1.838387
4106.000000;1.801735
4105.000000;1.752331
4104.000000;1.732008
4103.000000;1.791339
4102.000000;1.921146
4101.000000;2.043334
4100.000000;1.973955
4099.000000;1.779297
4098.000000;1.652778
4097.000000;1.629766
4096.000000;1.694107
4095.000000;1.804116
4094.000000;1.897729
4093.000000;1.981290
4092.000000;2.125942
4091.000000;2.351399
4090.000000;2.160638
4089.000000;1.867224
4088.000000;1.716663
4087.000000;1.702866
4086.000000;1.820972
4085.000000;2.041837
4084.000000;2.109731
4083.000000;1.974162
4082.000000;1.936028
4081.000000;2.044911
4080.000000;2.353508
4079.000000;2.506535
4078.000000;2.064140
4077.000000;1.745912
4076.000000;1.597806
4075.000000;1.593335
4074.000000;1.708644
4073.000000;1.893488
4072.000000;2.078781
4071.000000;2.315023
4070.000000;2.187227
4069.000000;2.057328
4068.000000;2.242253
4067.000000;2.301207
4066.000000;2.108164
4065.000000;2.159490
4064.000000;2.494890
4063.000000;3.018106
4062.000000;2.257035
4061.000000;1.961582
4060.000000;1.859472
4059.000000;1.927716
4058.000000;2.057981
4057.000000;1.991936
4056.000000;1.934265
4055.000000;1.897636
4054.000000;1.789722
4053.000000;1.696220
4052.000000;1.672887
4051.000000;1.725051
4050.000000;1.948480
4049.000000;2.403898
4048.000000;2.056663
4047.000000;1.848816
4046.000000;1.929816
4045.000000;2.082573
4044.000000;2.111034
4043.000000;2.134702
4042.000000;2.065371
4041.000000;1.902610
4040.000000;1.875156
4039.000000;1.951572
4038.000000;1.982531
4037.000000;2.240852
4036.000000;2.173439
4035.000000;1.694244
4034.000000;1.568308
4033.000000;1.623485
4032.000000;1.828250
4031.000000;2.275159
4030.000000;2.296447
4029.000000;1.820609
4028.000000;1.786397
4027.000000;1.866040
4026.000000;1.838230
4025.000000;1.791384
4024.000000;1.946347
4023.000000;2.054167
4022.000000;1.871574
4021.000000;1.755273
4020.000000;1.738831
4019.000000;1.833588
4018.000000;2.087818
4017.000000;2.619899
4016.000000;2.611569
4015.000000;2.360043
4014.000000;2.097605
4013.000000;1.939282
4012.000000;1.921342
4011.000000;2.002613
4010.000000;2.131124
4009.000000;2.098862
4008.000000;1.999498
4007.000000;1.897838
4006.000000;1.805228
4005.000000;1.822196
4004.000000;1.955792
4003.000000;1.963398
4002.000000;1.859409
4001.000000;1.866343
4000.000000;1.926159
3999.000000;1.952814
3998.000000;1.975440
3997.000000;2.163434
3996.000000;2.409172
3995.000000;2.089432
3994.000000;1.840271
3993.000000;1.730637
3992.000000;1.710117
3991.000000;1.789715
3990.000000;1.965138
3989.000000;2.139902
3988.000000;2.120361
3987.000000;1.974578
3986.000000;1.919163
3985.000000;2.056930
3984.000000;2.630566
3983.000000;2.054805
3982.000000;1.921247
3981.000000;2.039985
3980.000000;2.328758
3979.000000;2.209635
3978.000000;1.905695
3977.000000;1.753831
3976.000000;1.751911
3975.000000;1.883844
3974.000000;1.887203
3973.000000;1.771445
3972.000000;1.877485
3971.000000;2.125313
3970.000000;1.908538
3969.000000;1.681818
3968.000000;1.611219
3967.000000;1.643420
3966.000000;1.848740
3965.000000;2.417282
3964.000000;2.013282
3963.000000;1.757578
3962.000000;1.745513
3961.000000;1.736354
3960.000000;1.692508
3959.000000;1.627099
3958.000000;1.629620
3957.000000;1.756141
3956.000000;2.178907
3955.000000;2.171347
3954.000000;1.864701
3953.000000;1.887132
3952.000000;2.081411
3951.000000;1.937200
3950.000000;1.763828
3949.000000;1.766611
3948.000000;1.865342
3947.000000;1.796656
3946.000000;1.678610
3945.000000;1.770361
3944.000000;1.944203
3943.000000;1.857466
3942.000000;1.783286
3941.000000;1.776991
3940.000000;1.822558
3939.000000;2.037359
3938.000000;2.616784
3937.000000;2.339711
3936.000000;2.170519
3935.000000;2.270201
3934.000000;2.191045
3933.000000;2.088953
3932.000000;2.078013
3931.000000;2.089838
3930.000000;2.105549
3929.000000;2.334287
3928.000000;2.483741
3927.000000;1.941698
3926.000000;1.832656
3925.000000;1.961215
3924.000000;2.429096
3923.000000;2.281489
3922.000000;1.939479
3921.000000;1.945994
3920.000000;2.348612
3919.000000;3.023913
3918.000000;2.167230
3917.000000;1.983219
3916.000000;1.848267
3915.000000;1.865634
3914.000000;2.066448
3913.000000;1.901225
3912.000000;1.697179
3911.000000;1.742115
3910.000000;2.016799
3909.000000;2.159130
3908.000000;1.960656
3907.000000;1.923522
3906.000000;1.838484
3905.000000;1.796478
3904.000000;1.921385
3903.000000;1.904293
3902.000000;1.696610
3901.000000;1.667345
3900.000000;1.903205
3899.000000;2.005906
3898.000000;1.911100
3897.000000;2.066846
3896.000000;2.306063
3895.000000;1.995389
3894.000000;1.839489
3893.000000;1.796449
3892.000000;1.945699
3891.000000;2.201639
3890.000000;2.058317
3889.000000;1.819600
3888.000000;1.898302
3887.000000;1.954838
3886.000000;1.792737
3885.000000;1.788962
3884.000000;1.721204
3883.000000;1.598751
3882.000000;1.596354
3881.000000;1.859052
3880.000000;2.084724
3879.000000;1.908267
3878.000000;1.749273
3877.000000;1.773609
3876.000000;2.091996
3875.000000;1.955547
3874.000000;1.871842
3873.000000;1.845779
3872.000000;1.832111
3871.000000;1.703658
3870.000000;1.558393
3869.000000;1.556150
3868.000000;1.597526
3867.000000;1.683471
3866.000000;1.771026
3865.000000;1.873256
3864.000000;1.865393
3863.000000;1.800510
3862.000000;1.823335
3861.000000;1.975325
3860.000000;2.121834
3859.000000;2.714425
3858.000000;2.456046
3857.000000;1.783294
3856.000000;1.584691
3855.000000;1.998845
3854.000000;2.048768
3853.000000;1.996979
3852.000000;1.889498
3851.000000;1.931116
3850.000000;2.014215
3849.000000;2.052333
3848.000000;2.161922
3847.000000;2.281957
3846.000000;2.083497
3845.000000;1.964422
3844.000000;2.011391
3843.000000;2.175035
3842.000000;2.152719
3841.000000;2.084708
3840.000000;2.152508
3839.000000;2.117920
3838.000000;1.991377
3837.000000;1.817630
3836.000000;1.550570
3835.000000;1.447263
3834.000000;1.506954
3833.000000;1.681060
3832.000000;1.898046
3831.000000;2.056836
3830.000000;2.077870
3829.000000;2.029616
3828.000000;2.181832
3827.000000;2.467829
3826.000000;2.058497
3825.000000;1.904069
3824.000000;2.019549
3823.000000;2.521331
3822.000000;2.740125
3821.000000;2.096560
3820.000000;1.813844
3819.000000;1.532893
3818.000000;1.425726
3817.000000;1.614885
3816.000000;1.486438
3815.000000;1.363431
3814.000000;1.333277
3813.000000;1.424721
3812.000000;1.560017
3811.000000;1.728826
3810.000000;2.068448
3809.000000;1.834716
3808.000000;1.639072
3807.000000;1.722367
3806.000000;1.954134
3805.000000;2.073728
3804.000000;1.654767
3803.000000;1.457720
3802.000000;1.526267
3801.000000;1.617247
3800.000000;1.599060
3799.000000;1.571040
3798.000000;1.980827
3797.000000;1.915934
3796.000000;1.744062
3795.000000;1.745395
3794.000000;1.746227
3793.000000;1.751288
3792.000000;1.940421
3791.000000;2.796465
3790.000000;2.062028
3789.000000;1.914283
3788.000000;1.892232
3787.000000;1.871930
3786.000000;1.881613
3785.000000;2.074675
3784.000000;2.405468
3783.000000;2.210901
3782.000000;2.100253
3781.000000;2.108445
3780.000000;2.010572
3779.000000;1.978422
3778.000000;1.990773
3777.000000;2.195003
3776.000000;2.451982
3775.000000;1.943226
3774.000000;1.688871
3773.000000;1.553501
3772.000000;1.518720
3771.000000;1.648155
3770.000000;2.162851
3769.000000;2.067066
3768.000000;1.662259
3767.000000;1.524461
3766.000000;1.614020
3765.000000;1.845032
3764.000000;1.801058
3763.000000;1.627614
3762.000000;1.632391
3761.000000;1.968719
3760.000000;2.188531
3759.000000;1.903848
3758.000000;1.893893
3757.000000;2.054409
3756.000000;2.153764
3755.000000;2.255664
3754.000000;2.377503
3753.000000;1.896675
3752.000000;2.292092
3751.000000;2.594614
3750.000000;2.293023
3749.000000;2.245482
3748.000000;2.628300
3747.000000;2.161252
3746.000000;1.967246
3745.000000;1.941459
3744.000000;1.738122
3743.000000;1.332863
3742.000000;1.276295
3741.000000;1.581585
3740.000000;1.626725
3739.000000;1.432250
3738.000000;1.499179
3737.000000;1.802108
3736.000000;2.100699
3735.000000;1.862469
3734.000000;1.911534
3733.000000;1.896131
3732.000000;1.795580
3731.000000;1.831564
3730.000000;1.899476
3729.000000;2.132041
3728.000000;2.236935
3727.000000;1.924189
3726.000000;1.859075
3725.000000;1.863709
3724.000000;1.866613
3723.000000;1.833865
3722.000000;1.767286
3721.000000;1.665299
3720.000000;1.626120
3719.000000;1.716229
3718.000000;2.294170
3717.000000;2.021846
3716.000000;1.720847
3715.000000;1.715822
3714.000000;1.928885
3713.000000;2.818018
3712.000000;1.966701
3711.000000;1.647922
3710.000000;1.493438
3709.000000;1.476385
3708.000000;1.590702
3707.000000;1.726446
3706.000000;1.759051
3705.000000;1.801049
3704.000000;1.831941
3703.000000;1.840353
3702.000000;1.884998
3701.000000;1.963144
3700.000000;2.048334
3699.000000;2.315965
3698.000000;2.373530
3697.000000;1.877822
3696.000000;1.664354
3695.000000;1.587081
3694.000000;1.603857
3693.000000;1.721799
3692.000000;2.084758
3691.000000;1.895092
3690.000000;1.538695
3689.000000;1.358292
3688.000000;1.296778
3687.000000;1.349256
3686.000000;1.524349
3685.000000;1.850020
3684.000000;2.647566
3683.000000;1.992095
3682.000000;1.732512
3681.000000;1.671546
3680.000000;1.906459
3679.000000;2.341039
3678.000000;1.702978
3677.000000;1.522301
3676.000000;1.633983
3675.000000;1.903999
3674.000000;1.903888
3673.000000;1.632022
3672.000000;1.561623
3671.000000;1.947755
3670.000000;2.130572
3669.000000;1.948306
3668.000000;1.910690
3667.000000;1.965198
3666.000000;1.942408
3665.000000;1.899897
3664.000000;2.079586
3663.000000;2.731987
3662.000000;2.138173
3661.000000;1.967121
3660.000000;2.034660
3659.000000;2.153897
3658.000000;2.100442
3657.000000;2.088169
3656.000000;2.160089
3655.000000;2.062740
3654.000000;1.873422
3653.000000;1.788435
3652.000000;1.814502
3651.000000;1.887076
3650.000000;1.912383
3649.000000;1.776663
3648.000000;1.625022
3647.000000;1.591433
3646.000000;1.582595
3645.000000;1.544524
3644.000000;1.599209
3643.000000;1.639762
3642.000000;1.602859
3641.000000;1.634378
3640.000000;1.737301
3639.000000;1.933724
3638.000000;2.060681
3637.000000;1.782937
3636.000000;1.640933
3635.000000;1.734428
3634.000000;1.913979
3633.000000;1.598578
3632.000000;1.356442
3631.000000;1.312879
3630.000000;1.561927
3629.000000;2.301486
3628.000000;2.085394
3627.000000;1.751039
3626.000000;1.582935
3625.000000;1.563354
3624.000000;1.855541
3623.000000;2.255580
3622.000000;1.714015
3621.000000;1.548255
3620.000000;1.579247
3619.000000;1.708899
3618.000000;1.742995
3617.000000;1.642206
3616.000000;1.589313
3615.000000;1.792079
3614.000000;2.229119
3613.000000;1.766092
3612.000000;1.541146
3611.000000;1.489470
3610.000000;1.567303
3609.000000;1.772988
3608.000000;1.746566
3607.000000;1.637360
3606.000000;1.635018
3605.000000;1.817025
3604.000000;2.488738
3603.000000;2.029445
3602.000000;1.807537
3601.000000;1.869574
3600.000000;2.260483
3599.000000;2.196399
3598.000000;1.940979
3597.000000;1.976991
3596.000000;1.712193
3595.000000;1.542170
3594.000000;1.544740
3593.000000;1.663236
3592.000000;2.005352
3591.000000;2.181337
3590.000000;1.904806
3589.000000;1.949078
3588.000000;2.329084
3587.000000;2.313925
3586.000000;1.971855
3585.000000;1.890340
3584.000000;2.281890
3583.000000;1.816674
3582.000000;1.515197
3581.000000;1.477310
3580.000000;1.584429
3579.000000;1.883001
3578.000000;2.367114
3577.000000;2.173666
3576.000000;2.193819
3575.000000;2.319135
3574.000000;2.261319
3573.000000;2.143212
3572.000000;2.210586
3571.000000;2.197610
3570.000000;1.850978
3569.000000;1.623934
3568.000000;1.497636
3567.000000;1.461911
3566.000000;1.523586
3565.000000;1.791058
3564.000000;1.715142
3563.000000;1.431560
3562.000000;1.408560
3561.000000;1.505926
3560.000000;1.683463
3559.000000;1.703716
3558.000000;1.650320
3557.000000;1.738024
3556.000000;2.021137
3555.000000;2.287333
3554.000000;1.988700
3553.000000;1.789838
3552.000000;1.757744
3551.000000;1.899860
3550.000000;2.225195
3549.000000;2.097722
3548.000000;1.844868
3547.000000;1.781459
3546.000000;2.040645
3545.000000;1.983156
3544.000000;1.573239
3543.000000;1.524799
3542.000000;1.624666
3541.000000;1.926965
3540.000000;2.070183
3539.000000;1.787805
3538.000000;1.715801
3537.000000;2.152174
3536.000000;2.200040
3535.000000;1.686736
3534.000000;1.595240
3533.000000;1.584114
3532.000000;1.578724
3531.000000;1.582954
3530.000000;1.653033
3529.000000;1.817318
3528.000000;1.957667
3527.000000;1.862588
3526.000000;1.759051
3525.000000;1.717687
3524.000000;1.694416
3523.000000;1.687258
3522.000000;1.715663
3521.000000;1.790835
3520.000000;1.927168
3519.000000;2.095362
3518.000000;2.066454
3517.000000;1.948115
3516.000000;1.958324
3515.000000;2.097763
3514.000000;2.261061
3513.000000;2.200054
3512.000000;2.063005
3511.000000;2.019925
3510.000000;2.001794
3509.000000;2.016856
3508.000000;2.041267
3507.000000;1.815908
3506.000000;1.629700
3505.000000;1.623609
3504.000000;1.768570
3503.000000;2.395592
3502.000000;2.113164
3501.000000;1.721462
3500.000000;1.639768
3499.000000;1.775914
3498.000000;2.356791
3497.000000;1.954530
3496.000000;1.786972
3495.000000;1.856063
3494.000000;1.908197
3493.000000;1.902317
3492.000000;1.964004
3491.000000;2.007626
3490.000000;2.025914
3489.000000;2.162223
3488.000000;2.464936
3487.000000;2.198324
3486.000000;1.849164
3485.000000;1.699001
3484.000000;1.667281
3483.000000;1.801271
3482.000000;2.010158
3481.000000;1.933340
3480.000000;1.792034
3479.000000;1.702882
3478.000000;1.659396
3477.000000;1.706685
3476.000000;1.882570
3475.000000;2.030832
3474.000000;1.852895
3473.000000;1.765577
3472.000000;1.858411
3471.000000;2.077988
3470.000000;2.134006
3469.000000;2.100416
3468.000000;2.163078
3467.000000;2.466373
3466.000000;2.671731
3465.000000;2.081727
3464.000000;2.075583
3463.000000;2.453627
3462.000000;8.000000
3461.000000;2.499285
3460.000000;1.921053
3459.000000;1.738780
3458.000000;1.850614
3457.000000;2.234905
3456.000000;1.913906
3455.000000;1.652531
3454.000000;1.633072
3453.000000;1.712098
3452.000000;2.011577
3451.000000;2.347440
3450.000000;1.939947
3449.000000;1.732347
3448.000000;1.659063
3447.000000;1.665217
3446.000000;1.641974
3445.000000;1.511192
3444.000000;1.471452
3443.000000;1.603203
3442.000000;2.005616
3441.000000;2.349707
3440.000000;1.841247
3439.000000;1.744349
3438.000000;1.742670
3437.000000;1.710386
3436.000000;1.704903
3435.000000;1.822865
3434.000000;1.965804
3433.000000;1.945833
3432.000000;2.242397
3431.000000;2.311457
3430.000000;1.754494
3429.000000;1.539215
3428.000000;1.467789
3427.000000;1.534998
3426.000000;2.018754
3425.000000;1.941273
3424.000000;1.586067
3423.000000;1.593913
3422.000000;1.840078
3421.000000;2.094477
3420.000000;1.837284
3419.000000;1.730990
3418.000000;1.740841
3417.000000;1.773202
3416.000000;1.800614
3415.000000;1.782447
3414.000000;1.716935
3413.000000;1.656342
3412.000000;1.669279
3411.000000;1.767000
3410.000000;2.132156
3409.000000;2.607618
3408.000000;1.911224
3407.000000;1.701949
3406.000000;1.584705
3405.000000;1.540506
3404.000000;1.576258
3403.000000;1.747215
3402.000000;2.112210
3401.000000;2.113784
3400.000000;2.182790
3399.000000;2.073987
3398.000000;1.759143
3397.000000;1.715008
3396.000000;1.818560
3395.000000;1.754756
3394.000000;1.615127
3393.000000;1.603695
3392.000000;1.762333
3391.000000;1.870469
3390.000000;1.595742
3389.000000;1.444259
3388.000000;1.440425
3387.000000;1.554568
3386.000000;1.794168
3385.000000;2.105381
3384.000000;2.266364
3383.000000;2.321419
3382.000000;2.164737
3381.000000;1.848231
3380.000000;1.645721
3379.000000;1.595531
3378.000000;1.717273
3377.000000;2.232128
3376.000000;2.506085
3375.000000;2.067087
3374.000000;1.947366
3373.000000;1.819517
3372.000000;1.742620
3371.000000;1.687847
3370.000000;1.742646
3369.000000;1.862297
3368.000000;2.007471
3367.000000;3.087146
3366.000000;2.142413
3365.000000;1.830914
3364.000000;1.683093
3363.000000;1.566058
3362.000000;1.558496
3361.000000;1.632902
3360.000000;1.736184
3359.000000;1.783399
3358.000000;1.746292
3357.000000;1.691649
3356.000000;1.707231
3355.000000;1.868415
3354.000000;1.973866
3353.000000;1.820404
3352.000000;1.813878
3351.000000;1.967933
3350.000000;2.058482
3349.000000;2.216334
3348.000000;2.233807
3347.000000;1.845753
3346.000000;1.700006
3345.000000;1.877927
3344.000000;2.230874
3343.000000;1.885758
3342.000000;1.752829
3341.000000;1.770555
3340.000000;1.767739
3339.000000;1.960430
3338.000000;2.132290
3337.000000;1.709448
3336.000000;1.539888
3335.000000;1.563846
3334.000000;1.725588
3333.000000;2.085314
3332.000000;2.346232
3331.000000;1.730594
3330.000000;1.483000
3329.000000;1.419826
3328.000000;1.501515
3327.000000;1.800092
3326.000000;2.265428
3325.000000;2.154811
3324.000000;1.964426
3323.000000;1.799950
3322.000000;1.774201
3321.000000;1.979521
3320.000000;2.339089
3319.000000;2.314262
3318.000000;2.240963
3317.000000;2.027000
3316.000000;1.821573
3315.000000;1.755606
3314.000000;1.737598
3313.000000;1.702910
3312.000000;1.645331
3311.000000;1.611838
3310.000000;1.625829
3309.000000;1.690284
3308.000000;1.679371
3307.000000;1.530606
3306.000000;1.454060
3305.000000;1.505365
3304.000000;1.668246
3303.000000;1.865620
3302.000000;1.904733
3301.000000;1.853061
3300.000000;1.997194
3299.000000;2.101794
3298.000000;1.821791
3297.000000;1.849675
3296.000000;2.054757
3295.000000;1.740348
3294.000000;1.540879
3293.000000;1.619718
3292.000000;1.975281
3291.000000;1.921202
3290.000000;1.618010
3289.000000;1.484448
3288.000000;1.448623
3287.000000;1.584141
3286.000000;2.196860
3285.000000;1.999187
3284.000000;1.725685
3283.000000;1.774349
3282.000000;2.016220
3281.000000;2.482627
3280.000000;2.176700
3279.000000;1.860451
3278.000000;1.644930
3277.000000;1.527402
3276.000000;1.567498
3275.000000;1.847866
3274.000000;1.831024
3273.000000;1.556243
3272.000000;1.621709
3271.000000;1.893051
3270.000000;1.861241
3269.000000;1.797728
3268.000000;1.916029
3267.000000;1.686777
3266.000000;1.547354
3265.000000;1.730003
3264.000000;1.754022
3263.000000;1.521220
3262.000000;1.507026
3261.000000;1.760543
3260.000000;2.124830
3259.000000;1.900167
3258.000000;1.730772
3257.000000;1.652824
3256.000000;1.689593
3255.000000;1.931614
3254.000000;2.241862
3253.000000;2.297682
3252.000000;2.391302
3251.000000;2.645189
3250.000000;2.590637
3249.000000;1.954731
3248.000000;1.762436
3247.000000;1.750288
3246.000000;1.838785
3245.000000;2.117849
3244.000000;2.335848
3243.000000;1.850948
3242.000000;1.614472
3241.000000;1.598669
3240.000000;1.854640
3239.000000;2.073723
3238.000000;1.776832
3237.000000;1.695166
3236.000000;1.811766
3235.000000;2.148150
3234.000000;2.414233
3233.000000;2.147678
3232.000000;1.998007
3231.000000;1.834148
3230.000000;1.668227
3229.000000;1.603136
3228.000000;1.675488
3227.000000;2.033653
3226.000000;2.365213
3225.000000;1.863954
3224.000000;1.796275
3223.000000;1.773388
3222.000000;1.667342
3221.000000;1.562923
3220.000000;1.523810
3219.000000;1.617566
3218.000000;1.811069
3217.000000;1.791512
3216.000000;1.676985
3215.000000;1.711939
3214.000000;1.862026
3213.000000;1.966230
3212.000000;1.858410
3211.000000;1.764389
3210.000000;1.707902
3209.000000;1.683188
3208.000000;1.713480
3207.000000;1.849709
3206.000000;2.438300
3205.000000;2.092116
3204.000000;1.718352
3203.000000;1.658670
3202.000000;1.813733
3201.000000;1.978636
3200.000000;1.827042
3199.000000;2.021748
3198.000000;2.064219
3197.000000;1.601300
3196.000000;1.505703
3195.000000;1.585879
3194.000000;1.847400
3193.000000;2.197030
3192.000000;1.980678
3191.000000;1.763067
3190.000000;1.685629
3189.000000;1.750033
3188.000000;1.750039
3187.000000;1.606359
3186.000000;1.557031
3185.000000;1.674920
3184.000000;2.122262
3183.000000;1.839261
3182.000000;1.529576
3181.000000;1.507867
3180.000000;1.641619
3179.000000;1.878543
3178.000000;1.852188
3177.000000;1.738978
3176.000000;1.643391
3175.000000;1.543578
3174.000000;1.498375
3173.000000;1.502389
3172.000000;1.465515
3171.000000;1.398916
3170.000000;1.411616
3169.000000;1.487329
3168.000000;1.535378
3167.000000;1.631480
3166.000000;1.885407
3165.000000;2.058407
3164.000000;2.217961
3163.000000;2.014048
3162.000000;1.637124
3161.000000;1.519058
3160.000000;1.478852
3159.000000;1.509164
3158.000000;1.789442
3157.000000;2.191298
3156.000000;1.927032
3155.000000;1.916373
3154.000000;1.837570
3153.000000;1.755550
3152.000000;2.088744
3151.000000;2.268077
3150.000000;2.019976
3149.000000;2.111815
3148.000000;1.786987
3147.000000;1.558270
3146.000000;1.514883
3145.000000;1.683209
3144.000000;2.191199
3143.000000;1.908825
3142.000000;1.681906
3141.000000;1.786069
3140.000000;1.974276
3139.000000;1.956304
3138.000000;1.969517
3137.000000;1.758077
3136.000000;1.536247
3135.000000;1.522850
3134.000000;1.764099
3133.000000;2.155605
3132.000000;1.940734
3131.000000;1.900945
3130.000000;2.214956
3129.000000;2.369443
3128.000000;2.408031
3127.000000;2.708465
3126.000000;2.020743
3125.000000;1.695417
3124.000000;1.610243
3123.000000;1.742223
3122.000000;2.222587
3121.000000;2.039948
3120.000000;1.802208
3119.000000;1.709773
3118.000000;1.694112
3117.000000;1.873500
3116.000000;2.228745
3115.000000;2.218126
3114.000000;2.051266
3113.000000;2.033050
3112.000000;2.030946
3111.000000;1.941886
3110.000000;1.911740
3109.000000;1.732356
3108.000000;1.503141
3107.000000;1.435820
3106.000000;1.522172
3105.000000;1.830798
3104.000000;2.181267
3103.000000;1.946879
3102.000000;1.749803
3101.000000;1.617368
3100.000000;1.578112
3099.000000;1.688267
3098.000000;1.867426
3097.000000;1.883153
3096.000000;1.814493
3095.000000;1.723908
3094.000000;1.620108
3093.000000;1.565133
3092.000000;1.576658
3091.000000;1.710720
3090.000000;1.952763
3089.000000;1.798785
3088.000000;1.585058
3087.000000;1.547208
3086.000000;1.614702
3085.000000;1.681618
3084.000000;1.655797
3083.000000;1.617218
3082.000000;1.629413
3081.000000;1.677926
3080.000000;1.719203
3079.000000;1.737374
3078.000000;1.867364
3077.000000;2.222683
3076.000000;2.171336
3075.000000;1.810110
3074.000000;1.576073
3073.000000;1.475110
3072.000000;1.622385
3071.000000;2.104317
3070.000000;1.761287
3069.000000;1.655090
3068.000000;2.003397
3067.000000;2.211519
3066.000000;1.835076
3065.000000;1.711270
3064.000000;1.652278
3063.000000;1.623145
3062.000000;1.952522
3061.000000;2.230172
3060.000000;1.612379
3059.000000;1.539091
3058.000000;1.865052
3057.000000;2.113864
3056.000000;1.685266
3055.000000;2.070346
3054.000000;2.032378
3053.000000;1.517750
3052.000000;1.523298
3051.000000;1.803539
3050.000000;2.345214
3049.000000;2.052318
3048.000000;1.883247
3047.000000;1.833234
3046.000000;1.796677
3045.000000;1.970851
3044.000000;2.269577
3043.000000;2.166324
3042.000000;2.164309
3041.000000;1.795450
3040.000000;1.675380
3039.000000;1.900621
3038.000000;1.578307
3037.000000;1.275930
3036.000000;1.196734
3035.000000;1.245595
3034.000000;1.382327
3033.000000;1.588506
3032.000000;1.741248
3031.000000;1.598318
3030.000000;1.436308
3029.000000;1.425019
3028.000000;1.547283
3027.000000;1.793097
3026.000000;2.417341
3025.000000;2.234597
3024.000000;1.883016
3023.000000;1.991654
3022.000000;2.534490
3021.000000;2.406403
3020.000000;1.997722
3019.000000;1.871787
3018.000000;1.909857
3017.000000;2.344411
3016.000000;2.105650
3015.000000;1.816434
3014.000000;1.860473
3013.000000;2.219003
3012.000000;2.902303
3011.000000;2.406702
3010.000000;2.189517
3009.000000;1.956254
3008.000000;1.863425
3007.000000;1.896562
3006.000000;1.888159
3005.000000;1.768286
3004.000000;1.658313
3003.000000;1.635033
3002.000000;1.691615
3001.000000;1.893042
3000.000000;2.235390
2999.000000;1.922299
2998.000000;1.602513
2997.000000;1.521009
2996.000000;1.571156
2995.000000;1.814440
2994.000000;2.420770
2993.000000;1.910776
2992.000000;1.619241
2991.000000;1.513940
2990.000000;1.447638
2989.000000;1.483184
2988.000000;1.743040
2987.000000;2.178067
2986.000000;1.809387
2985.000000;1.775442
2984.000000;2.026003
2983.000000;2.179136
2982.000000;2.009275
2981.000000;1.873394
2980.000000;1.809589
2979.000000;1.737340
2978.000000;1.786780
2977.000000;1.806310
2976.000000;1.614590
2975.000000;1.515518
2974.000000;1.505429
2973.000000;1.500711
2972.000000;1.553461
2971.000000;1.741669
2970.000000;1.941847
2969.000000;1.894019
2968.000000;1.757204
2967.000000;1.788827
2966.000000;2.189623
2965.000000;1.913224
2964.000000;1.586524
2963.000000;1.448244
2962.000000;1.383000
2961.000000;1.413522
2960.000000;1.624493
2959.000000;2.041618
2958.000000;1.814591
2957.000000;1.698699
2956.000000;1.754849
2955.000000;1.815092
2954.000000;1.881047
2953.000000;2.108204
2952.000000;2.157296
2951.000000;1.752724
2950.000000;1.614400
2949.000000;1.628436
2948.000000;1.789834
2947.000000;1.947546
2946.000000;1.803367
2945.000000;1.695635
2944.000000;1.607332
2943.000000;1.452076
2942.000000;1.336174
2941.000000;1.311072
2940.000000;1.352669
2939.000000;1.477199
2938.000000;1.659389
2937.000000;1.562624
2936.000000;1.414525
2935.000000;1.406198
2934.000000;1.463307
2933.000000;1.515735
2932.000000;1.587786
2931.000000;1.695416
2930.000000;1.775648
2929.000000;1.873711
2928.000000;2.060431
2927.000000;2.178875
2926.000000;2.173812
2925.000000;2.154782
2924.000000;1.869822
2923.000000;1.637162
2922.000000;1.577700
2921.000000;1.809606
2920.000000;2.265837
2919.000000;2.055417
2918.000000;2.058275
2917.000000;1.792379
2916.000000;1.549516
2915.000000;1.560738
2914.000000;1.841505
2913.000000;2.269501
2912.000000;1.827257
2911.000000;1.571964
2910.000000;1.520436
2909.000000;1.788725
2908.000000;1.908583
2907.000000;1.488634
2906.000000;1.453748
2905.000000;1.709272
2904.000000;1.847741
2903.000000;1.726323
2902.000000;1.792446
2901.000000;1.807682
2900.000000;1.709316
2899.000000;1.665481
2898.000000;1.591732
2897.000000;1.516174
2896.000000;1.456076
2895.000000;1.382865
2894.000000;1.363275
2893.000000;1.437705
2892.000000;1.409441
2891.000000;1.297628
2890.000000;1.311771
2889.000000;1.501579
2888.000000;1.616203
2887.000000;1.501312
2886.000000;1.469647
2885.000000;1.606887
2884.000000;2.055956
2883.000000;1.932593
2882.000000;1.592549
2881.000000;1.466129
2880.000000;1.460010
2879.000000;1.649889
2878.000000;1.690767
2877.000000;1.493611
2876.000000;1.482259
2875.000000;1.815869
2874.000000;2.176168
2873.000000;1.635943
2872.000000;1.558812
2871.000000;1.678661
2870.000000;2.145666
2869.000000;2.563245
2868.000000;1.899854
2867.000000;1.689307
2866.000000;1.514671
2865.000000;1.468491
2864.000000;1.475751
2863.000000;1.477396
2862.000000;1.485127
2861.000000;1.566286
2860.000000;1.614359
2859.000000;1.545494
2858.000000;1.491500
2857.000000;1.642656
2856.000000;2.472824
2855.000000;1.836229
2854.000000;1.611046
2853.000000;1.702075
2852.000000;1.636362
2851.000000;1.522523
2850.000000;1.515851
2849.000000;1.632675
2848.000000;1.972631
2847.000000;2.449176
2846.000000;1.856287
2845.000000;1.841785
2844.000000;2.154172
2843.000000;1.684671
2842.000000;1.371250
2841.000000;1.309092
2840.000000;1.427824
2839.000000;1.735126
2838.000000;1.643730
2837.000000;1.409608
2836.000000;1.403315
2835.000000;1.540037
2834.000000;1.730718
2833.000000;1.731616
2832.000000;1.666715
2831.000000;1.578517
2830.000000;1.526503
2829.000000;1.577875
2828.000000;1.535988
2827.000000;1.428482
2826.000000;1.386068
2825.000000;1.382072
2824.000000;1.454137
2823.000000;1.613945
2822.000000;1.637458
2821.000000;1.570549
2820.000000;1.616148
2819.000000;1.890033
2818.000000;2.004238
2817.000000;1.691859
2816.000000;1.632715
2815.000000;1.659446
2814.000000;1.639170
2813.000000;1.569161
2812.000000;1.522076
2811.000000;1.638035
2810.000000;1.875651
2809.000000;1.554490
2808.000000;1.331542
2807.000000;1.338907
2806.000000;1.526093
2805.000000;2.273964
2804.000000;2.024175
2803.000000;1.653096
2802.000000;1.639816
2801.000000;1.718417
2800.000000;1.964220
2799.000000;1.907961
2798.000000;1.731405
2797.000000;1.734447
2796.000000;2.060654
2795.000000;2.498942
2794.000000;1.847448
2793.000000;1.656500
2792.000000;1.597788
2791.000000;1.630465
2790.000000;1.991887
2789.000000;2.169520
2788.000000;1.671013
2787.000000;1.472232
2786.000000;1.377908
2785.000000;1.387425
2784.000000;1.604102
2783.000000;1.945097
2782.000000;1.675686
2781.000000;1.489335
2780.000000;1.559234
2779.000000;1.803255
2778.000000;2.172760
2777.000000;2.232190
2776.000000;2.176582
2775.000000;2.114007
2774.000000;1.998700
2773.000000;1.925887
2772.000000;1.932504
2771.000000;1.900965
2770.000000;1.762133
2769.000000;1.657477
2768.000000;1.732997
2767.000000;2.034232
2766.000000;1.940789
2765.000000;1.668956
2764.000000;1.580194
2763.000000;1.676812
2762.000000;2.034611
2761.000000;1.938787
2760.000000;1.789089
2759.000000;2.018637
2758.000000;1.765687
2757.000000;1.487846
2756.000000;1.429740
2755.000000;1.486743
2754.000000;1.642743
2753.000000;1.905471
2752.000000;2.466825
2751.000000;2.225738
2750.000000;1.926362
2749.000000;1.866654
2748.000000;1.788256
2747.000000;1.757902
2746.000000;1.858768
2745.000000;2.148558
2744.000000;2.055104
2743.000000;1.731036
2742.000000;1.597112
2741.000000;1.629922
2740.000000;1.709851
2739.000000;1.643558
2738.000000;1.625504
2737.000000;1.829603
2736.000000;2.092258
2735.000000;1.981556
2734.000000;1.920785
2733.000000;2.088467
2732.000000;2.183068
2731.000000;1.872645
2730.000000;1.720854
2729.000000;1.757940
2728.000000;1.700230
2727.000000;1.718076
2726.000000;1.812049
2725.000000;1.493877
2724.000000;1.283756
2723.000000;1.293651
2722.000000;1.423288
2721.000000;1.655685
2720.000000;2.223694
2719.000000;2.113400
2718.000000;1.933661
2717.000000;2.073286
2716.000000;1.856322
2715.000000;1.705974
2714.000000;1.836464
2713.000000;2.154926
2712.000000;1.836607
2711.000000;1.713561
2710.000000;1.906241
2709.000000;1.899567
2708.000000;1.633386
2707.000000;1.505964
2706.000000;1.472206
2705.000000;1.604403
2704.000000;1.818132
2703.000000;1.608656
2702.000000;1.495589
2701.000000;1.541338
2700.000000;1.505723
2699.000000;1.493489
2698.000000;1.535010
2697.000000;1.515236
2696.000000;1.551123
2695.000000;1.722127
2694.000000;1.910139
2693.000000;1.919210
2692.000000;1.963116
2691.000000;2.155373
2690.000000;2.058849
2689.000000;1.754966
2688.000000;1.539868
2687.000000;1.465058
2686.000000;1.497765
2685.000000;1.552737
2684.000000;1.559404
2683.000000;1.697321
2682.000000;1.996079
2681.000000;1.722406
2680.000000;1.530699
2679.000000;1.613877
2678.000000;1.669384
2677.000000;1.627268
2676.000000;1.635582
2675.000000;1.766518
2674.000000;2.360035
2673.000000;2.033328
2672.000000;1.692200
2671.000000;1.796312
2670.000000;1.943522
2669.000000;1.783014
2668.000000;1.469229
2667.000000;1.322058
2666.000000;1.342944
2665.000000;1.637992
2664.000000;2.676789
2663.000000;1.938056
2662.000000;1.601669
2661.000000;1.448163
2660.000000;1.469837
2659.000000;1.578553
2658.000000;1.509004
2657.000000;1.474478
2656.000000;1.560405
2655.000000;1.648161
2654.000000;1.642428
2653.000000;2.060875
2652.000000;2.017103
2651.000000;1.462750
2650.000000;1.357976
2649.000000;1.368173
2648.000000;1.420082
2647.000000;1.468953
2646.000000;1.493891
2645.000000;1.555223
2644.000000;1.716456
2643.000000;1.742975
2642.000000;1.537516
2641.000000;1.485162
2640.000000;1.595899
2639.000000;1.645314
2638.000000;1.659333
2637.000000;1.972212
2636.000000;2.105770
2635.000000;1.760271
2634.000000;1.928722
2633.000000;2.258540
2632.000000;1.628806
2631.000000;1.359513
2630.000000;1.279992
2629.000000;1.402240
2628.000000;1.760597
2627.000000;1.654257
2626.000000;1.445109
2625.000000;1.433995
2624.000000;1.395658
2623.000000;1.341237
2622.000000;1.306267
2621.000000;1.293985
2620.000000;1.319427
2619.000000;1.417056
2618.000000;1.545041
2617.000000;1.480516
2616.000000;1.334612
2615.000000;1.355706
2614.000000;1.723051
2613.000000;1.768339
2612.000000;1.487784
2611.000000;1.542558
2610.000000;1.560561
2609.000000;1.444535
2608.000000;1.538101
2607.000000;2.010378
2606.000000;2.017462
2605.000000;1.854179
2604.000000;1.942065
2603.000000;1.722099
2602.000000;1.645515
2601.000000;1.740363
2600.000000;1.899854
2599.000000;2.271733
2598.000000;2.056445
2597.000000;1.587821
2596.000000;1.412074
2595.000000;1.388083
2594.000000;1.508528
2593.000000;1.773961
2592.000000;1.772971
2591.000000;1.596950
2590.000000;1.579139
2589.000000;1.676110
2588.000000;1.622080
2587.000000;1.461679
2586.000000;1.408146
2585.000000;1.469051
2584.000000;1.558080
2583.000000;1.543253
2582.000000;1.484233
2581.000000;1.653218
2580.000000;1.660018
2579.000000;1.279014
2578.000000;1.162632
2577.000000;1.228178
2576.000000;1.330119
2575.000000;1.339467
2574.000000;1.378666
2573.000000;1.418053
2572.000000;1.323165
2571.000000;1.297317
2570.000000;1.427376
2569.000000;1.846283
2568.000000;2.081436
2567.000000;1.803768
2566.000000;1.841284
2565.000000;1.807203
2564.000000;1.562208
2563.000000;1.387796
2562.000000;1.341735
2561.000000;1.455481
2560.000000;1.813214
2559.000000;1.948013
2558.000000;1.684923
2557.000000;1.656280
2556.000000;1.725505
2555.000000;1.624123
2554.000000;1.544237
2553.000000;1.612784
2552.000000;1.559946
2551.000000;1.424311
2550.000000;1.402560
2549.000000;1.489765
2548.000000;1.598028
2547.000000;1.563192
2546.000000;1.478009
2545.000000;1.522539
2544.000000;1.771533
2543.000000;1.949659
2542.000000;1.592020
2541.000000;1.390614
2540.000000;1.311503
2539.000000;1.371005
2538.000000;1.900185
2537.000000;1.826782
2536.000000;1.391344
2535.000000;1.337321
2534.000000;1.456972
2533.000000;1.806471
2532.000000;1.859714
2531.000000;1.696376
2530.000000;1.644010
2529.000000;1.575435
2528.000000;1.616570
2527.000000;1.873833
2526.000000;1.920864
2525.000000;1.555892
2524.000000;1.365018
2523.000000;1.293960
2522.000000;1.319496
2521.000000;1.450371
2520.000000;1.662154
2519.000000;1.754697
2518.000000;1.660009
2517.000000;1.571370
2516.000000;1.476221
2515.000000;1.460881
2514.000000;1.570815
2513.000000;1.484297
2512.000000;1.306327
2511.000000;1.265594
2510.000000;1.388313
2509.000000;1.686628
2508.000000;1.579666
2507.000000;1.349517
2506.000000;1.287639
2505.000000;1.313805
2504.000000;1.426536
2503.000000;1.635221
2502.000000;1.720609
2501.000000;1.490668
2500.000000;1.362762
2499.000000;1.375423
2498.000000;1.499706
2497.000000;1.683016
2496.000000;1.722858
2495.000000;1.674836
2494.000000;1.774403
2493.000000;2.028214
2492.000000;1.861983
2491.000000;1.634867
2490.000000;1.587916
2489.000000;1.696455
2488.000000;1.814709
2487.000000;1.890811
2486.000000;2.193797
2485.000000;1.784823
2484.000000;1.481301
2483.000000;1.428343
2482.000000;1.391423
2481.000000;1.325203
2480.000000;1.266485
2479.000000;1.283741
2478.000000;1.403971
2477.000000;1.665848
2476.000000;2.168099
2475.000000;2.166562
2474.000000;1.804929
2473.000000;1.626688
2472.000000;1.585172
2471.000000;1.691603
2470.000000;1.658108
2469.000000;1.436995
2468.000000;1.338342
2467.000000;1.357753
2466.000000;1.523183
2465.000000;1.762999
2464.000000;1.570338
2463.000000;1.379451
2462.000000;1.366329
2461.000000;1.498128
2460.000000;1.697219
2459.000000;1.601365
2458.000000;1.453915
2457.000000;1.588370
2456.000000;1.801483
2455.000000;1.424519
2454.000000;1.256281
2453.000000;1.313006
2452.000000;1.556137
2451.000000;2.177227
2450.000000;1.878171
2449.000000;1.535023
2448.000000;1.424590
2447.000000;1.437325
2446.000000;1.622579
2445.000000;1.830959
2444.000000;1.723918
2443.000000;1.571212
2442.000000;1.535075
2441.000000;1.688034
2440.000000;1.850693
2439.000000;1.755905
2438.000000;1.783098
2437.000000;1.687651
2436.000000;1.436351
2435.000000;1.320882
2434.000000;1.355630
2433.000000;1.582594
2432.000000;2.162847
2431.000000;2.344693
2430.000000;1.995941
2429.000000;1.729778
2428.000000;1.487655
2427.000000;1.484114
2426.000000;1.515352
2425.000000;1.348887
2424.000000;1.255911
2423.000000;1.390292
2422.000000;1.644915
2421.000000;1.540439
2420.000000;1.456009
2419.000000;1.668416
2418.000000;2.079297
2417.000000;1.708165
2416.000000;1.437578
2415.000000;1.363405
2414.000000;1.353323
2413.000000;1.261851
2412.000000;1.133391
2411.000000;1.118667
2410.000000;1.239106
2409.000000;1.552621
2408.000000;1.877912
2407.000000;1.780386
2406.000000;1.839584
2405.000000;1.975047
2404.000000;1.974524
2403.000000;2.096012
2402.000000;1.861794
2401.000000;1.574723
2400.000000;1.494324
2399.000000;1.534347
2398.000000;1.427441
2397.000000;1.256760
2396.000000;1.186948
2395.000000;1.285383
2394.000000;1.684103
2393.000000;1.611207
2392.000000;1.265021
2391.000000;1.206322
2390.000000;1.258800
2389.000000;1.483980
2388.000000;1.944356
2387.000000;1.633425
2386.000000;1.369467
2385.000000;1.342042
2384.000000;1.421371
2383.000000;1.572962
2382.000000;1.904717
2381.000000;2.107849
2380.000000;1.684832
2379.000000;1.505058
2378.000000;1.425498
2377.000000;1.366725
2376.000000;1.365246
2375.000000;1.449089
2374.000000;1.655530
2373.000000;1.948689
2372.000000;2.170690
2371.000000;2.177951
2370.000000;1.887150
2369.000000;1.598086
2368.000000;1.435005
2367.000000;1.352197
2366.000000;1.315199
2365.000000;1.381144
2364.000000;1.638370
2363.000000;1.649454
2362.000000;1.432058
2361.000000;1.537859
2360.000000;1.832165
2359.000000;1.872309
2358.000000;1.755099
2357.000000;1.534546
2356.000000;1.415611
2355.000000;1.407720
2354.000000;1.400286
2353.000000;1.394280
2352.000000;1.554361
2351.000000;1.659614
2350.000000;1.454594
2349.000000;1.397086
2348.000000;1.427088
2347.000000;1.462546
2346.000000;1.533658
2345.000000;1.739781
2344.000000;2.155465
2343.000000;1.932751
2342.000000;1.632833
2341.000000;1.533062
2340.000000;1.505852
2339.000000;1.485235
2338.000000;1.455976
2337.000000;1.477136
2336.000000;1.582520
2335.000000;1.761177
2334.000000;1.812549
2333.000000;2.137462
2332.000000;2.163893
2331.000000;1.506696
2330.000000;1.357587
2329.000000;1.492125
2328.000000;1.703706
2327.000000;1.544937
2326.000000;1.497582
2325.000000;1.788084
2324.000000;1.871157
2323.000000;1.704909
2322.000000;1.770327
2321.000000;1.869348
2320.000000;1.652535
2319.000000;1.388338
2318.000000;1.236223
2317.000000;1.206986
2316.000000;1.242438
2315.000000;1.234503
2314.000000;1.184927
2313.000000;1.195926
2312.000000;1.305906
2311.000000;1.392663
2310.000000;1.278317
2309.000000;1.134721
2308.000000;1.062012
2307.000000;1.067415
2306.000000;1.147922
2305.000000;1.308579
2304.000000;1.567692
2303.000000;1.392721
2302.000000;1.115834
2301.000000;1.028792
2300.000000;1.206146
2299.000000;1.650261
2298.000000;1.245385
2297.000000;0.989131
2296.000000;0.956811
2295.000000;0.978823
2294.000000;1.095508
2293.000000;1.269165
2292.000000;1.400138
2291.000000;1.433599
2290.000000;1.343756
2289.000000;1.163418
2288.000000;1.038512
2287.000000;1.021112
2286.000000;1.177050
2285.000000;1.581617
2284.000000;1.485661
2283.000000;1.198723
2282.000000;1.121549
2281.000000;1.147764
2280.000000;1.253234
2279.000000;1.300551
2278.000000;1.245050
2277.000000;1.243741
2276.000000;1.326918
2275.000000;1.593820
2274.000000;1.810959
2273.000000;1.514842
2272.000000;1.328120
2271.000000;1.384154
2270.000000;1.737323
2269.000000;1.500308
2268.000000;1.155646
2267.000000;1.074244
2266.000000;1.105362
2265.000000;1.326726
2264.000000;1.885634
2263.000000;1.697197
2262.000000;1.613457
2261.000000;1.830587
2260.000000;1.566990
2259.000000;1.338273
2258.000000;1.236472
2257.000000;1.292652
2256.000000;1.688927
2255.000000;1.643762
2254.000000;1.250199
2253.000000;1.198777
2252.000000;1.222525
2251.000000;1.237615
2250.000000;1.259709
2249.000000;1.313547
2248.000000;1.386066
2247.000000;1.353210
2246.000000;1.369101
2245.000000;1.458399
2244.000000;1.677970
2243.000000;1.988431
2242.000000;1.553165
2241.000000;1.337732
2240.000000;1.374586
2239.000000;1.411713
2238.000000;1.368722
2237.000000;1.316393
2236.000000;1.332727
2235.000000;1.386141
2234.000000;1.654568
2233.000000;1.803814
2232.000000;1.335255
2231.000000;1.157788
2230.000000;1.243660
2229.000000;1.520817
2228.000000;1.313626
2227.000000;1.077470
2226.000000;1.071062
2225.000000;1.176569
2224.000000;1.306709
2223.000000;1.403834
2222.000000;1.441364
2221.000000;1.372330
2220.000000;1.391214
2219.000000;1.611979
2218.000000;2.218764
2217.000000;2.744256
2216.000000;2.045274
2215.000000;1.775434
2214.000000;1.609884
2213.000000;1.675664
2212.000000;1.962799
2211.000000;1.780649
2210.000000;1.572973
2209.000000;1.488480
2208.000000;1.492870
2207.000000;1.481454
2206.000000;1.534703
2205.000000;1.609292
2204.000000;1.231368
2203.000000;1.008504
2202.000000;0.967851
2201.000000;1.075266
2200.000000;1.372326
2199.000000;1.349139
2198.000000;1.110311
2197.000000;1.064692
2196.000000;1.146977
2195.000000;1.348503
2194.000000;1.382500
2193.000000;1.181224
2192.000000;1.115001
2191.000000;1.121425
2190.000000;1.160105
2189.000000;1.220097
2188.000000;1.430558
2187.000000;2.206199
2186.000000;1.871379
2185.000000;1.598110
2184.000000;1.598057
2183.000000;1.505658
2182.000000;1.475986
2181.000000;1.398849
2180.000000;1.318457
2179.000000;1.303001
2178.000000;1.376358
2177.000000;1.514623
2176.000000;1.645649
2175.000000;1.725143
2174.000000;1.575826
2173.000000;1.448096
2172.000000;1.507809
2171.000000;1.464650
2170.000000;1.306822
2169.000000;1.298808
2168.000000;1.520753
2167.000000;1.902111
2166.000000;1.734453
2165.000000;1.644124
2164.000000;1.657644
2163.000000;1.629658
2162.000000;1.504903
2161.000000;1.493279
2160.000000;1.857871
2159.000000;1.598524
2158.000000;1.282849
2157.000000;1.311798
2156.000000;1.606803
2155.000000;1.583252
2154.000000;1.339831
2153.000000;1.325679
2152.000000;1.549906
2151.000000;1.670276
2150.000000;1.296610
2149.000000;1.159463
2148.000000;1.180493
2147.000000;1.261355
2146.000000;1.368207
2145.000000;1.447427
2144.000000;1.880112
2143.000000;1.929403
2142.000000;1.333164
2141.000000;1.181210
2140.000000;1.154369
2139.000000;1.204432
2138.000000;1.297054
2137.000000;1.310533
2136.000000;1.254603
2135.000000;1.186199
2134.000000;1.160008
2133.000000;1.183626
2132.000000;1.277056
2131.000000;1.437411
2130.000000;1.643272
2129.000000;1.765295
2128.000000;1.744098
2127.000000;1.631574
2126.000000;1.475179
2125.000000;1.390386
2124.000000;1.484585
2123.000000;1.840471
2122.000000;1.799608
2121.000000;1.418573
2120.000000;1.408431
2119.000000;1.652858
2118.000000;1.359451
2117.000000;1.059681
2116.000000;0.978112
2115.000000;0.979752
2114.000000;0.987330
2113.000000;0.990606
2112.000000;1.021208
2111.000000;1.071546
2110.000000;1.063732
2109.000000;1.107542
2108.000000;1.265079
2107.000000;1.240506
2106.000000;1.125426
2105.000000;1.242831
2104.000000;1.634477
2103.000000;1.500271
2102.000000;1.262845
2101.000000;1.244426
2100.000000;1.311861
2099.000000;1.394987
2098.000000;1.373163
2097.000000;1.349477
2096.000000;1.326389
2095.000000;1.477593
2094.000000;1.957564
2093.000000;1.586364
2092.000000;1.303565
2091.000000;1.270994
2090.000000;1.339954
2089.000000;1.468704
2088.000000;1.496536
2087.000000;1.389255
2086.000000;1.209993
2085.000000;1.076803
2084.000000;1.040043
2083.000000;1.099816
2082.000000;1.178643
2081.000000;1.240654
2080.000000;1.324979
2079.000000;1.552631
2078.000000;2.020326
2077.000000;1.496676
2076.000000;1.158427
2075.000000;1.047616
2074.000000;1.037240
2073.000000;1.124071
2072.000000;1.285396
2071.000000;1.520044
2070.000000;1.681764
2069.000000;1.552241
2068.000000;1.378330
2067.000000;1.342208
2066.000000;1.672423
2065.000000;1.712781
2064.000000;1.252994
2063.000000;1.280518
2062.000000;1.704135
2061.000000;1.327938
2060.000000;0.952745
2059.000000;0.861960
2058.000000;0.921472
2057.000000;1.224812
2056.000000;1.405794
2055.000000;1.154512
2054.000000;1.153037
2053.000000;1.411302
2052.000000;1.799906
2051.000000;1.499929
2050.000000;1.377861
2049.000000;1.474739
2048.000000;1.659185
2047.000000;1.964071
2046.000000;1.684366
2045.000000;1.294175
2044.000000;1.040939
2043.000000;0.905722
2042.000000;0.860986
2041.000000;0.881405
2040.000000;0.969274
2039.000000;1.141393
2038.000000;1.391525
2037.000000;1.655297
2036.000000;2.015634
2035.000000;1.929883
2034.000000;1.483833
2033.000000;1.231319
2032.000000;1.072900
2031.000000;1.007953
2030.000000;1.041366
2029.000000;1.148758
2028.000000;1.196301
2027.000000;1.179049
2026.000000;1.302487
2025.000000;1.352464
2024.000000;1.155924
2023.000000;1.080847
2022.000000;1.123354
2021.000000;1.140654
2020.000000;1.055759
2019.000000;0.986249
2018.000000;1.012953
2017.000000;1.247312
2016.000000;1.780122
2015.000000;1.859362
2014.000000;2.039555
2013.000000;2.504725
2012.000000;2.235129
2011.000000;1.709783
2010.000000;1.420762
2009.000000;1.417725
2008.000000;1.492323
2007.000000;1.427684
2006.000000;1.254183
2005.000000;1.137452
2004.000000;1.140688
2003.000000;1.190620
2002.000000;1.364956
2001.000000;1.662990
2000.000000;1.322753
1999.000000;1.138812
1998.000000;1.326213
1997.000000;1.577555
1996.000000;1.326525
1995.000000;1.219890
1994.000000;1.247511
1993.000000;1.250137
1992.000000;1.236546
1991.000000;1.350745
1990.000000;1.532744
1989.000000;1.297506
1988.000000;1.146413
1987.000000;1.137905
1986.000000;1.200406
1985.000000;1.380651
1984.000000;1.647770
1983.000000;1.782827
1982.000000;1.874425
1981.000000;2.312090
1980.000000;1.935699
1979.000000;1.415347
1978.000000;1.226153
1977.000000;1.195416
1976.000000;1.348899
1975.000000;1.438257
1974.000000;1.364283
1973.000000;1.638608
1972.000000;1.450469
1971.000000;1.063250
1970.000000;0.998180
1969.000000;1.137722
1968.000000;1.140039
1967.000000;0.966509
1966.000000;0.946283
1965.000000;1.032914
1964.000000;1.116513
1963.000000;1.236332
1962.000000;1.322615
1961.000000;1.218814
1960.000000;1.307979
1959.000000;1.527984
1958.000000;1.230365
1957.000000;1.037616
1956.000000;0.990152
1955.000000;0.990862
1954.000000;1.062718
1953.000000;1.227953
1952.000000;1.397054
1951.000000;1.413871
1950.000000;1.263763
1949.000000;1.124917
1948.000000;1.139677
1947.000000;1.398803
1946.000000;1.475815
1945.000000;1.336408
1944.000000;1.232835
1943.000000;1.291538
1942.000000;2.068487
1941.000000;1.411710
1940.000000;1.069373
1939.000000;1.079231
1938.000000;1.208496
1937.000000;1.278054
1936.000000;1.094795
1935.000000;1.017885
1934.000000;1.056063
1933.000000;1.187917
1932.000000;1.289223
1931.000000;1.244089
1930.000000;1.239898
1929.000000;1.427331
1928.000000;1.704690
1927.000000;1.481621
1926.000000;1.301234
1925.000000;1.297172
1924.000000;1.399163
1923.000000;1.467546
1922.000000;1.461401
1921.000000;1.423240
1920.000000;1.220193
1919.000000;1.084895
1918.000000;1.100364
1917.000000;1.208539
1916.000000;1.317498
1915.000000;1.365763
1914.000000;1.404879
1913.000000;1.495606
1912.000000;1.427316
1911.000000;1.185347
1910.000000;1.051407
1909.000000;1.068895
1908.000000;1.146027
1907.000000;1.156634
1906.000000;1.157527
1905.000000;1.327039
1904.000000;1.689397
1903.000000;1.410831
1902.000000;1.124766
1901.000000;1.073470
1900.000000;1.106776
1899.000000;1.107332
1898.000000;1.092272
1897.000000;1.178617
1896.000000;1.235429
1895.000000;1.149699
1894.000000;1.136292
1893.000000;1.278560
1892.000000;1.478722
1891.000000;1.448485
1890.000000;1.401812
1889.000000;1.549434
1888.000000;1.886060
1887.000000;2.442591
1886.000000;1.989025
1885.000000;1.876868
1884.000000;1.849058
1883.000000;1.300870
1882.000000;0.985021
1881.000000;0.874281
1880.000000;0.898408
1879.000000;1.130935
1878.000000;1.546690
1877.000000;1.337137
1876.000000;1.217071
1875.000000;1.350556
1874.000000;1.658366
1873.000000;1.790105
1872.000000;1.319555
1871.000000;1.073470
1870.000000;1.017065
1869.000000;1.251074
1868.000000;1.318523
1867.000000;1.136063
1866.000000;1.497105
1865.000000;1.563975
1864.000000;1.107961
1863.000000;1.016585
1862.000000;1.059292
1861.000000;1.256351
1860.000000;1.422845
1859.000000;1.202936
1858.000000;1.048165
1857.000000;0.994874
1856.000000;1.026599
1855.000000;1.149875
1854.000000;1.176703
1853.000000;1.140808
1852.000000;1.178531
1851.000000;1.428282
1850.000000;1.919595
1849.000000;1.326731
1848.000000;1.022151
1847.000000;0.933693
1846.000000;0.965904
1845.000000;1.227990
1844.000000;1.364376
1843.000000;1.110846
1842.000000;1.020372
1841.000000;0.958537
1840.000000;0.854616
1839.000000;0.808350
1838.000000;0.847733
1837.000000;0.958094
1836.000000;1.051054
1835.000000;1.061789
1834.000000;1.058594
1833.000000;1.126844
1832.000000;1.152292
1831.000000;1.100803
1830.000000;1.080810
1829.000000;1.308889
1828.000000;1.846656
1827.000000;1.255648
1826.000000;1.003094
1825.000000;0.962859
1824.000000;1.048546
1823.000000;1.226625
1822.000000;1.506550
1821.000000;1.865962
1820.000000;1.251631
1819.000000;0.945448
1818.000000;0.850792
1817.000000;0.906221
1816.000000;1.287160
1815.000000;1.692045
1814.000000;1.247005
1813.000000;1.146066
1812.000000;1.180224
1811.000000;1.272801
1810.000000;1.257018
1809.000000;1.221044
1808.000000;1.292264
1807.000000;1.484722
1806.000000;2.122255
1805.000000;1.426557
1804.000000;1.049092
1803.000000;0.944349
1802.000000;1.005717
1801.000000;1.231167
1800.000000;1.310159
1799.000000;1.212532
1798.000000;1.096993
1797.000000;0.973571
1796.000000;0.918313
1795.000000;0.969474
1794.000000;1.306937
1793.000000;1.535169
1792.000000;1.123202
1791.000000;1.042208
1790.000000;1.055826
1789.000000;1.062610
1788.000000;1.068834
1787.000000;1.104552
1786.000000;1.174318
1785.000000;1.152769
1784.000000;1.064689
1783.000000;1.094353
1782.000000;1.434558
1781.000000;1.430983
1780.000000;1.135085
1779.000000;1.091534
1778.000000;1.087132
1777.000000;1.008698
1776.000000;0.914587
1775.000000;0.797309
1774.000000;0.717877
1773.000000;0.743684
1772.000000;0.981508
1771.000000;1.548385
1770.000000;1.210884
1769.000000;0.944665
1768.000000;0.929227
1767.000000;1.102703
1766.000000;1.640407
1765.000000;1.464023
1764.000000;1.089157
1763.000000;0.949816
1762.000000;0.891297
1761.000000;1.031750
1760.000000;1.279594
1759.000000;1.102597
1758.000000;1.009959
1757.000000;1.167737
1756.000000;1.446704
1755.000000;1.623344
1754.000000;1.444257
1753.000000;1.206022
1752.000000;1.076340
1751.000000;1.021733
1750.000000;1.079486
1749.000000;1.313795
1748.000000;1.160022
1747.000000;0.842007
1746.000000;0.703546
1745.000000;0.671844
1744.000000;0.734691
1743.000000;0.879795
1742.000000;1.037681
1741.000000;1.082172
1740.000000;1.048071
1739.000000;1.024712
1738.000000;1.043149
1737.000000;1.103656
1736.000000;1.177401
1735.000000;1.115620
1734.000000;1.146281
1733.000000;1.463253
1732.000000;1.329046
1731.000000;0.857893
1730.000000;0.682518
1729.000000;0.658690
1728.000000;0.836104
1727.000000;1.556001
1726.000000;1.226996
1725.000000;0.898505
1724.000000;0.894118
1723.000000;0.972334
1722.000000;1.077924
1721.000000;1.082094
1720.000000;1.074104
1719.000000;1.289085
1718.000000;1.855312
1717.000000;1.525067
1716.000000;1.268451
1715.000000;1.122203
1714.000000;1.043529
1713.000000;1.176549
1712.000000;1.678713
1711.000000;1.747014
1710.000000;1.459913
1709.000000;1.191639
1708.000000;0.830468
1707.000000;0.667430
1706.000000;0.653234
1705.000000;0.783872
1704.000000;1.096487
1703.000000;1.172363
1702.000000;1.004402
1701.000000;0.974591
1700.000000;1.011136
1699.000000;1.082039
1698.000000;1.060428
1697.000000;0.994111
1696.000000;0.949487
1695.000000;0.950235
1694.000000;0.980787
1693.000000;1.263119
1692.000000;1.961099
1691.000000;1.506457
1690.000000;1.751911
1689.000000;1.148164
1688.000000;0.892400
1687.000000;0.926594
1686.000000;1.023957
1685.000000;1.359080
1684.000000;1.401653
1683.000000;0.938514
1682.000000;0.702683
1681.000000;0.637242
1680.000000;0.707641
1679.000000;0.815327
1678.000000;0.903743
1677.000000;1.189179
1676.000000;1.465888
1675.000000;1.287386
1674.000000;1.195145
1673.000000;1.067197
1672.000000;0.956707
1671.000000;0.989895
1670.000000;1.084898
1669.000000;1.168264
1668.000000;1.475235
1667.000000;1.433241
1666.000000;1.035677
1665.000000;0.884524
1664.000000;1.034867
1663.000000;1.517497
1662.000000;1.127629
1661.000000;0.912949
1660.000000;0.979064
1659.000000;1.086037
1658.000000;1.072395
1657.000000;1.013768
1656.000000;1.035260
1655.000000;1.268608
1654.000000;1.671810
1653.000000;1.598923
1652.000000;1.580211
1651.000000;1.529124
1650.000000;1.358861
1649.000000;1.422985
1648.000000;1.347559
1647.000000;1.142912
1646.000000;1.266843
1645.000000;1.520216
1644.000000;1.366072
1643.000000;1.287870
1642.000000;1.543473
1641.000000;1.944061
1640.000000;1.508483
1639.000000;1.351105
1638.000000;1.302028
1637.000000;1.189803
1636.000000;1.071659
1635.000000;1.043426
1634.000000;1.129237
1633.000000;1.284814
1632.000000;1.489914
1631.000000;1.462166
1630.000000;1.246934
1629.000000;1.098469
1628.000000;1.091061
1627.000000;1.127295
1626.000000;1.033170
1625.000000;0.946558
1624.000000;1.048973
1623.000000;1.523470
1622.000000;1.928783
1621.000000;1.712064
1620.000000;1.795488
1619.000000;1.601227
1618.000000;1.378261
1617.000000;1.378516
1616.000000;1.533623
1615.000000;1.504839
1614.000000;1.249534
1613.000000;1.327280
1612.000000;1.744500
1611.000000;1.290483
1610.000000;1.133537
1609.000000;1.214423
1608.000000;1.338265
1607.000000;1.405209
1606.000000;1.459494
1605.000000;1.422544
1604.000000;1.148174
1603.000000;1.026605
1602.000000;1.215118
1601.000000;1.312647
1600.000000;1.036888
1599.000000;0.944250
1598.000000;1.125988
1597.000000;1.475333
1596.000000;1.428273
1595.000000;1.812451
1594.000000;1.171844
1593.000000;0.777721
1592.000000;0.644590
1591.000000;0.602515
1590.000000;0.647776
1589.000000;0.839692
1588.000000;1.278835
1587.000000;1.065190
1586.000000;0.863928
1585.000000;0.937450
1584.000000;1.095300
1583.000000;1.376800
1582.000000;1.767850
1581.000000;1.650994
1580.000000;1.850884
1579.000000;1.487947
1578.000000;1.423441
1577.000000;1.713638
1576.000000;1.217718
1575.000000;0.978803
1574.000000;0.915982
1573.000000;1.025860
1572.000000;0.975030
1571.000000;0.746671
1570.000000;0.711816
1569.000000;0.842273
1568.000000;1.048495
1567.000000;1.353255
1566.000000;1.701216
1565.000000;1.187922
1564.000000;0.944575
1563.000000;0.884355
1562.000000;0.879135
1561.000000;0.934080
1560.000000;0.972967
1559.000000;0.993552
1558.000000;1.008044
1557.000000;1.020814
1556.000000;1.037258
1555.000000;1.110540
1554.000000;1.238186
1553.000000;1.084188
1552.000000;0.831639
1551.000000;0.945716
1550.000000;1.277411
1549.000000;0.821906
1548.000000;0.608970
1547.000000;0.594890
1546.000000;0.611718
1545.000000;0.630762
1544.000000;0.675459
1543.000000;0.861260
1542.000000;1.269534
1541.000000;1.509308
1540.000000;1.427369
1539.000000;1.496499
1538.000000;1.563887
1537.000000;1.520243
1536.000000;1.308491
1535.000000;1.184854
1534.000000;1.343325
1533.000000;1.213275
1532.000000;0.923807
1531.000000;0.869208
1530.000000;0.985441
1529.000000;1.100188
1528.000000;1.272667
1527.000000;1.585301
1526.000000;0.969852
1525.000000;0.689072
1524.000000;0.656672
1523.000000;0.793884
1522.000000;0.986154
1521.000000;1.010696
1520.000000;1.153942
1519.000000;1.431227
1518.000000;1.146825
1517.000000;0.889495
1516.000000;0.785718
1515.000000;0.661792
1514.000000;0.564862
1513.000000;0.560505
1512.000000;0.678424
1511.000000;0.846192
1510.000000;0.687587
1509.000000;0.498886
1508.000000;0.425556
1507.000000;0.544157
1506.000000;0.877496
1505.000000;1.021425
1504.000000;0.924964
1503.000000;0.899077
1502.000000;0.985566
1501.000000;1.043797
1500.000000;1.013457
1499.000000;1.100653
1498.000000;1.129106
1497.000000;0.998442
1496.000000;0.923499
1495.000000;0.955307
1494.000000;1.113052
1493.000000;1.132181
1492.000000;0.892914
1491.000000;0.764918
1490.000000;1.085384
1489.000000;1.129999
1488.000000;0.730366
1487.000000;0.715220
1486.000000;0.980156
1485.000000;1.484432
1484.000000;1.209607
1483.000000;1.079444
1482.000000;1.147896
1481.000000;1.103288
1480.000000;0.947629
1479.000000;0.778367
1478.000000;0.709559
1477.000000;0.732561
1476.000000;0.754846
1475.000000;0.686862
1474.000000;0.776225
1473.000000;1.086971
1472.000000;0.935638
1471.000000;0.763459
1470.000000;0.800086
1469.000000;0.874140
1468.000000;0.937379
1467.000000;1.008372
1466.000000;1.154922
1465.000000;1.535431
1464.000000;1.952345
1463.000000;1.604431
1462.000000;1.261333
1461.000000;1.171592
1460.000000;1.087554
1459.000000;0.933731
1458.000000;1.090789
1457.000000;0.863119
1456.000000;0.623337
1455.000000;0.639572
1454.000000;0.798080
1453.000000;0.958787
1452.000000;1.035051
1451.000000;1.260892
1450.000000;1.159135
1449.000000;0.951675
1448.000000;0.823479
1447.000000;0.750980
1446.000000;0.778275
1445.000000;0.827535
1444.000000;0.879499
1443.000000;1.028374
1442.000000;1.557883
1441.000000;1.579488
1440.000000;1.066585
1439.000000;0.964307
1438.000000;0.944922
1437.000000;1.049224
1436.000000;1.455909
1435.000000;1.718224
1434.000000;1.263423
1433.000000;0.987517
1432.000000;0.781437
1431.000000;0.659117
1430.000000;0.659144
1429.000000;0.820361
1428.000000;1.057432
1427.000000;0.926975
1426.000000;0.711250
1425.000000;0.575658
1424.000000;0.519005
1423.000000;0.550177
1422.000000;0.662797
1421.000000;0.838524
1420.000000;1.058443
1419.000000;1.482353
1418.000000;1.346732
1417.000000;0.996814
1416.000000;1.065355
1415.000000;1.291473
1414.000000;1.312326
1413.000000;1.347228
1412.000000;1.341185
1411.000000;1.038498
1410.000000;0.827080
1409.000000;0.743636
1408.000000;0.731482
1407.000000;0.752917
1406.000000;0.852770
1405.000000;1.114254
1404.000000;0.946523
1403.000000;0.763071
1402.000000;0.778012
1401.000000;0.979922
1400.000000;1.452459
1399.000000;0.996039
1398.000000;0.768747
1397.000000;0.756555
1396.000000;0.837180
1395.000000;0.904687
1394.000000;0.939241
1393.000000;1.349710
1392.000000;1.492171
1391.000000;1.038760
1390.000000;1.085723
1389.000000;0.990626
1388.000000;0.758180
1387.000000;0.758836
1386.000000;1.009884
1385.000000;1.093494
1384.000000;0.869384
1383.000000;0.753661
1382.000000;0.705596
1381.000000;0.778961
1380.000000;0.941065
1379.000000;0.908775
1378.000000;0.841372
1377.000000;0.903277
1376.000000;0.980513
1375.000000;1.091763
1374.000000;1.148990
1373.000000;1.034243
1372.000000;0.928493
1371.000000;0.724454
1370.000000;0.548105
1369.000000;0.485622
1368.000000;0.593510
1367.000000;1.026839
1366.000000;0.986727
1365.000000;0.555766
1364.000000;0.421571
1363.000000;0.389117
1362.000000;0.494992
1361.000000;0.832122
1360.000000;1.499166
1359.000000;1.545543
1358.000000;1.189136
1357.000000;1.009428
1356.000000;0.880218
1355.000000;0.803347
1354.000000;0.742629
1353.000000;0.739809
1352.000000;0.803447
1351.000000;0.890968
1350.000000;0.914418
1349.000000;0.885797
1348.000000;0.898948
1347.000000;0.965845
1346.000000;1.073551
1345.000000;1.190735
1344.000000;1.204004
1343.000000;0.982458
1342.000000;1.060316
1341.000000;1.606879
1340.000000;0.918164
1339.000000;0.961245
1338.000000;1.073397
1337.000000;0.763700
1336.000000;0.848016
1335.000000;1.212701
1334.000000;1.171594
1333.000000;0.902025
1332.000000;0.700934
1331.000000;0.544170
1330.000000;0.513887
1329.000000;0.657448
1328.000000;1.188958
1327.000000;1.318107
1326.000000;0.984415
1325.000000;1.013527
1324.000000;1.083904
1323.000000;1.236317
1322.000000;1.304180
1321.000000;1.369502
1320.000000;1.710656
1319.000000;1.330051
1318.000000;0.963598
1317.000000;0.822525
1316.000000;0.812540
1315.000000;1.073890
1314.000000;1.417294
1313.000000;0.868200
1312.000000;0.625715
1311.000000;0.501388
1310.000000;0.453195
1309.000000;0.499763
1308.000000;0.643789
1307.000000;1.025072
1306.000000;1.585357
1305.000000;1.332817
1304.000000;1.211944
1303.000000;1.161955
1302.000000;1.266234
1301.000000;1.162820
1300.000000;0.955119
1299.000000;0.910772
1298.000000;1.034605
1297.000000;1.674465
1296.000000;1.212237
1295.000000;0.994258
1294.000000;1.266500
1293.000000;1.263314
1292.000000;1.002126
1291.000000;1.045982
1290.000000;1.193956
1289.000000;0.934052
1288.000000;0.788859
1287.000000;0.863605
1286.000000;1.159466
1285.000000;1.829872
1284.000000;1.576694
1283.000000;1.024554
1282.000000;0.813516
1281.000000;0.734909
1280.000000;0.719370
1279.000000;0.760467
1278.000000;0.899160
1277.000000;1.010829
1276.000000;0.988930
1275.000000;1.050315
1274.000000;1.228737
1273.000000;1.515102
1272.000000;1.263583
1271.000000;0.952792
1270.000000;0.857008
1269.000000;0.850501
1268.000000;0.777479
1267.000000;0.657255
1266.000000;0.623336
1265.000000;0.723964
1264.000000;0.901998
1263.000000;0.902754
1262.000000;0.945040
1261.000000;1.107561
1260.000000;0.924492
1259.000000;0.935117
1258.000000;1.192568
1257.000000;0.888027
1256.000000;0.660617
1255.000000;0.670468
1254.000000;0.846770
1253.000000;1.215432
1252.000000;1.973008
1251.000000;2.570182
1250.000000;1.511960
1249.000000;1.088529
1248.000000;0.879069
1247.000000;0.850492
1246.000000;0.954350
1245.000000;1.147008
1244.000000;1.302633
1243.000000;1.377294
1242.000000;1.629547
1241.000000;1.140583
1240.000000;0.783684
1239.000000;0.673532
1238.000000;0.735578
1237.000000;0.886676
1236.000000;0.845855
1235.000000;0.700936
1234.000000;0.614250
1233.000000;0.596016
1232.000000;0.689467
1231.000000;0.922949
1230.000000;0.859715
1229.000000;0.636590
1228.000000;0.622409
1227.000000;0.726375
1226.000000;0.748720
1225.000000;0.666818
1224.000000;0.657552
1223.000000;0.754297
1222.000000;1.075531
1221.000000;1.447868
1220.000000;1.101518
1219.000000;1.019385
1218.000000;1.327746
1217.000000;1.644836
1216.000000;1.238343
1215.000000;1.059363
1214.000000;1.014105
1213.000000;1.109200
1212.000000;1.331160
1211.000000;1.172899
1210.000000;1.214566
1209.000000;1.749564
1208.000000;1.363598
1207.000000;1.178805
1206.000000;1.029468
1205.000000;0.777255
1204.000000;0.658741
1203.000000;0.662821
1202.000000;0.751863
1201.000000;0.847767
1200.000000;0.891134
