Criado como novo conjunto de dados;"2706_e01_daniel.spp","14582.5 Secs"
cm-1;Abs
10000.000000;0.807349
9999.000000;0.806881
9998.000000;0.806414
9997.000000;0.805947
9996.000000;0.805479
9995.000000;0.805015
9994.000000;0.804545
9993.000000;0.804088
9992.000000;0.803609
9991.000000;0.803172
9990.000000;0.802650
9989.000000;0.802499
9988.000000;0.802837
9987.000000;0.803198
9986.000000;0.803433
9985.000000;0.803397
9984.000000;0.803077
9983.000000;0.802649
9982.000000;0.802404
9981.000000;0.802339
9980.000000;0.802130
9979.000000;0.801618
9978.000000;0.801105
9977.000000;0.801028
9976.000000;0.801510
9975.000000;0.802356
9974.000000;0.803250
9973.000000;0.803799
9972.000000;0.803655
9971.000000;0.802878
9970.000000;0.802027
9969.000000;0.801652
9968.000000;0.801770
9967.000000;0.801964
9966.000000;0.801863
9965.000000;0.801407
9964.000000;0.800797
9963.000000;0.800342
9962.000000;0.800248
9961.000000;0.800409
9960.000000;0.800513
9959.000000;0.800405
9958.000000;0.800220
9957.000000;0.800137
9956.000000;0.800212
9955.000000;0.800489
9954.000000;0.800960
9953.000000;0.801341
9952.000000;0.801207
9951.000000;0.800559
9950.000000;0.799912
9949.000000;0.799609
9948.000000;0.799396
9947.000000;0.798975
9946.000000;0.798628
9945.000000;0.798838
9944.000000;0.799508
9943.000000;0.800019
9942.000000;0.799991
9941.000000;0.799596
9940.000000;0.799184
9939.000000;0.798987
9938.000000;0.799162
9937.000000;0.799765
9936.000000;0.800559
9935.000000;0.801093
9934.000000;0.801054
9933.000000;0.800403
9932.000000;0.799235
9931.000000;0.797769
9930.000000;0.796469
9929.000000;0.795891
9928.000000;0.796249
9927.000000;0.797240
9926.000000;0.798321
9925.000000;0.799082
9924.000000;0.799366
9923.000000;0.799191
9922.000000;0.798628
9921.000000;0.797761
9920.000000;0.796762
9919.000000;0.795964
9918.000000;0.795712
9917.000000;0.796015
9916.000000;0.796472
9915.000000;0.796662
9914.000000;0.796509
9913.000000;0.796189
9912.000000;0.795809
9911.000000;0.795353
9910.000000;0.794842
9909.000000;0.794347
9908.000000;0.793918
9907.000000;0.793612
9906.000000;0.793548
9905.000000;0.793783
9904.000000;0.794193
9903.000000;0.794601
9902.000000;0.794939
9901.000000;0.795166
9900.000000;0.795120
9899.000000;0.794682
9898.000000;0.794043
9897.000000;0.793659
9896.000000;0.793839
9895.000000;0.794452
9894.000000;0.795039
9893.000000;0.795197
9892.000000;0.794911
9891.000000;0.794533
9890.000000;0.794439
9889.000000;0.794704
9888.000000;0.795145
9887.000000;0.795557
9886.000000;0.795750
9885.000000;0.795481
9884.000000;0.794659
9883.000000;0.793642
9882.000000;0.793030
9881.000000;0.793020
9880.000000;0.793203
9879.000000;0.793105
9878.000000;0.792719
9877.000000;0.792365
9876.000000;0.792278
9875.000000;0.792479
9874.000000;0.792824
9873.000000;0.793005
9872.000000;0.792745
9871.000000;0.792193
9870.000000;0.791905
9869.000000;0.792199
9868.000000;0.792746
9867.000000;0.793036
9866.000000;0.793043
9865.000000;0.793118
9864.000000;0.793380
9863.000000;0.793596
9862.000000;0.793610
9861.000000;0.793536
9860.000000;0.793451
9859.000000;0.793194
9858.000000;0.792601
9857.000000;0.791759
9856.000000;0.790924
9855.000000;0.790261
9854.000000;0.789744
9853.000000;0.789276
9852.000000;0.788880
9851.000000;0.788711
9850.000000;0.788868
9849.000000;0.789213
9848.000000;0.789490
9847.000000;0.789614
9846.000000;0.789735
9845.000000;0.790021
9844.000000;0.790516
9843.000000;0.791187
9842.000000;0.791893
9841.000000;0.792301
9840.000000;0.792113
9839.000000;0.791475
9838.000000;0.790937
9837.000000;0.790862
9836.000000;0.791071
9835.000000;0.791161
9834.000000;0.790951
9833.000000;0.790463
9832.000000;0.789703
9831.000000;0.788723
9830.000000;0.787776
9829.000000;0.787219
9828.000000;0.787281
9827.000000;0.787981
9826.000000;0.789068
9825.000000;0.789981
9824.000000;0.790107
9823.000000;0.789331
9822.000000;0.788195
9821.000000;0.787376
9820.000000;0.787103
9819.000000;0.787163
9818.000000;0.787274
9817.000000;0.787285
9816.000000;0.787200
9815.000000;0.787167
9814.000000;0.787321
9813.000000;0.787543
9812.000000;0.787561
9811.000000;0.787365
9810.000000;0.787305
9809.000000;0.787592
9808.000000;0.788004
9807.000000;0.788258
9806.000000;0.788369
9805.000000;0.788390
9804.000000;0.788107
9803.000000;0.787361
9802.000000;0.786495
9801.000000;0.786083
9800.000000;0.786274
9799.000000;0.786720
9798.000000;0.787085
9797.000000;0.787311
9796.000000;0.787393
9795.000000;0.787210
9794.000000;0.786698
9793.000000;0.786059
9792.000000;0.785691
9791.000000;0.785910
9790.000000;0.786651
9789.000000;0.787394
9788.000000;0.787549
9787.000000;0.787026
9786.000000;0.786316
9785.000000;0.785904
9784.000000;0.785796
9783.000000;0.785729
9782.000000;0.785596
9781.000000;0.785452
9780.000000;0.785301
9779.000000;0.785099
9778.000000;0.784868
9777.000000;0.784603
9776.000000;0.784232
9775.000000;0.783840
9774.000000;0.783745
9773.000000;0.784089
9772.000000;0.784520
9771.000000;0.784539
9770.000000;0.784078
9769.000000;0.783496
9768.000000;0.783120
9767.000000;0.783030
9766.000000;0.783188
9765.000000;0.783510
9764.000000;0.783824
9763.000000;0.783995
9762.000000;0.784032
9761.000000;0.783921
9760.000000;0.783485
9759.000000;0.782651
9758.000000;0.781739
9757.000000;0.781225
9756.000000;0.781240
9755.000000;0.781562
9754.000000;0.782004
9753.000000;0.782564
9752.000000;0.783197
9751.000000;0.783729
9750.000000;0.784031
9749.000000;0.784102
9748.000000;0.783960
9747.000000;0.783634
9746.000000;0.783257
9745.000000;0.782996
9744.000000;0.782871
9743.000000;0.782779
9742.000000;0.782665
9741.000000;0.782519
9740.000000;0.782233
9739.000000;0.781677
9738.000000;0.780931
9737.000000;0.780292
9736.000000;0.779994
9735.000000;0.780020
9734.000000;0.780197
9733.000000;0.780395
9732.000000;0.780636
9731.000000;0.781033
9730.000000;0.781569
9729.000000;0.781951
9728.000000;0.781791
9727.000000;0.781050
9726.000000;0.780143
9725.000000;0.779530
9724.000000;0.779333
9723.000000;0.779426
9722.000000;0.779697
9721.000000;0.780028
9720.000000;0.780196
9719.000000;0.780034
9718.000000;0.779649
9717.000000;0.779314
9716.000000;0.779196
9715.000000;0.779324
9714.000000;0.779687
9713.000000;0.780167
9712.000000;0.780469
9711.000000;0.780340
9710.000000;0.779851
9709.000000;0.779327
9708.000000;0.779023
9707.000000;0.778964
9706.000000;0.779026
9705.000000;0.779050
9704.000000;0.778925
9703.000000;0.778706
9702.000000;0.778564
9701.000000;0.778556
9700.000000;0.778529
9699.000000;0.778365
9698.000000;0.778172
9697.000000;0.778115
9696.000000;0.778176
9695.000000;0.778254
9694.000000;0.778390
9693.000000;0.778701
9692.000000;0.779153
9691.000000;0.779538
9690.000000;0.779662
9689.000000;0.779468
9688.000000;0.779046
9687.000000;0.778571
9686.000000;0.778153
9685.000000;0.777714
9684.000000;0.777142
9683.000000;0.776567
9682.000000;0.776282
9681.000000;0.776338
9680.000000;0.776464
9679.000000;0.776457
9678.000000;0.776395
9677.000000;0.776338
9676.000000;0.776138
9675.000000;0.775745
9674.000000;0.775422
9673.000000;0.775395
9672.000000;0.775545
9671.000000;0.775692
9670.000000;0.775938
9669.000000;0.776407
9668.000000;0.776880
9667.000000;0.777022
9666.000000;0.776822
9665.000000;0.776493
9664.000000;0.776091
9663.000000;0.775574
9662.000000;0.775121
9661.000000;0.774991
9660.000000;0.775144
9659.000000;0.775325
9658.000000;0.775463
9657.000000;0.775691
9656.000000;0.776013
9655.000000;0.776246
9654.000000;0.776290
9653.000000;0.776193
9652.000000;0.775998
9651.000000;0.775773
9650.000000;0.775717
9649.000000;0.775946
9648.000000;0.776204
9647.000000;0.776060
9646.000000;0.775420
9645.000000;0.774606
9644.000000;0.773941
9643.000000;0.773518
9642.000000;0.773347
9641.000000;0.773444
9640.000000;0.773736
9639.000000;0.774087
9638.000000;0.774427
9637.000000;0.774710
9636.000000;0.774785
9635.000000;0.774539
9634.000000;0.774115
9633.000000;0.773751
9632.000000;0.773467
9631.000000;0.773141
9630.000000;0.772831
9629.000000;0.772724
9628.000000;0.772796
9627.000000;0.772815
9626.000000;0.772719
9625.000000;0.772689
9624.000000;0.772785
9623.000000;0.772822
9622.000000;0.772692
9621.000000;0.772567
9620.000000;0.772619
9619.000000;0.772764
9618.000000;0.772821
9617.000000;0.772778
9616.000000;0.772738
9615.000000;0.772731
9614.000000;0.772728
9613.000000;0.772746
9612.000000;0.772819
9611.000000;0.772877
9610.000000;0.772764
9609.000000;0.772406
9608.000000;0.771953
9607.000000;0.771699
9606.000000;0.771819
9605.000000;0.772188
9604.000000;0.772497
9603.000000;0.772544
9602.000000;0.772299
9601.000000;0.771758
9600.000000;0.770971
9599.000000;0.770266
9598.000000;0.770155
9597.000000;0.770810
9596.000000;0.771802
9595.000000;0.772525
9594.000000;0.772751
9593.000000;0.772575
9592.000000;0.772052
9591.000000;0.771220
9590.000000;0.770389
9589.000000;0.770036
9588.000000;0.770356
9587.000000;0.771082
9586.000000;0.771748
9585.000000;0.771972
9584.000000;0.771591
9583.000000;0.770770
9582.000000;0.769996
9581.000000;0.769740
9580.000000;0.770070
9579.000000;0.770692
9578.000000;0.771285
9577.000000;0.771646
9576.000000;0.771567
9575.000000;0.770879
9574.000000;0.769677
9573.000000;0.768340
9572.000000;0.767268
9571.000000;0.766687
9570.000000;0.766651
9569.000000;0.767059
9568.000000;0.767650
9567.000000;0.768134
9566.000000;0.768362
9565.000000;0.768347
9564.000000;0.768188
9563.000000;0.768067
9562.000000;0.768185
9561.000000;0.768549
9560.000000;0.768878
9559.000000;0.768863
9558.000000;0.768479
9557.000000;0.767958
9556.000000;0.767540
9555.000000;0.767352
9554.000000;0.767386
9553.000000;0.767464
9552.000000;0.767351
9551.000000;0.767069
9550.000000;0.766935
9549.000000;0.767131
9548.000000;0.767437
9547.000000;0.767603
9546.000000;0.767793
9545.000000;0.768320
9544.000000;0.769062
9543.000000;0.769485
9542.000000;0.769260
9541.000000;0.768577
9540.000000;0.767856
9539.000000;0.767358
9538.000000;0.767084
9537.000000;0.766864
9536.000000;0.766542
9535.000000;0.766210
9534.000000;0.766162
9533.000000;0.766481
9532.000000;0.766824
9531.000000;0.766822
9530.000000;0.766524
9529.000000;0.766210
9528.000000;0.765947
9527.000000;0.765683
9526.000000;0.765593
9525.000000;0.765895
9524.000000;0.766377
9523.000000;0.766538
9522.000000;0.766242
9521.000000;0.765853
9520.000000;0.765646
9519.000000;0.765476
9518.000000;0.765130
9517.000000;0.764680
9516.000000;0.764359
9515.000000;0.764310
9514.000000;0.764566
9513.000000;0.765047
9512.000000;0.765493
9511.000000;0.765619
9510.000000;0.765424
9509.000000;0.765137
9508.000000;0.764883
9507.000000;0.764614
9506.000000;0.764397
9505.000000;0.764428
9504.000000;0.764674
9503.000000;0.764824
9502.000000;0.764716
9501.000000;0.764577
9500.000000;0.764663
9499.000000;0.764908
9498.000000;0.765054
9497.000000;0.764950
9496.000000;0.764568
9495.000000;0.763930
9494.000000;0.763170
9493.000000;0.762518
9492.000000;0.762109
9491.000000;0.761937
9490.000000;0.762026
9489.000000;0.762428
9488.000000;0.762956
9487.000000;0.763180
9486.000000;0.762911
9485.000000;0.762512
9484.000000;0.762516
9483.000000;0.763030
9482.000000;0.763674
9481.000000;0.764032
9480.000000;0.763988
9479.000000;0.763685
9478.000000;0.763304
9477.000000;0.762936
9476.000000;0.762580
9475.000000;0.762253
9474.000000;0.762045
9473.000000;0.762013
9472.000000;0.762040
9471.000000;0.761932
9470.000000;0.761662
9469.000000;0.761398
9468.000000;0.761271
9467.000000;0.761264
9466.000000;0.761312
9465.000000;0.761360
9464.000000;0.761280
9463.000000;0.760916
9462.000000;0.760322
9461.000000;0.759816
9460.000000;0.759666
9459.000000;0.759820
9458.000000;0.759988
9457.000000;0.759956
9456.000000;0.759756
9455.000000;0.759626
9454.000000;0.759812
9453.000000;0.760336
9452.000000;0.760931
9451.000000;0.761275
9450.000000;0.761290
9449.000000;0.761125
9448.000000;0.760880
9447.000000;0.760539
9446.000000;0.760151
9445.000000;0.759866
9444.000000;0.759754
9443.000000;0.759740
9442.000000;0.759781
9441.000000;0.759920
9440.000000;0.760076
9439.000000;0.760010
9438.000000;0.759631
9437.000000;0.759152
9436.000000;0.758819
9435.000000;0.758619
9434.000000;0.758438
9433.000000;0.758360
9432.000000;0.758587
9431.000000;0.759114
9430.000000;0.759670
9429.000000;0.759993
9428.000000;0.760030
9427.000000;0.759849
9426.000000;0.759500
9425.000000;0.759015
9424.000000;0.758487
9423.000000;0.758060
9422.000000;0.757842
9421.000000;0.757828
9420.000000;0.757912
9419.000000;0.757951
9418.000000;0.757849
9417.000000;0.757612
9416.000000;0.757354
9415.000000;0.757241
9414.000000;0.757360
9413.000000;0.757623
9412.000000;0.757849
9411.000000;0.757983
9410.000000;0.758124
9409.000000;0.758285
9408.000000;0.758268
9407.000000;0.757915
9406.000000;0.757397
9405.000000;0.757061
9404.000000;0.757027
9403.000000;0.757117
9402.000000;0.757168
9401.000000;0.757214
9400.000000;0.757321
9399.000000;0.757438
9398.000000;0.757497
9397.000000;0.757525
9396.000000;0.757556
9395.000000;0.757530
9394.000000;0.757365
9393.000000;0.757083
9392.000000;0.756801
9391.000000;0.756652
9390.000000;0.756733
9389.000000;0.757049
9388.000000;0.757449
9387.000000;0.757696
9386.000000;0.757630
9385.000000;0.757230
9384.000000;0.756549
9383.000000;0.755693
9382.000000;0.754900
9381.000000;0.754461
9380.000000;0.754500
9379.000000;0.754865
9378.000000;0.755302
9377.000000;0.755674
9376.000000;0.755977
9375.000000;0.756208
9374.000000;0.756294
9373.000000;0.756138
9372.000000;0.755717
9371.000000;0.755160
9370.000000;0.754727
9369.000000;0.754614
9368.000000;0.754744
9367.000000;0.754811
9366.000000;0.754591
9365.000000;0.754159
9364.000000;0.753769
9363.000000;0.753578
9362.000000;0.753533
9361.000000;0.753511
9360.000000;0.753465
9359.000000;0.753446
9358.000000;0.753477
9357.000000;0.753478
9356.000000;0.753342
9355.000000;0.753086
9354.000000;0.752862
9353.000000;0.752783
9352.000000;0.752807
9351.000000;0.752820
9350.000000;0.752792
9349.000000;0.752781
9348.000000;0.752850
9347.000000;0.753032
9346.000000;0.753321
9345.000000;0.753624
9344.000000;0.753782
9343.000000;0.753734
9342.000000;0.753604
9341.000000;0.753534
9340.000000;0.753514
9339.000000;0.753449
9338.000000;0.753336
9337.000000;0.753226
9336.000000;0.753072
9335.000000;0.752765
9334.000000;0.752346
9333.000000;0.751993
9332.000000;0.751808
9331.000000;0.751730
9330.000000;0.751704
9329.000000;0.751787
9328.000000;0.752032
9327.000000;0.752369
9326.000000;0.752664
9325.000000;0.752842
9324.000000;0.752903
9323.000000;0.752868
9322.000000;0.752747
9321.000000;0.752514
9320.000000;0.752124
9319.000000;0.751628
9318.000000;0.751234
9317.000000;0.751155
9316.000000;0.751357
9315.000000;0.751578
9314.000000;0.751616
9313.000000;0.751522
9312.000000;0.751435
9311.000000;0.751358
9310.000000;0.751166
9309.000000;0.750835
9308.000000;0.750539
9307.000000;0.750499
9306.000000;0.750715
9305.000000;0.750893
9304.000000;0.750687
9303.000000;0.750059
9302.000000;0.749382
9301.000000;0.749122
9300.000000;0.749421
9299.000000;0.750005
9298.000000;0.750437
9297.000000;0.750437
9296.000000;0.750020
9295.000000;0.749463
9294.000000;0.749115
9293.000000;0.749137
9292.000000;0.749388
9291.000000;0.749587
9290.000000;0.749605
9289.000000;0.749528
9288.000000;0.749491
9287.000000;0.749531
9286.000000;0.749607
9285.000000;0.749678
9284.000000;0.749723
9283.000000;0.749727
9282.000000;0.749660
9281.000000;0.749460
9280.000000;0.749082
9279.000000;0.748603
9278.000000;0.748216
9277.000000;0.748055
9276.000000;0.748069
9275.000000;0.748138
9274.000000;0.748210
9273.000000;0.748241
9272.000000;0.748087
9271.000000;0.747630
9270.000000;0.747038
9269.000000;0.746720
9268.000000;0.746958
9267.000000;0.747639
9266.000000;0.748375
9265.000000;0.748790
9264.000000;0.748706
9263.000000;0.748177
9262.000000;0.747445
9261.000000;0.746808
9260.000000;0.746451
9259.000000;0.746380
9258.000000;0.746513
9257.000000;0.746789
9256.000000;0.747157
9255.000000;0.747515
9254.000000;0.747690
9253.000000;0.747521
9252.000000;0.747019
9251.000000;0.746446
9250.000000;0.746168
9249.000000;0.746354
9248.000000;0.746831
9247.000000;0.747282
9246.000000;0.747541
9245.000000;0.747637
9244.000000;0.747596
9243.000000;0.747336
9242.000000;0.746794
9241.000000;0.746087
9240.000000;0.745500
9239.000000;0.745295
9238.000000;0.745495
9237.000000;0.745826
9236.000000;0.745952
9235.000000;0.745801
9234.000000;0.745611
9233.000000;0.745603
9232.000000;0.745726
9231.000000;0.745798
9230.000000;0.745786
9229.000000;0.745772
9228.000000;0.745726
9227.000000;0.745540
9226.000000;0.745269
9225.000000;0.745119
9224.000000;0.745137
9223.000000;0.745102
9222.000000;0.744847
9221.000000;0.744548
9220.000000;0.744531
9219.000000;0.744832
9218.000000;0.745117
9217.000000;0.745057
9216.000000;0.744694
9215.000000;0.744374
9214.000000;0.744367
9213.000000;0.744617
9212.000000;0.744843
9211.000000;0.744800
9210.000000;0.744429
9209.000000;0.743823
9208.000000;0.743161
9207.000000;0.742675
9206.000000;0.742566
9205.000000;0.742871
9204.000000;0.743422
9203.000000;0.743943
9202.000000;0.744203
9201.000000;0.744101
9200.000000;0.743730
9199.000000;0.743355
9198.000000;0.743224
9197.000000;0.743326
9196.000000;0.743391
9195.000000;0.743185
9194.000000;0.742748
9193.000000;0.742310
9192.000000;0.742049
9191.000000;0.742002
9190.000000;0.742109
9189.000000;0.742289
9188.000000;0.742477
9187.000000;0.742664
9186.000000;0.742864
9185.000000;0.743035
9184.000000;0.743103
9183.000000;0.743071
9182.000000;0.743001
9181.000000;0.742880
9180.000000;0.742656
9179.000000;0.742426
9178.000000;0.742414
9177.000000;0.742646
9176.000000;0.742812
9175.000000;0.742636
9174.000000;0.742233
9173.000000;0.741932
9172.000000;0.741847
9171.000000;0.741825
9170.000000;0.741749
9169.000000;0.741657
9168.000000;0.741593
9167.000000;0.741543
9166.000000;0.741513
9165.000000;0.741505
9164.000000;0.741406
9163.000000;0.741089
9162.000000;0.740649
9161.000000;0.740364
9160.000000;0.740387
9159.000000;0.740597
9158.000000;0.740792
9157.000000;0.740917
9156.000000;0.741057
9155.000000;0.741298
9154.000000;0.741620
9153.000000;0.741866
9152.000000;0.741826
9151.000000;0.741455
9150.000000;0.741000
9149.000000;0.740750
9148.000000;0.740667
9147.000000;0.740430
9146.000000;0.739885
9145.000000;0.739289
9144.000000;0.739015
9143.000000;0.739119
9142.000000;0.739328
9141.000000;0.739378
9140.000000;0.739257
9139.000000;0.739130
9138.000000;0.739146
9137.000000;0.739312
9136.000000;0.739530
9135.000000;0.739685
9134.000000;0.739713
9133.000000;0.739599
9132.000000;0.739383
9131.000000;0.739181
9130.000000;0.739126
9129.000000;0.739236
9128.000000;0.739372
9127.000000;0.739378
9126.000000;0.739233
9125.000000;0.739009
9124.000000;0.738768
9123.000000;0.738576
9122.000000;0.738553
9121.000000;0.738775
9120.000000;0.739141
9119.000000;0.739440
9118.000000;0.739550
9117.000000;0.739482
9116.000000;0.739271
9115.000000;0.738950
9114.000000;0.738619
9113.000000;0.738409
9112.000000;0.738328
9111.000000;0.738256
9110.000000;0.738109
9109.000000;0.737945
9108.000000;0.737858
9107.000000;0.737850
9106.000000;0.737849
9105.000000;0.737795
9104.000000;0.737701
9103.000000;0.737611
9102.000000;0.737534
9101.000000;0.737402
9100.000000;0.737171
9099.000000;0.736932
9098.000000;0.736833
9097.000000;0.736834
9096.000000;0.736692
9095.000000;0.736305
9094.000000;0.735935
9093.000000;0.735898
9092.000000;0.736118
9091.000000;0.736213
9090.000000;0.736003
9089.000000;0.735691
9088.000000;0.735525
9087.000000;0.735497
9086.000000;0.735482
9085.000000;0.735493
9084.000000;0.735623
9083.000000;0.735850
9082.000000;0.736053
9081.000000;0.736159
9080.000000;0.736176
9079.000000;0.736115
9078.000000;0.735984
9077.000000;0.735832
9076.000000;0.735732
9075.000000;0.735720
9074.000000;0.735790
9073.000000;0.735913
9072.000000;0.736008
9071.000000;0.735941
9070.000000;0.735637
9069.000000;0.735184
9068.000000;0.734786
9067.000000;0.734586
9066.000000;0.734555
9065.000000;0.734562
9064.000000;0.734546
9063.000000;0.734566
9062.000000;0.734654
9061.000000;0.734671
9060.000000;0.734435
9059.000000;0.734026
9058.000000;0.733823
9057.000000;0.734104
9056.000000;0.734684
9055.000000;0.735086
9054.000000;0.735047
9053.000000;0.734715
9052.000000;0.734352
9051.000000;0.734048
9050.000000;0.733780
9049.000000;0.733588
9048.000000;0.733564
9047.000000;0.733699
9046.000000;0.733865
9045.000000;0.733925
9044.000000;0.733814
9043.000000;0.733554
9042.000000;0.733238
9041.000000;0.732975
9040.000000;0.732812
9039.000000;0.732721
9038.000000;0.732661
9037.000000;0.732634
9036.000000;0.732632
9035.000000;0.732608
9034.000000;0.732534
9033.000000;0.732469
9032.000000;0.732513
9031.000000;0.732705
9030.000000;0.732989
9029.000000;0.733262
9028.000000;0.733404
9027.000000;0.733290
9026.000000;0.732869
9025.000000;0.732279
9024.000000;0.731827
9023.000000;0.731772
9022.000000;0.732079
9021.000000;0.732446
9020.000000;0.732597
9019.000000;0.732519
9018.000000;0.732383
9017.000000;0.732305
9016.000000;0.732271
9015.000000;0.732253
9014.000000;0.732280
9013.000000;0.732357
9012.000000;0.732414
9011.000000;0.732372
9010.000000;0.732203
9009.000000;0.731897
9008.000000;0.731483
9007.000000;0.731098
9006.000000;0.730921
9005.000000;0.730965
9004.000000;0.731038
9003.000000;0.730978
9002.000000;0.730852
9001.000000;0.730820
9000.000000;0.730897
8999.000000;0.730969
8998.000000;0.730987
8997.000000;0.730984
8996.000000;0.730953
8995.000000;0.730854
8994.000000;0.730740
8993.000000;0.730724
8992.000000;0.730791
8991.000000;0.730754
8990.000000;0.730467
8989.000000;0.729987
8988.000000;0.729485
8987.000000;0.729089
8986.000000;0.728872
8985.000000;0.728896
8984.000000;0.729187
8983.000000;0.729671
8982.000000;0.730193
8981.000000;0.730584
8980.000000;0.730703
8979.000000;0.730477
8978.000000;0.729968
8977.000000;0.729414
8976.000000;0.729102
8975.000000;0.729156
8974.000000;0.729427
8973.000000;0.729633
8972.000000;0.729602
8971.000000;0.729377
8970.000000;0.729087
8969.000000;0.728782
8968.000000;0.728459
8967.000000;0.728196
8966.000000;0.728151
8965.000000;0.728360
8964.000000;0.728629
8963.000000;0.728703
8962.000000;0.728517
8961.000000;0.728244
8960.000000;0.728133
8959.000000;0.728296
8958.000000;0.728615
8957.000000;0.728805
8956.000000;0.728632
8955.000000;0.728115
8954.000000;0.727507
8953.000000;0.727049
8952.000000;0.726787
8951.000000;0.726652
8950.000000;0.726621
8949.000000;0.726740
8948.000000;0.727038
8947.000000;0.727481
8946.000000;0.727970
8945.000000;0.728337
8944.000000;0.728402
8943.000000;0.728108
8942.000000;0.727590
8941.000000;0.727054
8940.000000;0.726636
8939.000000;0.726398
8938.000000;0.726377
8937.000000;0.726553
8936.000000;0.726809
8935.000000;0.726999
8934.000000;0.727031
8933.000000;0.726859
8932.000000;0.726476
8931.000000;0.726016
8930.000000;0.725789
8929.000000;0.726076
8928.000000;0.726842
8927.000000;0.727722
8926.000000;0.728294
8925.000000;0.728340
8924.000000;0.727905
8923.000000;0.727221
8922.000000;0.726576
8921.000000;0.726163
8920.000000;0.726005
8919.000000;0.726013
8918.000000;0.726091
8917.000000;0.726152
8916.000000;0.726105
8915.000000;0.725919
8914.000000;0.725693
8913.000000;0.725571
8912.000000;0.725596
8911.000000;0.725703
8910.000000;0.725831
8909.000000;0.725958
8908.000000;0.726027
8907.000000;0.725950
8906.000000;0.725723
8905.000000;0.725478
8904.000000;0.725350
8903.000000;0.725344
8902.000000;0.725364
8901.000000;0.725337
8900.000000;0.725283
8899.000000;0.725257
8898.000000;0.725253
8897.000000;0.725189
8896.000000;0.724996
8895.000000;0.724718
8894.000000;0.724493
8893.000000;0.724426
8892.000000;0.724487
8891.000000;0.724537
8890.000000;0.724441
8889.000000;0.724198
8888.000000;0.723978
8887.000000;0.724012
8886.000000;0.724358
8885.000000;0.724785
8884.000000;0.724958
8883.000000;0.724777
8882.000000;0.724449
8881.000000;0.724219
8880.000000;0.724123
8879.000000;0.724048
8878.000000;0.723918
8877.000000;0.723746
8876.000000;0.723568
8875.000000;0.723410
8874.000000;0.723307
8873.000000;0.723260
8872.000000;0.723214
8871.000000;0.723127
8870.000000;0.723021
8869.000000;0.722946
8868.000000;0.722929
8867.000000;0.722985
8866.000000;0.723111
8865.000000;0.723210
8864.000000;0.723100
8863.000000;0.722720
8862.000000;0.722272
8861.000000;0.722062
8860.000000;0.722200
8859.000000;0.722521
8858.000000;0.722775
8857.000000;0.722843
8856.000000;0.722759
8855.000000;0.722621
8854.000000;0.722497
8853.000000;0.722399
8852.000000;0.722313
8851.000000;0.722242
8850.000000;0.722184
8849.000000;0.722094
8848.000000;0.721927
8847.000000;0.721741
8846.000000;0.721660
8845.000000;0.721704
8844.000000;0.721758
8843.000000;0.721742
8842.000000;0.721746
8841.000000;0.721895
8840.000000;0.722152
8839.000000;0.722347
8838.000000;0.722363
8837.000000;0.722224
8836.000000;0.722027
8835.000000;0.721854
8834.000000;0.721734
8833.000000;0.721627
8832.000000;0.721474
8831.000000;0.721272
8830.000000;0.721093
8829.000000;0.720991
8828.000000;0.720961
8827.000000;0.721001
8826.000000;0.721144
8825.000000;0.721373
8824.000000;0.721570
8823.000000;0.721637
8822.000000;0.721595
8821.000000;0.721517
8820.000000;0.721423
8819.000000;0.721296
8818.000000;0.721167
8817.000000;0.721089
8816.000000;0.721074
8815.000000;0.721087
8814.000000;0.721077
8813.000000;0.720985
8812.000000;0.720795
8811.000000;0.720592
8810.000000;0.720499
8809.000000;0.720494
8808.000000;0.720416
8807.000000;0.720189
8806.000000;0.719949
8805.000000;0.719857
8804.000000;0.719903
8803.000000;0.719989
8802.000000;0.720101
8801.000000;0.720260
8800.000000;0.720381
8799.000000;0.720313
8798.000000;0.720011
8797.000000;0.719568
8796.000000;0.719146
8795.000000;0.718924
8794.000000;0.719046
8793.000000;0.719475
8792.000000;0.719966
8791.000000;0.720266
8790.000000;0.720310
8789.000000;0.720154
8788.000000;0.719836
8787.000000;0.719427
8786.000000;0.719122
8785.000000;0.719103
8784.000000;0.719337
8783.000000;0.719621
8782.000000;0.719802
8781.000000;0.719814
8780.000000;0.719601
8779.000000;0.719186
8778.000000;0.718782
8777.000000;0.718650
8776.000000;0.718806
8775.000000;0.719008
8774.000000;0.719047
8773.000000;0.718920
8772.000000;0.718727
8771.000000;0.718538
8770.000000;0.718401
8769.000000;0.718339
8768.000000;0.718315
8767.000000;0.718281
8766.000000;0.718297
8765.000000;0.718468
8764.000000;0.718759
8763.000000;0.718974
8762.000000;0.718979
8761.000000;0.718827
8760.000000;0.718659
8759.000000;0.718567
8758.000000;0.718605
8757.000000;0.718786
8756.000000;0.719024
8755.000000;0.719136
8754.000000;0.719004
8753.000000;0.718691
8752.000000;0.718379
8751.000000;0.718219
8750.000000;0.718258
8749.000000;0.718429
8748.000000;0.718592
8747.000000;0.718632
8746.000000;0.718572
8745.000000;0.718524
8744.000000;0.718546
8743.000000;0.718578
8742.000000;0.718547
8741.000000;0.718452
8740.000000;0.718323
8739.000000;0.718169
8738.000000;0.718000
8737.000000;0.717861
8736.000000;0.717800
8735.000000;0.717825
8734.000000;0.717906
8733.000000;0.717998
8732.000000;0.718069
8731.000000;0.718120
8730.000000;0.718178
8729.000000;0.718248
8728.000000;0.718272
8727.000000;0.718199
8726.000000;0.718042
8725.000000;0.717864
8724.000000;0.717702
8723.000000;0.717570
8722.000000;0.717507
8721.000000;0.717551
8720.000000;0.717679
8719.000000;0.717804
8718.000000;0.717837
8717.000000;0.717734
8716.000000;0.717519
8715.000000;0.717313
8714.000000;0.717309
8713.000000;0.717619
8712.000000;0.718119
8711.000000;0.718492
8710.000000;0.718457
8709.000000;0.717992
8708.000000;0.717342
8707.000000;0.716847
8706.000000;0.716709
8705.000000;0.716871
8704.000000;0.717120
8703.000000;0.717286
8702.000000;0.717327
8701.000000;0.717257
8700.000000;0.717094
8699.000000;0.716923
8698.000000;0.716887
8697.000000;0.717061
8696.000000;0.717369
8695.000000;0.717687
8694.000000;0.717953
8693.000000;0.718132
8692.000000;0.718164
8691.000000;0.718026
8690.000000;0.717778
8689.000000;0.717465
8688.000000;0.717063
8687.000000;0.716603
8686.000000;0.716263
8685.000000;0.716211
8684.000000;0.716401
8683.000000;0.716645
8682.000000;0.716819
8681.000000;0.716889
8680.000000;0.716807
8679.000000;0.716522
8678.000000;0.716117
8677.000000;0.715780
8676.000000;0.715627
8675.000000;0.715633
8674.000000;0.715743
8673.000000;0.715938
8672.000000;0.716195
8671.000000;0.716450
8670.000000;0.716627
8669.000000;0.716634
8668.000000;0.716386
8667.000000;0.715913
8666.000000;0.715428
8665.000000;0.715192
8664.000000;0.715262
8663.000000;0.715461
8662.000000;0.715574
8661.000000;0.715515
8660.000000;0.715320
8659.000000;0.715063
8658.000000;0.714804
8657.000000;0.714580
8656.000000;0.714404
8655.000000;0.714300
8654.000000;0.714303
8653.000000;0.714389
8652.000000;0.714443
8651.000000;0.714375
8650.000000;0.714227
8649.000000;0.714104
8648.000000;0.714035
8647.000000;0.713982
8646.000000;0.713971
8645.000000;0.714078
8644.000000;0.714300
8643.000000;0.714496
8642.000000;0.714495
8641.000000;0.714225
8640.000000;0.713768
8639.000000;0.713320
8638.000000;0.713083
8637.000000;0.713105
8636.000000;0.713232
8635.000000;0.713265
8634.000000;0.713141
8633.000000;0.712922
8632.000000;0.712680
8631.000000;0.712459
8630.000000;0.712309
8629.000000;0.712253
8628.000000;0.712229
8627.000000;0.712163
8626.000000;0.712074
8625.000000;0.712047
8624.000000;0.712098
8623.000000;0.712141
8622.000000;0.712066
8621.000000;0.711822
8620.000000;0.711440
8619.000000;0.711060
8618.000000;0.710874
8617.000000;0.710968
8616.000000;0.711223
8615.000000;0.711408
8614.000000;0.711371
8613.000000;0.711103
8612.000000;0.710711
8611.000000;0.710381
8610.000000;0.710279
8609.000000;0.710378
8608.000000;0.710428
8607.000000;0.710205
8606.000000;0.709765
8605.000000;0.709363
8604.000000;0.709170
8603.000000;0.709147
8602.000000;0.709157
8601.000000;0.709092
8600.000000;0.708919
8599.000000;0.708684
8598.000000;0.708452
8597.000000;0.708203
8596.000000;0.707845
8595.000000;0.707404
8594.000000;0.707120
8593.000000;0.707214
8592.000000;0.707632
8591.000000;0.708116
8590.000000;0.708467
8589.000000;0.708600
8588.000000;0.708427
8587.000000;0.707904
8586.000000;0.707204
8585.000000;0.706659
8584.000000;0.706477
8583.000000;0.706607
8582.000000;0.706897
8581.000000;0.707243
8580.000000;0.707563
8579.000000;0.707767
8578.000000;0.707814
8577.000000;0.707740
8576.000000;0.707580
8575.000000;0.707334
8574.000000;0.707021
8573.000000;0.706690
8572.000000;0.706388
8571.000000;0.706156
8570.000000;0.706040
8569.000000;0.706020
8568.000000;0.705961
8567.000000;0.705745
8566.000000;0.705416
8565.000000;0.705117
8564.000000;0.704881
8563.000000;0.704637
8562.000000;0.704381
8561.000000;0.704227
8560.000000;0.704262
8559.000000;0.704466
8558.000000;0.704765
8557.000000;0.705055
8556.000000;0.705180
8555.000000;0.705038
8554.000000;0.704719
8553.000000;0.704420
8552.000000;0.704204
8551.000000;0.703978
8550.000000;0.703708
8549.000000;0.703505
8548.000000;0.703442
8547.000000;0.703440
8546.000000;0.703399
8545.000000;0.703326
8544.000000;0.703256
8543.000000;0.703153
8542.000000;0.702991
8541.000000;0.702826
8540.000000;0.702730
8539.000000;0.702713
8538.000000;0.702769
8537.000000;0.702896
8536.000000;0.703020
8535.000000;0.702989
8534.000000;0.702720
8533.000000;0.702302
8532.000000;0.701882
8531.000000;0.701523
8530.000000;0.701229
8529.000000;0.701040
8528.000000;0.701005
8527.000000;0.701127
8526.000000;0.701376
8525.000000;0.701703
8524.000000;0.701984
8523.000000;0.702012
8522.000000;0.701662
8521.000000;0.701045
8520.000000;0.700432
8519.000000;0.700015
8518.000000;0.699782
8517.000000;0.699594
8516.000000;0.699352
8515.000000;0.699090
8514.000000;0.698951
8513.000000;0.699046
8512.000000;0.699327
8511.000000;0.699625
8510.000000;0.699801
8509.000000;0.699845
8508.000000;0.699813
8507.000000;0.699718
8506.000000;0.699544
8505.000000;0.699299
8504.000000;0.699030
8503.000000;0.698782
8502.000000;0.698570
8501.000000;0.698381
8500.000000;0.698205
8499.000000;0.698066
8498.000000;0.698019
8497.000000;0.698081
8496.000000;0.698166
8495.000000;0.698160
8494.000000;0.698055
8493.000000;0.697969
8492.000000;0.698004
8491.000000;0.698131
8490.000000;0.698226
8489.000000;0.698186
8488.000000;0.697992
8487.000000;0.697706
8486.000000;0.697431
8485.000000;0.697243
8484.000000;0.697154
8483.000000;0.697153
8482.000000;0.697255
8481.000000;0.697467
8480.000000;0.697683
8479.000000;0.697704
8478.000000;0.697411
8477.000000;0.696888
8476.000000;0.696339
8475.000000;0.695895
8474.000000;0.695549
8473.000000;0.695250
8472.000000;0.695010
8471.000000;0.694878
8470.000000;0.694850
8469.000000;0.694851
8468.000000;0.694846
8467.000000;0.694898
8466.000000;0.695078
8465.000000;0.695326
8464.000000;0.695471
8463.000000;0.695401
8462.000000;0.695154
8461.000000;0.694831
8460.000000;0.694498
8459.000000;0.694219
8458.000000;0.694095
8457.000000;0.694179
8456.000000;0.694386
8455.000000;0.694560
8454.000000;0.694615
8453.000000;0.694573
8452.000000;0.694487
8451.000000;0.694393
8450.000000;0.694288
8449.000000;0.694118
8448.000000;0.693820
8447.000000;0.693437
8446.000000;0.693134
8445.000000;0.693033
8444.000000;0.693069
8443.000000;0.693068
8442.000000;0.692950
8441.000000;0.692765
8440.000000;0.692579
8439.000000;0.692411
8438.000000;0.692263
8437.000000;0.692140
8436.000000;0.692033
8435.000000;0.691961
8434.000000;0.691992
8433.000000;0.692121
8432.000000;0.692185
8431.000000;0.691995
8430.000000;0.691551
8429.000000;0.691037
8428.000000;0.690599
8427.000000;0.690275
8426.000000;0.690114
8425.000000;0.690234
8424.000000;0.690667
8423.000000;0.691241
8422.000000;0.691688
8421.000000;0.691839
8420.000000;0.691678
8419.000000;0.691283
8418.000000;0.690775
8417.000000;0.690300
8416.000000;0.689982
8415.000000;0.689878
8414.000000;0.689954
8413.000000;0.690082
8412.000000;0.690112
8411.000000;0.689976
8410.000000;0.689748
8409.000000;0.689551
8408.000000;0.689454
8407.000000;0.689457
8406.000000;0.689542
8405.000000;0.689653
8404.000000;0.689670
8403.000000;0.689512
8402.000000;0.689260
8401.000000;0.689085
8400.000000;0.689048
8399.000000;0.689042
8398.000000;0.688949
8397.000000;0.688759
8396.000000;0.688544
8395.000000;0.688392
8394.000000;0.688394
8393.000000;0.688581
8392.000000;0.688844
8391.000000;0.688980
8390.000000;0.688878
8389.000000;0.688612
8388.000000;0.688329
8387.000000;0.688103
8386.000000;0.687932
8385.000000;0.687775
8384.000000;0.687577
8383.000000;0.687300
8382.000000;0.686990
8381.000000;0.686768
8380.000000;0.686714
8379.000000;0.686807
8378.000000;0.686979
8377.000000;0.687199
8376.000000;0.687448
8375.000000;0.687670
8374.000000;0.687775
8373.000000;0.687686
8372.000000;0.687376
8371.000000;0.686913
8370.000000;0.686481
8369.000000;0.686260
8368.000000;0.686262
8367.000000;0.686322
8366.000000;0.686309
8365.000000;0.686253
8364.000000;0.686233
8363.000000;0.686202
8362.000000;0.686042
8361.000000;0.685758
8360.000000;0.685508
8359.000000;0.685414
8358.000000;0.685420
8357.000000;0.685394
8356.000000;0.685298
8355.000000;0.685203
8354.000000;0.685152
8353.000000;0.685079
8352.000000;0.684904
8351.000000;0.684647
8350.000000;0.684420
8349.000000;0.684297
8348.000000;0.684253
8347.000000;0.684221
8346.000000;0.684159
8345.000000;0.684057
8344.000000;0.683924
8343.000000;0.683790
8342.000000;0.683698
8341.000000;0.683640
8340.000000;0.683555
8339.000000;0.683416
8338.000000;0.683307
8337.000000;0.683339
8336.000000;0.683511
8335.000000;0.683688
8334.000000;0.683722
8333.000000;0.683575
8332.000000;0.683331
8331.000000;0.683106
8330.000000;0.682954
8329.000000;0.682831
8328.000000;0.682671
8327.000000;0.682500
8326.000000;0.682414
8325.000000;0.682437
8324.000000;0.682438
8323.000000;0.682289
8322.000000;0.682034
8321.000000;0.681844
8320.000000;0.681809
8319.000000;0.681864
8318.000000;0.681905
8317.000000;0.681885
8316.000000;0.681793
8315.000000;0.681625
8314.000000;0.681416
8313.000000;0.681241
8312.000000;0.681138
8311.000000;0.681071
8310.000000;0.680999
8309.000000;0.680939
8308.000000;0.680939
8307.000000;0.681004
8306.000000;0.681085
8305.000000;0.681115
8304.000000;0.681041
8303.000000;0.680849
8302.000000;0.680586
8301.000000;0.680347
8300.000000;0.680209
8299.000000;0.680177
8298.000000;0.680201
8297.000000;0.680233
8296.000000;0.680251
8295.000000;0.680234
8294.000000;0.680136
8293.000000;0.679916
8292.000000;0.679603
8291.000000;0.679319
8290.000000;0.679191
8289.000000;0.679231
8288.000000;0.679311
8287.000000;0.679278
8286.000000;0.679078
8285.000000;0.678779
8284.000000;0.678515
8283.000000;0.678421
8282.000000;0.678569
8281.000000;0.678902
8280.000000;0.679240
8279.000000;0.679402
8278.000000;0.679338
8277.000000;0.679126
8276.000000;0.678849
8275.000000;0.678508
8274.000000;0.678079
8273.000000;0.677622
8272.000000;0.677299
8271.000000;0.677254
8270.000000;0.677457
8269.000000;0.677694
8268.000000;0.677735
8267.000000;0.677526
8266.000000;0.677197
8265.000000;0.676921
8264.000000;0.676815
8263.000000;0.676913
8262.000000;0.677167
8261.000000;0.677426
8260.000000;0.677533
8259.000000;0.677461
8258.000000;0.677325
8257.000000;0.677230
8256.000000;0.677166
8255.000000;0.677088
8254.000000;0.677004
8253.000000;0.676941
8252.000000;0.676874
8251.000000;0.676744
8250.000000;0.676537
8249.000000;0.676293
8248.000000;0.676070
8247.000000;0.675923
8246.000000;0.675877
8245.000000;0.675889
8244.000000;0.675880
8243.000000;0.675827
8242.000000;0.675773
8241.000000;0.675733
8240.000000;0.675660
8239.000000;0.675550
8238.000000;0.675481
8237.000000;0.675481
8236.000000;0.675431
8235.000000;0.675201
8234.000000;0.674828
8233.000000;0.674487
8232.000000;0.674319
8231.000000;0.674358
8230.000000;0.674576
8229.000000;0.674876
8228.000000;0.675066
8227.000000;0.674964
8226.000000;0.674569
8225.000000;0.674080
8224.000000;0.673749
8223.000000;0.673705
8222.000000;0.673901
8221.000000;0.674157
8220.000000;0.674280
8219.000000;0.674201
8218.000000;0.674002
8217.000000;0.673796
8216.000000;0.673639
8215.000000;0.673568
8214.000000;0.673634
8213.000000;0.673811
8212.000000;0.673950
8211.000000;0.673910
8210.000000;0.673712
8209.000000;0.673475
8208.000000;0.673260
8207.000000;0.673073
8206.000000;0.672963
8205.000000;0.673001
8204.000000;0.673163
8203.000000;0.673311
8202.000000;0.673308
8201.000000;0.673098
8200.000000;0.672708
8199.000000;0.672248
8198.000000;0.671900
8197.000000;0.671787
8196.000000;0.671866
8195.000000;0.671999
8194.000000;0.672112
8193.000000;0.672184
8192.000000;0.672135
8191.000000;0.671867
8190.000000;0.671451
8189.000000;0.671135
8188.000000;0.671114
8187.000000;0.671341
8186.000000;0.671605
8185.000000;0.671729
8184.000000;0.671667
8183.000000;0.671481
8182.000000;0.671276
8181.000000;0.671116
8180.000000;0.670983
8179.000000;0.670826
8178.000000;0.670645
8177.000000;0.670487
8176.000000;0.670369
8175.000000;0.670267
8174.000000;0.670179
8173.000000;0.670133
8172.000000;0.670122
8171.000000;0.670105
8170.000000;0.670064
8169.000000;0.670027
8168.000000;0.670009
8167.000000;0.669990
8166.000000;0.669953
8165.000000;0.669898
8164.000000;0.669815
8163.000000;0.669685
8162.000000;0.669525
8161.000000;0.669383
8160.000000;0.669287
8159.000000;0.669243
8158.000000;0.669244
8157.000000;0.669260
8156.000000;0.669214
8155.000000;0.669052
8154.000000;0.668814
8153.000000;0.668598
8152.000000;0.668464
8151.000000;0.668422
8150.000000;0.668490
8149.000000;0.668659
8148.000000;0.668812
8147.000000;0.668780
8146.000000;0.668520
8145.000000;0.668173
8144.000000;0.667923
8143.000000;0.667849
8142.000000;0.667912
8141.000000;0.668021
8140.000000;0.668063
8139.000000;0.667947
8138.000000;0.667654
8137.000000;0.667248
8136.000000;0.666840
8135.000000;0.666549
8134.000000;0.666481
8133.000000;0.666671
8132.000000;0.667040
8131.000000;0.667448
8130.000000;0.667779
8129.000000;0.667959
8128.000000;0.667924
8127.000000;0.667660
8126.000000;0.667263
8125.000000;0.666892
8124.000000;0.666643
8123.000000;0.666520
8122.000000;0.666503
8121.000000;0.666565
8120.000000;0.666618
8119.000000;0.666562
8118.000000;0.666391
8117.000000;0.666198
8116.000000;0.666036
8115.000000;0.665867
8114.000000;0.665685
8113.000000;0.665586
8112.000000;0.665663
8111.000000;0.665866
8110.000000;0.666036
8109.000000;0.666054
8108.000000;0.665914
8107.000000;0.665692
8106.000000;0.665479
8105.000000;0.665346
8104.000000;0.665313
8103.000000;0.665345
8102.000000;0.665387
8101.000000;0.665384
8100.000000;0.665294
8099.000000;0.665118
8098.000000;0.664926
8097.000000;0.664819
8096.000000;0.664839
8095.000000;0.664942
8094.000000;0.665043
8093.000000;0.665056
8092.000000;0.664923
8091.000000;0.664647
8090.000000;0.664332
8089.000000;0.664115
8088.000000;0.664051
8087.000000;0.664088
8086.000000;0.664165
8085.000000;0.664253
8084.000000;0.664296
8083.000000;0.664174
8082.000000;0.663824
8081.000000;0.663368
8080.000000;0.663066
8079.000000;0.663108
8078.000000;0.663448
8077.000000;0.663850
8076.000000;0.664075
8075.000000;0.664042
8074.000000;0.663820
8073.000000;0.663516
8072.000000;0.663200
8071.000000;0.662922
8070.000000;0.662734
8069.000000;0.662660
8068.000000;0.662675
8067.000000;0.662754
8066.000000;0.662895
8065.000000;0.663073
8064.000000;0.663193
8063.000000;0.663162
8062.000000;0.662984
8061.000000;0.662746
8060.000000;0.662532
8059.000000;0.662379
8058.000000;0.662291
8057.000000;0.662239
8056.000000;0.662155
8055.000000;0.662012
8054.000000;0.661880
8053.000000;0.661849
8052.000000;0.661896
8051.000000;0.661907
8050.000000;0.661831
8049.000000;0.661731
8048.000000;0.661677
8047.000000;0.661659
8046.000000;0.661639
8045.000000;0.661607
8044.000000;0.661554
8043.000000;0.661441
8042.000000;0.661248
8041.000000;0.661022
8040.000000;0.660832
8039.000000;0.660705
8038.000000;0.660631
8037.000000;0.660598
8036.000000;0.660605
8035.000000;0.660647
8034.000000;0.660718
8033.000000;0.660804
8032.000000;0.660876
8031.000000;0.660889
8030.000000;0.660804
8029.000000;0.660620
8028.000000;0.660375
8027.000000;0.660147
8026.000000;0.660011
8025.000000;0.659968
8024.000000;0.659925
8023.000000;0.659787
8022.000000;0.659568
8021.000000;0.659379
8020.000000;0.659304
8019.000000;0.659341
8018.000000;0.659439
8017.000000;0.659572
8016.000000;0.659739
8015.000000;0.659936
8014.000000;0.660126
8013.000000;0.660217
8012.000000;0.660099
8011.000000;0.659751
8010.000000;0.659295
8009.000000;0.658912
8008.000000;0.658714
8007.000000;0.658710
8006.000000;0.658879
8005.000000;0.659172
8004.000000;0.659460
8003.000000;0.659563
8002.000000;0.659396
8001.000000;0.659049
8000.000000;0.658694
7999.000000;0.658444
7998.000000;0.658325
7997.000000;0.658327
7996.000000;0.658419
7995.000000;0.658530
7994.000000;0.658557
7993.000000;0.658429
7992.000000;0.658153
7991.000000;0.657825
7990.000000;0.657576
7989.000000;0.657506
7988.000000;0.657619
7987.000000;0.657839
7986.000000;0.658057
7985.000000;0.658185
7984.000000;0.658185
7983.000000;0.658082
7982.000000;0.657948
7981.000000;0.657854
7980.000000;0.657814
7979.000000;0.657789
7978.000000;0.657728
7977.000000;0.657606
7976.000000;0.657423
7975.000000;0.657200
7974.000000;0.656966
7973.000000;0.656751
7972.000000;0.656598
7971.000000;0.656562
7970.000000;0.656682
7969.000000;0.656915
7968.000000;0.657127
7967.000000;0.657195
7966.000000;0.657079
7965.000000;0.656819
7964.000000;0.656477
7963.000000;0.656150
7962.000000;0.655960
7961.000000;0.655970
7960.000000;0.656103
7959.000000;0.656199
7958.000000;0.656175
7957.000000;0.656071
7956.000000;0.655966
7955.000000;0.655879
7954.000000;0.655782
7953.000000;0.655671
7952.000000;0.655582
7951.000000;0.655554
7950.000000;0.655580
7949.000000;0.655599
7948.000000;0.655559
7947.000000;0.655470
7946.000000;0.655382
7945.000000;0.655300
7944.000000;0.655181
7943.000000;0.655022
7942.000000;0.654907
7941.000000;0.654905
7940.000000;0.654956
7939.000000;0.654937
7938.000000;0.654827
7937.000000;0.654723
7936.000000;0.654708
7935.000000;0.654747
7934.000000;0.654757
7933.000000;0.654705
7932.000000;0.654629
7931.000000;0.654562
7930.000000;0.654485
7929.000000;0.654362
7928.000000;0.654194
7927.000000;0.654042
7926.000000;0.653964
7925.000000;0.653942
7924.000000;0.653906
7923.000000;0.653820
7922.000000;0.653723
7921.000000;0.653653
7920.000000;0.653602
7919.000000;0.653568
7918.000000;0.653587
7917.000000;0.653675
7916.000000;0.653758
7915.000000;0.653740
7914.000000;0.653608
7913.000000;0.653436
7912.000000;0.653305
7911.000000;0.653254
7910.000000;0.653284
7909.000000;0.653347
7908.000000;0.653356
7907.000000;0.653278
7906.000000;0.653180
7905.000000;0.653144
7904.000000;0.653142
7903.000000;0.653088
7902.000000;0.652970
7901.000000;0.652884
7900.000000;0.652902
7899.000000;0.652991
7898.000000;0.653051
7897.000000;0.653003
7896.000000;0.652832
7895.000000;0.652596
7894.000000;0.652381
7893.000000;0.652210
7892.000000;0.652026
7891.000000;0.651800
7890.000000;0.651625
7889.000000;0.651623
7888.000000;0.651772
7887.000000;0.651913
7886.000000;0.651938
7885.000000;0.651882
7884.000000;0.651827
7883.000000;0.651789
7882.000000;0.651744
7881.000000;0.651687
7880.000000;0.651634
7879.000000;0.651587
7878.000000;0.651542
7877.000000;0.651485
7876.000000;0.651379
7875.000000;0.651189
7874.000000;0.650960
7873.000000;0.650804
7872.000000;0.650795
7871.000000;0.650898
7870.000000;0.651011
7869.000000;0.651054
7868.000000;0.651012
7867.000000;0.650931
7866.000000;0.650882
7865.000000;0.650904
7864.000000;0.650962
7863.000000;0.650982
7862.000000;0.650931
7861.000000;0.650820
7860.000000;0.650665
7859.000000;0.650481
7858.000000;0.650322
7857.000000;0.650257
7856.000000;0.650294
7855.000000;0.650359
7854.000000;0.650377
7853.000000;0.650332
7852.000000;0.650242
7851.000000;0.650125
7850.000000;0.650005
7849.000000;0.649915
7848.000000;0.649866
7847.000000;0.649847
7846.000000;0.649862
7845.000000;0.649921
7844.000000;0.649980
7843.000000;0.649927
7842.000000;0.649702
7841.000000;0.649394
7840.000000;0.649189
7839.000000;0.649212
7838.000000;0.649422
7837.000000;0.649653
7836.000000;0.649747
7835.000000;0.649661
7834.000000;0.649467
7833.000000;0.649266
7832.000000;0.649121
7831.000000;0.649060
7830.000000;0.649091
7829.000000;0.649167
7828.000000;0.649183
7827.000000;0.649059
7826.000000;0.648823
7825.000000;0.648573
7824.000000;0.648377
7823.000000;0.648260
7822.000000;0.648259
7821.000000;0.648416
7820.000000;0.648699
7819.000000;0.648981
7818.000000;0.649125
7817.000000;0.649055
7816.000000;0.648760
7815.000000;0.648297
7814.000000;0.647803
7813.000000;0.647439
7812.000000;0.647290
7811.000000;0.647326
7810.000000;0.647462
7809.000000;0.647621
7808.000000;0.647744
7807.000000;0.647793
7806.000000;0.647777
7805.000000;0.647726
7804.000000;0.647643
7803.000000;0.647516
7802.000000;0.647379
7801.000000;0.647293
7800.000000;0.647248
7799.000000;0.647160
7798.000000;0.646983
7797.000000;0.646790
7796.000000;0.646695
7795.000000;0.646737
7794.000000;0.646865
7793.000000;0.647008
7792.000000;0.647107
7791.000000;0.647138
7790.000000;0.647122
7789.000000;0.647103
7788.000000;0.647086
7787.000000;0.647000
7786.000000;0.646792
7785.000000;0.646503
7784.000000;0.646239
7783.000000;0.646070
7782.000000;0.645990
7781.000000;0.645962
7780.000000;0.645973
7779.000000;0.646030
7778.000000;0.646132
7777.000000;0.646248
7776.000000;0.646316
7775.000000;0.646286
7774.000000;0.646165
7773.000000;0.646006
7772.000000;0.645863
7771.000000;0.645759
7770.000000;0.645706
7769.000000;0.645697
7768.000000;0.645697
7767.000000;0.645650
7766.000000;0.645537
7765.000000;0.645389
7764.000000;0.645253
7763.000000;0.645155
7762.000000;0.645110
7761.000000;0.645120
7760.000000;0.645141
7759.000000;0.645086
7758.000000;0.644897
7757.000000;0.644616
7756.000000;0.644347
7755.000000;0.644175
7754.000000;0.644117
7753.000000;0.644151
7752.000000;0.644239
7751.000000;0.644329
7750.000000;0.644365
7749.000000;0.644309
7748.000000;0.644161
7747.000000;0.643949
7746.000000;0.643722
7745.000000;0.643532
7744.000000;0.643442
7743.000000;0.643495
7742.000000;0.643680
7741.000000;0.643914
7740.000000;0.644090
7739.000000;0.644164
7738.000000;0.644183
7737.000000;0.644198
7736.000000;0.644186
7735.000000;0.644069
7734.000000;0.643833
7733.000000;0.643560
7732.000000;0.643357
7731.000000;0.643257
7730.000000;0.643206
7729.000000;0.643134
7728.000000;0.643028
7727.000000;0.642932
7726.000000;0.642889
7725.000000;0.642884
7724.000000;0.642865
7723.000000;0.642817
7722.000000;0.642798
7721.000000;0.642851
7720.000000;0.642929
7719.000000;0.642934
7718.000000;0.642828
7717.000000;0.642645
7716.000000;0.642425
7715.000000;0.642193
7714.000000;0.642010
7713.000000;0.641966
7712.000000;0.642089
7711.000000;0.642271
7710.000000;0.642364
7709.000000;0.642303
7708.000000;0.642135
7707.000000;0.641933
7706.000000;0.641722
7705.000000;0.641504
7704.000000;0.641301
7703.000000;0.641158
7702.000000;0.641114
7701.000000;0.641159
7700.000000;0.641243
7699.000000;0.641313
7698.000000;0.641351
7697.000000;0.641372
7696.000000;0.641383
7695.000000;0.641372
7694.000000;0.641334
7693.000000;0.641278
7692.000000;0.641208
7691.000000;0.641099
7690.000000;0.640913
7689.000000;0.640657
7688.000000;0.640404
7687.000000;0.640257
7686.000000;0.640267
7685.000000;0.640380
7684.000000;0.640482
7683.000000;0.640498
7682.000000;0.640446
7681.000000;0.640391
7680.000000;0.640367
7679.000000;0.640372
7678.000000;0.640397
7677.000000;0.640423
7676.000000;0.640400
7675.000000;0.640284
7674.000000;0.640102
7673.000000;0.639935
7672.000000;0.639841
7671.000000;0.639808
7670.000000;0.639811
7669.000000;0.639853
7668.000000;0.639939
7667.000000;0.640028
7666.000000;0.640035
7665.000000;0.639894
7664.000000;0.639619
7663.000000;0.639298
7662.000000;0.639039
7661.000000;0.638882
7660.000000;0.638793
7659.000000;0.638715
7658.000000;0.638630
7657.000000;0.638555
7656.000000;0.638497
7655.000000;0.638461
7654.000000;0.638473
7653.000000;0.638554
7652.000000;0.638674
7651.000000;0.638754
7650.000000;0.638751
7649.000000;0.638681
7648.000000;0.638587
7647.000000;0.638482
7646.000000;0.638373
7645.000000;0.638282
7644.000000;0.638223
7643.000000;0.638167
7642.000000;0.638082
7641.000000;0.637996
7640.000000;0.637989
7639.000000;0.638106
7638.000000;0.638290
7637.000000;0.638406
7636.000000;0.638353
7635.000000;0.638134
7634.000000;0.637854
7633.000000;0.637639
7632.000000;0.637570
7631.000000;0.637647
7630.000000;0.637810
7629.000000;0.637968
7628.000000;0.638037
7627.000000;0.637974
7626.000000;0.637799
7625.000000;0.637576
7624.000000;0.637377
7623.000000;0.637241
7622.000000;0.637172
7621.000000;0.637157
7620.000000;0.637199
7619.000000;0.637293
7618.000000;0.637388
7617.000000;0.637376
7616.000000;0.637181
7615.000000;0.636850
7614.000000;0.636539
7613.000000;0.636392
7612.000000;0.636450
7611.000000;0.636650
7610.000000;0.636891
7609.000000;0.637079
7608.000000;0.637159
7607.000000;0.637133
7606.000000;0.637046
7605.000000;0.636934
7604.000000;0.636804
7603.000000;0.636669
7602.000000;0.636568
7601.000000;0.636530
7600.000000;0.636517
7599.000000;0.636448
7598.000000;0.636274
7597.000000;0.636039
7596.000000;0.635840
7595.000000;0.635757
7594.000000;0.635792
7593.000000;0.635867
7592.000000;0.635894
7591.000000;0.635843
7590.000000;0.635744
7589.000000;0.635625
7588.000000;0.635476
7587.000000;0.635291
7586.000000;0.635119
7585.000000;0.635039
7584.000000;0.635091
7583.000000;0.635245
7582.000000;0.635408
7581.000000;0.635486
7580.000000;0.635438
7579.000000;0.635307
7578.000000;0.635183
7577.000000;0.635128
7576.000000;0.635159
7575.000000;0.635274
7574.000000;0.635440
7573.000000;0.635570
7572.000000;0.635557
7571.000000;0.635381
7570.000000;0.635137
7569.000000;0.634934
7568.000000;0.634816
7567.000000;0.634793
7566.000000;0.634867
7565.000000;0.634993
7564.000000;0.635067
7563.000000;0.635025
7562.000000;0.634916
7561.000000;0.634818
7560.000000;0.634723
7559.000000;0.634569
7558.000000;0.634361
7557.000000;0.634190
7556.000000;0.634133
7555.000000;0.634182
7554.000000;0.634271
7553.000000;0.634336
7552.000000;0.634349
7551.000000;0.634363
7550.000000;0.634468
7549.000000;0.634677
7548.000000;0.634846
7547.000000;0.634804
7546.000000;0.634548
7545.000000;0.634247
7544.000000;0.634049
7543.000000;0.633963
7542.000000;0.633931
7541.000000;0.633939
7540.000000;0.633990
7539.000000;0.634050
7538.000000;0.634063
7537.000000;0.634013
7536.000000;0.633924
7535.000000;0.633828
7534.000000;0.633754
7533.000000;0.633729
7532.000000;0.633761
7531.000000;0.633826
7530.000000;0.633894
7529.000000;0.633954
7528.000000;0.633994
7527.000000;0.633974
7526.000000;0.633852
7525.000000;0.633635
7524.000000;0.633391
7523.000000;0.633225
7522.000000;0.633220
7521.000000;0.633380
7520.000000;0.633614
7519.000000;0.633799
7518.000000;0.633872
7517.000000;0.633854
7516.000000;0.633795
7515.000000;0.633723
7514.000000;0.633647
7513.000000;0.633579
7512.000000;0.633528
7511.000000;0.633489
7510.000000;0.633462
7509.000000;0.633465
7508.000000;0.633505
7507.000000;0.633546
7506.000000;0.633526
7505.000000;0.633421
7504.000000;0.633284
7503.000000;0.633216
7502.000000;0.633302
7501.000000;0.633534
7500.000000;0.633796
7499.000000;0.633935
7498.000000;0.633862
7497.000000;0.633606
7496.000000;0.633284
7495.000000;0.633022
7494.000000;0.632879
7493.000000;0.632830
7492.000000;0.632815
7491.000000;0.632809
7490.000000;0.632809
7489.000000;0.632874
7488.000000;0.632964
7487.000000;0.633025
7486.000000;0.633025
7485.000000;0.632965
7484.000000;0.632878
7483.000000;0.632812
7482.000000;0.632814
7481.000000;0.632878
7480.000000;0.632944
7479.000000;0.632961
7478.000000;0.632952
7477.000000;0.632970
7476.000000;0.633012
7475.000000;0.633023
7474.000000;0.632977
7473.000000;0.632918
7472.000000;0.632891
7471.000000;0.632881
7470.000000;0.632845
7469.000000;0.632788
7468.000000;0.632756
7467.000000;0.632783
7466.000000;0.632852
7465.000000;0.632914
7464.000000;0.632936
7463.000000;0.632918
7462.000000;0.632878
7461.000000;0.632830
7460.000000;0.632770
7459.000000;0.632705
7458.000000;0.632680
7457.000000;0.632747
7456.000000;0.632894
7455.000000;0.633029
7454.000000;0.633049
7453.000000;0.632946
7452.000000;0.632815
7451.000000;0.632765
7450.000000;0.632835
7449.000000;0.632992
7448.000000;0.633180
7447.000000;0.633347
7446.000000;0.633448
7445.000000;0.633433
7444.000000;0.633279
7443.000000;0.633025
7442.000000;0.632767
7441.000000;0.632600
7440.000000;0.632573
7439.000000;0.632669
7438.000000;0.632823
7437.000000;0.632962
7436.000000;0.633052
7435.000000;0.633106
7434.000000;0.633163
7433.000000;0.633238
7432.000000;0.633309
7431.000000;0.633334
7430.000000;0.633282
7429.000000;0.633163
7428.000000;0.633038
7427.000000;0.632977
7426.000000;0.632982
7425.000000;0.632972
7424.000000;0.632879
7423.000000;0.632738
7422.000000;0.632653
7421.000000;0.632682
7420.000000;0.632795
7419.000000;0.632948
7418.000000;0.633125
7417.000000;0.633302
7416.000000;0.633418
7415.000000;0.633438
7414.000000;0.633381
7413.000000;0.633275
7412.000000;0.633110
7411.000000;0.632891
7410.000000;0.632690
7409.000000;0.632592
7408.000000;0.632618
7407.000000;0.632721
7406.000000;0.632865
7405.000000;0.633034
7404.000000;0.633191
7403.000000;0.633267
7402.000000;0.633230
7401.000000;0.633137
7400.000000;0.633092
7399.000000;0.633170
7398.000000;0.633375
7397.000000;0.633647
7396.000000;0.633887
7395.000000;0.633984
7394.000000;0.633861
7393.000000;0.633533
7392.000000;0.633130
7391.000000;0.632826
7390.000000;0.632737
7389.000000;0.632874
7388.000000;0.633162
7387.000000;0.633498
7386.000000;0.633783
7385.000000;0.633924
7384.000000;0.633882
7383.000000;0.633731
7382.000000;0.633641
7381.000000;0.633725
7380.000000;0.633914
7379.000000;0.634015
7378.000000;0.633903
7377.000000;0.633613
7376.000000;0.633291
7375.000000;0.633101
7374.000000;0.633142
7373.000000;0.633403
7372.000000;0.633760
7371.000000;0.634060
7370.000000;0.634192
7369.000000;0.634202
7368.000000;0.634206
7367.000000;0.634019
7366.000000;0.634221
7365.000000;0.634369
7364.000000;0.634512
7363.000000;0.634905
7362.000000;0.634500
7361.000000;0.634237
7360.000000;0.634173
7359.000000;0.634291
7358.000000;0.634420
7357.000000;0.634428
7356.000000;0.634303
7355.000000;0.634209
7354.000000;0.634336
7353.000000;0.634687
7352.000000;0.635044
7351.000000;0.635171
7350.000000;0.635011
7349.000000;0.634730
7348.000000;0.634608
7347.000000;0.634848
7346.000000;0.635390
7345.000000;0.635908
7344.000000;0.636050
7343.000000;0.635717
7342.000000;0.635117
7341.000000;0.634573
7340.000000;0.634348
7339.000000;0.634565
7338.000000;0.635169
7337.000000;0.635925
7336.000000;0.636564
7335.000000;0.636952
7334.000000;0.637115
7333.000000;0.637129
7332.000000;0.637051
7331.000000;0.636947
7330.000000;0.636865
7329.000000;0.636769
7328.000000;0.636602
7327.000000;0.636424
7326.000000;0.636368
7325.000000;0.636453
7324.000000;0.636546
7323.000000;0.636536
7322.000000;0.636451
7321.000000;0.636396
7320.000000;0.636462
7319.000000;0.636686
7318.000000;0.637000
7317.000000;0.637206
7316.000000;0.637166
7315.000000;0.636979
7314.000000;0.636878
7313.000000;0.636955
7312.000000;0.637111
7311.000000;0.637248
7310.000000;0.637388
7309.000000;0.637542
7308.000000;0.637601
7307.000000;0.637487
7306.000000;0.637326
7305.000000;0.637341
7304.000000;0.637630
7303.000000;0.638109
7302.000000;0.638590
7301.000000;0.638897
7300.000000;0.639006
7299.000000;0.639126
7298.000000;0.639498
7297.000000;0.640052
7296.000000;0.640406
7295.000000;0.640296
7294.000000;0.639895
7293.000000;0.639641
7292.000000;0.639797
7291.000000;0.640264
7290.000000;0.640758
7289.000000;0.641042
7288.000000;0.641056
7287.000000;0.640975
7286.000000;0.641100
7285.000000;0.641564
7284.000000;0.642139
7283.000000;0.642474
7282.000000;0.642478
7281.000000;0.642380
7280.000000;0.642427
7279.000000;0.642628
7278.000000;0.642794
7277.000000;0.642764
7276.000000;0.642565
7275.000000;0.642385
7274.000000;0.642403
7273.000000;0.642662
7272.000000;0.643057
7271.000000;0.643456
7270.000000;0.643795
7269.000000;0.644060
7268.000000;0.644246
7267.000000;0.644360
7266.000000;0.644438
7265.000000;0.644517
7264.000000;0.644633
7263.000000;0.644835
7262.000000;0.645150
7261.000000;0.645525
7260.000000;0.645850
7259.000000;0.646084
7258.000000;0.646304
7257.000000;0.646603
7256.000000;0.646992
7255.000000;0.647426
7254.000000;0.647872
7253.000000;0.648285
7252.000000;0.648580
7251.000000;0.648686
7250.000000;0.648627
7249.000000;0.648504
7248.000000;0.648434
7247.000000;0.648502
7246.000000;0.648741
7245.000000;0.649109
7244.000000;0.649522
7243.000000;0.649973
7242.000000;0.650562
7241.000000;0.651329
7240.000000;0.652117
7239.000000;0.652718
7238.000000;0.653088
7237.000000;0.653361
7236.000000;0.653681
7235.000000;0.654077
7234.000000;0.654488
7233.000000;0.654821
7232.000000;0.655026
7231.000000;0.655174
7230.000000;0.655420
7229.000000;0.655832
7228.000000;0.656314
7227.000000;0.656742
7226.000000;0.657165
7225.000000;0.657754
7224.000000;0.658575
7223.000000;0.659479
7222.000000;0.660208
7221.000000;0.660562
7220.000000;0.660563
7219.000000;0.660504
7218.000000;0.660716
7217.000000;0.661243
7216.000000;0.661818
7215.000000;0.662150
7214.000000;0.662208
7213.000000;0.662203
7212.000000;0.662382
7211.000000;0.662855
7210.000000;0.663541
7209.000000;0.664227
7208.000000;0.664728
7207.000000;0.665033
7206.000000;0.665288
7205.000000;0.665646
7204.000000;0.666159
7203.000000;0.666812
7202.000000;0.667554
7201.000000;0.668249
7200.000000;0.668707
7199.000000;0.668898
7198.000000;0.669032
7197.000000;0.669347
7196.000000;0.669885
7195.000000;0.670542
7194.000000;0.671243
7193.000000;0.671960
7192.000000;0.672637
7191.000000;0.673225
7190.000000;0.673749
7189.000000;0.674241
7188.000000;0.674659
7187.000000;0.674974
7186.000000;0.675302
7185.000000;0.675778
7184.000000;0.676356
7183.000000;0.676871
7182.000000;0.677308
7181.000000;0.677829
7180.000000;0.678506
7179.000000;0.679195
7178.000000;0.679719
7177.000000;0.680067
7176.000000;0.680372
7175.000000;0.680855
7174.000000;0.681763
7173.000000;0.683196
7172.000000;0.684879
7171.000000;0.686274
7170.000000;0.687018
7169.000000;0.687177
7168.000000;0.687086
7167.000000;0.687067
7166.000000;0.687302
7165.000000;0.687795
7164.000000;0.688347
7163.000000;0.688714
7162.000000;0.688899
7161.000000;0.689221
7160.000000;0.689989
7159.000000;0.691168
7158.000000;0.692478
7157.000000;0.693715
7156.000000;0.694839
7155.000000;0.695847
7154.000000;0.696710
7153.000000;0.697393
7152.000000;0.697831
7151.000000;0.697925
7150.000000;0.697669
7149.000000;0.697285
7148.000000;0.697135
7147.000000;0.697449
7146.000000;0.698162
7145.000000;0.699017
7144.000000;0.699818
7143.000000;0.700572
7142.000000;0.701399
7141.000000;0.702322
7140.000000;0.703210
7139.000000;0.703975
7138.000000;0.704694
7137.000000;0.705403
7136.000000;0.705905
7135.000000;0.705957
7134.000000;0.705563
7133.000000;0.704963
7132.000000;0.704442
7131.000000;0.704288
7130.000000;0.704760
7129.000000;0.705817
7128.000000;0.706960
7127.000000;0.707622
7126.000000;0.707714
7125.000000;0.707580
7124.000000;0.707483
7123.000000;0.707400
7122.000000;0.707304
7121.000000;0.707335
7120.000000;0.707566
7119.000000;0.707847
7118.000000;0.707974
7117.000000;0.707871
7116.000000;0.707566
7115.000000;0.707153
7114.000000;0.706809
7113.000000;0.706676
7112.000000;0.706705
7111.000000;0.706757
7110.000000;0.706875
7109.000000;0.707237
7108.000000;0.707780
7107.000000;0.708080
7106.000000;0.707767
7105.000000;0.706941
7104.000000;0.706087
7103.000000;0.705637
7102.000000;0.705597
7101.000000;0.705491
7100.000000;0.704753
7099.000000;0.703343
7098.000000;0.701867
7097.000000;0.700925
7096.000000;0.700481
7095.000000;0.700135
7094.000000;0.699834
7093.000000;0.699891
7092.000000;0.700364
7091.000000;0.700879
7090.000000;0.701091
7089.000000;0.700969
7088.000000;0.700591
7087.000000;0.700006
7086.000000;0.699291
7085.000000;0.698435
7084.000000;0.697161
7083.000000;0.695218
7082.000000;0.692874
7081.000000;0.690750
7080.000000;0.689152
7079.000000;0.687889
7078.000000;0.686754
7077.000000;0.685791
7076.000000;0.685003
7075.000000;0.684209
7074.000000;0.683349
7073.000000;0.682615
7072.000000;0.682097
7071.000000;0.681565
7070.000000;0.680720
7069.000000;0.679425
7068.000000;0.677621
7067.000000;0.675267
7066.000000;0.672508
7065.000000;0.669668
7064.000000;0.666954
7063.000000;0.664364
7062.000000;0.661941
7061.000000;0.659945
7060.000000;0.658741
7059.000000;0.658599
7058.000000;0.659439
7057.000000;0.660484
7056.000000;0.660366
7055.000000;0.658138
7054.000000;0.654321
7053.000000;0.650575
7052.000000;0.648243
7051.000000;0.647442
7050.000000;0.647461
7049.000000;0.647483
7048.000000;0.646770
7047.000000;0.644647
7046.000000;0.640794
7045.000000;0.635617
7044.000000;0.630204
7043.000000;0.625822
7042.000000;0.623251
7041.000000;0.622327
7040.000000;0.622095
7039.000000;0.621632
7038.000000;0.620729
7037.000000;0.619754
7036.000000;0.619023
7035.000000;0.618469
7034.000000;0.617704
7033.000000;0.616161
7032.000000;0.613390
7031.000000;0.609521
7030.000000;0.605273
7029.000000;0.601294
7028.000000;0.597747
7027.000000;0.594768
7026.000000;0.592811
7025.000000;0.591940
7024.000000;0.591127
7023.000000;0.588980
7022.000000;0.585192
7021.000000;0.580739
7020.000000;0.576686
7019.000000;0.573408
7018.000000;0.570955
7017.000000;0.569465
7016.000000;0.568913
7015.000000;0.568851
7014.000000;0.568603
7013.000000;0.567597
7012.000000;0.565484
7011.000000;0.562167
7010.000000;0.557771
7009.000000;0.552517
7008.000000;0.546812
7007.000000;0.541606
7006.000000;0.538192
7005.000000;0.537095
7004.000000;0.537311
7003.000000;0.537098
7002.000000;0.535467
7001.000000;0.532604
7000.000000;0.529132
6999.000000;0.525578
6998.000000;0.522417
6997.000000;0.519965
6996.000000;0.518084
6995.000000;0.516373
6994.000000;0.514571
6993.000000;0.512470
6992.000000;0.509707
6991.000000;0.506171
6990.000000;0.502457
6989.000000;0.499436
6988.000000;0.497434
6987.000000;0.496200
6986.000000;0.495434
6985.000000;0.494829
6984.000000;0.493813
6983.000000;0.491847
6982.000000;0.488942
6981.000000;0.485485
6980.000000;0.481698
6979.000000;0.477702
6978.000000;0.473858
6977.000000;0.470459
6976.000000;0.467280
6975.000000;0.464019
6974.000000;0.460980
6973.000000;0.458675
6972.000000;0.456914
6971.000000;0.454964
6970.000000;0.452609
6969.000000;0.450380
6968.000000;0.448629
6967.000000;0.446939
6966.000000;0.444598
6965.000000;0.441320
6964.000000;0.437445
6963.000000;0.433678
6962.000000;0.430572
6961.000000;0.427980
6960.000000;0.425190
6959.000000;0.421891
6958.000000;0.418694
6957.000000;0.416299
6956.000000;0.414528
6955.000000;0.412701
6954.000000;0.410632
6953.000000;0.408651
6952.000000;0.406822
6951.000000;0.404832
6950.000000;0.402501
6949.000000;0.399763
6948.000000;0.396286
6947.000000;0.391806
6946.000000;0.386826
6945.000000;0.382394
6944.000000;0.379135
6943.000000;0.376885
6942.000000;0.375174
6941.000000;0.373693
6940.000000;0.372388
6939.000000;0.371505
6938.000000;0.371399
6937.000000;0.371928
6936.000000;0.372196
6935.000000;0.371244
6934.000000;0.368786
6933.000000;0.365061
6932.000000;0.360364
6931.000000;0.355226
6930.000000;0.350676
6929.000000;0.347626
6928.000000;0.346123
6927.000000;0.345605
6926.000000;0.345590
6925.000000;0.345712
6924.000000;0.345501
6923.000000;0.344750
6922.000000;0.343803
6921.000000;0.342907
6920.000000;0.341594
6919.000000;0.339333
6918.000000;0.336485
6917.000000;0.333898
6916.000000;0.331760
6915.000000;0.329598
6914.000000;0.327261
6913.000000;0.325183
6912.000000;0.323693
6911.000000;0.322672
6910.000000;0.321805
6909.000000;0.320674
6908.000000;0.318741
6907.000000;0.315849
6906.000000;0.312729
6905.000000;0.310514
6904.000000;0.309707
6903.000000;0.309897
6902.000000;0.310273
6901.000000;0.309981
6900.000000;0.308268
6899.000000;0.304941
6898.000000;0.300749
6897.000000;0.296917
6896.000000;0.294280
6895.000000;0.293051
6894.000000;0.293089
6893.000000;0.293882
6892.000000;0.294440
6891.000000;0.293771
6890.000000;0.291552
6889.000000;0.288243
6888.000000;0.284689
6887.000000;0.281747
6886.000000;0.280052
6885.000000;0.279776
6884.000000;0.280639
6883.000000;0.282154
6882.000000;0.283625
6881.000000;0.284122
6880.000000;0.283140
6879.000000;0.281302
6878.000000;0.279665
6877.000000;0.278297
6876.000000;0.276359
6875.000000;0.273758
6874.000000;0.271693
6873.000000;0.271189
6872.000000;0.271986
6871.000000;0.273211
6870.000000;0.274216
6869.000000;0.274213
6868.000000;0.272182
6867.000000;0.268150
6866.000000;0.263848
6865.000000;0.261183
6864.000000;0.260619
6863.000000;0.261692
6862.000000;0.264189
6861.000000;0.267727
6860.000000;0.270857
6859.000000;0.271812
6858.000000;0.270087
6857.000000;0.266632
6856.000000;0.262858
6855.000000;0.260042
6854.000000;0.259136
6853.000000;0.260126
6852.000000;0.261820
6851.000000;0.262977
6850.000000;0.263410
6849.000000;0.263466
6848.000000;0.263035
6847.000000;0.261876
6846.000000;0.260392
6845.000000;0.259119
6844.000000;0.257930
6843.000000;0.256650
6842.000000;0.256041
6841.000000;0.257060
6840.000000;0.259312
6839.000000;0.261219
6838.000000;0.261761
6837.000000;0.261265
6836.000000;0.260569
6835.000000;0.260207
6834.000000;0.260390
6833.000000;0.260991
6832.000000;0.261487
6831.000000;0.261432
6830.000000;0.260911
6829.000000;0.260141
6828.000000;0.259020
6827.000000;0.257640
6826.000000;0.256838
6825.000000;0.257416
6824.000000;0.259035
6823.000000;0.260607
6822.000000;0.261565
6821.000000;0.262130
6820.000000;0.262606
6819.000000;0.263150
6818.000000;0.263989
6817.000000;0.265109
6816.000000;0.265858
6815.000000;0.265647
6814.000000;0.264902
6813.000000;0.264550
6812.000000;0.264718
6811.000000;0.264775
6810.000000;0.264566
6809.000000;0.264712
6808.000000;0.265603
6807.000000;0.266840
6806.000000;0.267883
6805.000000;0.268636
6804.000000;0.269209
6803.000000;0.269605
6802.000000;0.269835
6801.000000;0.269957
6800.000000;0.270011
6799.000000;0.270239
6798.000000;0.271204
6797.000000;0.273120
6796.000000;0.275198
6795.000000;0.276251
6794.000000;0.275980
6793.000000;0.275186
6792.000000;0.274793
6791.000000;0.275136
6790.000000;0.276135
6789.000000;0.277524
6788.000000;0.278798
6787.000000;0.279477
6786.000000;0.279644
6785.000000;0.279862
6784.000000;0.280463
6783.000000;0.281235
6782.000000;0.281888
6781.000000;0.282450
6780.000000;0.283084
6779.000000;0.283815
6778.000000;0.284587
6777.000000;0.285357
6776.000000;0.286074
6775.000000;0.286681
6774.000000;0.287163
6773.000000;0.287462
6772.000000;0.287449
6771.000000;0.287158
6770.000000;0.286914
6769.000000;0.287079
6768.000000;0.287762
6767.000000;0.288911
6766.000000;0.290453
6765.000000;0.292142
6764.000000;0.293571
6763.000000;0.294607
6762.000000;0.295564
6761.000000;0.296683
6760.000000;0.297727
6759.000000;0.298433
6758.000000;0.299014
6757.000000;0.299766
6756.000000;0.300465
6755.000000;0.300698
6754.000000;0.300606
6753.000000;0.300751
6752.000000;0.301336
6751.000000;0.302067
6750.000000;0.302713
6749.000000;0.303306
6748.000000;0.303819
6747.000000;0.304159
6746.000000;0.304515
6745.000000;0.305260
6744.000000;0.306428
6743.000000;0.307692
6742.000000;0.308876
6741.000000;0.310091
6740.000000;0.311301
6739.000000;0.312206
6738.000000;0.312684
6737.000000;0.313010
6736.000000;0.313505
6735.000000;0.314263
6734.000000;0.315322
6733.000000;0.316783
6732.000000;0.318594
6731.000000;0.320466
6730.000000;0.322099
6729.000000;0.323309
6728.000000;0.323893
6727.000000;0.323678
6726.000000;0.322854
6725.000000;0.322009
6724.000000;0.321663
6723.000000;0.321874
6722.000000;0.322348
6721.000000;0.322778
6720.000000;0.323014
6719.000000;0.323125
6718.000000;0.323409
6717.000000;0.324214
6716.000000;0.325635
6715.000000;0.327451
6714.000000;0.329353
6713.000000;0.331109
6712.000000;0.332512
6711.000000;0.333374
6710.000000;0.333662
6709.000000;0.333537
6708.000000;0.333227
6707.000000;0.332949
6706.000000;0.332938
6705.000000;0.333352
6704.000000;0.334110
6703.000000;0.334933
6702.000000;0.335627
6701.000000;0.336261
6700.000000;0.337035
6699.000000;0.338052
6698.000000;0.339250
6697.000000;0.340475
6696.000000;0.341486
6695.000000;0.342161
6694.000000;0.342545
6693.000000;0.342748
6692.000000;0.342900
6691.000000;0.343156
6690.000000;0.343700
6689.000000;0.344591
6688.000000;0.345694
6687.000000;0.346820
6686.000000;0.347899
6685.000000;0.348916
6684.000000;0.349765
6683.000000;0.350330
6682.000000;0.350644
6681.000000;0.350836
6680.000000;0.350994
6679.000000;0.351183
6678.000000;0.351542
6677.000000;0.352178
6676.000000;0.352982
6675.000000;0.353711
6674.000000;0.354251
6673.000000;0.354682
6672.000000;0.355122
6671.000000;0.355654
6670.000000;0.356375
6669.000000;0.357320
6668.000000;0.358323
6667.000000;0.359114
6666.000000;0.359608
6665.000000;0.360008
6664.000000;0.360568
6663.000000;0.361356
6662.000000;0.362262
6661.000000;0.363147
6660.000000;0.363950
6659.000000;0.364714
6658.000000;0.365513
6657.000000;0.366312
6656.000000;0.366939
6655.000000;0.367286
6654.000000;0.367526
6653.000000;0.367992
6652.000000;0.368838
6651.000000;0.369868
6650.000000;0.370728
6649.000000;0.371181
6648.000000;0.371227
6647.000000;0.371040
6646.000000;0.370871
6645.000000;0.370959
6644.000000;0.371456
6643.000000;0.372383
6642.000000;0.373607
6641.000000;0.374869
6640.000000;0.375898
6639.000000;0.376553
6638.000000;0.376847
6637.000000;0.376882
6636.000000;0.376826
6635.000000;0.376918
6634.000000;0.377352
6633.000000;0.378092
6632.000000;0.378857
6631.000000;0.379375
6630.000000;0.379604
6629.000000;0.379700
6628.000000;0.379878
6627.000000;0.380327
6626.000000;0.381138
6625.000000;0.382207
6624.000000;0.383284
6623.000000;0.384177
6622.000000;0.384862
6621.000000;0.385391
6620.000000;0.385806
6619.000000;0.386208
6618.000000;0.386746
6617.000000;0.387427
6616.000000;0.388032
6615.000000;0.388352
6614.000000;0.388416
6613.000000;0.388388
6612.000000;0.388367
6611.000000;0.388418
6610.000000;0.388678
6609.000000;0.389267
6608.000000;0.390134
6607.000000;0.391128
6606.000000;0.392156
6605.000000;0.393146
6604.000000;0.393938
6603.000000;0.394404
6602.000000;0.394632
6601.000000;0.394848
6600.000000;0.395159
6599.000000;0.395517
6598.000000;0.395897
6597.000000;0.396371
6596.000000;0.396966
6595.000000;0.397592
6594.000000;0.398133
6593.000000;0.398532
6592.000000;0.398786
6591.000000;0.398968
6590.000000;0.399246
6589.000000;0.399788
6588.000000;0.400616
6587.000000;0.401595
6586.000000;0.402561
6585.000000;0.403372
6584.000000;0.403904
6583.000000;0.404093
6582.000000;0.404012
6581.000000;0.403836
6580.000000;0.403740
6579.000000;0.403885
6578.000000;0.404415
6577.000000;0.405337
6576.000000;0.406422
6575.000000;0.407330
6574.000000;0.407883
6573.000000;0.408146
6572.000000;0.408282
6571.000000;0.408418
6570.000000;0.408637
6569.000000;0.408984
6568.000000;0.409451
6567.000000;0.409990
6566.000000;0.410564
6565.000000;0.411125
6564.000000;0.411576
6563.000000;0.411822
6562.000000;0.411878
6561.000000;0.411881
6560.000000;0.412013
6559.000000;0.412433
6558.000000;0.413207
6557.000000;0.414213
6556.000000;0.415154
6555.000000;0.415776
6554.000000;0.416068
6553.000000;0.416198
6552.000000;0.416312
6551.000000;0.416483
6550.000000;0.416801
6549.000000;0.417360
6548.000000;0.418126
6547.000000;0.418924
6546.000000;0.419585
6545.000000;0.420030
6544.000000;0.420233
6543.000000;0.420224
6542.000000;0.420149
6541.000000;0.420220
6540.000000;0.420541
6539.000000;0.421059
6538.000000;0.421663
6537.000000;0.422280
6536.000000;0.422845
6535.000000;0.423301
6534.000000;0.423673
6533.000000;0.424054
6532.000000;0.424487
6531.000000;0.424902
6530.000000;0.425234
6529.000000;0.425530
6528.000000;0.425894
6527.000000;0.426366
6526.000000;0.426886
6525.000000;0.427372
6524.000000;0.427773
6523.000000;0.428092
6522.000000;0.428386
6521.000000;0.428717
6520.000000;0.429103
6519.000000;0.429510
6518.000000;0.429900
6517.000000;0.430271
6516.000000;0.430641
6515.000000;0.431025
6514.000000;0.431423
6513.000000;0.431806
6512.000000;0.432106
6511.000000;0.432268
6510.000000;0.432336
6509.000000;0.432447
6508.000000;0.432725
6507.000000;0.433173
6506.000000;0.433698
6505.000000;0.434200
6504.000000;0.434634
6503.000000;0.434982
6502.000000;0.435211
6501.000000;0.435311
6500.000000;0.435375
6499.000000;0.435588
6498.000000;0.436069
6497.000000;0.436727
6496.000000;0.437326
6495.000000;0.437717
6494.000000;0.437945
6493.000000;0.438127
6492.000000;0.438300
6491.000000;0.438445
6490.000000;0.438581
6489.000000;0.438762
6488.000000;0.439005
6487.000000;0.439286
6486.000000;0.439589
6485.000000;0.439907
6484.000000;0.440233
6483.000000;0.440589
6482.000000;0.441037
6481.000000;0.441602
6480.000000;0.442196
6479.000000;0.442691
6478.000000;0.443046
6477.000000;0.443325
6476.000000;0.443589
6475.000000;0.443844
6474.000000;0.444083
6473.000000;0.444337
6472.000000;0.444640
6471.000000;0.444985
6470.000000;0.445320
6469.000000;0.445575
6468.000000;0.445709
6467.000000;0.445769
6466.000000;0.445868
6465.000000;0.446102
6464.000000;0.446473
6463.000000;0.446921
6462.000000;0.447399
6461.000000;0.447880
6460.000000;0.448329
6459.000000;0.448708
6458.000000;0.449002
6457.000000;0.449230
6456.000000;0.449418
6455.000000;0.449594
6454.000000;0.449786
6453.000000;0.450014
6452.000000;0.450289
6451.000000;0.450640
6450.000000;0.451077
6449.000000;0.451528
6448.000000;0.451857
6447.000000;0.451998
6446.000000;0.452023
6445.000000;0.452058
6444.000000;0.452171
6443.000000;0.452378
6442.000000;0.452692
6441.000000;0.453090
6440.000000;0.453475
6439.000000;0.453754
6438.000000;0.453924
6437.000000;0.454052
6436.000000;0.454185
6435.000000;0.454354
6434.000000;0.454605
6433.000000;0.454947
6432.000000;0.455298
6431.000000;0.455554
6430.000000;0.455722
6429.000000;0.455891
6428.000000;0.456088
6427.000000;0.456232
6426.000000;0.456276
6425.000000;0.456303
6424.000000;0.456457
6423.000000;0.456800
6422.000000;0.457264
6421.000000;0.457715
6420.000000;0.458060
6419.000000;0.458309
6418.000000;0.458533
6417.000000;0.458758
6416.000000;0.458920
6415.000000;0.458965
6414.000000;0.458963
6413.000000;0.459050
6412.000000;0.459289
6411.000000;0.459627
6410.000000;0.459981
6409.000000;0.460307
6408.000000;0.460580
6407.000000;0.460769
6406.000000;0.460869
6405.000000;0.460933
6404.000000;0.461051
6403.000000;0.461303
6402.000000;0.461717
6401.000000;0.462226
6400.000000;0.462684
6399.000000;0.462959
6398.000000;0.463035
6397.000000;0.462997
6396.000000;0.462935
6395.000000;0.462905
6394.000000;0.462956
6393.000000;0.463135
6392.000000;0.463437
6391.000000;0.463803
6390.000000;0.464161
6389.000000;0.464468
6388.000000;0.464711
6387.000000;0.464904
6386.000000;0.465084
6385.000000;0.465291
6384.000000;0.465522
6383.000000;0.465733
6382.000000;0.465874
6381.000000;0.465933
6380.000000;0.465944
6379.000000;0.465984
6378.000000;0.466127
6377.000000;0.466368
6376.000000;0.466606
6375.000000;0.466737
6374.000000;0.466737
6373.000000;0.466663
6372.000000;0.466582
6371.000000;0.466558
6370.000000;0.466664
6369.000000;0.466932
6368.000000;0.467301
6367.000000;0.467663
6366.000000;0.467951
6365.000000;0.468170
6364.000000;0.468325
6363.000000;0.468408
6362.000000;0.468442
6361.000000;0.468496
6360.000000;0.468619
6359.000000;0.468798
6358.000000;0.468992
6357.000000;0.469184
6356.000000;0.469372
6355.000000;0.469555
6354.000000;0.469723
6353.000000;0.469863
6352.000000;0.469960
6351.000000;0.470021
6350.000000;0.470079
6349.000000;0.470174
6348.000000;0.470321
6347.000000;0.470514
6346.000000;0.470754
6345.000000;0.471039
6344.000000;0.471329
6343.000000;0.471550
6342.000000;0.471645
6341.000000;0.471616
6340.000000;0.471522
6339.000000;0.471458
6338.000000;0.471512
6337.000000;0.471698
6336.000000;0.471960
6335.000000;0.472231
6334.000000;0.472484
6333.000000;0.472691
6332.000000;0.472784
6331.000000;0.472721
6330.000000;0.472573
6329.000000;0.472485
6328.000000;0.472550
6327.000000;0.472748
6326.000000;0.473006
6325.000000;0.473268
6324.000000;0.473493
6323.000000;0.473638
6322.000000;0.473683
6321.000000;0.473649
6320.000000;0.473582
6319.000000;0.473534
6318.000000;0.473564
6317.000000;0.473699
6316.000000;0.473907
6315.000000;0.474107
6314.000000;0.474244
6313.000000;0.474315
6312.000000;0.474341
6311.000000;0.474344
6310.000000;0.474354
6309.000000;0.474416
6308.000000;0.474555
6307.000000;0.474757
6306.000000;0.474984
6305.000000;0.475200
6304.000000;0.475374
6303.000000;0.475486
6302.000000;0.475532
6301.000000;0.475521
6300.000000;0.475469
6299.000000;0.475396
6298.000000;0.475340
6297.000000;0.475338
6296.000000;0.475399
6295.000000;0.475507
6294.000000;0.475637
6293.000000;0.475756
6292.000000;0.475824
6291.000000;0.475832
6290.000000;0.475848
6289.000000;0.475982
6288.000000;0.476288
6287.000000;0.476698
6286.000000;0.477087
6285.000000;0.477362
6284.000000;0.477498
6283.000000;0.477495
6282.000000;0.477357
6281.000000;0.477113
6280.000000;0.476854
6279.000000;0.476707
6278.000000;0.476748
6277.000000;0.476938
6276.000000;0.477154
6275.000000;0.477291
6274.000000;0.477334
6273.000000;0.477334
6272.000000;0.477347
6271.000000;0.477410
6270.000000;0.477530
6269.000000;0.477675
6268.000000;0.477787
6267.000000;0.477828
6266.000000;0.477803
6265.000000;0.477735
6264.000000;0.477631
6263.000000;0.477505
6262.000000;0.477407
6261.000000;0.477399
6260.000000;0.477497
6259.000000;0.477663
6258.000000;0.477847
6257.000000;0.478022
6256.000000;0.478169
6255.000000;0.478270
6254.000000;0.478322
6253.000000;0.478341
6252.000000;0.478348
6251.000000;0.478355
6250.000000;0.478361
6249.000000;0.478349
6248.000000;0.478308
6247.000000;0.478253
6246.000000;0.478249
6245.000000;0.478356
6244.000000;0.478577
6243.000000;0.478834
6242.000000;0.479027
6241.000000;0.479103
6240.000000;0.479071
6239.000000;0.478983
6238.000000;0.478878
6237.000000;0.478769
6236.000000;0.478670
6235.000000;0.478618
6234.000000;0.478646
6233.000000;0.478736
6232.000000;0.478815
6231.000000;0.478814
6230.000000;0.478721
6229.000000;0.478581
6228.000000;0.478468
6227.000000;0.478461
6226.000000;0.478597
6225.000000;0.478826
6224.000000;0.479033
6223.000000;0.479135
6222.000000;0.479137
6221.000000;0.479090
6220.000000;0.479026
6219.000000;0.478958
6218.000000;0.478915
6217.000000;0.478938
6216.000000;0.479044
6215.000000;0.479216
6214.000000;0.479421
6213.000000;0.479600
6212.000000;0.479683
6211.000000;0.479640
6210.000000;0.479524
6209.000000;0.479419
6208.000000;0.479373
6207.000000;0.479379
6206.000000;0.479426
6205.000000;0.479508
6204.000000;0.479599
6203.000000;0.479654
6202.000000;0.479654
6201.000000;0.479638
6200.000000;0.479665
6199.000000;0.479757
6198.000000;0.479877
6197.000000;0.479950
6196.000000;0.479922
6195.000000;0.479812
6194.000000;0.479692
6193.000000;0.479616
6192.000000;0.479576
6191.000000;0.479536
6190.000000;0.479488
6189.000000;0.479458
6188.000000;0.479469
6187.000000;0.479521
6186.000000;0.479595
6185.000000;0.479660
6184.000000;0.479689
6183.000000;0.479686
6182.000000;0.479678
6181.000000;0.479680
6180.000000;0.479666
6179.000000;0.479618
6178.000000;0.479553
6177.000000;0.479513
6176.000000;0.479519
6175.000000;0.479570
6174.000000;0.479656
6173.000000;0.479748
6172.000000;0.479803
6171.000000;0.479799
6170.000000;0.479764
6169.000000;0.479739
6168.000000;0.479727
6167.000000;0.479699
6166.000000;0.479641
6165.000000;0.479561
6164.000000;0.479466
6163.000000;0.479364
6162.000000;0.479276
6161.000000;0.479232
6160.000000;0.479255
6159.000000;0.479356
6158.000000;0.479529
6157.000000;0.479728
6156.000000;0.479867
6155.000000;0.479886
6154.000000;0.479811
6153.000000;0.479721
6152.000000;0.479668
6151.000000;0.479654
6150.000000;0.479660
6149.000000;0.479662
6148.000000;0.479629
6147.000000;0.479535
6146.000000;0.479397
6145.000000;0.479271
6144.000000;0.479214
6143.000000;0.479261
6142.000000;0.479402
6141.000000;0.479587
6140.000000;0.479745
6139.000000;0.479835
6138.000000;0.479876
6137.000000;0.479907
6136.000000;0.479929
6135.000000;0.479914
6134.000000;0.479872
6133.000000;0.479846
6132.000000;0.479858
6131.000000;0.479873
6130.000000;0.479833
6129.000000;0.479716
6128.000000;0.479560
6127.000000;0.479427
6126.000000;0.479351
6125.000000;0.479311
6124.000000;0.479267
6123.000000;0.479211
6122.000000;0.479182
6121.000000;0.479210
6120.000000;0.479288
6119.000000;0.479390
6118.000000;0.479501
6117.000000;0.479594
6116.000000;0.479618
6115.000000;0.479540
6114.000000;0.479392
6113.000000;0.479250
6112.000000;0.479171
6111.000000;0.479160
6110.000000;0.479191
6109.000000;0.479230
6108.000000;0.479235
6107.000000;0.479176
6106.000000;0.479057
6105.000000;0.478909
6104.000000;0.478787
6103.000000;0.478751
6102.000000;0.478841
6101.000000;0.479029
6100.000000;0.479226
6099.000000;0.479347
6098.000000;0.479376
6097.000000;0.479351
6096.000000;0.479307
6095.000000;0.479264
6094.000000;0.479234
6093.000000;0.479224
6092.000000;0.479226
6091.000000;0.479227
6090.000000;0.479227
6089.000000;0.479225
6088.000000;0.479208
6087.000000;0.479186
6086.000000;0.479200
6085.000000;0.479278
6084.000000;0.479385
6083.000000;0.479456
6082.000000;0.479456
6081.000000;0.479405
6080.000000;0.479330
6079.000000;0.479240
6078.000000;0.479138
6077.000000;0.479032
6076.000000;0.478932
6075.000000;0.478851
6074.000000;0.478798
6073.000000;0.478768
6072.000000;0.478745
6071.000000;0.478730
6070.000000;0.478744
6069.000000;0.478796
6068.000000;0.478857
6067.000000;0.478893
6066.000000;0.478897
6065.000000;0.478875
6064.000000;0.478818
6063.000000;0.478727
6062.000000;0.478629
6061.000000;0.478555
6060.000000;0.478506
6059.000000;0.478482
6058.000000;0.478505
6057.000000;0.478591
6056.000000;0.478696
6055.000000;0.478753
6054.000000;0.478745
6053.000000;0.478704
6052.000000;0.478652
6051.000000;0.478577
6050.000000;0.478483
6049.000000;0.478419
6048.000000;0.478450
6047.000000;0.478591
6046.000000;0.478787
6045.000000;0.478937
6044.000000;0.478956
6043.000000;0.478841
6042.000000;0.478664
6041.000000;0.478504
6040.000000;0.478399
6039.000000;0.478371
6038.000000;0.478451
6037.000000;0.478631
6036.000000;0.478822
6035.000000;0.478913
6034.000000;0.478864
6033.000000;0.478725
6032.000000;0.478562
6031.000000;0.478419
6030.000000;0.478328
6029.000000;0.478313
6028.000000;0.478366
6027.000000;0.478441
6026.000000;0.478490
6025.000000;0.478484
6024.000000;0.478420
6023.000000;0.478327
6022.000000;0.478261
6021.000000;0.478266
6020.000000;0.478336
6019.000000;0.478431
6018.000000;0.478515
6017.000000;0.478560
6016.000000;0.478533
6015.000000;0.478426
6014.000000;0.478290
6013.000000;0.478213
6012.000000;0.478247
6011.000000;0.478371
6010.000000;0.478528
6009.000000;0.478659
6008.000000;0.478721
6007.000000;0.478694
6006.000000;0.478590
6005.000000;0.478438
6004.000000;0.478273
6003.000000;0.478135
6002.000000;0.478072
6001.000000;0.478108
6000.000000;0.478216
5999.000000;0.478338
5998.000000;0.478427
5997.000000;0.478454
5996.000000;0.478397
5995.000000;0.478263
5994.000000;0.478111
5993.000000;0.478029
5992.000000;0.478075
5991.000000;0.478238
5990.000000;0.478449
5989.000000;0.478608
5988.000000;0.478639
5987.000000;0.478557
5986.000000;0.478473
5985.000000;0.478493
5984.000000;0.478613
5983.000000;0.478740
5982.000000;0.478794
5981.000000;0.478765
5980.000000;0.478674
5979.000000;0.478542
5978.000000;0.478401
5977.000000;0.478301
5976.000000;0.478285
5975.000000;0.478357
5974.000000;0.478485
5973.000000;0.478621
5972.000000;0.478721
5971.000000;0.478772
5970.000000;0.478798
5969.000000;0.478812
5968.000000;0.478789
5967.000000;0.478703
5966.000000;0.478583
5965.000000;0.478489
5964.000000;0.478446
5963.000000;0.478433
5962.000000;0.478425
5961.000000;0.478429
5960.000000;0.478460
5959.000000;0.478517
5958.000000;0.478582
5957.000000;0.478630
5956.000000;0.478638
5955.000000;0.478614
5954.000000;0.478599
5953.000000;0.478626
5952.000000;0.478676
5951.000000;0.478703
5950.000000;0.478692
5949.000000;0.478663
5948.000000;0.478618
5947.000000;0.478550
5946.000000;0.478489
5945.000000;0.478499
5944.000000;0.478598
5943.000000;0.478732
5942.000000;0.478833
5941.000000;0.478894
5940.000000;0.478947
5939.000000;0.478999
5938.000000;0.479006
5937.000000;0.478934
5936.000000;0.478803
5935.000000;0.478688
5934.000000;0.478660
5933.000000;0.478727
5932.000000;0.478830
5931.000000;0.478902
5930.000000;0.478927
5929.000000;0.478928
5928.000000;0.478916
5927.000000;0.478892
5926.000000;0.478872
5925.000000;0.478891
5924.000000;0.478964
5923.000000;0.479072
5922.000000;0.479181
5921.000000;0.479267
5920.000000;0.479311
5919.000000;0.479310
5918.000000;0.479277
5917.000000;0.479230
5916.000000;0.479162
5915.000000;0.479059
5914.000000;0.478940
5913.000000;0.478859
5912.000000;0.478848
5911.000000;0.478887
5910.000000;0.478924
5909.000000;0.478917
5908.000000;0.478863
5907.000000;0.478789
5906.000000;0.478741
5905.000000;0.478747
5904.000000;0.478807
5903.000000;0.478899
5902.000000;0.479009
5901.000000;0.479132
5900.000000;0.479249
5899.000000;0.479325
5898.000000;0.479332
5897.000000;0.479275
5896.000000;0.479178
5895.000000;0.479075
5894.000000;0.478987
5893.000000;0.478920
5892.000000;0.478866
5891.000000;0.478835
5890.000000;0.478857
5889.000000;0.478959
5888.000000;0.479125
5887.000000;0.479295
5886.000000;0.479390
5885.000000;0.479360
5884.000000;0.479216
5883.000000;0.479038
5882.000000;0.478928
5881.000000;0.478937
5880.000000;0.479037
5879.000000;0.479159
5878.000000;0.479247
5877.000000;0.479270
5876.000000;0.479218
5875.000000;0.479125
5874.000000;0.479057
5873.000000;0.479062
5872.000000;0.479124
5871.000000;0.479199
5870.000000;0.479265
5869.000000;0.479322
5868.000000;0.479362
5867.000000;0.479361
5866.000000;0.479308
5865.000000;0.479215
5864.000000;0.479103
5863.000000;0.479001
5862.000000;0.478949
5861.000000;0.478966
5860.000000;0.479023
5859.000000;0.479065
5858.000000;0.479055
5857.000000;0.478991
5856.000000;0.478898
5855.000000;0.478819
5854.000000;0.478810
5853.000000;0.478893
5852.000000;0.479026
5851.000000;0.479130
5850.000000;0.479150
5849.000000;0.479089
5848.000000;0.478989
5847.000000;0.478922
5846.000000;0.478952
5845.000000;0.479093
5844.000000;0.479295
5843.000000;0.479488
5842.000000;0.479623
5841.000000;0.479667
5840.000000;0.479596
5839.000000;0.479441
5838.000000;0.479306
5837.000000;0.479288
5836.000000;0.479381
5835.000000;0.479495
5834.000000;0.479553
5833.000000;0.479546
5832.000000;0.479495
5831.000000;0.479416
5830.000000;0.479328
5829.000000;0.479265
5828.000000;0.479258
5827.000000;0.479335
5826.000000;0.479506
5825.000000;0.479733
5824.000000;0.479921
5823.000000;0.479994
5822.000000;0.479973
5821.000000;0.479939
5820.000000;0.479933
5819.000000;0.479914
5818.000000;0.479845
5817.000000;0.479750
5816.000000;0.479679
5815.000000;0.479644
5814.000000;0.479629
5813.000000;0.479629
5812.000000;0.479657
5811.000000;0.479727
5810.000000;0.479838
5809.000000;0.479968
5808.000000;0.480072
5807.000000;0.480095
5806.000000;0.480014
5805.000000;0.479856
5804.000000;0.479678
5803.000000;0.479536
5802.000000;0.479473
5801.000000;0.479508
5800.000000;0.479628
5799.000000;0.479797
5798.000000;0.479968
5797.000000;0.480098
5796.000000;0.480157
5795.000000;0.480150
5794.000000;0.480114
5793.000000;0.480081
5792.000000;0.480044
5791.000000;0.479994
5790.000000;0.479950
5789.000000;0.479950
5788.000000;0.479999
5787.000000;0.480071
5786.000000;0.480141
5785.000000;0.480204
5784.000000;0.480245
5783.000000;0.480239
5782.000000;0.480181
5781.000000;0.480098
5780.000000;0.480026
5779.000000;0.479982
5778.000000;0.479970
5777.000000;0.479975
5776.000000;0.479970
5775.000000;0.479929
5774.000000;0.479854
5773.000000;0.479775
5772.000000;0.479718
5771.000000;0.479694
5770.000000;0.479709
5769.000000;0.479762
5768.000000;0.479839
5767.000000;0.479914
5766.000000;0.479967
5765.000000;0.479974
5764.000000;0.479905
5763.000000;0.479764
5762.000000;0.479610
5761.000000;0.479521
5760.000000;0.479525
5759.000000;0.479587
5758.000000;0.479658
5757.000000;0.479712
5756.000000;0.479746
5755.000000;0.479770
5754.000000;0.479798
5753.000000;0.479841
5752.000000;0.479888
5751.000000;0.479922
5750.000000;0.479933
5749.000000;0.479927
5748.000000;0.479911
5747.000000;0.479910
5746.000000;0.479959
5745.000000;0.480063
5744.000000;0.480153
5743.000000;0.480133
5742.000000;0.479969
5741.000000;0.479716
5740.000000;0.479470
5739.000000;0.479314
5738.000000;0.479302
5737.000000;0.479453
5736.000000;0.479716
5735.000000;0.479974
5734.000000;0.480108
5733.000000;0.480073
5732.000000;0.479919
5731.000000;0.479745
5730.000000;0.479629
5729.000000;0.479587
5728.000000;0.479583
5727.000000;0.479586
5726.000000;0.479585
5725.000000;0.479563
5724.000000;0.479492
5723.000000;0.479376
5722.000000;0.479279
5721.000000;0.479280
5720.000000;0.479395
5719.000000;0.479571
5718.000000;0.479733
5717.000000;0.479832
5716.000000;0.479845
5715.000000;0.479780
5714.000000;0.479669
5713.000000;0.479540
5712.000000;0.479400
5711.000000;0.479256
5710.000000;0.479149
5709.000000;0.479119
5708.000000;0.479160
5707.000000;0.479227
5706.000000;0.479284
5705.000000;0.479319
5704.000000;0.479321
5703.000000;0.479268
5702.000000;0.479153
5701.000000;0.478991
5700.000000;0.478818
5699.000000;0.478691
5698.000000;0.478674
5697.000000;0.478798
5696.000000;0.479019
5695.000000;0.479253
5694.000000;0.479439
5693.000000;0.479549
5692.000000;0.479587
5691.000000;0.479561
5690.000000;0.479485
5689.000000;0.479403
5688.000000;0.479349
5687.000000;0.479337
5686.000000;0.479350
5685.000000;0.479333
5684.000000;0.479230
5683.000000;0.479043
5682.000000;0.478846
5681.000000;0.478717
5680.000000;0.478678
5679.000000;0.478716
5678.000000;0.478825
5677.000000;0.478989
5676.000000;0.479152
5675.000000;0.479258
5674.000000;0.479321
5673.000000;0.479402
5672.000000;0.479522
5671.000000;0.479630
5670.000000;0.479667
5669.000000;0.479623
5668.000000;0.479544
5667.000000;0.479501
5666.000000;0.479554
5665.000000;0.479697
5664.000000;0.479853
5663.000000;0.479933
5662.000000;0.479924
5661.000000;0.479870
5660.000000;0.479822
5659.000000;0.479811
5658.000000;0.479864
5657.000000;0.479972
5656.000000;0.480072
5655.000000;0.480103
5654.000000;0.480087
5653.000000;0.480084
5652.000000;0.480090
5651.000000;0.480048
5650.000000;0.479969
5649.000000;0.479960
5648.000000;0.480089
5647.000000;0.480286
5646.000000;0.480429
5645.000000;0.480475
5644.000000;0.480478
5643.000000;0.480511
5642.000000;0.480610
5641.000000;0.480785
5640.000000;0.481024
5639.000000;0.481282
5638.000000;0.481500
5637.000000;0.481639
5636.000000;0.481689
5635.000000;0.481667
5634.000000;0.481606
5633.000000;0.481552
5632.000000;0.481551
5631.000000;0.481638
5630.000000;0.481818
5629.000000;0.482058
5628.000000;0.482294
5627.000000;0.482464
5626.000000;0.482549
5625.000000;0.482575
5624.000000;0.482581
5623.000000;0.482615
5622.000000;0.482721
5621.000000;0.482916
5620.000000;0.483154
5619.000000;0.483358
5618.000000;0.483480
5617.000000;0.483519
5616.000000;0.483502
5615.000000;0.483475
5614.000000;0.483513
5613.000000;0.483691
5612.000000;0.484007
5611.000000;0.484372
5610.000000;0.484678
5609.000000;0.484858
5608.000000;0.484896
5607.000000;0.484806
5606.000000;0.484645
5605.000000;0.484514
5604.000000;0.484510
5603.000000;0.484672
5602.000000;0.484969
5601.000000;0.485327
5600.000000;0.485665
5599.000000;0.485921
5598.000000;0.486071
5597.000000;0.486133
5596.000000;0.486149
5595.000000;0.486164
5594.000000;0.486209
5593.000000;0.486288
5592.000000;0.486381
5591.000000;0.486470
5590.000000;0.486560
5589.000000;0.486676
5588.000000;0.486825
5587.000000;0.487000
5586.000000;0.487200
5585.000000;0.487435
5584.000000;0.487693
5583.000000;0.487919
5582.000000;0.488054
5581.000000;0.488089
5580.000000;0.488081
5579.000000;0.488111
5578.000000;0.488212
5577.000000;0.488343
5576.000000;0.488431
5575.000000;0.488463
5574.000000;0.488505
5573.000000;0.488618
5572.000000;0.488795
5571.000000;0.488985
5570.000000;0.489181
5569.000000;0.489420
5568.000000;0.489708
5567.000000;0.489994
5566.000000;0.490223
5565.000000;0.490391
5564.000000;0.490524
5563.000000;0.490622
5562.000000;0.490659
5561.000000;0.490625
5560.000000;0.490559
5559.000000;0.490532
5558.000000;0.490585
5557.000000;0.490700
5556.000000;0.490830
5555.000000;0.490966
5554.000000;0.491144
5553.000000;0.491388
5552.000000;0.491661
5551.000000;0.491899
5550.000000;0.492076
5549.000000;0.492218
5548.000000;0.492339
5547.000000;0.492417
5546.000000;0.492416
5545.000000;0.492334
5544.000000;0.492220
5543.000000;0.492146
5542.000000;0.492159
5541.000000;0.492243
5540.000000;0.492342
5539.000000;0.492412
5538.000000;0.492457
5537.000000;0.492503
5536.000000;0.492576
5535.000000;0.492707
5534.000000;0.492925
5533.000000;0.493205
5532.000000;0.493459
5531.000000;0.493609
5530.000000;0.493658
5529.000000;0.493658
5528.000000;0.493641
5527.000000;0.493626
5526.000000;0.493654
5525.000000;0.493775
5524.000000;0.493979
5523.000000;0.494192
5522.000000;0.494351
5521.000000;0.494437
5520.000000;0.494457
5519.000000;0.494412
5518.000000;0.494326
5517.000000;0.494270
5516.000000;0.494310
5515.000000;0.494447
5514.000000;0.494601
5513.000000;0.494685
5512.000000;0.494700
5511.000000;0.494743
5510.000000;0.494914
5509.000000;0.495208
5508.000000;0.495528
5507.000000;0.495802
5506.000000;0.496028
5505.000000;0.496194
5504.000000;0.496237
5503.000000;0.496133
5502.000000;0.495971
5501.000000;0.495872
5500.000000;0.495872
5499.000000;0.495926
5498.000000;0.496014
5497.000000;0.496171
5496.000000;0.496394
5495.000000;0.496618
5494.000000;0.496789
5493.000000;0.496921
5492.000000;0.497043
5491.000000;0.497137
5490.000000;0.497145
5489.000000;0.497093
5488.000000;0.497131
5487.000000;0.497398
5486.000000;0.497830
5485.000000;0.498175
5484.000000;0.498247
5483.000000;0.498126
5482.000000;0.498066
5481.000000;0.498201
5480.000000;0.498429
5479.000000;0.498565
5478.000000;0.498523
5477.000000;0.498349
5476.000000;0.498176
5475.000000;0.498200
5474.000000;0.498570
5473.000000;0.499206
5472.000000;0.499832
5471.000000;0.500277
5470.000000;0.500623
5469.000000;0.500962
5468.000000;0.501145
5467.000000;0.500932
5466.000000;0.500328
5465.000000;0.499626
5464.000000;0.499135
5463.000000;0.499009
5462.000000;0.499252
5461.000000;0.499754
5460.000000;0.500327
5459.000000;0.500786
5458.000000;0.501052
5457.000000;0.501185
5456.000000;0.501318
5455.000000;0.501548
5454.000000;0.501840
5453.000000;0.502029
5452.000000;0.501975
5451.000000;0.501736
5450.000000;0.501521
5449.000000;0.501463
5448.000000;0.501507
5447.000000;0.501553
5446.000000;0.501639
5445.000000;0.501923
5444.000000;0.502464
5443.000000;0.503091
5442.000000;0.503556
5441.000000;0.503786
5440.000000;0.503941
5439.000000;0.504160
5438.000000;0.504340
5437.000000;0.504320
5436.000000;0.504201
5435.000000;0.504309
5434.000000;0.504778
5433.000000;0.505300
5432.000000;0.505426
5431.000000;0.505098
5430.000000;0.504730
5429.000000;0.504803
5428.000000;0.505407
5427.000000;0.506178
5426.000000;0.506653
5425.000000;0.506694
5424.000000;0.506560
5423.000000;0.506592
5422.000000;0.506841
5421.000000;0.507059
5420.000000;0.507058
5419.000000;0.506927
5418.000000;0.506874
5417.000000;0.506975
5416.000000;0.507139
5415.000000;0.507276
5414.000000;0.507425
5413.000000;0.507687
5412.000000;0.508064
5411.000000;0.508479
5410.000000;0.508914
5409.000000;0.509438
5408.000000;0.510059
5407.000000;0.510635
5406.000000;0.511003
5405.000000;0.511183
5404.000000;0.511367
5403.000000;0.511687
5402.000000;0.512049
5401.000000;0.512256
5400.000000;0.512289
5399.000000;0.512355
5398.000000;0.512680
5397.000000;0.513265
5396.000000;0.513893
5395.000000;0.514376
5394.000000;0.514725
5393.000000;0.515122
5392.000000;0.515721
5391.000000;0.516479
5390.000000;0.517268
5389.000000;0.518031
5388.000000;0.518778
5387.000000;0.519474
5386.000000;0.520018
5385.000000;0.520378
5384.000000;0.520628
5383.000000;0.520881
5382.000000;0.521236
5381.000000;0.521772
5380.000000;0.522508
5379.000000;0.523359
5378.000000;0.524162
5377.000000;0.524833
5376.000000;0.525467
5375.000000;0.526179
5374.000000;0.526899
5373.000000;0.527450
5372.000000;0.527823
5371.000000;0.528259
5370.000000;0.529001
5369.000000;0.530029
5368.000000;0.531159
5367.000000;0.532296
5366.000000;0.533443
5365.000000;0.534566
5364.000000;0.535558
5363.000000;0.536385
5362.000000;0.537154
5361.000000;0.538006
5360.000000;0.538998
5359.000000;0.540146
5358.000000;0.541450
5357.000000;0.542803
5356.000000;0.543994
5355.000000;0.544889
5354.000000;0.545607
5353.000000;0.546443
5352.000000;0.547564
5351.000000;0.548904
5350.000000;0.550367
5349.000000;0.552028
5348.000000;0.554003
5347.000000;0.556165
5346.000000;0.558163
5345.000000;0.559774
5344.000000;0.561153
5343.000000;0.562628
5342.000000;0.564246
5341.000000;0.565612
5340.000000;0.566330
5339.000000;0.566572
5338.000000;0.567034
5337.000000;0.568206
5336.000000;0.569813
5335.000000;0.571218
5334.000000;0.572209
5333.000000;0.573109
5332.000000;0.574190
5331.000000;0.575310
5330.000000;0.576218
5329.000000;0.577029
5328.000000;0.578217
5327.000000;0.580212
5326.000000;0.582941
5325.000000;0.585637
5324.000000;0.587271
5323.000000;0.587366
5322.000000;0.586287
5321.000000;0.584617
5320.000000;0.582562
5319.000000;0.580264
5318.000000;0.578259
5317.000000;0.576904
5316.000000;0.575583
5315.000000;0.573222
5314.000000;0.569484
5313.000000;0.564707
5312.000000;0.558829
5311.000000;0.551324
5310.000000;0.542162
5309.000000;0.531858
5308.000000;0.520575
5307.000000;0.507962
5306.000000;0.493577
5305.000000;0.476555
5304.000000;0.455513
5303.000000;0.430177
5302.000000;0.402728
5301.000000;0.376611
5300.000000;0.354760
5299.000000;0.339896
5298.000000;0.335774
5297.000000;0.345790
5296.000000;0.368178
5295.000000;0.395880
5294.000000;0.424696
5293.000000;0.455673
5292.000000;0.487715
5291.000000;0.516856
5290.000000;0.543181
5289.000000;0.569624
5288.000000;0.595586
5287.000000;0.619094
5286.000000;0.642252
5285.000000;0.667310
5284.000000;0.690737
5283.000000;0.708580
5282.000000;0.723717
5281.000000;0.739876
5280.000000;0.753766
5279.000000;0.761365
5278.000000;0.766519
5277.000000;0.774662
5276.000000;0.783260
5275.000000;0.787090
5274.000000;0.787729
5273.000000;0.788998
5272.000000;0.789447
5271.000000;0.788480
5270.000000;0.793472
5269.000000;0.811481
5268.000000;0.837892
5267.000000;0.860891
5266.000000;0.875017
5265.000000;0.881056
5264.000000;0.876716
5263.000000;0.860685
5262.000000;0.841705
5261.000000;0.831599
5260.000000;0.833324
5259.000000;0.842435
5258.000000;0.855160
5257.000000;0.868395
5256.000000;0.876079
5255.000000;0.873996
5254.000000;0.866473
5253.000000;0.861601
5252.000000;0.861878
5251.000000;0.864990
5250.000000;0.869649
5249.000000;0.872570
5248.000000;0.864489
5247.000000;0.842811
5246.000000;0.820500
5245.000000;0.811270
5244.000000;0.817108
5243.000000;0.833192
5242.000000;0.856410
5241.000000;0.882808
5240.000000;0.901263
5239.000000;0.901099
5238.000000;0.885541
5237.000000;0.865323
5236.000000;0.844180
5235.000000;0.822513
5234.000000;0.805860
5233.000000;0.798301
5232.000000;0.794909
5231.000000;0.788804
5230.000000;0.781687
5229.000000;0.780457
5228.000000;0.786571
5227.000000;0.795770
5226.000000;0.805982
5225.000000;0.818180
5224.000000;0.830057
5223.000000;0.836870
5222.000000;0.839058
5221.000000;0.840955
5220.000000;0.843531
5219.000000;0.845077
5218.000000;0.844872
5217.000000;0.840623
5216.000000;0.827996
5215.000000;0.808899
5214.000000;0.794601
5213.000000;0.795077
5212.000000;0.809601
5211.000000;0.830784
5210.000000;0.853620
5209.000000;0.875103
5208.000000;0.888628
5207.000000;0.887635
5206.000000;0.874939
5205.000000;0.861752
5204.000000;0.857208
5203.000000;0.862889
5202.000000;0.874268
5201.000000;0.882181
5200.000000;0.876607
5199.000000;0.857036
5198.000000;0.834845
5197.000000;0.820518
5196.000000;0.815888
5195.000000;0.819928
5194.000000;0.833350
5193.000000;0.852466
5192.000000;0.864826
5191.000000;0.860724
5190.000000;0.846221
5189.000000;0.834775
5188.000000;0.831887
5187.000000;0.835260
5186.000000;0.844214
5185.000000;0.858873
5184.000000;0.871501
5183.000000;0.870295
5182.000000;0.853681
5181.000000;0.830744
5180.000000;0.809491
5179.000000;0.794009
5178.000000;0.787682
5177.000000;0.791476
5176.000000;0.801170
5175.000000;0.810920
5174.000000;0.818823
5173.000000;0.825767
5172.000000;0.830847
5171.000000;0.832628
5170.000000;0.834074
5169.000000;0.839860
5168.000000;0.849240
5167.000000;0.857194
5166.000000;0.861336
5165.000000;0.862861
5164.000000;0.862761
5163.000000;0.862597
5162.000000;0.866850
5161.000000;0.879207
5160.000000;0.897532
5159.000000;0.915765
5158.000000;0.929594
5157.000000;0.936944
5156.000000;0.935100
5155.000000;0.923174
5154.000000;0.906420
5153.000000;0.891314
5152.000000;0.878064
5151.000000;0.863501
5150.000000;0.847502
5149.000000;0.831809
5148.000000;0.816588
5147.000000;0.803049
5146.000000;0.796246
5145.000000;0.800774
5144.000000;0.816448
5143.000000;0.841468
5142.000000;0.876220
5141.000000;0.918095
5140.000000;0.954048
5139.000000;0.968496
5138.000000;0.960594
5137.000000;0.939548
5136.000000;0.909223
5135.000000;0.871432
5134.000000;0.834385
5133.000000;0.808227
5132.000000;0.796925
5131.000000;0.798146
5130.000000;0.808550
5129.000000;0.826186
5128.000000;0.848083
5127.000000;0.868655
5126.000000;0.881943
5125.000000;0.884751
5124.000000;0.877502
5123.000000;0.864231
5122.000000;0.852892
5121.000000;0.850451
5120.000000;0.856253
5119.000000;0.863707
5118.000000;0.867238
5117.000000;0.865005
5116.000000;0.857566
5115.000000;0.847680
5114.000000;0.839766
5113.000000;0.836514
5112.000000;0.837027
5111.000000;0.839783
5110.000000;0.844312
5109.000000;0.847916
5108.000000;0.845440
5107.000000;0.835566
5106.000000;0.823282
5105.000000;0.813481
5104.000000;0.805721
5103.000000;0.798349
5102.000000;0.794261
5101.000000;0.797226
5100.000000;0.806194
5099.000000;0.817177
5098.000000;0.827279
5097.000000;0.833987
5096.000000;0.833760
5095.000000;0.826371
5094.000000;0.817875
5093.000000;0.814044
5092.000000;0.813968
5091.000000;0.814118
5090.000000;0.815582
5089.000000;0.822876
5088.000000;0.838078
5087.000000;0.859194
5086.000000;0.880629
5085.000000;0.892599
5084.000000;0.885060
5083.000000;0.858058
5082.000000;0.823751
5081.000000;0.794764
5080.000000;0.776181
5079.000000;0.769498
5078.000000;0.778555
5077.000000;0.804934
5076.000000;0.839426
5075.000000;0.866093
5074.000000;0.877628
5073.000000;0.879820
5072.000000;0.879226
5071.000000;0.876626
5070.000000;0.873955
5069.000000;0.877086
5068.000000;0.887894
5067.000000;0.899104
5066.000000;0.897542
5065.000000;0.876295
5064.000000;0.844902
5063.000000;0.819989
5062.000000;0.811648
5061.000000;0.819688
5060.000000;0.836681
5059.000000;0.855539
5058.000000;0.874338
5057.000000;0.891336
5056.000000;0.899199
5055.000000;0.891556
5054.000000;0.872534
5053.000000;0.850914
5052.000000;0.829534
5051.000000;0.807388
5050.000000;0.787562
5049.000000;0.777131
5048.000000;0.781208
5047.000000;0.800473
5046.000000;0.831121
5045.000000;0.862946
5044.000000;0.881088
5043.000000;0.877993
5042.000000;0.861508
5041.000000;0.844276
5040.000000;0.831471
5039.000000;0.823186
5038.000000;0.821602
5037.000000;0.828846
5036.000000;0.840375
5035.000000;0.845946
5034.000000;0.838384
5033.000000;0.820185
5032.000000;0.800888
5031.000000;0.790862
5030.000000;0.797247
5029.000000;0.819563
5028.000000;0.847084
5027.000000;0.865307
5026.000000;0.867708
5025.000000;0.857307
5024.000000;0.837597
5023.000000;0.810339
5022.000000;0.781500
5021.000000;0.760480
5020.000000;0.752422
5019.000000;0.755132
5018.000000;0.762319
5017.000000;0.766922
5016.000000;0.765170
5015.000000;0.760035
5014.000000;0.756846
5013.000000;0.756141
5012.000000;0.753130
5011.000000;0.744729
5010.000000;0.735133
5009.000000;0.730438
5008.000000;0.730007
5007.000000;0.727663
5006.000000;0.719922
5005.000000;0.709180
5004.000000;0.699768
5003.000000;0.694520
5002.000000;0.694114
5001.000000;0.697270
5000.000000;0.702621
4999.000000;0.711545
4998.000000;0.726631
4997.000000;0.744782
4996.000000;0.755438
4995.000000;0.751363
4994.000000;0.737591
4993.000000;0.723271
4992.000000;0.710355
4991.000000;0.695871
4990.000000;0.681065
4989.000000;0.672222
4988.000000;0.673527
4987.000000;0.682433
4986.000000;0.690913
4985.000000;0.690798
4984.000000;0.680352
4983.000000;0.666001
4982.000000;0.655796
4981.000000;0.651158
4980.000000;0.646666
4979.000000;0.639225
4978.000000;0.633116
4977.000000;0.631621
4976.000000;0.629404
4975.000000;0.619199
4974.000000;0.602965
4973.000000;0.589624
4972.000000;0.584608
4971.000000;0.587070
4970.000000;0.594559
4969.000000;0.605603
4968.000000;0.617225
4967.000000;0.623457
4966.000000;0.618796
4965.000000;0.602520
4964.000000;0.578875
4963.000000;0.554395
4962.000000;0.534905
4961.000000;0.522499
4960.000000;0.514737
4959.000000;0.508117
4958.000000;0.501915
4957.000000;0.497113
4956.000000;0.493090
4955.000000;0.487480
4954.000000;0.478771
4953.000000;0.467837
4952.000000;0.457197
4951.000000;0.449485
4950.000000;0.445752
4949.000000;0.444280
4948.000000;0.442172
4947.000000;0.439010
4946.000000;0.436932
4945.000000;0.436142
4944.000000;0.433182
4943.000000;0.425532
4942.000000;0.415633
4941.000000;0.407723
4940.000000;0.402722
4939.000000;0.398975
4938.000000;0.395975
4937.000000;0.394052
4936.000000;0.391605
4935.000000;0.385778
4934.000000;0.375776
4933.000000;0.363271
4932.000000;0.350041
4931.000000;0.337358
4930.000000;0.326892
4929.000000;0.319835
4928.000000;0.315322
4927.000000;0.311061
4926.000000;0.304888
4925.000000;0.294975
4924.000000;0.280336
4923.000000;0.262796
4922.000000;0.246892
4921.000000;0.235914
4920.000000;0.229021
4919.000000;0.223465
4918.000000;0.218095
4917.000000;0.212963
4916.000000;0.206846
4915.000000;0.197671
4914.000000;0.185404
4913.000000;0.172638
4912.000000;0.162186
4911.000000;0.155723
4910.000000;0.154041
4909.000000;0.156287
4908.000000;0.159229
4907.000000;0.158863
4906.000000;0.152845
4905.000000;0.141194
4904.000000;0.125763
4903.000000;0.109878
4902.000000;0.097058
4901.000000;0.088312
4900.000000;0.081062
4899.000000;0.072083
4898.000000;0.061393
4897.000000;0.052030
4896.000000;0.046567
4895.000000;0.045309
4894.000000;0.047167
4893.000000;0.050430
4892.000000;0.052757
4891.000000;0.052102
4890.000000;0.048285
4889.000000;0.042867
4888.000000;0.037460
4887.000000;0.032940
4886.000000;0.029968
4885.000000;0.028870
4884.000000;0.028484
4883.000000;0.026105
4882.000000;0.019502
4881.000000;0.008855
4880.000000;-0.003541
4879.000000;-0.014827
4878.000000;-0.022716
4877.000000;-0.026200
4876.000000;-0.026048
4875.000000;-0.024481
4874.000000;-0.023821
4873.000000;-0.025247
4872.000000;-0.028674
4871.000000;-0.033337
4870.000000;-0.038179
4869.000000;-0.041946
4868.000000;-0.043620
4867.000000;-0.043257
4866.000000;-0.042074
4865.000000;-0.041309
4864.000000;-0.041220
4863.000000;-0.041449
4862.000000;-0.041963
4861.000000;-0.042916
4860.000000;-0.043623
4859.000000;-0.042520
4858.000000;-0.038630
4857.000000;-0.032633
4856.000000;-0.026161
4855.000000;-0.020399
4854.000000;-0.015837
4853.000000;-0.012951
4852.000000;-0.012155
4851.000000;-0.012876
4850.000000;-0.013547
4849.000000;-0.013048
4848.000000;-0.011682
4847.000000;-0.010334
4846.000000;-0.009130
4845.000000;-0.007498
4844.000000;-0.005156
4843.000000;-0.002312
4842.000000;0.001103
4841.000000;0.005683
4840.000000;0.011709
4839.000000;0.018430
4838.000000;0.024468
4837.000000;0.028819
4836.000000;0.031444
4835.000000;0.033174
4834.000000;0.035249
4833.000000;0.038645
4832.000000;0.043436
4831.000000;0.048742
4830.000000;0.053393
4829.000000;0.056679
4828.000000;0.058626
4827.000000;0.059829
4826.000000;0.061025
4825.000000;0.062630
4824.000000;0.064486
4823.000000;0.066101
4822.000000;0.067234
4821.000000;0.068324
4820.000000;0.070328
4819.000000;0.073994
4818.000000;0.079137
4817.000000;0.084669
4816.000000;0.089484
4815.000000;0.093310
4814.000000;0.096569
4813.000000;0.099469
4812.000000;0.101709
4811.000000;0.103200
4810.000000;0.104471
4809.000000;0.106068
4808.000000;0.108018
4807.000000;0.110314
4806.000000;0.113378
4805.000000;0.117375
4804.000000;0.121349
4803.000000;0.123954
4802.000000;0.125193
4801.000000;0.126697
4800.000000;0.130065
4799.000000;0.135406
4798.000000;0.141496
4797.000000;0.146844
4796.000000;0.150507
4795.000000;0.152509
4794.000000;0.153786
4793.000000;0.155403
4792.000000;0.157624
4791.000000;0.159929
4790.000000;0.161885
4789.000000;0.163530
4788.000000;0.164868
4787.000000;0.165673
4786.000000;0.166144
4785.000000;0.167272
4784.000000;0.169971
4783.000000;0.174007
4782.000000;0.178260
4781.000000;0.181956
4780.000000;0.185279
4779.000000;0.188753
4778.000000;0.192318
4777.000000;0.195195
4776.000000;0.196736
4775.000000;0.197302
4774.000000;0.198064
4773.000000;0.199868
4772.000000;0.202539
4771.000000;0.205455
4770.000000;0.208485
4769.000000;0.211887
4768.000000;0.215413
4767.000000;0.218177
4766.000000;0.219644
4765.000000;0.220326
4764.000000;0.221171
4763.000000;0.222621
4762.000000;0.224564
4761.000000;0.226905
4760.000000;0.229791
4759.000000;0.233288
4758.000000;0.237024
4757.000000;0.240195
4756.000000;0.242039
4755.000000;0.242507
4754.000000;0.242449
4753.000000;0.242872
4752.000000;0.243942
4751.000000;0.244945
4750.000000;0.245275
4749.000000;0.245207
4748.000000;0.245596
4747.000000;0.247044
4746.000000;0.249481
4745.000000;0.252364
4744.000000;0.255145
4743.000000;0.257697
4742.000000;0.260343
4741.000000;0.263289
4740.000000;0.266027
4739.000000;0.267683
4738.000000;0.268072
4737.000000;0.268033
4736.000000;0.268467
4735.000000;0.269401
4734.000000;0.270292
4733.000000;0.270981
4732.000000;0.271879
4731.000000;0.273330
4730.000000;0.275215
4729.000000;0.277288
4728.000000;0.279605
4727.000000;0.282420
4726.000000;0.285690
4725.000000;0.288802
4724.000000;0.290938
4723.000000;0.291851
4722.000000;0.292245
4721.000000;0.293124
4720.000000;0.294730
4719.000000;0.296283
4718.000000;0.296870
4717.000000;0.296363
4716.000000;0.295281
4715.000000;0.294064
4714.000000;0.292893
4713.000000;0.292112
4712.000000;0.292388
4711.000000;0.294217
4710.000000;0.297421
4709.000000;0.301215
4708.000000;0.304715
4707.000000;0.307385
4706.000000;0.309146
4705.000000;0.310223
4704.000000;0.310922
4703.000000;0.311523
4702.000000;0.312268
4701.000000;0.313295
4700.000000;0.314527
4699.000000;0.315717
4698.000000;0.316669
4697.000000;0.317366
4696.000000;0.317877
4695.000000;0.318271
4694.000000;0.318723
4693.000000;0.319585
4692.000000;0.321130
4691.000000;0.323177
4690.000000;0.325128
4689.000000;0.326513
4688.000000;0.327447
4687.000000;0.328443
4686.000000;0.329754
4685.000000;0.331012
4684.000000;0.331604
4683.000000;0.331377
4682.000000;0.330847
4681.000000;0.330680
4680.000000;0.331080
4679.000000;0.331763
4678.000000;0.332410
4677.000000;0.333012
4676.000000;0.333791
4675.000000;0.334969
4674.000000;0.336646
4673.000000;0.338730
4672.000000;0.340912
4671.000000;0.342773
4670.000000;0.344046
4669.000000;0.344768
4668.000000;0.345172
4667.000000;0.345513
4666.000000;0.345982
4665.000000;0.346683
4664.000000;0.347570
4663.000000;0.348449
4662.000000;0.349131
4661.000000;0.349581
4660.000000;0.349908
4659.000000;0.350220
4658.000000;0.350564
4657.000000;0.351018
4656.000000;0.351746
4655.000000;0.352881
4654.000000;0.354289
4653.000000;0.355545
4652.000000;0.356254
4651.000000;0.356428
4650.000000;0.356456
4649.000000;0.356681
4648.000000;0.357127
4647.000000;0.357680
4646.000000;0.358363
4645.000000;0.359274
4644.000000;0.360307
4643.000000;0.361136
4642.000000;0.361502
4641.000000;0.361447
4640.000000;0.361274
4639.000000;0.361359
4638.000000;0.361956
4637.000000;0.363029
4636.000000;0.364265
4635.000000;0.365338
4634.000000;0.366172
4633.000000;0.366899
4632.000000;0.367628
4631.000000;0.368413
4630.000000;0.369355
4629.000000;0.370552
4628.000000;0.371885
4627.000000;0.373019
4626.000000;0.373663
4625.000000;0.373728
4624.000000;0.373276
4623.000000;0.372515
4622.000000;0.371880
4621.000000;0.371892
4620.000000;0.372762
4619.000000;0.374213
4618.000000;0.375752
4617.000000;0.377026
4616.000000;0.377876
4615.000000;0.378268
4614.000000;0.378322
4613.000000;0.378276
4612.000000;0.378242
4611.000000;0.378061
4610.000000;0.377557
4609.000000;0.376882
4608.000000;0.376441
4607.000000;0.376516
4606.000000;0.377135
4605.000000;0.378250
4604.000000;0.379783
4603.000000;0.381416
4602.000000;0.382581
4601.000000;0.382908
4600.000000;0.382619
4599.000000;0.382288
4598.000000;0.382236
4597.000000;0.382335
4596.000000;0.382401
4595.000000;0.382542
4594.000000;0.382977
4593.000000;0.383659
4592.000000;0.384313
4591.000000;0.384822
4590.000000;0.385382
4589.000000;0.386196
4588.000000;0.387133
4587.000000;0.387788
4586.000000;0.387854
4585.000000;0.387386
4584.000000;0.386755
4583.000000;0.386382
4582.000000;0.386454
4581.000000;0.386858
4580.000000;0.387407
4579.000000;0.388115
4578.000000;0.389135
4577.000000;0.390405
4576.000000;0.391535
4575.000000;0.392187
4574.000000;0.392435
4573.000000;0.392574
4572.000000;0.392630
4571.000000;0.392288
4570.000000;0.391345
4569.000000;0.390083
4568.000000;0.389109
4567.000000;0.388891
4566.000000;0.389479
4565.000000;0.390583
4564.000000;0.391885
4563.000000;0.393257
4562.000000;0.394697
4561.000000;0.396090
4560.000000;0.397154
4559.000000;0.397694
4558.000000;0.397804
4557.000000;0.397707
4556.000000;0.397508
4555.000000;0.397226
4554.000000;0.396953
4553.000000;0.396742
4552.000000;0.396407
4551.000000;0.395704
4550.000000;0.394758
4549.000000;0.394089
4548.000000;0.394090
4547.000000;0.394655
4546.000000;0.395390
4545.000000;0.396031
4544.000000;0.396500
4543.000000;0.396706
4542.000000;0.396548
4541.000000;0.396141
4540.000000;0.395877
4539.000000;0.396195
4538.000000;0.397295
4537.000000;0.399004
4536.000000;0.400802
4535.000000;0.402058
4534.000000;0.402397
4533.000000;0.401933
4532.000000;0.401145
4531.000000;0.400522
4530.000000;0.400310
4529.000000;0.400483
4528.000000;0.400819
4527.000000;0.400987
4526.000000;0.400731
4525.000000;0.400112
4524.000000;0.399564
4523.000000;0.399579
4522.000000;0.400265
4521.000000;0.401267
4520.000000;0.402105
4519.000000;0.402539
4518.000000;0.402552
4517.000000;0.402140
4516.000000;0.401312
4515.000000;0.400327
4514.000000;0.399696
4513.000000;0.399753
4512.000000;0.400280
4511.000000;0.400698
4510.000000;0.400660
4509.000000;0.400386
4508.000000;0.400370
4507.000000;0.400871
4506.000000;0.401729
4505.000000;0.402618
4504.000000;0.403370
4503.000000;0.403970
4502.000000;0.404290
4501.000000;0.403995
4500.000000;0.402886
4499.000000;0.401341
4498.000000;0.400203
4497.000000;0.400101
4496.000000;0.400904
4495.000000;0.401912
4494.000000;0.402530
4493.000000;0.402678
4492.000000;0.402655
4491.000000;0.402760
4490.000000;0.403103
4489.000000;0.403654
4488.000000;0.404321
4487.000000;0.404919
4486.000000;0.405115
4485.000000;0.404530
4484.000000;0.403065
4483.000000;0.401169
4482.000000;0.399622
4481.000000;0.398915
4480.000000;0.398891
4479.000000;0.399044
4478.000000;0.399110
4477.000000;0.399204
4476.000000;0.399463
4475.000000;0.399760
4474.000000;0.399927
4473.000000;0.400138
4472.000000;0.400907
4471.000000;0.402619
4470.000000;0.405044
4469.000000;0.407294
4468.000000;0.408384
4467.000000;0.407995
4466.000000;0.406680
4465.000000;0.405229
4464.000000;0.403903
4463.000000;0.402473
4462.000000;0.400933
4461.000000;0.399819
4460.000000;0.399615
4459.000000;0.400071
4458.000000;0.400484
4457.000000;0.400608
4456.000000;0.400903
4455.000000;0.401741
4454.000000;0.402715
4453.000000;0.403108
4452.000000;0.402902
4451.000000;0.402844
4450.000000;0.403450
4449.000000;0.404286
4448.000000;0.404511
4447.000000;0.403954
4446.000000;0.403349
4445.000000;0.403554
4444.000000;0.404776
4443.000000;0.406531
4442.000000;0.408133
4441.000000;0.409138
4440.000000;0.409504
4439.000000;0.409471
4438.000000;0.409294
4437.000000;0.409063
4436.000000;0.408742
4435.000000;0.408288
4434.000000;0.407632
4433.000000;0.406604
4432.000000;0.405029
4431.000000;0.402997
4430.000000;0.400999
4429.000000;0.399740
4428.000000;0.399751
4427.000000;0.401008
4426.000000;0.402775
4425.000000;0.403915
4424.000000;0.403628
4423.000000;0.402021
4422.000000;0.399973
4421.000000;0.398511
4420.000000;0.398276
4419.000000;0.399287
4418.000000;0.400939
4417.000000;0.402276
4416.000000;0.402514
4415.000000;0.401417
4414.000000;0.399287
4413.000000;0.396883
4412.000000;0.395471
4411.000000;0.396347
4410.000000;0.399653
4409.000000;0.403712
4408.000000;0.406105
4407.000000;0.405625
4406.000000;0.402860
4405.000000;0.399019
4404.000000;0.394977
4403.000000;0.391526
4402.000000;0.389580
4401.000000;0.389522
4400.000000;0.390685
4399.000000;0.391923
4398.000000;0.392583
4397.000000;0.392712
4396.000000;0.392605
4395.000000;0.392489
4394.000000;0.392506
4393.000000;0.392729
4392.000000;0.393241
4391.000000;0.394170
4390.000000;0.395332
4389.000000;0.395821
4388.000000;0.394622
4387.000000;0.391885
4386.000000;0.389016
4385.000000;0.387186
4384.000000;0.386363
4383.000000;0.386181
4382.000000;0.387061
4381.000000;0.389660
4380.000000;0.393507
4379.000000;0.397010
4378.000000;0.398783
4377.000000;0.398408
4376.000000;0.396031
4375.000000;0.392045
4374.000000;0.387342
4373.000000;0.383250
4372.000000;0.380824
4371.000000;0.380248
4370.000000;0.380813
4369.000000;0.381273
4368.000000;0.380430
4367.000000;0.377937
4366.000000;0.374646
4365.000000;0.371778
4364.000000;0.369686
4363.000000;0.367727
4362.000000;0.365320
4361.000000;0.362626
4360.000000;0.360206
4359.000000;0.358453
4358.000000;0.357290
4357.000000;0.356180
4356.000000;0.354595
4355.000000;0.352789
4354.000000;0.351871
4353.000000;0.352596
4352.000000;0.354279
4351.000000;0.355464
4350.000000;0.355585
4349.000000;0.355430
4348.000000;0.355906
4347.000000;0.356936
4346.000000;0.357724
4345.000000;0.357593
4344.000000;0.356363
4343.000000;0.354296
4342.000000;0.351977
4341.000000;0.350081
4340.000000;0.348851
4339.000000;0.347806
4338.000000;0.346192
4337.000000;0.343703
4336.000000;0.340649
4335.000000;0.337492
4334.000000;0.334317
4333.000000;0.330802
4332.000000;0.326645
4331.000000;0.322033
4330.000000;0.317954
4329.000000;0.315945
4328.000000;0.317047
4327.000000;0.320832
4326.000000;0.325452
4325.000000;0.328814
4324.000000;0.329649
4323.000000;0.327380
4322.000000;0.321629
4321.000000;0.312671
4320.000000;0.302421
4319.000000;0.293980
4318.000000;0.289544
4317.000000;0.289133
4316.000000;0.291572
4315.000000;0.295864
4314.000000;0.300749
4313.000000;0.303834
4312.000000;0.303083
4311.000000;0.299248
4310.000000;0.295471
4309.000000;0.294159
4308.000000;0.295182
4307.000000;0.297251
4306.000000;0.299497
4305.000000;0.300711
4304.000000;0.298747
4303.000000;0.292618
4302.000000;0.284496
4301.000000;0.278227
4300.000000;0.276390
4299.000000;0.279486
4298.000000;0.286590
4297.000000;0.295056
4296.000000;0.300987
4295.000000;0.302341
4294.000000;0.300695
4293.000000;0.298802
4292.000000;0.297747
4291.000000;0.297496
4290.000000;0.298867
4289.000000;0.302696
4288.000000;0.307373
4287.000000;0.309626
4286.000000;0.308218
4285.000000;0.305219
4284.000000;0.303547
4283.000000;0.304553
4282.000000;0.307680
4281.000000;0.311350
4280.000000;0.314454
4279.000000;0.317465
4278.000000;0.321184
4277.000000;0.324058
4276.000000;0.322950
4275.000000;0.318178
4274.000000;0.315157
4273.000000;0.318640
4272.000000;0.327497
4271.000000;0.337107
4270.000000;0.345439
4269.000000;0.353827
4268.000000;0.362349
4267.000000;0.368258
4266.000000;0.370069
4265.000000;0.370315
4264.000000;0.372379
4263.000000;0.376312
4262.000000;0.378488
4261.000000;0.375089
4260.000000;0.367066
4259.000000;0.361781
4258.000000;0.368085
4257.000000;0.388277
4256.000000;0.414431
4255.000000;0.435118
4254.000000;0.446752
4253.000000;0.453392
4252.000000;0.456810
4251.000000;0.455165
4250.000000;0.451270
4249.000000;0.453451
4248.000000;0.466553
4247.000000;0.487002
4246.000000;0.507714
4245.000000;0.526214
4244.000000;0.545040
4243.000000;0.565291
4242.000000;0.584556
4241.000000;0.601374
4240.000000;0.616586
4239.000000;0.630217
4238.000000;0.640377
4237.000000;0.645634
4236.000000;0.646523
4235.000000;0.645116
4234.000000;0.645010
4233.000000;0.651303
4232.000000;0.668319
4231.000000;0.695899
4230.000000;0.726394
4229.000000;0.747143
4228.000000;0.750604
4227.000000;0.739758
4226.000000;0.724205
4225.000000;0.712474
4224.000000;0.705899
4223.000000;0.702376
4222.000000;0.702392
4221.000000;0.704125
4220.000000;0.698274
4219.000000;0.677322
4218.000000;0.648446
4217.000000;0.628668
4216.000000;0.629816
4215.000000;0.652904
4214.000000;0.692877
4213.000000;0.745373
4212.000000;0.806867
4211.000000;0.867393
4210.000000;0.909192
4209.000000;0.923243
4208.000000;0.918510
4207.000000;0.910242
4206.000000;0.911358
4205.000000;0.925750
4204.000000;0.945331
4203.000000;0.959207
4202.000000;0.964621
4201.000000;0.963382
4200.000000;0.953530
4199.000000;0.935003
4198.000000;0.919565
4197.000000;0.924231
4196.000000;0.953946
4195.000000;0.991249
4194.000000;1.006121
4193.000000;0.991185
4192.000000;0.973112
4191.000000;0.977911
4190.000000;1.010052
4189.000000;1.054662
4188.000000;1.089472
4187.000000;1.105691
4186.000000;1.110616
4185.000000;1.103957
4184.000000;1.080470
4183.000000;1.054378
4182.000000;1.047208
4181.000000;1.065149
4180.000000;1.104429
4179.000000;1.167735
4178.000000;1.266948
4177.000000;1.409033
4176.000000;1.569464
4175.000000;1.630651
4174.000000;1.494955
4173.000000;1.314907
4172.000000;1.187982
4171.000000;1.135066
4170.000000;1.152820
4169.000000;1.210676
4168.000000;1.251992
4167.000000;1.237570
4166.000000;1.178653
4165.000000;1.110902
4164.000000;1.069076
4163.000000;1.076543
4162.000000;1.151425
4161.000000;1.317141
4160.000000;1.612838
4159.000000;2.134972
4158.000000;2.991343
4157.000000;2.518854
4156.000000;1.892570
4155.000000;1.529620
4154.000000;1.321742
4153.000000;1.204488
4152.000000;1.158982
4151.000000;1.182014
4150.000000;1.280158
4149.000000;1.456463
4148.000000;1.639931
4147.000000;1.637088
4146.000000;1.585917
4145.000000;1.640606
4144.000000;1.844686
4143.000000;1.735911
4142.000000;1.469014
4141.000000;1.333930
4140.000000;1.278969
4139.000000;1.281364
4138.000000;1.340291
4137.000000;1.437261
4136.000000;1.460024
4135.000000;1.374603
4134.000000;1.301570
4133.000000;1.280602
4132.000000;1.314293
4131.000000;1.398792
4130.000000;1.529365
4129.000000;1.673804
4128.000000;1.702013
4127.000000;1.632877
4126.000000;1.609763
4125.000000;1.632512
4124.000000;1.564014
4123.000000;1.409026
4122.000000;1.288598
4121.000000;1.229123
4120.000000;1.225436
4119.000000;1.279606
4118.000000;1.405444
4117.000000;1.610910
4116.000000;1.768634
4115.000000;1.694172
4114.000000;1.616632
4113.000000;1.639165
4112.000000;1.793135
4111.000000;1.870526
4110.000000;1.701502
4109.000000;1.636938
4108.000000;1.673610
4107.000000;1.807729
4106.000000;1.962149
4105.000000;1.835971
4104.000000;1.636297
4103.000000;1.532896
4102.000000;1.508904
4101.000000;1.572159
4100.000000;1.739349
4099.000000;1.934254
4098.000000;1.868831
4097.000000;1.744874
4096.000000;1.711317
4095.000000;1.736739
4094.000000;1.796110
4093.000000;1.862819
4092.000000;1.929983
4091.000000;2.001881
4090.000000;2.120844
4089.000000;2.286129
4088.000000;2.345258
4087.000000;2.535872
4086.000000;2.289573
4085.000000;1.805367
4084.000000;1.587237
4083.000000;1.511291
4082.000000;1.549143
4081.000000;1.653116
4080.000000;1.738177
4079.000000;1.766702
4078.000000;2.082116
4077.000000;2.293932
4076.000000;1.744293
4075.000000;1.556624
4074.000000;1.500836
4073.000000;1.541390
4072.000000;1.692692
4071.000000;1.869136
4070.000000;1.756002
4069.000000;1.625430
4068.000000;1.619159
4067.000000;1.720381
4066.000000;1.798613
4065.000000;1.640825
4064.000000;1.476104
4063.000000;1.354524
4062.000000;1.279002
4061.000000;1.282525
4060.000000;1.389922
4059.000000;1.605664
4058.000000;1.728949
4057.000000;1.599241
4056.000000;1.501690
4055.000000;1.470255
4054.000000;1.498659
4053.000000;1.584637
4052.000000;1.712891
4051.000000;1.789744
4050.000000;1.742255
4049.000000;1.699729
4048.000000;1.723943
4047.000000;1.770624
4046.000000;1.814034
4045.000000;1.879996
4044.000000;1.944972
4043.000000;1.919368
4042.000000;1.794190
4041.000000;1.673466
4040.000000;1.611412
4039.000000;1.587768
4038.000000;1.598171
4037.000000;1.675569
4036.000000;1.914170
4035.000000;2.543105
4034.000000;2.276679
4033.000000;2.046886
4032.000000;1.930739
4031.000000;2.080344
4030.000000;2.554453
4029.000000;1.943460
4028.000000;1.697064
4027.000000;1.605960
4026.000000;1.595304
4025.000000;1.654940
4024.000000;1.911340
4023.000000;2.257248
4022.000000;1.911674
4021.000000;1.746366
4020.000000;1.732626
4019.000000;1.706656
4018.000000;1.640271
4017.000000;1.584449
4016.000000;1.595107
4015.000000;1.677656
4014.000000;1.816011
4013.000000;1.949036
4012.000000;1.969821
4011.000000;1.896612
4010.000000;1.774824
4009.000000;1.646949
4008.000000;1.567590
4007.000000;1.556885
4006.000000;1.580474
4005.000000;1.579192
4004.000000;1.588111
4003.000000;1.675423
4002.000000;1.797782
4001.000000;1.816104
4000.000000;1.806610
3999.000000;1.994643
3998.000000;2.111658
3997.000000;1.765063
3996.000000;1.547342
3995.000000;1.437508
3994.000000;1.385406
3993.000000;1.379417
3992.000000;1.426741
3991.000000;1.542657
3990.000000;1.679746
3989.000000;1.718307
3988.000000;1.724572
3987.000000;1.821245
3986.000000;2.121477
3985.000000;2.217604
3984.000000;1.860725
3983.000000;1.697109
3982.000000;1.671739
3981.000000;1.744077
3980.000000;2.029312
3979.000000;2.277350
3978.000000;1.791023
3977.000000;1.623219
3976.000000;1.622748
3975.000000;1.743003
3974.000000;1.965888
3973.000000;2.246393
3972.000000;2.149383
3971.000000;1.830356
3970.000000;1.699195
3969.000000;1.694229
3968.000000;1.742344
3967.000000;1.759847
3966.000000;1.812924
3965.000000;1.782767
3964.000000;1.606935
3963.000000;1.494678
3962.000000;1.473011
3961.000000;1.515794
3960.000000;1.640855
3959.000000;1.955013
3958.000000;2.038512
3957.000000;1.806774
3956.000000;1.767662
3955.000000;2.018958
3954.000000;2.294660
3953.000000;1.675443
3952.000000;1.441090
3951.000000;1.368017
3950.000000;1.381998
3949.000000;1.428796
3948.000000;1.431509
3947.000000;1.467196
3946.000000;1.580464
3945.000000;1.619887
3944.000000;1.539113
3943.000000;1.538319
3942.000000;1.661293
3941.000000;1.858245
3940.000000;2.277664
3939.000000;2.295631
3938.000000;1.743604
3937.000000;1.514508
3936.000000;1.434446
3935.000000;1.430640
3934.000000;1.462978
3933.000000;1.508476
3932.000000;1.595994
3931.000000;1.693482
3930.000000;1.776057
3929.000000;1.866512
3928.000000;2.114120
3927.000000;2.561337
3926.000000;1.895303
3925.000000;1.608009
3924.000000;1.534122
3923.000000;1.566108
3922.000000;1.691860
3921.000000;1.823267
3920.000000;1.773602
3919.000000;1.643354
3918.000000;1.617152
3917.000000;1.756035
3916.000000;1.979990
3915.000000;1.854935
3914.000000;1.712085
3913.000000;1.714774
3912.000000;1.788019
3911.000000;1.870495
3910.000000;1.891884
3909.000000;1.810925
3908.000000;1.731510
3907.000000;1.691220
3906.000000;1.775029
3905.000000;1.900415
3904.000000;1.653008
3903.000000;1.519781
3902.000000;1.588484
3901.000000;1.807497
3900.000000;2.017902
3899.000000;2.015945
3898.000000;1.999351
3897.000000;2.199864
3896.000000;2.621086
3895.000000;1.937538
3894.000000;1.609803
3893.000000;1.412442
3892.000000;1.279007
3891.000000;1.261017
3890.000000;1.356196
3889.000000;1.651151
3888.000000;2.029160
3887.000000;1.809431
3886.000000;1.700589
3885.000000;1.753916
3884.000000;1.802605
3883.000000;1.789555
3882.000000;1.678090
3881.000000;1.602057
3880.000000;1.598786
3879.000000;1.582253
3878.000000;1.527082
3877.000000;1.483558
3876.000000;1.473929
3875.000000;1.486703
3874.000000;1.518409
3873.000000;1.591642
3872.000000;1.761543
3871.000000;2.209748
3870.000000;2.371038
3869.000000;1.985844
3868.000000;1.865938
3867.000000;1.718824
3866.000000;1.647297
3865.000000;1.705887
3864.000000;1.845650
3863.000000;2.087052
3862.000000;2.171017
3861.000000;1.812829
3860.000000;1.577828
3859.000000;1.532410
3858.000000;1.612671
3857.000000;1.800821
3856.000000;2.123207
3855.000000;2.140261
3854.000000;1.889352
3853.000000;1.822111
3852.000000;1.876332
3851.000000;1.988704
3850.000000;2.094771
3849.000000;1.941588
3848.000000;1.777327
3847.000000;1.710806
3846.000000;1.722831
3845.000000;1.738027
3844.000000;1.933055
3843.000000;2.471050
3842.000000;1.821331
3841.000000;1.509719
3840.000000;1.381766
3839.000000;1.344117
3838.000000;1.312960
3837.000000;1.230675
3836.000000;1.165760
3835.000000;1.220448
3834.000000;1.663567
3833.000000;1.823671
3832.000000;1.428909
3831.000000;1.333799
3830.000000;1.302516
3829.000000;1.331346
3828.000000;1.456510
3827.000000;2.028560
3826.000000;1.772079
3825.000000;1.289210
3824.000000;1.098680
3823.000000;1.034243
3822.000000;1.114562
3821.000000;1.326727
3820.000000;1.571447
3819.000000;1.474072
3818.000000;1.263436
3817.000000;1.219046
3816.000000;1.443346
3815.000000;1.762209
3814.000000;1.422820
3813.000000;1.155032
3812.000000;1.069253
3811.000000;1.119308
3810.000000;1.238050
3809.000000;1.337408
3808.000000;1.369851
3807.000000;1.341564
3806.000000;1.326265
3805.000000;1.324770
3804.000000;1.330238
3803.000000;1.344441
3802.000000;1.363487
3801.000000;1.384825
3800.000000;1.400829
3799.000000;1.366467
3798.000000;1.162071
3797.000000;0.988406
3796.000000;0.946386
3795.000000;0.970341
3794.000000;1.048077
3793.000000;1.221026
3792.000000;1.483583
3791.000000;1.726357
3790.000000;1.924946
3789.000000;1.853660
3788.000000;1.545199
3787.000000;1.352324
3786.000000;1.255161
3785.000000;1.231277
3784.000000;1.277848
3783.000000;1.400961
3782.000000;1.578175
3781.000000;1.594209
3780.000000;1.542259
3779.000000;1.589410
3778.000000;1.791569
3777.000000;2.017680
3776.000000;1.526059
3775.000000;1.249618
3774.000000;1.212547
3773.000000;1.282582
3772.000000;1.415481
3771.000000;1.546406
3770.000000;1.614168
3769.000000;1.641748
3768.000000;1.657989
3767.000000;1.716519
3766.000000;1.750369
3765.000000;1.618603
3764.000000;1.502954
3763.000000;1.451946
3762.000000;1.419499
3761.000000;1.386843
3760.000000;1.358443
3759.000000;1.341283
3758.000000;1.322123
3757.000000;1.304064
3756.000000;1.303921
3755.000000;1.301616
3754.000000;1.283835
3753.000000;1.300767
3752.000000;1.345773
3751.000000;1.325547
3750.000000;1.249175
3749.000000;1.187363
3748.000000;1.193330
3747.000000;1.344332
3746.000000;1.475699
3745.000000;1.426300
3744.000000;1.456088
3743.000000;1.566411
3742.000000;1.687016
3741.000000;1.775904
3740.000000;1.813955
3739.000000;1.774776
3738.000000;1.657697
3737.000000;1.555796
3736.000000;1.556016
3735.000000;1.710292
3734.000000;1.863882
3733.000000;1.754030
3732.000000;1.655020
3731.000000;1.682596
3730.000000;1.809630
3729.000000;2.005515
3728.000000;1.982322
3727.000000;1.729169
3726.000000;1.599268
3725.000000;1.564805
3724.000000;1.570540
3723.000000;1.630875
3722.000000;1.747887
3721.000000;1.921101
3720.000000;1.876464
3719.000000;1.527977
3718.000000;1.269708
3717.000000;1.134565
3716.000000;1.084301
3715.000000;1.104913
3714.000000;1.191726
3713.000000;1.325074
3712.000000;1.450812
3711.000000;1.524407
3710.000000;1.552595
3709.000000;1.567948
3708.000000;1.551329
3707.000000;1.440219
3706.000000;1.289369
3705.000000;1.188581
3704.000000;1.151029
3703.000000;1.159615
3702.000000;1.205518
3701.000000;1.282430
3700.000000;1.373510
3699.000000;1.451418
3698.000000;1.526423
3697.000000;1.633251
3696.000000;1.725295
3695.000000;1.691863
3694.000000;1.537098
3693.000000;1.367386
3692.000000;1.238683
3691.000000;1.152672
3690.000000;1.097369
3689.000000;1.056623
3688.000000;1.022195
3687.000000;1.012408
3686.000000;1.083942
3685.000000;1.256669
3684.000000;1.470116
3683.000000;1.670937
3682.000000;1.843739
3681.000000;1.863962
3680.000000;1.695613
3679.000000;1.548649
3678.000000;1.495523
3677.000000;1.528184
3676.000000;1.619350
3675.000000;1.891306
3674.000000;2.264567
3673.000000;1.753913
3672.000000;1.520654
3671.000000;1.570397
3670.000000;1.718451
3669.000000;1.942712
3668.000000;2.271880
3667.000000;2.265252
3666.000000;2.390972
3665.000000;2.533947
3664.000000;2.110977
3663.000000;1.876988
3662.000000;1.832587
3661.000000;1.824375
3660.000000;1.640335
3659.000000;1.485977
3658.000000;1.464282
3657.000000;1.537119
3656.000000;1.611877
3655.000000;1.656070
3654.000000;1.716387
3653.000000;1.819403
3652.000000;1.950307
3651.000000;1.931513
3650.000000;1.802275
3649.000000;1.734084
3648.000000;1.730445
3647.000000;1.773676
3646.000000;2.064526
3645.000000;2.171066
3644.000000;1.924615
3643.000000;1.975781
3642.000000;2.025940
3641.000000;1.845576
3640.000000;1.657966
3639.000000;1.567891
3638.000000;1.552368
3637.000000;1.582441
3636.000000;1.679470
3635.000000;1.800610
3634.000000;1.740448
3633.000000;1.641794
3632.000000;1.604878
3631.000000;1.605760
3630.000000;1.663154
3629.000000;1.713294
3628.000000;1.736600
3627.000000;1.764381
3626.000000;1.783970
3625.000000;1.853251
3624.000000;2.130511
3623.000000;2.665079
3622.000000;2.167205
3621.000000;2.129140
3620.000000;2.474530
3619.000000;1.949979
3618.000000;1.592131
3617.000000;1.441342
3616.000000;1.400513
3615.000000;1.464862
3614.000000;1.607651
3613.000000;1.745057
3612.000000;1.788676
3611.000000;1.864598
3610.000000;1.938657
3609.000000;1.967013
3608.000000;2.112745
3607.000000;2.154466
3606.000000;2.058663
3605.000000;2.000364
3604.000000;1.946189
3603.000000;1.865351
3602.000000;1.797995
3601.000000;1.687230
3600.000000;1.548200
3599.000000;1.474606
3598.000000;1.399914
3597.000000;1.359053
3596.000000;1.440108
3595.000000;1.613604
3594.000000;1.636122
3593.000000;1.664911
3592.000000;2.108570
3591.000000;1.875444
3590.000000;1.509949
3589.000000;1.466657
3588.000000;1.516866
3587.000000;1.632828
3586.000000;1.805932
3585.000000;2.000190
3584.000000;2.204810
3583.000000;2.494031
3582.000000;2.455317
3581.000000;2.200781
3580.000000;1.819999
3579.000000;1.464892
3578.000000;1.262195
3577.000000;1.168633
3576.000000;1.149665
3575.000000;1.181197
3574.000000;1.238105
3573.000000;1.320883
3572.000000;1.462693
3571.000000;1.768443
3570.000000;2.292571
3569.000000;2.215271
3568.000000;1.978852
3567.000000;1.806837
3566.000000;1.645205
3565.000000;1.517277
3564.000000;1.388840
3563.000000;1.277853
3562.000000;1.206496
3561.000000;1.188974
3560.000000;1.255516
3559.000000;1.441694
3558.000000;1.828116
3557.000000;2.125082
3556.000000;1.794007
3555.000000;1.640209
3554.000000;1.662750
3553.000000;1.724575
3552.000000;1.613221
3551.000000;1.424755
3550.000000;1.297462
3549.000000;1.256185
3548.000000;1.308543
3547.000000;1.424170
3546.000000;1.488626
3545.000000;1.445665
3544.000000;1.373757
3543.000000;1.336901
3542.000000;1.369641
3541.000000;1.473726
3540.000000;1.887555
3539.000000;2.080760
3538.000000;1.570357
3537.000000;1.455118
3536.000000;1.468067
3535.000000;1.485014
3534.000000;1.412622
3533.000000;1.275742
3532.000000;1.214249
3531.000000;1.232771
3530.000000;1.404740
3529.000000;1.914734
3528.000000;1.547841
3527.000000;1.239116
3526.000000;1.171875
3525.000000;1.210596
3524.000000;1.422243
3523.000000;1.698425
3522.000000;1.482561
3521.000000;1.242393
3520.000000;1.129392
3519.000000;1.125635
3518.000000;1.253711
3517.000000;1.670255
3516.000000;1.939652
3515.000000;1.513802
3514.000000;1.481042
3513.000000;1.532538
3512.000000;1.607607
3511.000000;1.648832
3510.000000;1.583292
3509.000000;1.433942
3508.000000;1.320964
3507.000000;1.333960
3506.000000;1.516864
3505.000000;2.061873
3504.000000;1.967732
3503.000000;1.678583
3502.000000;1.663411
3501.000000;1.740021
3500.000000;1.814712
3499.000000;1.946557
3498.000000;2.325270
3497.000000;1.996234
3496.000000;1.797591
3495.000000;1.905977
3494.000000;2.163345
3493.000000;2.102820
3492.000000;1.949003
3491.000000;2.107455
3490.000000;2.123068
3489.000000;1.743067
3488.000000;1.654425
3487.000000;1.711204
3486.000000;1.836772
3485.000000;1.917488
3484.000000;1.714759
3483.000000;1.573371
3482.000000;1.542786
3481.000000;1.542509
3480.000000;1.577592
3479.000000;1.636426
3478.000000;1.650007
3477.000000;1.641991
3476.000000;1.656355
3475.000000;1.566797
3474.000000;1.398413
3473.000000;1.283965
3472.000000;1.248653
3471.000000;1.266011
3470.000000;1.309576
3469.000000;1.394440
3468.000000;1.574466
3467.000000;1.862243
3466.000000;1.858089
3465.000000;1.652909
3464.000000;1.544877
3463.000000;1.474756
3462.000000;1.417640
3461.000000;1.379141
3460.000000;1.385959
3459.000000;1.466836
3458.000000;1.632641
3457.000000;1.895537
3456.000000;2.293459
3455.000000;2.219026
3454.000000;1.908234
3453.000000;1.757786
3452.000000;1.699142
3451.000000;1.744449
3450.000000;1.826807
3449.000000;1.824739
3448.000000;1.746958
3447.000000;1.629522
3446.000000;1.531064
3445.000000;1.475274
3444.000000;1.433663
3443.000000;1.412888
3442.000000;1.447854
3441.000000;1.542980
3440.000000;1.676774
3439.000000;1.856353
3438.000000;1.957032
3437.000000;1.901813
3436.000000;1.946878
3435.000000;1.869342
3434.000000;1.637189
3433.000000;1.459990
3432.000000;1.325202
3431.000000;1.243164
3430.000000;1.235836
3429.000000;1.306599
3428.000000;1.432751
3427.000000;1.530547
3426.000000;1.487109
3425.000000;1.407405
3424.000000;1.388140
3423.000000;1.412123
3422.000000;1.442017
3421.000000;1.453513
3420.000000;1.451313
3419.000000;1.466188
3418.000000;1.533220
3417.000000;1.641217
3416.000000;1.680987
3415.000000;1.568046
3414.000000;1.411393
3413.000000;1.315876
3412.000000;1.302555
3411.000000;1.329133
3410.000000;1.338034
3409.000000;1.349852
3408.000000;1.391323
3407.000000;1.421648
3406.000000;1.419121
3405.000000;1.423803
3404.000000;1.485841
3403.000000;1.580710
3402.000000;1.548285
3401.000000;1.454576
3400.000000;1.418362
3399.000000;1.430909
3398.000000;1.500049
3397.000000;1.644696
3396.000000;1.785388
3395.000000;1.847324
3394.000000;2.150691
3393.000000;2.051046
3392.000000;1.632091
3391.000000;1.468345
3390.000000;1.433227
3389.000000;1.460092
3388.000000;1.478813
3387.000000;1.476241
3386.000000;1.482041
3385.000000;1.486503
3384.000000;1.465761
3383.000000;1.398116
3382.000000;1.314722
3381.000000;1.290333
3380.000000;1.373936
3379.000000;1.552104
3378.000000;1.942379
3377.000000;2.235030
3376.000000;1.812000
3375.000000;1.746127
3374.000000;1.916409
3373.000000;2.184278
3372.000000;2.171869
3371.000000;2.017746
3370.000000;1.899936
3369.000000;1.844927
3368.000000;2.030995
3367.000000;2.417111
3366.000000;1.855471
3365.000000;1.620382
3364.000000;1.526920
3363.000000;1.542039
3362.000000;1.622086
3361.000000;1.453703
3360.000000;1.286465
3359.000000;1.247695
3358.000000;1.307265
3357.000000;1.443434
3356.000000;1.647639
3355.000000;1.972273
3354.000000;2.428496
3353.000000;2.607631
3352.000000;2.162097
3351.000000;1.715596
3350.000000;1.494310
3349.000000;1.384826
3348.000000;1.337029
3347.000000;1.329699
3346.000000;1.347621
3345.000000;1.335949
3344.000000;1.294540
3343.000000;1.298610
3342.000000;1.371102
3341.000000;1.480446
3340.000000;1.606779
3339.000000;1.723115
3338.000000;1.698694
3337.000000;1.607575
3336.000000;1.574507
3335.000000;1.608131
3334.000000;1.598831
3333.000000;1.427204
3332.000000;1.260158
3331.000000;1.176162
3330.000000;1.171514
3329.000000;1.233921
3328.000000;1.352917
3327.000000;1.548496
3326.000000;1.668365
3325.000000;1.545794
3324.000000;1.498600
3323.000000;1.681466
3322.000000;1.978917
3321.000000;1.583465
3320.000000;1.312152
3319.000000;1.229589
3318.000000;1.250918
3317.000000;1.366147
3316.000000;1.539935
3315.000000;1.695405
3314.000000;1.753423
3313.000000;1.798065
3312.000000;1.725761
3311.000000;1.565167
3310.000000;1.497742
3309.000000;1.538098
3308.000000;1.678043
3307.000000;1.839462
3306.000000;1.702742
3305.000000;1.483097
3304.000000;1.351628
3303.000000;1.329457
3302.000000;1.445966
3301.000000;1.668107
3300.000000;1.682143
3299.000000;1.548439
3298.000000;1.496950
3297.000000;1.500470
3296.000000;1.699259
3295.000000;1.959651
3294.000000;1.532795
3293.000000;1.275524
3292.000000;1.188537
3291.000000;1.179442
3290.000000;1.230325
3289.000000;1.329603
3288.000000;1.484318
3287.000000;1.608081
3286.000000;1.482806
3285.000000;1.335867
3284.000000;1.282299
3283.000000;1.314081
3282.000000;1.441298
3281.000000;1.773302
3280.000000;2.128019
3279.000000;1.573539
3278.000000;1.461809
3277.000000;1.471822
3276.000000;1.477588
3275.000000;1.361337
3274.000000;1.240533
3273.000000;1.175220
3272.000000;1.161880
3271.000000;1.165432
3270.000000;1.137214
3269.000000;1.090073
3268.000000;1.068196
3267.000000;1.084226
3266.000000;1.131043
3265.000000;1.200364
3264.000000;1.289316
3263.000000;1.384514
3262.000000;1.457795
3261.000000;1.517849
3260.000000;1.502481
3259.000000;1.364949
3258.000000;1.249274
3257.000000;1.209406
3256.000000;1.225465
3255.000000;1.243631
3254.000000;1.217891
3253.000000;1.177559
3252.000000;1.187370
3251.000000;1.288837
3250.000000;1.546509
3249.000000;2.002479
3248.000000;1.845966
3247.000000;1.681896
3246.000000;1.784760
3245.000000;2.099534
3244.000000;1.887280
3243.000000;1.560412
3242.000000;1.396361
3241.000000;1.279288
3240.000000;1.276748
3239.000000;1.377774
3238.000000;1.917869
3237.000000;1.924411
3236.000000;1.465769
3235.000000;1.339275
3234.000000;1.298357
3233.000000;1.314099
3232.000000;1.342439
3231.000000;1.403226
3230.000000;1.558616
3229.000000;2.128598
3228.000000;1.659920
3227.000000;1.379638
3226.000000;1.307097
3225.000000;1.385307
3224.000000;1.742698
3223.000000;2.201147
3222.000000;1.542387
3221.000000;1.411794
3220.000000;1.309977
3219.000000;1.288936
3218.000000;1.340729
3217.000000;1.393655
3216.000000;1.359284
3215.000000;1.376361
3214.000000;1.509004
3213.000000;1.897730
3212.000000;2.258029
3211.000000;1.733456
3210.000000;1.497500
3209.000000;1.420988
3208.000000;1.423141
3207.000000;1.487572
3206.000000;1.648007
3205.000000;1.889831
3204.000000;1.732965
3203.000000;1.548502
3202.000000;1.501980
3201.000000;1.606452
3200.000000;1.871500
3199.000000;1.688041
3198.000000;1.409442
3197.000000;1.258677
3196.000000;1.186856
3195.000000;1.174723
3194.000000;1.226345
3193.000000;1.352002
3192.000000;1.662019
3191.000000;1.884548
3190.000000;1.566422
3189.000000;1.490401
3188.000000;1.597867
3187.000000;1.877937
3186.000000;1.730141
3185.000000;1.548457
3184.000000;1.547617
3183.000000;1.603164
3182.000000;1.700894
3181.000000;1.853558
3180.000000;1.611784
3179.000000;1.390189
3178.000000;1.323759
3177.000000;1.362109
3176.000000;1.471371
3175.000000;1.547167
3174.000000;1.548202
3173.000000;1.638743
3172.000000;1.979661
3171.000000;2.049714
3170.000000;1.757680
3169.000000;1.864140
3168.000000;2.292676
3167.000000;1.914763
3166.000000;1.653832
3165.000000;1.745883
3164.000000;2.159631
3163.000000;1.782117
3162.000000;1.456527
3161.000000;1.417403
3160.000000;1.500972
3159.000000;1.792407
3158.000000;1.914179
3157.000000;1.608852
3156.000000;1.460879
3155.000000;1.455420
3154.000000;1.554356
3153.000000;1.673127
3152.000000;1.547894
3151.000000;1.369177
3150.000000;1.288282
3149.000000;1.332333
3148.000000;1.568727
3147.000000;1.982346
3146.000000;1.463027
3145.000000;1.329787
3144.000000;1.386179
3143.000000;1.595614
3142.000000;1.594769
3141.000000;1.395274
3140.000000;1.266678
3139.000000;1.186347
3138.000000;1.173617
3137.000000;1.224704
3136.000000;1.353800
3135.000000;1.538058
3134.000000;2.096461
3133.000000;2.264268
3132.000000;1.771943
3131.000000;1.824974
3130.000000;2.256872
3129.000000;1.858675
3128.000000;1.524576
3127.000000;1.414528
3126.000000;1.418296
3125.000000;1.565688
3124.000000;2.026481
3123.000000;1.682677
3122.000000;1.409741
3121.000000;1.303172
3120.000000;1.270576
3119.000000;1.308314
3118.000000;1.475272
3117.000000;1.607696
3116.000000;1.309868
3115.000000;1.181049
3114.000000;1.216302
3113.000000;1.484975
3112.000000;1.770424
3111.000000;1.385126
3110.000000;1.193662
3109.000000;1.119384
3108.000000;1.148789
3107.000000;1.272550
3106.000000;1.584026
3105.000000;1.649823
3104.000000;1.377451
3103.000000;1.272741
3102.000000;1.284754
3101.000000;1.454895
3100.000000;1.812720
3099.000000;1.419142
3098.000000;1.199149
3097.000000;1.159129
3096.000000;1.180992
3095.000000;1.233344
3094.000000;1.308057
3093.000000;1.378692
3092.000000;1.391322
3091.000000;1.378250
3090.000000;1.391320
3089.000000;1.447894
3088.000000;1.656812
3087.000000;2.095130
3086.000000;1.627615
3085.000000;1.369609
3084.000000;1.298235
3083.000000;1.278633
3082.000000;1.273690
3081.000000;1.299527
3080.000000;1.382002
3079.000000;1.439051
3078.000000;1.386768
3077.000000;1.325766
3076.000000;1.325000
3075.000000;1.413312
3074.000000;1.735128
3073.000000;2.115065
3072.000000;1.624187
3071.000000;1.431596
3070.000000;1.375256
3069.000000;1.366824
3068.000000;1.399712
3067.000000;1.425685
3066.000000;1.358815
3065.000000;1.254351
3064.000000;1.208507
3063.000000;1.249504
3062.000000;1.392234
3061.000000;1.706874
3060.000000;1.903577
3059.000000;1.614152
3058.000000;1.516469
3057.000000;1.466978
3056.000000;1.445691
3055.000000;1.483333
3054.000000;1.560243
3053.000000;1.489990
3052.000000;1.355535
3051.000000;1.304597
3050.000000;1.353430
3049.000000;1.520986
3048.000000;1.928296
3047.000000;1.736756
3046.000000;1.445662
3045.000000;1.321098
3044.000000;1.244994
3043.000000;1.229059
3042.000000;1.278540
3041.000000;1.315701
3040.000000;1.253325
3039.000000;1.205529
3038.000000;1.245419
3037.000000;1.435574
3036.000000;1.814849
3035.000000;1.543295
3034.000000;1.270325
3033.000000;1.159060
3032.000000;1.133077
3031.000000;1.165312
3030.000000;1.212400
3029.000000;1.233383
3028.000000;1.240396
3027.000000;1.278862
3026.000000;1.375039
3025.000000;1.468113
3024.000000;1.438790
3023.000000;1.365185
3022.000000;1.335299
3021.000000;1.364744
3020.000000;1.430931
3019.000000;1.459792
3018.000000;1.427453
3017.000000;1.359440
3016.000000;1.303311
3015.000000;1.313431
3014.000000;1.435427
3013.000000;1.571358
3012.000000;1.391584
3011.000000;1.270065
3010.000000;1.313456
3009.000000;1.539637
3008.000000;1.820276
3007.000000;1.540921
3006.000000;1.270730
3005.000000;1.129036
3004.000000;1.105141
3003.000000;1.173923
3002.000000;1.497417
3001.000000;1.829251
3000.000000;1.283759
2999.000000;1.056274
2998.000000;1.005500
2997.000000;1.082327
2996.000000;1.350345
2995.000000;1.529145
2994.000000;1.232178
2993.000000;1.045743
2992.000000;0.996018
2991.000000;1.056718
2990.000000;1.296341
2989.000000;1.912754
2988.000000;1.322283
2987.000000;1.099299
2986.000000;1.080802
2985.000000;1.193914
2984.000000;1.487567
2983.000000;1.477840
2982.000000;1.186373
2981.000000;1.073403
2980.000000;1.078637
2979.000000;1.188296
2978.000000;1.438780
2977.000000;1.891118
2976.000000;1.777503
2975.000000;1.503417
2974.000000;1.489982
2973.000000;1.520616
2972.000000;1.449068
2971.000000;1.343337
2970.000000;1.296131
2969.000000;1.279481
2968.000000;1.266894
2967.000000;1.274674
2966.000000;1.330683
2965.000000;1.401224
2964.000000;1.426081
2963.000000;1.449175
2962.000000;1.543721
2961.000000;1.562277
2960.000000;1.366605
2959.000000;1.264809
2958.000000;1.341984
2957.000000;1.589807
2956.000000;1.624897
2955.000000;1.469624
2954.000000;1.450379
2953.000000;1.481600
2952.000000;1.553839
2951.000000;1.555819
2950.000000;1.351491
2949.000000;1.181562
2948.000000;1.113812
2947.000000;1.112424
2946.000000;1.135515
2945.000000;1.179417
2944.000000;1.254912
2943.000000;1.292871
2942.000000;1.275355
2941.000000;1.282040
2940.000000;1.313233
2939.000000;1.294811
2938.000000;1.211069
2937.000000;1.123869
2936.000000;1.065315
2935.000000;1.033921
2934.000000;1.022219
2933.000000;1.031979
2932.000000;1.075907
2931.000000;1.149134
2930.000000;1.190803
2929.000000;1.164015
2928.000000;1.118858
2927.000000;1.100274
2926.000000;1.133801
2925.000000;1.234784
2924.000000;1.398890
2923.000000;1.646269
2922.000000;1.925727
2921.000000;1.858605
2920.000000;2.044989
2919.000000;2.199811
2918.000000;1.679464
2917.000000;1.500450
2916.000000;1.457382
2915.000000;1.454711
2914.000000;1.459404
2913.000000;1.454616
2912.000000;1.482178
2911.000000;1.575732
2910.000000;1.557934
2909.000000;1.415114
2908.000000;1.349103
2907.000000;1.360467
2906.000000;1.384802
2905.000000;1.356098
2904.000000;1.302117
2903.000000;1.282775
2902.000000;1.329652
2901.000000;1.429216
2900.000000;1.731828
2899.000000;2.206854
2898.000000;1.562742
2897.000000;1.281024
2896.000000;1.167426
2895.000000;1.156511
2894.000000;1.229669
2893.000000;1.335530
2892.000000;1.409214
2891.000000;1.403139
2890.000000;1.397191
2889.000000;1.442083
2888.000000;1.510640
2887.000000;1.526338
2886.000000;1.551691
2885.000000;1.872622
2884.000000;1.880919
2883.000000;1.505741
2882.000000;1.443274
2881.000000;1.654071
2880.000000;1.915970
2879.000000;1.635159
2878.000000;1.531711
2877.000000;1.656897
2876.000000;1.907901
2875.000000;2.270704
2874.000000;2.163547
2873.000000;1.567964
2872.000000;1.351462
2871.000000;1.506732
2870.000000;1.919305
2869.000000;1.441341
2868.000000;1.164475
2867.000000;1.034286
2866.000000;0.942108
2865.000000;0.921976
2864.000000;0.980919
2863.000000;1.129517
2862.000000;1.157690
2861.000000;1.072303
2860.000000;1.060316
2859.000000;1.209349
2858.000000;1.801659
2857.000000;1.394416
2856.000000;1.067563
2855.000000;1.007228
2854.000000;1.015711
2853.000000;1.077002
2852.000000;1.148924
2851.000000;1.237116
2850.000000;1.342302
2849.000000;1.464116
2848.000000;1.676358
2847.000000;1.872092
2846.000000;1.604142
2845.000000;1.421810
2844.000000;1.400931
2843.000000;1.531468
2842.000000;1.793491
2841.000000;1.760984
2840.000000;1.557447
2839.000000;1.426261
2838.000000;1.352144
2837.000000;1.384499
2836.000000;1.489013
2835.000000;1.493477
2834.000000;1.401686
2833.000000;1.357896
2832.000000;1.397972
2831.000000;1.519539
2830.000000;1.659352
2829.000000;1.605117
2828.000000;1.483499
2827.000000;1.470440
2826.000000;1.611861
2825.000000;1.881224
2824.000000;1.849904
2823.000000;1.707647
2822.000000;1.683969
2821.000000;1.675591
2820.000000;1.637891
2819.000000;1.576447
2818.000000;1.535937
2817.000000;1.549878
2816.000000;1.598989
2815.000000;1.619600
2814.000000;1.578970
2813.000000;1.512328
2812.000000;1.433720
2811.000000;1.341404
2810.000000;1.254922
2809.000000;1.208976
2808.000000;1.223604
2807.000000;1.272617
2806.000000;1.319273
2805.000000;1.409152
2804.000000;1.749887
2803.000000;1.974787
2802.000000;1.470254
2801.000000;1.270209
2800.000000;1.261803
2799.000000;1.327894
2798.000000;1.341237
2797.000000;1.314688
2796.000000;1.365522
2795.000000;1.514257
2794.000000;1.751525
2793.000000;2.149395
2792.000000;2.115631
2791.000000;1.586206
2790.000000;1.355089
2789.000000;1.282973
2788.000000;1.342549
2787.000000;1.782981
2786.000000;2.117356
2785.000000;1.596357
2784.000000;1.569510
2783.000000;1.616744
2782.000000;1.606923
2781.000000;1.594728
2780.000000;1.628982
2779.000000;1.585370
2778.000000;1.411026
2777.000000;1.317768
2776.000000;1.323991
2775.000000;1.403440
2774.000000;1.490064
2773.000000;1.496364
2772.000000;1.413765
2771.000000;1.311288
2770.000000;1.230903
2769.000000;1.164859
2768.000000;1.098124
2767.000000;1.062556
2766.000000;1.106865
2765.000000;1.238266
2764.000000;1.557082
2763.000000;1.736105
2762.000000;1.334614
2761.000000;1.137292
2760.000000;1.064911
2759.000000;1.082197
2758.000000;1.163909
2757.000000;1.202698
2756.000000;1.144042
2755.000000;1.048390
2754.000000;1.010052
2753.000000;1.058275
2752.000000;1.229707
2751.000000;1.467730
2750.000000;1.404055
2749.000000;1.264124
2748.000000;1.192533
2747.000000;1.124748
2746.000000;1.094938
2745.000000;1.104579
2744.000000;1.100754
2743.000000;1.058100
2742.000000;1.035760
2741.000000;1.068488
2740.000000;1.096116
2739.000000;1.053026
2738.000000;1.015706
2737.000000;1.052761
2736.000000;1.157586
2735.000000;1.267676
2734.000000;1.283829
2733.000000;1.239781
2732.000000;1.232523
2731.000000;1.269880
2730.000000;1.296015
2729.000000;1.279981
2728.000000;1.267569
2727.000000;1.327017
2726.000000;1.407515
2725.000000;1.354841
2724.000000;1.269812
2723.000000;1.235433
2722.000000;1.235153
2721.000000;1.282600
2720.000000;1.424816
2719.000000;1.638734
2718.000000;1.745137
2717.000000;1.846161
2716.000000;1.815159
2715.000000;1.585860
2714.000000;1.481399
2713.000000;1.453459
2712.000000;1.397000
2711.000000;1.366023
2710.000000;1.436211
2709.000000;1.722519
2708.000000;2.211749
2707.000000;1.851920
2706.000000;1.510971
2705.000000;1.311619
2704.000000;1.182796
2703.000000;1.120416
2702.000000;1.081799
2701.000000;1.056222
2700.000000;1.044489
2699.000000;1.085932
2698.000000;1.181553
2697.000000;1.329659
2696.000000;1.706616
2695.000000;1.672522
2694.000000;1.283429
2693.000000;1.143767
2692.000000;1.094178
2691.000000;1.080237
2690.000000;1.113858
2689.000000;1.235896
2688.000000;1.486407
2687.000000;1.639537
2686.000000;1.789774
2685.000000;1.996184
2684.000000;1.686495
2683.000000;1.747856
2682.000000;1.689985
2681.000000;1.325724
2680.000000;1.162430
2679.000000;1.135283
2678.000000;1.208061
2677.000000;1.299128
2676.000000;1.319291
2675.000000;1.346124
2674.000000;1.410282
2673.000000;1.483213
2672.000000;1.713687
2671.000000;1.673001
2670.000000;1.366123
2669.000000;1.271880
2668.000000;1.224786
2667.000000;1.085456
2666.000000;0.955381
2665.000000;0.905560
2664.000000;0.959509
2663.000000;1.098883
2662.000000;1.377721
2661.000000;1.927278
2660.000000;1.662745
2659.000000;1.381254
2658.000000;1.286229
2657.000000;1.177981
2656.000000;1.069262
2655.000000;0.993133
2654.000000;0.982596
2653.000000;1.042562
2652.000000;1.171101
2651.000000;1.309208
2650.000000;1.313539
2649.000000;1.229599
2648.000000;1.187250
2647.000000;1.189807
2646.000000;1.200320
2645.000000;1.199192
2644.000000;1.186609
2643.000000;1.183969
2642.000000;1.217190
2641.000000;1.324435
2640.000000;1.481274
2639.000000;1.443689
2638.000000;1.318964
2637.000000;1.294418
2636.000000;1.284811
2635.000000;1.212017
2634.000000;1.172123
2633.000000;1.221857
2632.000000;1.388859
2631.000000;1.680489
2630.000000;1.561227
2629.000000;1.295679
2628.000000;1.214746
2627.000000;1.178244
2626.000000;1.089290
2625.000000;1.004394
2624.000000;0.982579
2623.000000;1.021138
2622.000000;1.105779
2621.000000;1.215418
2620.000000;1.289996
2619.000000;1.288308
2618.000000;1.241846
2617.000000;1.176698
2616.000000;1.097355
2615.000000;1.022087
2614.000000;0.971862
2613.000000;0.950727
2612.000000;0.962217
2611.000000;1.019098
2610.000000;1.150910
2609.000000;1.346031
2608.000000;1.423137
2607.000000;1.416238
2606.000000;1.512005
2605.000000;1.602647
2604.000000;1.503392
2603.000000;1.357244
2602.000000;1.286282
2601.000000;1.299718
2600.000000;1.360031
2599.000000;1.541775
2598.000000;1.891994
2597.000000;1.622046
2596.000000;1.291505
2595.000000;1.133202
2594.000000;1.040850
2593.000000;1.018027
2592.000000;1.022734
2591.000000;1.050634
2590.000000;1.054942
2589.000000;1.068955
2588.000000;1.109116
2587.000000;1.299128
2586.000000;1.882884
2585.000000;1.361505
2584.000000;1.040285
2583.000000;0.931686
2582.000000;0.880530
2581.000000;0.876360
2580.000000;0.869065
2579.000000;0.851603
2578.000000;0.834370
2577.000000;0.872815
2576.000000;0.981471
2575.000000;1.371510
2574.000000;1.608913
2573.000000;1.109891
2572.000000;1.012583
2571.000000;1.047539
2570.000000;1.150571
2569.000000;1.275830
2568.000000;1.302240
2567.000000;1.272023
2566.000000;1.227974
2565.000000;1.229936
2564.000000;1.278390
2563.000000;1.374937
2562.000000;1.620175
2561.000000;2.190759
2560.000000;2.383415
2559.000000;2.209784
2558.000000;1.614444
2557.000000;1.349250
2556.000000;1.287382
2555.000000;1.297698
2554.000000;1.362364
2553.000000;1.387841
2552.000000;1.301702
2551.000000;1.187987
2550.000000;1.134668
2549.000000;1.156125
2548.000000;1.268385
2547.000000;1.447186
2546.000000;1.603231
2545.000000;1.575054
2544.000000;1.401229
2543.000000;1.276606
2542.000000;1.189420
2541.000000;1.110116
2540.000000;1.095996
2539.000000;1.168488
2538.000000;1.367006
2537.000000;1.579976
2536.000000;1.310640
2535.000000;1.043928
2534.000000;0.910566
2533.000000;0.875460
2532.000000;0.951147
2531.000000;1.168586
2530.000000;1.363550
2529.000000;1.285490
2528.000000;1.296027
2527.000000;1.474665
2526.000000;1.637294
2525.000000;1.451108
2524.000000;1.225281
2523.000000;1.086882
2522.000000;1.004791
2521.000000;0.982908
2520.000000;1.029913
2519.000000;1.159383
2518.000000;1.246770
2517.000000;1.227691
2516.000000;1.244334
2515.000000;1.200693
2514.000000;1.105328
2513.000000;1.070505
2512.000000;1.091309
2511.000000;1.138059
2510.000000;1.205338
2509.000000;1.227319
2508.000000;1.192406
2507.000000;1.157037
2506.000000;1.260555
2505.000000;1.716356
2504.000000;1.625379
2503.000000;1.326989
2502.000000;1.251470
2501.000000;1.197675
2500.000000;1.174712
2499.000000;1.157589
2498.000000;1.130361
2497.000000;1.123236
2496.000000;1.186716
2495.000000;1.370822
2494.000000;1.586662
2493.000000;1.515185
2492.000000;1.349316
2491.000000;1.202391
2490.000000;1.073068
2489.000000;0.990367
2488.000000;0.947427
2487.000000;0.919652
2486.000000;0.893357
2485.000000;0.879174
2484.000000;0.883383
2483.000000;0.904667
2482.000000;0.927855
2481.000000;0.965648
2480.000000;1.066292
2479.000000;1.286235
2478.000000;1.752996
2477.000000;1.942794
2476.000000;1.586482
2475.000000;1.482387
2474.000000;1.479286
2473.000000;1.587409
2472.000000;1.608630
2471.000000;1.317611
2470.000000;1.120241
2469.000000;1.039284
2468.000000;1.043318
2467.000000;1.128121
2466.000000;1.298177
2465.000000;1.480814
2464.000000;1.376304
2463.000000;1.171338
2462.000000;1.094710
2461.000000;1.141687
2460.000000;1.403138
2459.000000;1.865543
2458.000000;1.484190
2457.000000;1.269894
2456.000000;1.315664
2455.000000;1.478215
2454.000000;1.582962
2453.000000;1.511165
2452.000000;1.490637
2451.000000;1.577672
2450.000000;1.594051
2449.000000;1.444635
2448.000000;1.333814
2447.000000;1.293009
2446.000000;1.317758
2445.000000;1.495183
2444.000000;1.728426
2443.000000;1.577586
2442.000000;1.504013
2441.000000;1.621879
2440.000000;1.771709
2439.000000;1.690309
2438.000000;1.510365
2437.000000;1.476514
2436.000000;1.431099
2435.000000;1.302625
2434.000000;1.258593
2433.000000;1.380799
2432.000000;1.859781
2431.000000;1.767184
2430.000000;1.444773
2429.000000;1.413580
2428.000000;1.434368
2427.000000;1.545416
2426.000000;1.576693
2425.000000;1.401001
2424.000000;1.388182
2423.000000;1.732187
2422.000000;1.714052
2421.000000;1.396570
2420.000000;1.343271
2419.000000;1.313230
2418.000000;1.239920
2417.000000;1.173534
2416.000000;1.098914
2415.000000;1.017789
2414.000000;0.978834
2413.000000;1.011613
2412.000000;1.094975
2411.000000;1.178122
2410.000000;1.230684
2409.000000;1.260854
2408.000000;1.281477
2407.000000;1.275341
2406.000000;1.198537
2405.000000;1.073651
2404.000000;0.962910
2403.000000;0.893965
2402.000000;0.874110
2401.000000;0.898922
2400.000000;0.951021
2399.000000;1.035221
2398.000000;1.162497
2397.000000;1.268148
2396.000000;1.362816
2395.000000;1.698578
2394.000000;2.326957
2393.000000;1.792087
2392.000000;1.421887
2391.000000;1.198709
2390.000000;1.154853
2389.000000;1.229290
2388.000000;1.390904
2387.000000;1.569593
2386.000000;1.432317
2385.000000;1.251916
2384.000000;1.203034
2383.000000;1.270246
2382.000000;1.380061
2381.000000;1.308181
2380.000000;1.183282
2379.000000;1.136372
2378.000000;1.112696
2377.000000;1.116020
2376.000000;1.190869
2375.000000;1.319561
2374.000000;1.333279
2373.000000;1.226002
2372.000000;1.129326
2371.000000;1.052947
2370.000000;0.997070
2369.000000;0.986694
2368.000000;1.041735
2367.000000;1.110747
2366.000000;1.107707
2365.000000;1.065234
2364.000000;1.019178
2363.000000;1.032635
2362.000000;1.117950
2361.000000;1.406511
2360.000000;1.796292
2359.000000;1.111455
2358.000000;0.804096
2357.000000;0.677860
2356.000000;0.669891
2355.000000;0.751132
2354.000000;0.883017
2353.000000;1.031764
2352.000000;1.123879
2351.000000;1.078827
2350.000000;1.003646
2349.000000;0.968326
2348.000000;1.003936
2347.000000;1.355467
2346.000000;0.980983
2345.000000;0.787448
2344.000000;0.827453
2343.000000;0.919589
2342.000000;1.017207
2341.000000;1.213706
2340.000000;1.641140
2339.000000;1.043308
2338.000000;0.804164
2337.000000;0.754253
2336.000000;0.815679
2335.000000;1.008371
2334.000000;1.413101
2333.000000;1.476760
2332.000000;1.107697
2331.000000;0.912482
2330.000000;0.788355
2329.000000;0.741100
2328.000000;0.777810
2327.000000;0.898087
2326.000000;1.194177
2325.000000;1.167343
2324.000000;0.898367
2323.000000;0.831108
2322.000000;0.855705
2321.000000;0.949824
2320.000000;1.210713
2319.000000;1.284138
2318.000000;0.977932
2317.000000;0.818203
2316.000000;0.790009
2315.000000;0.857197
2314.000000;1.074234
2313.000000;1.574439
2312.000000;1.409529
2311.000000;1.251481
2310.000000;1.306569
2309.000000;1.323772
2308.000000;1.225177
2307.000000;1.164655
2306.000000;1.317437
2305.000000;1.544287
2304.000000;1.253521
2303.000000;1.104667
2302.000000;1.146245
2301.000000;1.256224
2300.000000;1.170485
2299.000000;1.021798
2298.000000;1.004081
2297.000000;1.104210
2296.000000;1.289073
2295.000000;1.277080
2294.000000;1.101572
2293.000000;0.981706
2292.000000;0.937648
2291.000000;0.980304
2290.000000;1.094891
2289.000000;1.263946
2288.000000;1.532905
2287.000000;1.482132
2286.000000;1.309276
2285.000000;1.189242
2284.000000;1.074468
2283.000000;1.059700
2282.000000;1.188986
2281.000000;1.470768
2280.000000;1.782272
2279.000000;1.784927
2278.000000;1.482601
2277.000000;1.247155
2276.000000;1.123584
2275.000000;1.068404
2274.000000;1.061339
2273.000000;1.023049
2272.000000;0.927837
2271.000000;0.863550
2270.000000;0.882559
2269.000000;0.996077
2268.000000;1.319401
2267.000000;1.758806
2266.000000;1.317596
2265.000000;1.196371
2264.000000;1.314909
2263.000000;1.433904
2262.000000;1.287738
2261.000000;1.140323
2260.000000;1.118704
2259.000000;1.197016
2258.000000;1.210857
2257.000000;1.090405
2256.000000;1.031797
2255.000000;1.036550
2254.000000;1.031779
2253.000000;1.035865
2252.000000;1.047886
2251.000000;1.041023
2250.000000;1.089780
2249.000000;1.203855
2248.000000;1.229338
2247.000000;1.148303
2246.000000;1.121843
2245.000000;1.194543
2244.000000;1.339306
2243.000000;1.432640
2242.000000;1.397456
2241.000000;1.436617
2240.000000;1.333632
2239.000000;1.113911
2238.000000;1.014466
2237.000000;1.020791
2236.000000;1.132379
2235.000000;1.425724
2234.000000;2.165648
2233.000000;1.390617
2232.000000;1.143223
2231.000000;1.023110
2230.000000;0.974514
2229.000000;0.968826
2228.000000;0.968270
2227.000000;0.937222
2226.000000;0.900781
2225.000000;0.908718
2224.000000;0.980185
2223.000000;1.142370
2222.000000;1.309982
2221.000000;1.171056
2220.000000;0.994169
2219.000000;0.900028
2218.000000;0.840808
2217.000000;0.825318
2216.000000;0.856792
2215.000000;0.901123
2214.000000;0.926610
2213.000000;0.949610
2212.000000;0.994939
2211.000000;1.080448
2210.000000;1.103176
2209.000000;0.968990
2208.000000;0.854385
2207.000000;0.832630
2206.000000;0.924832
2205.000000;1.176856
2204.000000;1.683403
2203.000000;1.454147
2202.000000;1.149016
2201.000000;1.032949
2200.000000;1.043118
2199.000000;1.080588
2198.000000;1.056590
2197.000000;1.062024
2196.000000;1.236571
2195.000000;1.472250
2194.000000;1.292997
2193.000000;1.149221
2192.000000;1.111604
2191.000000;1.095194
2190.000000;1.029882
2189.000000;0.944956
2188.000000;0.947232
2187.000000;1.084543
2186.000000;1.468818
2185.000000;1.917409
2184.000000;1.409551
2183.000000;1.171717
2182.000000;1.097473
2181.000000;1.164663
2180.000000;1.500503
2179.000000;1.725790
2178.000000;1.203632
2177.000000;1.047838
2176.000000;0.988268
2175.000000;0.978816
2174.000000;1.021815
2173.000000;1.158541
2172.000000;1.288287
2171.000000;1.183766
2170.000000;1.074597
2169.000000;1.092793
2168.000000;1.187896
2167.000000;1.664171
2166.000000;1.748315
2165.000000;1.120385
2164.000000;0.930502
2163.000000;0.845081
2162.000000;0.885341
2161.000000;1.021669
2160.000000;1.527275
2159.000000;1.566168
2158.000000;1.122255
2157.000000;0.976357
2156.000000;0.948725
2155.000000;1.006363
2154.000000;1.119149
2153.000000;1.267501
2152.000000;1.425469
2151.000000;1.378600
2150.000000;1.358076
2149.000000;1.621848
2148.000000;1.872682
2147.000000;1.342676
2146.000000;1.133550
2145.000000;0.968146
2144.000000;0.865864
2143.000000;0.833157
2142.000000;0.866377
2141.000000;0.934480
2140.000000;1.023203
2139.000000;1.147054
2138.000000;1.272903
2137.000000;1.364673
2136.000000;1.523467
2135.000000;1.838780
2134.000000;1.810094
2133.000000;1.573926
2132.000000;1.388634
2131.000000;1.227708
2130.000000;1.120250
2129.000000;1.067194
2128.000000;1.055031
2127.000000;1.074608
2126.000000;1.137520
2125.000000;1.238655
2124.000000;1.230492
2123.000000;1.100632
2122.000000;1.021665
2121.000000;1.008905
2120.000000;1.005818
2119.000000;0.944849
2118.000000;0.875862
2117.000000;0.867142
2116.000000;0.945066
2115.000000;1.115617
2114.000000;1.529708
2113.000000;1.491898
2112.000000;1.089553
2111.000000;0.966247
2110.000000;0.938992
2109.000000;1.002641
2108.000000;1.113476
2107.000000;1.118037
2106.000000;0.989253
2105.000000;0.921762
2104.000000;0.945458
2103.000000;0.978848
2102.000000;0.969973
2101.000000;0.974759
2100.000000;1.018463
2099.000000;1.106032
2098.000000;1.237755
2097.000000;1.243539
2096.000000;1.082938
2095.000000;0.977299
2094.000000;0.929863
2093.000000;0.896120
2092.000000;0.858723
2091.000000;0.847000
2090.000000;0.892584
2089.000000;0.983862
2088.000000;1.050019
2087.000000;1.062007
2086.000000;1.081203
2085.000000;1.170170
2084.000000;1.228297
2083.000000;1.154529
2082.000000;1.120393
2081.000000;1.181468
2080.000000;1.372693
2079.000000;1.539409
2078.000000;1.467166
2077.000000;1.494281
2076.000000;1.619453
2075.000000;1.533234
2074.000000;1.323315
2073.000000;1.199094
2072.000000;1.135717
2071.000000;1.123782
2070.000000;1.232875
2069.000000;1.613067
2068.000000;1.485042
2067.000000;1.136510
2066.000000;1.038014
2065.000000;1.046427
2064.000000;1.154669
2063.000000;1.348524
2062.000000;1.492190
2061.000000;1.605490
2060.000000;1.926186
2059.000000;1.720910
2058.000000;1.324032
2057.000000;1.092570
2056.000000;0.971087
2055.000000;0.938504
2054.000000;0.955712
2053.000000;0.974984
2052.000000;0.960300
2051.000000;0.946616
2050.000000;0.979055
2049.000000;1.049060
2048.000000;1.070948
2047.000000;1.050602
2046.000000;1.106075
2045.000000;1.312957
2044.000000;1.682983
2043.000000;1.356770
2042.000000;1.072466
2041.000000;0.884951
2040.000000;0.762229
2039.000000;0.713224
2038.000000;0.753896
2037.000000;0.884236
2036.000000;1.075493
2035.000000;1.246661
2034.000000;1.347898
2033.000000;1.379695
2032.000000;1.516250
2031.000000;1.576714
2030.000000;1.080307
2029.000000;0.778396
2028.000000;0.651958
2027.000000;0.621079
2026.000000;0.648652
2025.000000;0.714073
2024.000000;0.822560
2023.000000;0.972311
2022.000000;1.118931
2021.000000;1.177164
2020.000000;1.172455
2019.000000;1.243090
2018.000000;1.456118
2017.000000;1.129543
2016.000000;0.893609
2015.000000;0.844920
2014.000000;0.929080
2013.000000;1.092473
2012.000000;1.223990
2011.000000;1.433166
2010.000000;1.672336
2009.000000;1.255105
2008.000000;1.037954
2007.000000;0.986145
2006.000000;1.034677
2005.000000;1.218279
2004.000000;1.350200
2003.000000;1.012449
2002.000000;0.789227
2001.000000;0.748082
2000.000000;0.853866
1999.000000;1.141879
1998.000000;1.705260
1997.000000;1.425688
1996.000000;1.234125
1995.000000;1.272202
1994.000000;1.527617
1993.000000;1.362832
1992.000000;1.065545
1991.000000;0.971562
1990.000000;1.007643
1989.000000;1.149487
1988.000000;1.408636
1987.000000;1.496402
1986.000000;1.225516
1985.000000;1.126535
1984.000000;1.177561
1983.000000;1.362654
1982.000000;1.694976
1981.000000;1.566479
1980.000000;1.189991
1979.000000;1.036668
1978.000000;1.005399
1977.000000;1.057248
1976.000000;1.155415
1975.000000;1.288201
1974.000000;1.427340
1973.000000;1.230502
1972.000000;0.997170
1971.000000;0.933542
1970.000000;1.018438
1969.000000;1.442813
1968.000000;1.375836
1967.000000;1.031709
1966.000000;0.932361
1965.000000;0.914312
1964.000000;0.917345
1963.000000;1.026426
1962.000000;1.319522
1961.000000;1.110628
1960.000000;0.919293
1959.000000;0.901346
1958.000000;0.937611
1957.000000;1.002251
1956.000000;1.115495
1955.000000;1.166082
1954.000000;1.102791
1953.000000;1.090709
1952.000000;1.159425
1951.000000;1.527121
1950.000000;1.769812
1949.000000;1.333713
1948.000000;1.312087
1947.000000;1.476552
1946.000000;1.507772
1945.000000;1.524073
1944.000000;2.133064
1943.000000;1.760114
1942.000000;1.295246
1941.000000;1.038558
1940.000000;0.856310
1939.000000;0.776838
1938.000000;0.790408
1937.000000;0.867310
1936.000000;0.979466
1935.000000;1.252565
1934.000000;1.537747
1933.000000;0.998677
1932.000000;0.803061
1931.000000;0.752471
1930.000000;0.814696
1929.000000;0.988618
1928.000000;1.302544
1927.000000;1.803106
1926.000000;1.600054
1925.000000;1.259658
1924.000000;1.245300
1923.000000;1.363291
1922.000000;1.168733
1921.000000;0.981279
1920.000000;0.907878
1919.000000;0.832127
1918.000000;0.778088
1917.000000;0.785181
1916.000000;0.837691
1915.000000;0.852329
1914.000000;0.860348
1913.000000;0.987112
1912.000000;1.317348
1911.000000;1.344106
1910.000000;1.089190
1909.000000;1.000414
1908.000000;1.044766
1907.000000;1.331108
1906.000000;1.317189
1905.000000;0.841157
1904.000000;0.652253
1903.000000;0.593363
1902.000000;0.642592
1901.000000;0.812118
1900.000000;1.092852
1899.000000;1.076915
1898.000000;0.866867
1897.000000;0.812527
1896.000000;0.871547
1895.000000;1.078546
1894.000000;1.272277
1893.000000;1.013259
1892.000000;0.786541
1891.000000;0.691901
1890.000000;0.679333
1889.000000;0.736122
1888.000000;0.825675
1887.000000;0.867370
1886.000000;0.878053
1885.000000;0.952872
1884.000000;1.098518
1883.000000;1.189797
1882.000000;1.092159
1881.000000;0.943461
1880.000000;0.845348
1879.000000;0.790387
1878.000000;0.759833
1877.000000;0.759314
1876.000000;0.794851
1875.000000;0.832781
1874.000000;0.830895
1873.000000;0.824452
1872.000000;0.876441
1871.000000;1.031662
1870.000000;1.202654
1869.000000;1.129488
1868.000000;0.972155
1867.000000;0.855665
1866.000000;0.801436
1865.000000;0.845976
1864.000000;0.970934
1863.000000;1.164277
1862.000000;1.309843
1861.000000;1.150069
1860.000000;1.057091
1859.000000;1.104546
1858.000000;1.191718
1857.000000;1.262674
1856.000000;1.123902
1855.000000;0.940505
1854.000000;0.880237
1853.000000;0.918615
1852.000000;0.979878
1851.000000;0.986191
1850.000000;0.965878
1849.000000;0.985354
1848.000000;1.079833
1847.000000;1.113570
1846.000000;0.960491
1845.000000;0.798681
1844.000000;0.684647
1843.000000;0.626455
1842.000000;0.649577
1841.000000;0.765794
1840.000000;0.992144
1839.000000;1.449828
1838.000000;1.492757
1837.000000;1.266807
1836.000000;1.331620
1835.000000;1.169538
1834.000000;0.896975
1833.000000;0.757866
1832.000000;0.711613
1831.000000;0.710506
1830.000000;0.718299
1829.000000;0.729240
1828.000000;0.751637
1827.000000;0.765895
1826.000000;0.731774
1825.000000;0.699087
1824.000000;0.724419
1823.000000;0.820889
1822.000000;1.247438
1821.000000;1.386630
1820.000000;0.890721
1819.000000;0.878548
1818.000000;0.927623
1817.000000;0.878086
1816.000000;0.754175
1815.000000;0.660121
1814.000000;0.625920
1813.000000;0.622620
1812.000000;0.643394
1811.000000;0.668252
1810.000000;0.718105
1809.000000;0.767422
1808.000000;0.809431
1807.000000;0.857555
1806.000000;1.010082
1805.000000;1.516507
1804.000000;1.146058
1803.000000;0.811524
1802.000000;0.733901
1801.000000;0.755871
1800.000000;0.905818
1799.000000;1.334167
1798.000000;1.231134
1797.000000;0.914847
1796.000000;0.948284
1795.000000;1.250340
1794.000000;1.317359
1793.000000;0.884733
1792.000000;0.687583
1791.000000;0.621851
1790.000000;0.607910
1789.000000;0.621057
1788.000000;0.678716
1787.000000;0.818568
1786.000000;0.927655
1785.000000;1.034137
1784.000000;1.816680
1783.000000;1.294206
1782.000000;0.851639
1781.000000;0.766870
1780.000000;0.760339
1779.000000;0.836655
1778.000000;0.923989
1777.000000;0.967004
1776.000000;0.939199
1775.000000;0.882693
1774.000000;0.855248
1773.000000;0.844152
1772.000000;0.842809
1771.000000;0.882163
1770.000000;0.961544
1769.000000;1.061536
1768.000000;1.022773
1767.000000;0.865373
1766.000000;0.814194
1765.000000;0.860917
1764.000000;0.975567
1763.000000;1.228646
1762.000000;1.328255
1761.000000;1.012347
1760.000000;0.813125
1759.000000;0.755818
1758.000000;0.820796
1757.000000;1.145997
1756.000000;1.500985
1755.000000;1.029190
1754.000000;0.803104
1753.000000;0.773111
1752.000000;0.878313
1751.000000;1.242229
1750.000000;1.716218
1749.000000;1.101771
1748.000000;0.859092
1747.000000;0.819860
1746.000000;0.947267
1745.000000;1.285271
1744.000000;1.273903
1743.000000;1.108775
1742.000000;1.137804
1741.000000;1.184345
1740.000000;1.368675
1739.000000;1.392639
1738.000000;0.921817
1737.000000;0.668107
1736.000000;0.566640
1735.000000;0.565737
1734.000000;0.625733
1733.000000;0.706955
1732.000000;0.803825
1731.000000;0.859172
1730.000000;0.907429
1729.000000;1.152364
1728.000000;1.351588
1727.000000;1.052893
1726.000000;0.927187
1725.000000;0.935128
1724.000000;0.943326
1723.000000;0.917553
1722.000000;0.895452
1721.000000;0.890453
1720.000000;0.804051
1719.000000;0.674164
1718.000000;0.609362
1717.000000;0.621461
1716.000000;0.695889
1715.000000;0.812053
1714.000000;0.926695
1713.000000;0.972597
1712.000000;0.975359
1711.000000;0.992608
1710.000000;1.001689
1709.000000;1.151501
1708.000000;1.220168
1707.000000;0.858877
1706.000000;0.660896
1705.000000;0.661835
1704.000000;0.829983
1703.000000;1.105589
1702.000000;1.160822
1701.000000;1.078181
1700.000000;0.973072
1699.000000;0.846760
1698.000000;0.792509
1697.000000;0.794977
1696.000000;0.805007
1695.000000;0.805027
1694.000000;0.751536
1693.000000;0.689884
1692.000000;0.712769
1691.000000;0.931272
1690.000000;1.446126
1689.000000;1.271761
1688.000000;0.913810
1687.000000;0.769763
1686.000000;0.752400
1685.000000;0.891111
1684.000000;1.181630
1683.000000;1.270162
1682.000000;0.979437
1681.000000;0.772567
1680.000000;0.728189
1679.000000;0.805211
1678.000000;0.872083
1677.000000;0.846853
1676.000000;0.803194
1675.000000;0.799651
1674.000000;0.813438
1673.000000;0.783698
1672.000000;0.733046
1671.000000;0.784830
1670.000000;0.895058
1669.000000;0.806805
1668.000000;0.672307
1667.000000;0.631250
1666.000000;0.702167
1665.000000;0.972274
1664.000000;1.079547
1663.000000;0.759207
1662.000000;0.610306
1661.000000;0.574504
1660.000000;0.593513
1659.000000;0.620341
1658.000000;0.608988
1657.000000;0.586585
1656.000000;0.594037
1655.000000;0.658971
1654.000000;0.747715
1653.000000;0.765361
1652.000000;0.765059
1651.000000;0.852532
1650.000000;0.822012
1649.000000;0.688300
1648.000000;0.693721
1647.000000;0.808675
1646.000000;1.079456
1645.000000;1.391185
1644.000000;0.933441
1643.000000;0.647322
1642.000000;0.586013
1641.000000;0.659416
1640.000000;1.029769
1639.000000;1.624359
1638.000000;0.991270
1637.000000;0.903857
1636.000000;0.968120
1635.000000;1.133837
1634.000000;1.631413
1633.000000;1.246844
1632.000000;0.891066
1631.000000;0.733338
1630.000000;0.691083
1629.000000;0.728041
1628.000000;0.772318
1627.000000;0.745061
1626.000000;0.699826
1625.000000;0.710366
1624.000000;0.787202
1623.000000;1.049029
1622.000000;1.518577
1621.000000;1.222232
1620.000000;0.954472
1619.000000;0.796688
1618.000000;0.703852
1617.000000;0.663305
1616.000000;0.645981
1615.000000;0.690290
1614.000000;0.818351
1613.000000;0.994477
1612.000000;0.997976
1611.000000;0.925159
1610.000000;0.994668
1609.000000;1.289537
1608.000000;1.267817
1607.000000;0.965141
1606.000000;0.852431
1605.000000;0.758286
1604.000000;0.727180
1603.000000;0.815355
1602.000000;1.023926
1601.000000;1.235360
1600.000000;1.007950
1599.000000;0.738455
1598.000000;0.600976
1597.000000;0.562699
1596.000000;0.602421
1595.000000;0.676068
1594.000000;0.727225
1593.000000;0.773749
1592.000000;0.847768
1591.000000;0.868923
1590.000000;0.812530
1589.000000;0.757806
1588.000000;0.723074
1587.000000;0.708449
1586.000000;0.701289
1585.000000;0.712755
1584.000000;0.779748
1583.000000;0.970520
1582.000000;1.411802
1581.000000;1.398699
1580.000000;1.038631
1579.000000;0.883392
1578.000000;0.764600
1577.000000;0.719704
1576.000000;0.777654
1575.000000;0.928040
1574.000000;1.124832
1573.000000;1.138837
1572.000000;1.018181
1571.000000;0.966952
1570.000000;1.034427
1569.000000;1.172672
1568.000000;1.124546
1567.000000;0.959122
1566.000000;0.841208
1565.000000;0.766000
1564.000000;0.748316
1563.000000;0.779050
1562.000000;0.833091
1561.000000;0.885399
1560.000000;0.898025
1559.000000;0.878160
1558.000000;0.983642
1557.000000;1.412151
1556.000000;1.794586
1555.000000;0.983695
1554.000000;0.632086
1553.000000;0.525977
1552.000000;0.507536
1551.000000;0.514906
1550.000000;0.529201
1549.000000;0.570759
1548.000000;0.662931
1547.000000;0.793834
1546.000000;1.036070
1545.000000;1.098492
1544.000000;0.760391
1543.000000;0.547217
1542.000000;0.474742
1541.000000;0.505622
1540.000000;0.536423
1539.000000;0.516392
1538.000000;0.542721
1537.000000;0.672925
1536.000000;0.813827
1535.000000;0.782137
1534.000000;0.747382
1533.000000;0.781896
1532.000000;0.873305
1531.000000;1.020483
1530.000000;1.059595
1529.000000;0.983543
1528.000000;0.864431
1527.000000;0.790881
1526.000000;0.867354
1525.000000;1.015592
1524.000000;0.951075
1523.000000;0.766490
1522.000000;0.677432
1521.000000;0.733355
1520.000000;0.813210
1519.000000;0.713330
1518.000000;0.509380
1517.000000;0.381921
1516.000000;0.360717
1515.000000;0.453221
1514.000000;0.699115
1513.000000;0.694004
1512.000000;0.450658
1511.000000;0.333103
1510.000000;0.295544
1509.000000;0.309255
1508.000000;0.339636
1507.000000;0.347257
1506.000000;0.326893
1505.000000;0.341880
1504.000000;0.445198
1503.000000;0.877210
1502.000000;1.425877
1501.000000;0.784363
1500.000000;0.727928
1499.000000;0.820070
1498.000000;0.915991
1497.000000;0.901327
1496.000000;0.784142
1495.000000;0.770646
1494.000000;0.861178
1493.000000;1.045698
1492.000000;1.081494
1491.000000;1.006714
1490.000000;1.065594
1489.000000;1.027104
1488.000000;0.779492
1487.000000;0.637025
1486.000000;0.543946
1485.000000;0.476316
1484.000000;0.508452
1483.000000;0.654740
1482.000000;0.872491
1481.000000;1.029837
1480.000000;1.297987
1479.000000;1.766016
1478.000000;1.313076
1477.000000;1.101939
1476.000000;0.985764
1475.000000;0.936489
1474.000000;0.922381
1473.000000;1.167191
1472.000000;1.590760
1471.000000;0.970154
1470.000000;0.736609
1469.000000;0.649313
1468.000000;0.628450
1467.000000;0.683428
1466.000000;0.792825
1465.000000;0.930378
1464.000000;1.001290
1463.000000;1.006949
1462.000000;0.908887
1461.000000;0.760979
1460.000000;0.663926
1459.000000;0.607559
1458.000000;0.576618
1457.000000;0.551801
1456.000000;0.587395
1455.000000;0.642346
1454.000000;0.456217
1453.000000;0.310592
1452.000000;0.296035
1451.000000;0.339449
1450.000000;0.407372
1449.000000;0.488331
1448.000000;0.608054
1447.000000;0.729856
1446.000000;0.827081
1445.000000;0.873057
1444.000000;0.765331
1443.000000;0.665622
1442.000000;0.685558
1441.000000;0.876616
1440.000000;1.096748
1439.000000;1.053550
1438.000000;1.061126
1437.000000;1.114907
1436.000000;1.015109
1435.000000;1.080243
1434.000000;1.702976
1433.000000;1.274019
1432.000000;0.878059
1431.000000;0.690482
1430.000000;0.552873
1429.000000;0.517885
1428.000000;0.575451
1427.000000;0.647611
1426.000000;0.650387
1425.000000;0.668298
1424.000000;0.774225
1423.000000;0.921931
1422.000000;1.110147
1421.000000;1.222294
1420.000000;0.887614
1419.000000;0.650451
1418.000000;0.531955
1417.000000;0.477504
1416.000000;0.495952
1415.000000;0.604914
1414.000000;0.822059
1413.000000;1.095014
1412.000000;1.231119
1411.000000;1.121107
1410.000000;0.987028
1409.000000;0.918239
1408.000000;0.826558
1407.000000;0.737618
1406.000000;0.692403
1405.000000;0.759077
1404.000000;0.928989
1403.000000;0.753401
1402.000000;0.565619
1401.000000;0.556925
1400.000000;0.615421
1399.000000;0.572478
1398.000000;0.490114
1397.000000;0.517982
1396.000000;0.635740
1395.000000;0.706110
1394.000000;0.713755
1393.000000;0.744025
1392.000000;0.809864
1391.000000;1.076524
1390.000000;1.232679
1389.000000;0.847357
1388.000000;0.674631
1387.000000;0.626346
1386.000000;0.689165
1385.000000;0.858289
1384.000000;1.176302
1383.000000;1.617492
1382.000000;1.086655
1381.000000;0.736067
1380.000000;0.619339
1379.000000;0.630128
1378.000000;0.831172
1377.000000;1.227714
1376.000000;0.877417
1375.000000;0.653959
1374.000000;0.623795
1373.000000;0.643444
1372.000000;0.656615
1371.000000;0.649362
1370.000000;0.647816
1369.000000;0.636619
1368.000000;0.654172
1367.000000;0.776525
1366.000000;0.933422
1365.000000;0.864809
1364.000000;0.758943
1363.000000;0.718243
1362.000000;0.754131
1361.000000;0.911111
1360.000000;1.118944
1359.000000;1.154255
1358.000000;1.115802
1357.000000;1.140372
1356.000000;0.913247
1355.000000;0.676360
1354.000000;0.594993
1353.000000;0.600880
1352.000000;0.615970
1351.000000;0.591429
1350.000000;0.560597
1349.000000;0.568704
1348.000000;0.629369
1347.000000;0.736212
1346.000000;0.795201
1345.000000;0.708052
1344.000000;0.586548
1343.000000;0.501471
1342.000000;0.464860
1341.000000;0.476052
1340.000000;0.527053
1339.000000;0.614421
1338.000000;0.737963
1337.000000;0.875719
1336.000000;0.935681
1335.000000;0.979167
1334.000000;1.053692
1333.000000;0.953763
1332.000000;0.812709
1331.000000;0.712765
1330.000000;0.635676
1329.000000;0.582084
1328.000000;0.577479
1327.000000;0.635677
1326.000000;0.805721
1325.000000;1.306194
1324.000000;0.994849
1323.000000;0.689097
1322.000000;0.614295
1321.000000;0.609087
1320.000000;0.667394
1319.000000;0.700905
1318.000000;0.625759
1317.000000;0.580209
1316.000000;0.643167
1315.000000;0.651297
1314.000000;0.509593
1313.000000;0.418040
1312.000000;0.418320
1311.000000;0.486187
1310.000000;0.560043
1309.000000;0.572144
1308.000000;0.559690
1307.000000;0.584210
1306.000000;0.641581
1305.000000;0.638076
1304.000000;0.552444
1303.000000;0.485741
1302.000000;0.486688
1301.000000;0.552421
1300.000000;0.634491
1299.000000;0.645025
1298.000000;0.602016
1297.000000;0.588380
1296.000000;0.652025
1295.000000;0.784477
1294.000000;1.020683
1293.000000;1.641648
1292.000000;1.129990
1291.000000;0.791581
1290.000000;0.702838
1289.000000;0.803472
1288.000000;1.220747
1287.000000;1.657438
1286.000000;1.306053
1285.000000;1.491580
1284.000000;1.205616
1283.000000;0.903072
1282.000000;0.803475
1281.000000;0.812742
1280.000000;0.863022
1279.000000;0.820493
1278.000000;0.767688
1277.000000;0.856936
1276.000000;1.157771
1275.000000;1.110115
1274.000000;0.883947
1273.000000;0.772519
1272.000000;0.648316
1271.000000;0.539892
1270.000000;0.461457
1269.000000;0.412650
1268.000000;0.383343
1267.000000;0.365759
1266.000000;0.366705
1265.000000;0.400448
1264.000000;0.484475
1263.000000;0.657187
1262.000000;1.082331
1261.000000;1.284968
1260.000000;0.862347
1259.000000;0.879868
1258.000000;1.066851
1257.000000;1.132246
1256.000000;0.961362
1255.000000;0.856656
1254.000000;0.821835
1253.000000;0.860017
1252.000000;0.984900
1251.000000;1.075122
1250.000000;0.930470
1249.000000;0.754981
1248.000000;0.658616
1247.000000;0.617175
1246.000000;0.598520
1245.000000;0.565443
1244.000000;0.532996
1243.000000;0.551838
1242.000000;0.688509
1241.000000;1.033673
1240.000000;1.016556
1239.000000;0.774846
1238.000000;0.640286
1237.000000;0.620280
1236.000000;0.778230
1235.000000;1.213516
1234.000000;1.483577
1233.000000;1.292625
1232.000000;1.218243
1231.000000;1.122016
1230.000000;1.238969
1229.000000;1.594861
1228.000000;1.093112
1227.000000;0.709390
1226.000000;0.537490
1225.000000;0.460680
1224.000000;0.460224
1223.000000;0.522239
1222.000000;0.643975
1221.000000;0.818800
1220.000000;1.116642
1219.000000;1.029277
1218.000000;0.709796
1217.000000;0.573524
1216.000000;0.563641
1215.000000;0.574302
1214.000000;0.527007
1213.000000;0.487602
1212.000000;0.482968
1211.000000;0.506830
1210.000000;0.566201
1209.000000;0.666379
1208.000000;0.817657
1207.000000;1.016695
1206.000000;1.110307
1205.000000;0.885915
1204.000000;0.626879
1203.000000;0.473337
1202.000000;0.440303
1201.000000;0.541872
1200.000000;0.758288
