Criado como novo conjunto de dados;"2706_e01_daniel.spp","18542.7 Secs"
cm-1;Abs
10000.000000;0.675918
9999.000000;0.676456
9998.000000;0.676995
9997.000000;0.677534
9996.000000;0.678074
9995.000000;0.678615
9994.000000;0.679155
9993.000000;0.679699
9992.000000;0.680233
9991.000000;0.681135
9990.000000;0.682569
9989.000000;0.684180
9988.000000;0.684937
9987.000000;0.684201
9986.000000;0.682660
9985.000000;0.681600
9984.000000;0.681459
9983.000000;0.681626
9982.000000;0.681492
9981.000000;0.681098
9980.000000;0.680728
9979.000000;0.680421
9978.000000;0.680023
9977.000000;0.679328
9976.000000;0.678114
9975.000000;0.676502
9974.000000;0.675311
9973.000000;0.675481
9972.000000;0.676949
9971.000000;0.678596
9970.000000;0.679586
9969.000000;0.680228
9968.000000;0.681072
9967.000000;0.681739
9966.000000;0.681389
9965.000000;0.680059
9964.000000;0.678786
9963.000000;0.678422
9962.000000;0.678858
9961.000000;0.679461
9960.000000;0.679795
9959.000000;0.679773
9958.000000;0.679474
9957.000000;0.679077
9956.000000;0.678810
9955.000000;0.678769
9954.000000;0.678845
9953.000000;0.678865
9952.000000;0.678719
9951.000000;0.678351
9950.000000;0.677747
9949.000000;0.676973
9948.000000;0.676212
9947.000000;0.675775
9946.000000;0.675987
9945.000000;0.676860
9944.000000;0.677813
9943.000000;0.678028
9942.000000;0.677327
9941.000000;0.676507
9940.000000;0.676499
9939.000000;0.677284
9938.000000;0.677967
9937.000000;0.677922
9936.000000;0.677502
9935.000000;0.677428
9934.000000;0.677743
9933.000000;0.677683
9932.000000;0.676605
9931.000000;0.674889
9930.000000;0.673773
9929.000000;0.674280
9928.000000;0.676280
9927.000000;0.678567
9926.000000;0.679841
9925.000000;0.679659
9924.000000;0.678542
9923.000000;0.677373
9922.000000;0.676784
9921.000000;0.676865
9920.000000;0.677183
9919.000000;0.677120
9918.000000;0.676383
9917.000000;0.675244
9916.000000;0.674225
9915.000000;0.673612
9914.000000;0.673380
9913.000000;0.673482
9912.000000;0.673993
9911.000000;0.674884
9910.000000;0.675788
9909.000000;0.676131
9908.000000;0.675536
9907.000000;0.674156
9906.000000;0.672744
9905.000000;0.672301
9904.000000;0.673327
9903.000000;0.675197
9902.000000;0.676425
9901.000000;0.675845
9900.000000;0.673650
9899.000000;0.671184
9898.000000;0.669740
9897.000000;0.669670
9896.000000;0.670558
9895.000000;0.671916
9894.000000;0.673453
9893.000000;0.674772
9892.000000;0.675291
9891.000000;0.674801
9890.000000;0.673810
9889.000000;0.673088
9888.000000;0.673009
9887.000000;0.673391
9886.000000;0.673881
9885.000000;0.674259
9884.000000;0.674377
9883.000000;0.674049
9882.000000;0.673201
9881.000000;0.672064
9880.000000;0.671078
9879.000000;0.670587
9878.000000;0.670591
9877.000000;0.670755
9876.000000;0.670737
9875.000000;0.670560
9874.000000;0.670570
9873.000000;0.671005
9872.000000;0.671706
9871.000000;0.672323
9870.000000;0.672671
9869.000000;0.672736
9868.000000;0.672545
9867.000000;0.672261
9866.000000;0.672243
9865.000000;0.672636
9864.000000;0.673007
9863.000000;0.672772
9862.000000;0.671972
9861.000000;0.671240
9860.000000;0.670917
9859.000000;0.670626
9858.000000;0.669930
9857.000000;0.669113
9856.000000;0.668929
9855.000000;0.669668
9854.000000;0.670703
9853.000000;0.670990
9852.000000;0.670032
9851.000000;0.668422
9850.000000;0.667413
9849.000000;0.667836
9848.000000;0.669438
9847.000000;0.671216
9846.000000;0.672213
9845.000000;0.671948
9844.000000;0.670521
9843.000000;0.668721
9842.000000;0.667692
9841.000000;0.667796
9840.000000;0.667957
9839.000000;0.666889
9838.000000;0.664989
9837.000000;0.664074
9836.000000;0.665110
9835.000000;0.667065
9834.000000;0.668321
9833.000000;0.668481
9832.000000;0.668144
9831.000000;0.667581
9830.000000;0.666693
9829.000000;0.665978
9828.000000;0.666340
9827.000000;0.667786
9826.000000;0.669156
9825.000000;0.669495
9824.000000;0.669093
9823.000000;0.668828
9822.000000;0.669015
9821.000000;0.669347
9820.000000;0.669563
9819.000000;0.669633
9818.000000;0.669422
9817.000000;0.668733
9816.000000;0.667757
9815.000000;0.667062
9814.000000;0.666898
9813.000000;0.666737
9812.000000;0.665881
9811.000000;0.664452
9810.000000;0.663423
9809.000000;0.663546
9808.000000;0.664550
9807.000000;0.665567
9806.000000;0.666086
9805.000000;0.666179
9804.000000;0.665995
9803.000000;0.665605
9802.000000;0.665332
9801.000000;0.665699
9800.000000;0.666748
9799.000000;0.667713
9798.000000;0.667711
9797.000000;0.666698
9796.000000;0.665503
9795.000000;0.665010
9794.000000;0.665478
9793.000000;0.666499
9792.000000;0.667365
9791.000000;0.667535
9790.000000;0.666913
9789.000000;0.665812
9788.000000;0.664749
9787.000000;0.664322
9786.000000;0.664961
9785.000000;0.666427
9784.000000;0.667673
9783.000000;0.667753
9782.000000;0.666889
9781.000000;0.666120
9780.000000;0.665828
9779.000000;0.665276
9778.000000;0.663905
9777.000000;0.662384
9776.000000;0.661800
9775.000000;0.662243
9774.000000;0.662872
9773.000000;0.663081
9772.000000;0.662923
9771.000000;0.662507
9770.000000;0.661695
9769.000000;0.660552
9768.000000;0.659586
9767.000000;0.659329
9766.000000;0.659939
9765.000000;0.661209
9764.000000;0.662635
9763.000000;0.663502
9762.000000;0.663360
9761.000000;0.662565
9760.000000;0.662063
9759.000000;0.662492
9758.000000;0.663647
9757.000000;0.664809
9756.000000;0.665344
9755.000000;0.664991
9754.000000;0.663958
9753.000000;0.662864
9752.000000;0.662306
9751.000000;0.662278
9750.000000;0.662213
9749.000000;0.661780
9748.000000;0.661365
9747.000000;0.661522
9746.000000;0.662105
9745.000000;0.662274
9744.000000;0.661408
9743.000000;0.659871
9742.000000;0.658772
9741.000000;0.658990
9740.000000;0.660443
9739.000000;0.662209
9738.000000;0.663295
9737.000000;0.663346
9736.000000;0.662726
9735.000000;0.662065
9734.000000;0.661767
9733.000000;0.661827
9732.000000;0.662004
9731.000000;0.662108
9730.000000;0.662095
9729.000000;0.661905
9728.000000;0.661346
9727.000000;0.660320
9726.000000;0.659147
9725.000000;0.658414
9724.000000;0.658438
9723.000000;0.659013
9722.000000;0.659692
9721.000000;0.660174
9720.000000;0.660410
9719.000000;0.660553
9718.000000;0.660837
9717.000000;0.661237
9716.000000;0.661241
9715.000000;0.660328
9714.000000;0.658830
9713.000000;0.657871
9712.000000;0.658155
9711.000000;0.659107
9710.000000;0.659562
9709.000000;0.659074
9708.000000;0.658185
9707.000000;0.657569
9706.000000;0.657417
9705.000000;0.657613
9704.000000;0.658067
9703.000000;0.658734
9702.000000;0.659546
9701.000000;0.660433
9700.000000;0.661277
9699.000000;0.661845
9698.000000;0.661917
9697.000000;0.661465
9696.000000;0.660608
9695.000000;0.659460
9694.000000;0.658161
9693.000000;0.656961
9692.000000;0.656100
9691.000000;0.655664
9690.000000;0.655663
9689.000000;0.656087
9688.000000;0.656661
9687.000000;0.656782
9686.000000;0.656068
9685.000000;0.654991
9684.000000;0.654596
9683.000000;0.655485
9682.000000;0.657264
9681.000000;0.659011
9680.000000;0.660123
9679.000000;0.660597
9678.000000;0.660653
9677.000000;0.660328
9676.000000;0.659528
9675.000000;0.658391
9674.000000;0.657403
9673.000000;0.656997
9672.000000;0.657083
9671.000000;0.657114
9670.000000;0.656632
9669.000000;0.655605
9668.000000;0.654365
9667.000000;0.653458
9666.000000;0.653462
9665.000000;0.654487
9664.000000;0.655731
9663.000000;0.655990
9662.000000;0.654974
9661.000000;0.653785
9660.000000;0.653743
9659.000000;0.654991
9658.000000;0.656514
9657.000000;0.657219
9656.000000;0.656707
9655.000000;0.655304
9654.000000;0.653828
9653.000000;0.653199
9652.000000;0.653774
9651.000000;0.654972
9650.000000;0.655805
9649.000000;0.655790
9648.000000;0.655163
9647.000000;0.654429
9646.000000;0.654057
9645.000000;0.654396
9644.000000;0.655371
9643.000000;0.656276
9642.000000;0.656304
9641.000000;0.655407
9640.000000;0.654351
9639.000000;0.653940
9638.000000;0.654406
9637.000000;0.655406
9636.000000;0.656205
9635.000000;0.655964
9634.000000;0.654440
9633.000000;0.652539
9632.000000;0.651716
9631.000000;0.652548
9630.000000;0.654121
9629.000000;0.654982
9628.000000;0.654583
9627.000000;0.653628
9626.000000;0.653190
9625.000000;0.653706
9624.000000;0.654710
9623.000000;0.655326
9622.000000;0.655037
9621.000000;0.654083
9620.000000;0.653131
9619.000000;0.652622
9618.000000;0.652482
9617.000000;0.652317
9616.000000;0.651841
9615.000000;0.651211
9614.000000;0.650970
9613.000000;0.651472
9612.000000;0.652310
9611.000000;0.652571
9610.000000;0.651883
9609.000000;0.650951
9608.000000;0.650742
9607.000000;0.651371
9606.000000;0.652191
9605.000000;0.652794
9604.000000;0.653370
9603.000000;0.654071
9602.000000;0.654552
9601.000000;0.654350
9600.000000;0.653460
9599.000000;0.652390
9598.000000;0.651762
9597.000000;0.651879
9596.000000;0.652429
9595.000000;0.652607
9594.000000;0.651809
9593.000000;0.650339
9592.000000;0.649210
9591.000000;0.649209
9590.000000;0.650333
9589.000000;0.651993
9588.000000;0.653436
9587.000000;0.653981
9586.000000;0.653311
9585.000000;0.651801
9584.000000;0.650363
9583.000000;0.649735
9582.000000;0.649970
9581.000000;0.650632
9580.000000;0.651288
9579.000000;0.651689
9578.000000;0.651664
9577.000000;0.651112
9576.000000;0.650151
9575.000000;0.649181
9574.000000;0.648686
9573.000000;0.648814
9572.000000;0.649193
9571.000000;0.649330
9570.000000;0.649206
9569.000000;0.649312
9568.000000;0.649982
9567.000000;0.650914
9566.000000;0.651552
9565.000000;0.651716
9564.000000;0.651572
9563.000000;0.651182
9562.000000;0.650421
9561.000000;0.649379
9560.000000;0.648507
9559.000000;0.648235
9558.000000;0.648561
9557.000000;0.649039
9556.000000;0.649124
9555.000000;0.648630
9554.000000;0.647965
9553.000000;0.647784
9552.000000;0.648255
9551.000000;0.648844
9550.000000;0.648962
9549.000000;0.648645
9548.000000;0.648343
9547.000000;0.648304
9546.000000;0.648494
9545.000000;0.648882
9544.000000;0.649433
9543.000000;0.649896
9542.000000;0.649972
9541.000000;0.649635
9540.000000;0.648991
9539.000000;0.647986
9538.000000;0.646632
9537.000000;0.645417
9536.000000;0.645014
9535.000000;0.645536
9534.000000;0.646401
9533.000000;0.646946
9532.000000;0.646930
9531.000000;0.646514
9530.000000;0.646115
9529.000000;0.646172
9528.000000;0.646667
9527.000000;0.646954
9526.000000;0.646515
9525.000000;0.645753
9524.000000;0.645492
9523.000000;0.645821
9522.000000;0.646098
9521.000000;0.646095
9520.000000;0.646322
9519.000000;0.646966
9518.000000;0.647345
9517.000000;0.646925
9516.000000;0.646236
9515.000000;0.646081
9514.000000;0.646306
9513.000000;0.646152
9512.000000;0.645558
9511.000000;0.645349
9510.000000;0.646096
9509.000000;0.647328
9508.000000;0.648036
9507.000000;0.647640
9506.000000;0.646390
9505.000000;0.645124
9504.000000;0.644698
9503.000000;0.645351
9502.000000;0.646430
9501.000000;0.646917
9500.000000;0.646385
9499.000000;0.645319
9498.000000;0.644505
9497.000000;0.644291
9496.000000;0.644473
9495.000000;0.644638
9494.000000;0.644470
9493.000000;0.643934
9492.000000;0.643376
9491.000000;0.643369
9490.000000;0.644190
9489.000000;0.645353
9488.000000;0.645871
9487.000000;0.645214
9486.000000;0.643886
9485.000000;0.642867
9484.000000;0.642621
9483.000000;0.642842
9482.000000;0.643065
9481.000000;0.643191
9480.000000;0.643361
9479.000000;0.643627
9478.000000;0.643945
9477.000000;0.644217
9476.000000;0.644166
9475.000000;0.643485
9474.000000;0.642385
9473.000000;0.641673
9472.000000;0.641895
9471.000000;0.642607
9470.000000;0.642863
9469.000000;0.642377
9468.000000;0.641788
9467.000000;0.641771
9466.000000;0.642294
9465.000000;0.642880
9464.000000;0.643218
9463.000000;0.643302
9462.000000;0.643168
9461.000000;0.642754
9460.000000;0.642026
9459.000000;0.641183
9458.000000;0.640681
9457.000000;0.640873
9456.000000;0.641510
9455.000000;0.641807
9454.000000;0.641299
9453.000000;0.640519
9452.000000;0.640482
9451.000000;0.641512
9450.000000;0.642851
9449.000000;0.643459
9448.000000;0.642954
9447.000000;0.641785
9446.000000;0.640727
9445.000000;0.640271
9444.000000;0.640308
9443.000000;0.640362
9442.000000;0.640235
9441.000000;0.640321
9440.000000;0.641073
9439.000000;0.642262
9438.000000;0.643090
9437.000000;0.643013
9436.000000;0.642194
9435.000000;0.641192
9434.000000;0.640516
9433.000000;0.640434
9432.000000;0.640829
9431.000000;0.641155
9430.000000;0.640887
9429.000000;0.640101
9428.000000;0.639398
9427.000000;0.639236
9426.000000;0.639589
9425.000000;0.640137
9424.000000;0.640432
9423.000000;0.639971
9422.000000;0.638641
9421.000000;0.637171
9420.000000;0.636668
9419.000000;0.637503
9418.000000;0.638955
9417.000000;0.640069
9416.000000;0.640495
9415.000000;0.640375
9414.000000;0.639922
9413.000000;0.639436
9412.000000;0.639346
9411.000000;0.639801
9410.000000;0.640386
9409.000000;0.640553
9408.000000;0.640219
9407.000000;0.639691
9406.000000;0.639192
9405.000000;0.638704
9404.000000;0.638203
9403.000000;0.637791
9402.000000;0.637608
9401.000000;0.637742
9400.000000;0.638185
9399.000000;0.638811
9398.000000;0.639436
9397.000000;0.639975
9396.000000;0.640491
9395.000000;0.641022
9394.000000;0.641387
9393.000000;0.641213
9392.000000;0.640192
9391.000000;0.638461
9390.000000;0.636777
9389.000000;0.636067
9388.000000;0.636586
9387.000000;0.637633
9386.000000;0.638283
9385.000000;0.638243
9384.000000;0.637807
9383.000000;0.637296
9382.000000;0.636938
9381.000000;0.636981
9380.000000;0.637379
9379.000000;0.637546
9378.000000;0.637054
9377.000000;0.636408
9376.000000;0.636472
9375.000000;0.637198
9374.000000;0.637708
9373.000000;0.637648
9372.000000;0.637596
9371.000000;0.637905
9370.000000;0.638058
9369.000000;0.637650
9368.000000;0.637218
9367.000000;0.637417
9366.000000;0.637964
9365.000000;0.638070
9364.000000;0.637526
9363.000000;0.636739
9362.000000;0.635995
9361.000000;0.635299
9360.000000;0.634732
9359.000000;0.634373
9358.000000;0.634053
9357.000000;0.633614
9356.000000;0.633276
9355.000000;0.633344
9354.000000;0.633758
9353.000000;0.634301
9352.000000;0.635043
9351.000000;0.636122
9350.000000;0.637268
9349.000000;0.638004
9348.000000;0.638224
9347.000000;0.638139
9346.000000;0.637833
9345.000000;0.637307
9344.000000;0.636787
9343.000000;0.636483
9342.000000;0.636166
9341.000000;0.635474
9340.000000;0.634596
9339.000000;0.634117
9338.000000;0.634220
9337.000000;0.634496
9336.000000;0.634590
9335.000000;0.634568
9334.000000;0.634565
9333.000000;0.634512
9332.000000;0.634382
9331.000000;0.634375
9330.000000;0.634650
9329.000000;0.635074
9328.000000;0.635409
9327.000000;0.635584
9326.000000;0.635673
9325.000000;0.635698
9324.000000;0.635494
9323.000000;0.634766
9322.000000;0.633433
9321.000000;0.632014
9320.000000;0.631401
9319.000000;0.631982
9318.000000;0.633114
9317.000000;0.633774
9316.000000;0.633619
9315.000000;0.633128
9314.000000;0.632869
9313.000000;0.633043
9312.000000;0.633617
9311.000000;0.634409
9310.000000;0.635032
9309.000000;0.635168
9308.000000;0.634977
9307.000000;0.634916
9306.000000;0.635075
9305.000000;0.635016
9304.000000;0.634357
9303.000000;0.633241
9302.000000;0.632157
9301.000000;0.631552
9300.000000;0.631592
9299.000000;0.632010
9298.000000;0.632189
9297.000000;0.631726
9296.000000;0.630976
9295.000000;0.630697
9294.000000;0.631124
9293.000000;0.631707
9292.000000;0.631850
9291.000000;0.631562
9290.000000;0.631216
9289.000000;0.630968
9288.000000;0.630664
9287.000000;0.630137
9286.000000;0.629472
9285.000000;0.629034
9284.000000;0.629226
9283.000000;0.630047
9282.000000;0.630921
9281.000000;0.631224
9280.000000;0.630959
9279.000000;0.630633
9278.000000;0.630518
9277.000000;0.630402
9276.000000;0.630082
9275.000000;0.629667
9274.000000;0.629319
9273.000000;0.629103
9272.000000;0.629198
9271.000000;0.629793
9270.000000;0.630551
9269.000000;0.630655
9268.000000;0.629808
9267.000000;0.628813
9266.000000;0.628743
9265.000000;0.629752
9264.000000;0.631049
9263.000000;0.631807
9262.000000;0.631741
9261.000000;0.631014
9260.000000;0.630096
9259.000000;0.629615
9258.000000;0.629858
9257.000000;0.630373
9256.000000;0.630444
9255.000000;0.629968
9254.000000;0.629496
9253.000000;0.629402
9252.000000;0.629465
9251.000000;0.629394
9250.000000;0.629330
9249.000000;0.629545
9248.000000;0.629942
9247.000000;0.630177
9246.000000;0.630133
9245.000000;0.629960
9244.000000;0.629673
9243.000000;0.629037
9242.000000;0.627944
9241.000000;0.626759
9240.000000;0.626123
9239.000000;0.626404
9238.000000;0.627370
9237.000000;0.628387
9236.000000;0.628932
9235.000000;0.628889
9234.000000;0.628444
9233.000000;0.627858
9232.000000;0.627436
9231.000000;0.627532
9230.000000;0.628266
9229.000000;0.629189
9228.000000;0.629529
9227.000000;0.629005
9226.000000;0.628225
9225.000000;0.628015
9224.000000;0.628390
9223.000000;0.628486
9222.000000;0.627640
9221.000000;0.626273
9220.000000;0.625456
9219.000000;0.625710
9218.000000;0.626539
9217.000000;0.627113
9216.000000;0.627133
9215.000000;0.626883
9214.000000;0.626682
9213.000000;0.626570
9212.000000;0.626450
9211.000000;0.626259
9210.000000;0.626015
9209.000000;0.625875
9208.000000;0.626114
9207.000000;0.626803
9206.000000;0.627500
9205.000000;0.627584
9204.000000;0.627034
9203.000000;0.626572
9202.000000;0.626818
9201.000000;0.627548
9200.000000;0.628017
9199.000000;0.627883
9198.000000;0.627475
9197.000000;0.627235
9196.000000;0.627220
9195.000000;0.627206
9194.000000;0.626959
9193.000000;0.626352
9192.000000;0.625480
9191.000000;0.624778
9190.000000;0.624727
9189.000000;0.625250
9188.000000;0.625602
9187.000000;0.625137
9186.000000;0.624092
9185.000000;0.623330
9184.000000;0.623378
9183.000000;0.623984
9182.000000;0.624624
9181.000000;0.625130
9180.000000;0.625640
9179.000000;0.626144
9178.000000;0.626374
9177.000000;0.626169
9176.000000;0.625741
9175.000000;0.625542
9174.000000;0.625898
9173.000000;0.626738
9172.000000;0.627578
9171.000000;0.627760
9170.000000;0.626904
9169.000000;0.625304
9168.000000;0.623815
9167.000000;0.623208
9166.000000;0.623563
9165.000000;0.624267
9164.000000;0.624573
9163.000000;0.624119
9162.000000;0.623034
9161.000000;0.621771
9160.000000;0.620913
9159.000000;0.620894
9158.000000;0.621657
9157.000000;0.622617
9156.000000;0.623175
9155.000000;0.623304
9154.000000;0.623514
9153.000000;0.624198
9152.000000;0.625168
9151.000000;0.625845
9150.000000;0.625814
9149.000000;0.625190
9148.000000;0.624564
9147.000000;0.624571
9146.000000;0.625300
9145.000000;0.626048
9144.000000;0.625870
9143.000000;0.624563
9142.000000;0.622949
9141.000000;0.622000
9140.000000;0.621850
9139.000000;0.621842
9138.000000;0.621421
9137.000000;0.620703
9136.000000;0.620191
9135.000000;0.620226
9134.000000;0.620803
9133.000000;0.621682
9132.000000;0.622490
9131.000000;0.622842
9130.000000;0.622579
9129.000000;0.621948
9128.000000;0.621465
9127.000000;0.621528
9126.000000;0.622101
9125.000000;0.622733
9124.000000;0.622922
9123.000000;0.622530
9122.000000;0.621864
9121.000000;0.621342
9120.000000;0.621123
9119.000000;0.621093
9118.000000;0.621087
9117.000000;0.621035
9116.000000;0.620958
9115.000000;0.620971
9114.000000;0.621230
9113.000000;0.621747
9112.000000;0.622253
9111.000000;0.622391
9110.000000;0.622027
9109.000000;0.621311
9108.000000;0.620531
9107.000000;0.620038
9106.000000;0.620155
9105.000000;0.620878
9104.000000;0.621694
9103.000000;0.621993
9102.000000;0.621705
9101.000000;0.621277
9100.000000;0.621028
9099.000000;0.620827
9098.000000;0.620502
9097.000000;0.620209
9096.000000;0.620195
9095.000000;0.620432
9094.000000;0.620708
9093.000000;0.620854
9092.000000;0.620701
9091.000000;0.620073
9090.000000;0.619100
9089.000000;0.618355
9088.000000;0.618359
9087.000000;0.619003
9086.000000;0.619670
9085.000000;0.619889
9084.000000;0.619669
9083.000000;0.619288
9082.000000;0.618967
9081.000000;0.618723
9080.000000;0.618389
9079.000000;0.617824
9078.000000;0.617206
9077.000000;0.616976
9076.000000;0.617340
9075.000000;0.617965
9074.000000;0.618369
9073.000000;0.618463
9072.000000;0.618443
9071.000000;0.618320
9070.000000;0.617914
9069.000000;0.617329
9068.000000;0.617076
9067.000000;0.617572
9066.000000;0.618690
9065.000000;0.619867
9064.000000;0.620534
9063.000000;0.620491
9062.000000;0.620036
9061.000000;0.619738
9060.000000;0.619896
9059.000000;0.620193
9058.000000;0.620030
9057.000000;0.619211
9056.000000;0.618133
9055.000000;0.617306
9054.000000;0.616887
9053.000000;0.616696
9052.000000;0.616502
9051.000000;0.616232
9050.000000;0.615990
9049.000000;0.615920
9048.000000;0.616035
9047.000000;0.616226
9046.000000;0.616480
9045.000000;0.616924
9044.000000;0.617488
9043.000000;0.617752
9042.000000;0.617442
9041.000000;0.616954
9040.000000;0.616964
9039.000000;0.617520
9038.000000;0.617934
9037.000000;0.617659
9036.000000;0.616954
9035.000000;0.616527
9034.000000;0.616782
9033.000000;0.617554
9032.000000;0.618311
9031.000000;0.618469
9030.000000;0.617753
9029.000000;0.616510
9028.000000;0.615550
9027.000000;0.615463
9026.000000;0.616099
9025.000000;0.616746
9024.000000;0.616746
9023.000000;0.615983
9022.000000;0.614971
9021.000000;0.614492
9020.000000;0.614941
9019.000000;0.615925
9018.000000;0.616674
9017.000000;0.616848
9016.000000;0.616717
9015.000000;0.616547
9014.000000;0.616229
9013.000000;0.615682
9012.000000;0.615217
9011.000000;0.615129
9010.000000;0.615195
9009.000000;0.614953
9008.000000;0.614363
9007.000000;0.613876
9006.000000;0.613869
9005.000000;0.614289
9004.000000;0.614811
9003.000000;0.615155
9002.000000;0.615284
9001.000000;0.615438
9000.000000;0.615842
8999.000000;0.616278
8998.000000;0.616134
8997.000000;0.615121
8996.000000;0.613815
8995.000000;0.613169
8994.000000;0.613520
8993.000000;0.614337
8992.000000;0.614892
8991.000000;0.614873
8990.000000;0.614362
8989.000000;0.613602
8988.000000;0.612929
8987.000000;0.612657
8986.000000;0.612822
8985.000000;0.613173
8984.000000;0.613498
8983.000000;0.613834
8982.000000;0.614254
8981.000000;0.614631
8980.000000;0.614769
8979.000000;0.614673
8978.000000;0.614532
8977.000000;0.614509
8976.000000;0.614631
8975.000000;0.614819
8974.000000;0.614918
8973.000000;0.614762
8972.000000;0.614329
8971.000000;0.613798
8970.000000;0.613387
8969.000000;0.613154
8968.000000;0.613019
8967.000000;0.612903
8966.000000;0.612784
8965.000000;0.612641
8964.000000;0.612471
8963.000000;0.612348
8962.000000;0.612388
8961.000000;0.612561
8960.000000;0.612589
8959.000000;0.612157
8958.000000;0.611305
8957.000000;0.610583
8956.000000;0.610645
8955.000000;0.611580
8954.000000;0.612687
8953.000000;0.613049
8952.000000;0.612407
8951.000000;0.611389
8950.000000;0.610863
8949.000000;0.611137
8948.000000;0.611845
8947.000000;0.612478
8946.000000;0.612887
8945.000000;0.613240
8944.000000;0.613618
8943.000000;0.613814
8942.000000;0.613560
8941.000000;0.612872
8940.000000;0.612111
8939.000000;0.611704
8938.000000;0.611799
8937.000000;0.612151
8936.000000;0.612307
8935.000000;0.611959
8934.000000;0.611182
8933.000000;0.610337
8932.000000;0.609747
8931.000000;0.609470
8930.000000;0.609374
8929.000000;0.609368
8928.000000;0.609489
8927.000000;0.609810
8926.000000;0.610303
8925.000000;0.610805
8924.000000;0.611105
8923.000000;0.611113
8922.000000;0.610968
8921.000000;0.610937
8920.000000;0.611128
8919.000000;0.611394
8918.000000;0.611578
8917.000000;0.611738
8916.000000;0.611955
8915.000000;0.612017
8914.000000;0.611568
8913.000000;0.610607
8912.000000;0.609592
8911.000000;0.608970
8910.000000;0.608817
8909.000000;0.609014
8908.000000;0.609494
8907.000000;0.610102
8906.000000;0.610411
8905.000000;0.610040
8904.000000;0.609123
8903.000000;0.608244
8902.000000;0.607919
8901.000000;0.608291
8900.000000;0.609173
8899.000000;0.610102
8898.000000;0.610455
8897.000000;0.609928
8896.000000;0.608999
8895.000000;0.608547
8894.000000;0.608845
8893.000000;0.609231
8892.000000;0.609008
8891.000000;0.608388
8890.000000;0.608190
8889.000000;0.608767
8888.000000;0.609645
8887.000000;0.610185
8886.000000;0.610227
8885.000000;0.609988
8884.000000;0.609651
8883.000000;0.609288
8882.000000;0.609005
8881.000000;0.608923
8880.000000;0.609029
8879.000000;0.609167
8878.000000;0.609188
8877.000000;0.609066
8876.000000;0.608890
8875.000000;0.608772
8874.000000;0.608702
8873.000000;0.608543
8872.000000;0.608240
8871.000000;0.607985
8870.000000;0.607998
8869.000000;0.608156
8868.000000;0.608080
8867.000000;0.607644
8866.000000;0.607184
8865.000000;0.607031
8864.000000;0.607100
8863.000000;0.607114
8862.000000;0.607048
8861.000000;0.607070
8860.000000;0.607186
8859.000000;0.607249
8858.000000;0.607234
8857.000000;0.607232
8856.000000;0.607227
8855.000000;0.607191
8854.000000;0.607313
8853.000000;0.607771
8852.000000;0.608246
8851.000000;0.608120
8850.000000;0.607273
8849.000000;0.606299
8848.000000;0.605725
8847.000000;0.605421
8846.000000;0.605058
8845.000000;0.604757
8844.000000;0.604848
8843.000000;0.605197
8842.000000;0.605289
8841.000000;0.604963
8840.000000;0.604643
8839.000000;0.604762
8838.000000;0.605291
8837.000000;0.605950
8836.000000;0.606574
8835.000000;0.607088
8834.000000;0.607301
8833.000000;0.607000
8832.000000;0.606286
8831.000000;0.605675
8830.000000;0.605757
8829.000000;0.606678
8828.000000;0.607921
8827.000000;0.608677
8826.000000;0.608539
8825.000000;0.607819
8824.000000;0.607133
8823.000000;0.606784
8822.000000;0.606644
8821.000000;0.606486
8820.000000;0.606236
8819.000000;0.605946
8818.000000;0.605722
8817.000000;0.605714
8816.000000;0.606031
8815.000000;0.606604
8814.000000;0.607180
8813.000000;0.607465
8812.000000;0.607217
8811.000000;0.606348
8810.000000;0.605116
8809.000000;0.604137
8808.000000;0.603981
8807.000000;0.604671
8806.000000;0.605652
8805.000000;0.606267
8804.000000;0.606214
8803.000000;0.605650
8802.000000;0.605032
8801.000000;0.604800
8800.000000;0.604998
8799.000000;0.605186
8798.000000;0.604918
8797.000000;0.604342
8796.000000;0.604116
8795.000000;0.604642
8794.000000;0.605544
8793.000000;0.605997
8792.000000;0.605512
8791.000000;0.604368
8790.000000;0.603403
8789.000000;0.603377
8788.000000;0.604308
8787.000000;0.605363
8786.000000;0.605607
8785.000000;0.604973
8784.000000;0.604300
8783.000000;0.604329
8782.000000;0.604927
8781.000000;0.605448
8780.000000;0.605600
8779.000000;0.605607
8778.000000;0.605616
8777.000000;0.605386
8776.000000;0.604678
8775.000000;0.603660
8774.000000;0.602736
8773.000000;0.602196
8772.000000;0.602158
8771.000000;0.602662
8770.000000;0.603546
8769.000000;0.604335
8768.000000;0.604561
8767.000000;0.604290
8766.000000;0.604108
8765.000000;0.604471
8764.000000;0.605229
8763.000000;0.605920
8762.000000;0.606339
8761.000000;0.606554
8760.000000;0.606531
8759.000000;0.606111
8758.000000;0.605404
8757.000000;0.604842
8756.000000;0.604715
8755.000000;0.604862
8754.000000;0.604958
8753.000000;0.604854
8752.000000;0.604480
8751.000000;0.603746
8750.000000;0.602801
8749.000000;0.602145
8748.000000;0.602140
8747.000000;0.602546
8746.000000;0.602885
8745.000000;0.603115
8744.000000;0.603568
8743.000000;0.604260
8742.000000;0.604741
8741.000000;0.604722
8740.000000;0.604477
8739.000000;0.604448
8738.000000;0.604727
8737.000000;0.605103
8736.000000;0.605360
8735.000000;0.605362
8734.000000;0.605055
8733.000000;0.604564
8732.000000;0.604147
8731.000000;0.603902
8730.000000;0.603676
8729.000000;0.603352
8728.000000;0.603022
8727.000000;0.602738
8726.000000;0.602351
8725.000000;0.601837
8724.000000;0.601589
8723.000000;0.602053
8722.000000;0.603123
8721.000000;0.604108
8720.000000;0.604318
8719.000000;0.603618
8718.000000;0.602481
8717.000000;0.601671
8716.000000;0.601772
8715.000000;0.602744
8714.000000;0.603846
8713.000000;0.604229
8712.000000;0.603737
8711.000000;0.603052
8710.000000;0.602940
8709.000000;0.603462
8708.000000;0.604014
8707.000000;0.604084
8706.000000;0.603817
8705.000000;0.603732
8704.000000;0.604011
8703.000000;0.604273
8702.000000;0.604046
8701.000000;0.603301
8700.000000;0.602422
8699.000000;0.601841
8698.000000;0.601820
8697.000000;0.602407
8696.000000;0.603323
8695.000000;0.603973
8694.000000;0.603882
8693.000000;0.603191
8692.000000;0.602535
8691.000000;0.602399
8690.000000;0.602762
8689.000000;0.603325
8688.000000;0.603795
8687.000000;0.603921
8686.000000;0.603563
8685.000000;0.602887
8684.000000;0.602271
8683.000000;0.601891
8682.000000;0.601593
8681.000000;0.601289
8680.000000;0.601209
8679.000000;0.601550
8678.000000;0.602087
8677.000000;0.602384
8676.000000;0.602276
8675.000000;0.601927
8674.000000;0.601544
8673.000000;0.601274
8672.000000;0.601266
8671.000000;0.601533
8670.000000;0.601784
8669.000000;0.601676
8668.000000;0.601272
8667.000000;0.601040
8666.000000;0.601336
8665.000000;0.602034
8664.000000;0.602688
8663.000000;0.602905
8662.000000;0.602577
8661.000000;0.601934
8660.000000;0.601431
8659.000000;0.601386
8658.000000;0.601631
8657.000000;0.601622
8656.000000;0.601014
8655.000000;0.600067
8654.000000;0.599391
8653.000000;0.599349
8652.000000;0.599800
8651.000000;0.600342
8650.000000;0.600677
8649.000000;0.600732
8648.000000;0.600548
8647.000000;0.600199
8646.000000;0.599822
8645.000000;0.599655
8644.000000;0.599904
8643.000000;0.600514
8642.000000;0.601105
8641.000000;0.601244
8640.000000;0.600835
8639.000000;0.600225
8638.000000;0.599874
8637.000000;0.599918
8636.000000;0.600073
8635.000000;0.599980
8634.000000;0.599583
8633.000000;0.599163
8632.000000;0.599013
8631.000000;0.599165
8630.000000;0.599399
8629.000000;0.599400
8628.000000;0.598921
8627.000000;0.597991
8626.000000;0.597065
8625.000000;0.596811
8624.000000;0.597532
8623.000000;0.598786
8622.000000;0.599739
8621.000000;0.599932
8620.000000;0.599566
8619.000000;0.599062
8618.000000;0.598585
8617.000000;0.598105
8616.000000;0.597713
8615.000000;0.597634
8614.000000;0.597919
8613.000000;0.598268
8612.000000;0.598267
8611.000000;0.597802
8610.000000;0.597202
8609.000000;0.596908
8608.000000;0.597028
8607.000000;0.597271
8606.000000;0.597329
8605.000000;0.597190
8604.000000;0.596986
8603.000000;0.596692
8602.000000;0.596188
8601.000000;0.595533
8600.000000;0.594963
8599.000000;0.594573
8598.000000;0.594219
8597.000000;0.593787
8596.000000;0.593424
8595.000000;0.593363
8594.000000;0.593637
8593.000000;0.594053
8592.000000;0.594368
8591.000000;0.594450
8590.000000;0.594309
8589.000000;0.594041
8588.000000;0.593768
8587.000000;0.593625
8586.000000;0.593744
8585.000000;0.594130
8584.000000;0.594514
8583.000000;0.594522
8582.000000;0.594121
8581.000000;0.593724
8580.000000;0.593654
8579.000000;0.593693
8578.000000;0.593447
8577.000000;0.593032
8576.000000;0.592985
8575.000000;0.593514
8574.000000;0.594188
8573.000000;0.594488
8572.000000;0.594312
8571.000000;0.593815
8570.000000;0.593120
8569.000000;0.592418
8568.000000;0.592068
8567.000000;0.592270
8566.000000;0.592766
8565.000000;0.593088
8564.000000;0.593018
8563.000000;0.592628
8562.000000;0.592008
8561.000000;0.591192
8560.000000;0.590347
8559.000000;0.589814
8558.000000;0.589898
8557.000000;0.590593
8556.000000;0.591475
8555.000000;0.591910
8554.000000;0.591547
8553.000000;0.590690
8552.000000;0.590029
8551.000000;0.589966
8550.000000;0.590346
8549.000000;0.590831
8548.000000;0.591253
8547.000000;0.591514
8546.000000;0.591483
8545.000000;0.591210
8544.000000;0.591009
8543.000000;0.591059
8542.000000;0.591088
8541.000000;0.590721
8540.000000;0.590006
8539.000000;0.589377
8538.000000;0.589158
8537.000000;0.589336
8536.000000;0.589687
8535.000000;0.589899
8534.000000;0.589689
8533.000000;0.589061
8532.000000;0.588429
8531.000000;0.588240
8530.000000;0.588439
8529.000000;0.588479
8528.000000;0.587925
8527.000000;0.586980
8526.000000;0.586383
8525.000000;0.586773
8524.000000;0.588035
8523.000000;0.589249
8522.000000;0.589456
8521.000000;0.588603
8520.000000;0.587547
8519.000000;0.587089
8518.000000;0.587262
8517.000000;0.587619
8516.000000;0.587846
8515.000000;0.587820
8514.000000;0.587405
8513.000000;0.586631
8512.000000;0.585903
8511.000000;0.585649
8510.000000;0.585788
8509.000000;0.585894
8508.000000;0.585824
8507.000000;0.585849
8506.000000;0.586186
8505.000000;0.586718
8504.000000;0.587182
8503.000000;0.587339
8502.000000;0.586979
8501.000000;0.586120
8500.000000;0.585229
8499.000000;0.584903
8498.000000;0.585227
8497.000000;0.585714
8496.000000;0.585944
8495.000000;0.585946
8494.000000;0.585891
8493.000000;0.585759
8492.000000;0.585512
8491.000000;0.585299
8490.000000;0.585254
8489.000000;0.585275
8488.000000;0.585208
8487.000000;0.585089
8486.000000;0.585019
8485.000000;0.584938
8484.000000;0.584729
8483.000000;0.584432
8482.000000;0.584192
8481.000000;0.584063
8480.000000;0.584010
8479.000000;0.584004
8478.000000;0.583994
8477.000000;0.583880
8476.000000;0.583650
8475.000000;0.583465
8474.000000;0.583493
8473.000000;0.583698
8472.000000;0.583877
8471.000000;0.583837
8470.000000;0.583461
8469.000000;0.582730
8468.000000;0.581832
8467.000000;0.581186
8466.000000;0.581135
8465.000000;0.581579
8464.000000;0.582045
8463.000000;0.582188
8462.000000;0.582127
8461.000000;0.582230
8460.000000;0.582625
8459.000000;0.583014
8458.000000;0.583021
8457.000000;0.582665
8456.000000;0.582390
8455.000000;0.582571
8454.000000;0.583068
8453.000000;0.583338
8452.000000;0.582968
8451.000000;0.582040
8450.000000;0.580991
8449.000000;0.580224
8448.000000;0.579864
8447.000000;0.579766
8446.000000;0.579692
8445.000000;0.579522
8444.000000;0.579322
8443.000000;0.579200
8442.000000;0.579132
8441.000000;0.579021
8440.000000;0.578905
8439.000000;0.578985
8438.000000;0.579412
8437.000000;0.580082
8436.000000;0.580694
8435.000000;0.580998
8434.000000;0.580994
8433.000000;0.580884
8432.000000;0.580795
8431.000000;0.580558
8430.000000;0.579902
8429.000000;0.578929
8428.000000;0.578190
8427.000000;0.578113
8426.000000;0.578484
8425.000000;0.578737
8424.000000;0.578679
8423.000000;0.578613
8422.000000;0.578729
8421.000000;0.578769
8420.000000;0.578440
8419.000000;0.577871
8418.000000;0.577409
8417.000000;0.577176
8416.000000;0.577061
8415.000000;0.577058
8414.000000;0.577290
8413.000000;0.577701
8412.000000;0.577953
8411.000000;0.577694
8410.000000;0.576917
8409.000000;0.576048
8408.000000;0.575706
8407.000000;0.576236
8406.000000;0.577332
8405.000000;0.578198
8404.000000;0.578253
8403.000000;0.577657
8402.000000;0.577065
8401.000000;0.576935
8400.000000;0.577237
8399.000000;0.577671
8398.000000;0.577928
8397.000000;0.577756
8396.000000;0.577089
8395.000000;0.576228
8394.000000;0.575664
8393.000000;0.575615
8392.000000;0.575844
8391.000000;0.576012
8390.000000;0.575999
8389.000000;0.575798
8388.000000;0.575300
8387.000000;0.574466
8386.000000;0.573620
8385.000000;0.573332
8384.000000;0.573915
8383.000000;0.575145
8382.000000;0.576467
8381.000000;0.577365
8380.000000;0.577543
8379.000000;0.576994
8378.000000;0.576032
8377.000000;0.575173
8376.000000;0.574800
8375.000000;0.574915
8374.000000;0.575231
8373.000000;0.575461
8372.000000;0.575461
8371.000000;0.575183
8370.000000;0.574649
8369.000000;0.573994
8368.000000;0.573447
8367.000000;0.573203
8366.000000;0.573273
8365.000000;0.573469
8364.000000;0.573533
8363.000000;0.573337
8362.000000;0.572993
8361.000000;0.572753
8360.000000;0.572769
8359.000000;0.572979
8358.000000;0.573226
8357.000000;0.573424
8356.000000;0.573549
8355.000000;0.573565
8354.000000;0.573488
8353.000000;0.573455
8352.000000;0.573569
8351.000000;0.573690
8350.000000;0.573542
8349.000000;0.573096
8348.000000;0.572670
8347.000000;0.572521
8346.000000;0.572463
8345.000000;0.572068
8344.000000;0.571250
8343.000000;0.570477
8342.000000;0.570310
8341.000000;0.570804
8340.000000;0.571429
8339.000000;0.571586
8338.000000;0.571160
8337.000000;0.570555
8336.000000;0.570262
8335.000000;0.570450
8334.000000;0.570933
8333.000000;0.571372
8332.000000;0.571473
8331.000000;0.571160
8330.000000;0.570709
8329.000000;0.570585
8328.000000;0.570980
8327.000000;0.571526
8326.000000;0.571619
8325.000000;0.571022
8324.000000;0.570016
8323.000000;0.569056
8322.000000;0.568477
8321.000000;0.568482
8320.000000;0.569047
8319.000000;0.569754
8318.000000;0.570007
8317.000000;0.569650
8316.000000;0.569178
8315.000000;0.569147
8314.000000;0.569520
8313.000000;0.569797
8312.000000;0.569655
8311.000000;0.569230
8310.000000;0.568841
8309.000000;0.568681
8308.000000;0.568747
8307.000000;0.568890
8306.000000;0.568915
8305.000000;0.568786
8304.000000;0.568717
8303.000000;0.568927
8302.000000;0.569334
8301.000000;0.569655
8300.000000;0.569742
8299.000000;0.569657
8298.000000;0.569433
8297.000000;0.569012
8296.000000;0.568455
8295.000000;0.568010
8294.000000;0.567844
8293.000000;0.567827
8292.000000;0.567711
8291.000000;0.567446
8290.000000;0.567234
8289.000000;0.567274
8288.000000;0.567522
8287.000000;0.567710
8286.000000;0.567599
8285.000000;0.567235
8284.000000;0.566910
8283.000000;0.566847
8282.000000;0.566972
8281.000000;0.567046
8280.000000;0.566941
8279.000000;0.566700
8278.000000;0.566404
8277.000000;0.566101
8276.000000;0.565852
8275.000000;0.565728
8274.000000;0.565768
8273.000000;0.565971
8272.000000;0.566257
8271.000000;0.566399
8270.000000;0.566129
8269.000000;0.565487
8268.000000;0.564954
8267.000000;0.565011
8266.000000;0.565573
8265.000000;0.566080
8264.000000;0.566136
8263.000000;0.565886
8262.000000;0.565701
8261.000000;0.565728
8260.000000;0.565828
8259.000000;0.565793
8258.000000;0.565514
8257.000000;0.565075
8256.000000;0.564761
8255.000000;0.564843
8254.000000;0.565262
8253.000000;0.565626
8252.000000;0.565589
8251.000000;0.565168
8250.000000;0.564643
8249.000000;0.564280
8248.000000;0.564207
8247.000000;0.564377
8246.000000;0.564553
8245.000000;0.564468
8244.000000;0.564138
8243.000000;0.563919
8242.000000;0.564093
8241.000000;0.564487
8240.000000;0.564654
8239.000000;0.564344
8238.000000;0.563708
8237.000000;0.563100
8236.000000;0.562833
8235.000000;0.563035
8234.000000;0.563536
8233.000000;0.563902
8232.000000;0.563767
8231.000000;0.563219
8230.000000;0.562754
8229.000000;0.562768
8228.000000;0.563177
8227.000000;0.563560
8226.000000;0.563603
8225.000000;0.563334
8224.000000;0.563025
8223.000000;0.562928
8222.000000;0.563090
8221.000000;0.563362
8220.000000;0.563531
8219.000000;0.563466
8218.000000;0.563180
8217.000000;0.562812
8216.000000;0.562554
8215.000000;0.562534
8214.000000;0.562694
8213.000000;0.562791
8212.000000;0.562607
8211.000000;0.562199
8210.000000;0.561907
8209.000000;0.562030
8208.000000;0.562435
8207.000000;0.562569
8206.000000;0.561990
8205.000000;0.560925
8204.000000;0.560154
8203.000000;0.560232
8202.000000;0.560918
8201.000000;0.561483
8200.000000;0.561536
8199.000000;0.561335
8198.000000;0.561298
8197.000000;0.561461
8196.000000;0.561554
8195.000000;0.561431
8194.000000;0.561225
8193.000000;0.561106
8192.000000;0.561072
8191.000000;0.561008
8190.000000;0.560848
8189.000000;0.560643
8188.000000;0.560496
8187.000000;0.560452
8186.000000;0.560421
8185.000000;0.560225
8184.000000;0.559781
8183.000000;0.559236
8182.000000;0.558864
8181.000000;0.558814
8180.000000;0.558981
8179.000000;0.559130
8178.000000;0.559132
8177.000000;0.559063
8176.000000;0.559053
8175.000000;0.559067
8174.000000;0.558911
8173.000000;0.558506
8172.000000;0.558087
8171.000000;0.558002
8170.000000;0.558291
8169.000000;0.558598
8168.000000;0.558554
8167.000000;0.558170
8166.000000;0.557785
8165.000000;0.557703
8164.000000;0.557955
8163.000000;0.558349
8162.000000;0.558675
8161.000000;0.558839
8160.000000;0.558884
8159.000000;0.558870
8158.000000;0.558781
8157.000000;0.558590
8156.000000;0.558389
8155.000000;0.558335
8154.000000;0.558423
8153.000000;0.558453
8152.000000;0.558299
8151.000000;0.558079
8150.000000;0.557935
8149.000000;0.557793
8148.000000;0.557493
8147.000000;0.557101
8146.000000;0.556880
8145.000000;0.556976
8144.000000;0.557265
8143.000000;0.557496
8142.000000;0.557442
8141.000000;0.556969
8140.000000;0.556164
8139.000000;0.555424
8138.000000;0.555214
8137.000000;0.555632
8136.000000;0.556342
8135.000000;0.556956
8134.000000;0.557339
8133.000000;0.557485
8132.000000;0.557319
8131.000000;0.556816
8130.000000;0.556202
8129.000000;0.555834
8128.000000;0.555873
8127.000000;0.556168
8126.000000;0.556413
8125.000000;0.556365
8124.000000;0.555985
8123.000000;0.555514
8122.000000;0.555310
8121.000000;0.555475
8120.000000;0.555671
8119.000000;0.555478
8118.000000;0.554932
8117.000000;0.554541
8116.000000;0.554726
8115.000000;0.555393
8114.000000;0.556072
8113.000000;0.556351
8112.000000;0.556128
8111.000000;0.555598
8110.000000;0.555104
8109.000000;0.554909
8108.000000;0.554992
8107.000000;0.555092
8106.000000;0.555017
8105.000000;0.554835
8104.000000;0.554707
8103.000000;0.554645
8102.000000;0.554560
8101.000000;0.554476
8100.000000;0.554530
8099.000000;0.554768
8098.000000;0.555057
8097.000000;0.555223
8096.000000;0.555200
8095.000000;0.555027
8094.000000;0.554807
8093.000000;0.554677
8092.000000;0.554715
8091.000000;0.554852
8090.000000;0.554934
8089.000000;0.554862
8088.000000;0.554596
8087.000000;0.554063
8086.000000;0.553255
8085.000000;0.552458
8084.000000;0.552159
8083.000000;0.552575
8082.000000;0.553352
8081.000000;0.553889
8080.000000;0.553894
8079.000000;0.553523
8078.000000;0.553060
8077.000000;0.552681
8076.000000;0.552489
8075.000000;0.552557
8074.000000;0.552819
8073.000000;0.553080
8072.000000;0.553201
8071.000000;0.553207
8070.000000;0.553151
8069.000000;0.552990
8068.000000;0.552681
8067.000000;0.552306
8066.000000;0.551991
8065.000000;0.551775
8064.000000;0.551656
8063.000000;0.551721
8062.000000;0.552098
8061.000000;0.552756
8060.000000;0.553428
8059.000000;0.553760
8058.000000;0.553543
8057.000000;0.552863
8056.000000;0.552108
8055.000000;0.551730
8054.000000;0.551892
8053.000000;0.552308
8052.000000;0.552518
8051.000000;0.552330
8050.000000;0.551930
8049.000000;0.551591
8048.000000;0.551409
8047.000000;0.551337
8046.000000;0.551304
8045.000000;0.551212
8044.000000;0.550963
8043.000000;0.550605
8042.000000;0.550358
8041.000000;0.550377
8040.000000;0.550545
8039.000000;0.550632
8038.000000;0.550586
8037.000000;0.550539
8036.000000;0.550551
8035.000000;0.550544
8034.000000;0.550498
8033.000000;0.550507
8032.000000;0.550591
8031.000000;0.550613
8030.000000;0.550470
8029.000000;0.550249
8028.000000;0.550082
8027.000000;0.549984
8026.000000;0.549933
8025.000000;0.550004
8024.000000;0.550261
8023.000000;0.550585
8022.000000;0.550780
8021.000000;0.550788
8020.000000;0.550676
8019.000000;0.550450
8018.000000;0.550069
8017.000000;0.549622
8016.000000;0.549308
8015.000000;0.549202
8014.000000;0.549199
8013.000000;0.549218
8012.000000;0.549287
8011.000000;0.549370
8010.000000;0.549294
8009.000000;0.548991
8008.000000;0.548656
8007.000000;0.548524
8006.000000;0.548569
8005.000000;0.548591
8004.000000;0.548564
8003.000000;0.548714
8002.000000;0.549213
8001.000000;0.549899
8000.000000;0.550351
7999.000000;0.550231
7998.000000;0.549570
7997.000000;0.548763
7996.000000;0.548240
7995.000000;0.548121
7994.000000;0.548174
7993.000000;0.548153
7992.000000;0.548082
7991.000000;0.548143
7990.000000;0.548350
7989.000000;0.548499
7988.000000;0.548426
7987.000000;0.548222
7986.000000;0.548125
7985.000000;0.548283
7984.000000;0.548640
7983.000000;0.548997
7982.000000;0.549140
7981.000000;0.548959
7980.000000;0.548518
7979.000000;0.547983
7978.000000;0.547482
7977.000000;0.547044
7976.000000;0.546710
7975.000000;0.546617
7974.000000;0.546884
7973.000000;0.547398
7972.000000;0.547792
7971.000000;0.547723
7970.000000;0.547188
7969.000000;0.546523
7968.000000;0.546085
7967.000000;0.545984
7966.000000;0.546105
7965.000000;0.546294
7964.000000;0.546444
7963.000000;0.546506
7962.000000;0.546515
7961.000000;0.546581
7960.000000;0.546729
7959.000000;0.546770
7958.000000;0.546501
7957.000000;0.546040
7956.000000;0.545797
7955.000000;0.546020
7954.000000;0.546510
7953.000000;0.546875
7952.000000;0.546969
7951.000000;0.546955
7950.000000;0.547023
7949.000000;0.547172
7948.000000;0.547226
7947.000000;0.546970
7946.000000;0.546345
7945.000000;0.545614
7944.000000;0.545246
7943.000000;0.545478
7942.000000;0.546015
7941.000000;0.546303
7940.000000;0.546100
7939.000000;0.545663
7938.000000;0.545383
7937.000000;0.545388
7936.000000;0.545531
7935.000000;0.545600
7934.000000;0.545492
7933.000000;0.545277
7932.000000;0.545135
7931.000000;0.545191
7930.000000;0.545367
7929.000000;0.545487
7928.000000;0.545488
7927.000000;0.545444
7926.000000;0.545406
7925.000000;0.545350
7924.000000;0.545264
7923.000000;0.545141
7922.000000;0.544873
7921.000000;0.544362
7920.000000;0.543793
7919.000000;0.543593
7918.000000;0.543929
7917.000000;0.544410
7916.000000;0.544480
7915.000000;0.544077
7914.000000;0.543686
7913.000000;0.543721
7912.000000;0.544044
7911.000000;0.544179
7910.000000;0.543899
7909.000000;0.543495
7908.000000;0.543446
7907.000000;0.543904
7906.000000;0.544529
7905.000000;0.544824
7904.000000;0.544581
7903.000000;0.544004
7902.000000;0.543469
7901.000000;0.543256
7900.000000;0.543430
7899.000000;0.543823
7898.000000;0.544101
7897.000000;0.543985
7896.000000;0.543507
7895.000000;0.542981
7894.000000;0.542678
7893.000000;0.542591
7892.000000;0.542529
7891.000000;0.542355
7890.000000;0.542094
7889.000000;0.541901
7888.000000;0.541988
7887.000000;0.542450
7886.000000;0.543073
7885.000000;0.543427
7884.000000;0.543296
7883.000000;0.542925
7882.000000;0.542710
7881.000000;0.542740
7880.000000;0.542812
7879.000000;0.542833
7878.000000;0.542965
7877.000000;0.543303
7876.000000;0.543602
7875.000000;0.543479
7874.000000;0.542848
7873.000000;0.542046
7872.000000;0.541532
7871.000000;0.541497
7870.000000;0.541772
7869.000000;0.542065
7868.000000;0.542229
7867.000000;0.542265
7866.000000;0.542148
7865.000000;0.541835
7864.000000;0.541448
7863.000000;0.541264
7862.000000;0.541361
7861.000000;0.541426
7860.000000;0.541141
7859.000000;0.540688
7858.000000;0.540591
7857.000000;0.541054
7856.000000;0.541679
7855.000000;0.541951
7854.000000;0.541765
7853.000000;0.541380
7852.000000;0.541030
7851.000000;0.540792
7850.000000;0.540709
7849.000000;0.540825
7848.000000;0.541096
7847.000000;0.541390
7846.000000;0.541578
7845.000000;0.541562
7844.000000;0.541293
7843.000000;0.540847
7842.000000;0.540444
7841.000000;0.540269
7840.000000;0.540306
7839.000000;0.540418
7838.000000;0.540544
7837.000000;0.540672
7836.000000;0.540686
7835.000000;0.540423
7834.000000;0.539899
7833.000000;0.539360
7832.000000;0.539066
7831.000000;0.539093
7830.000000;0.539353
7829.000000;0.539656
7828.000000;0.539753
7827.000000;0.539510
7826.000000;0.539147
7825.000000;0.539125
7824.000000;0.539637
7823.000000;0.540280
7822.000000;0.540433
7821.000000;0.539935
7820.000000;0.539272
7819.000000;0.539057
7818.000000;0.539447
7817.000000;0.540078
7816.000000;0.540490
7815.000000;0.540500
7814.000000;0.540229
7813.000000;0.539878
7812.000000;0.539562
7811.000000;0.539340
7810.000000;0.539290
7809.000000;0.539456
7808.000000;0.539721
7807.000000;0.539841
7806.000000;0.539646
7805.000000;0.539195
7804.000000;0.538696
7803.000000;0.538333
7802.000000;0.538206
7801.000000;0.538329
7800.000000;0.538603
7799.000000;0.538805
7798.000000;0.538730
7797.000000;0.538364
7796.000000;0.537882
7795.000000;0.537485
7794.000000;0.537288
7793.000000;0.537323
7792.000000;0.537557
7791.000000;0.537878
7790.000000;0.538155
7789.000000;0.538330
7788.000000;0.538406
7787.000000;0.538363
7786.000000;0.538211
7785.000000;0.538094
7784.000000;0.538184
7783.000000;0.538425
7782.000000;0.538502
7781.000000;0.538211
7780.000000;0.537770
7779.000000;0.537582
7778.000000;0.537741
7777.000000;0.537928
7776.000000;0.537821
7775.000000;0.537432
7774.000000;0.536978
7773.000000;0.536571
7772.000000;0.536193
7771.000000;0.535901
7770.000000;0.535863
7769.000000;0.536149
7768.000000;0.536625
7767.000000;0.537083
7766.000000;0.537395
7765.000000;0.537499
7764.000000;0.537351
7763.000000;0.537018
7762.000000;0.536738
7761.000000;0.536730
7760.000000;0.536929
7759.000000;0.537057
7758.000000;0.536967
7757.000000;0.536815
7756.000000;0.536814
7755.000000;0.536936
7754.000000;0.536947
7753.000000;0.536665
7752.000000;0.536129
7751.000000;0.535564
7750.000000;0.535259
7749.000000;0.535385
7748.000000;0.535818
7747.000000;0.536204
7746.000000;0.536294
7745.000000;0.536179
7744.000000;0.536075
7743.000000;0.535978
7742.000000;0.535723
7741.000000;0.535338
7740.000000;0.535089
7739.000000;0.535117
7738.000000;0.535228
7737.000000;0.535201
7736.000000;0.535109
7735.000000;0.535164
7734.000000;0.535341
7733.000000;0.535379
7732.000000;0.535124
7731.000000;0.534706
7730.000000;0.534346
7729.000000;0.534146
7728.000000;0.534091
7727.000000;0.534166
7726.000000;0.534360
7725.000000;0.534609
7724.000000;0.534818
7723.000000;0.534958
7722.000000;0.535112
7721.000000;0.535370
7720.000000;0.535671
7719.000000;0.535799
7718.000000;0.535606
7717.000000;0.535226
7716.000000;0.534942
7715.000000;0.534821
7714.000000;0.534628
7713.000000;0.534193
7712.000000;0.533715
7711.000000;0.533535
7710.000000;0.533703
7709.000000;0.533965
7708.000000;0.534140
7707.000000;0.534287
7706.000000;0.534448
7705.000000;0.534470
7704.000000;0.534228
7703.000000;0.533872
7702.000000;0.533666
7701.000000;0.533660
7700.000000;0.533665
7699.000000;0.533534
7698.000000;0.533322
7697.000000;0.533151
7696.000000;0.533058
7695.000000;0.533012
7694.000000;0.532981
7693.000000;0.532902
7692.000000;0.532656
7691.000000;0.532204
7690.000000;0.531752
7689.000000;0.531688
7688.000000;0.532247
7687.000000;0.533244
7686.000000;0.534157
7685.000000;0.534517
7684.000000;0.534252
7683.000000;0.533674
7682.000000;0.533169
7681.000000;0.532934
7680.000000;0.532919
7679.000000;0.532958
7678.000000;0.532915
7677.000000;0.532780
7676.000000;0.532636
7675.000000;0.532537
7674.000000;0.532419
7673.000000;0.532186
7672.000000;0.531886
7671.000000;0.531734
7670.000000;0.531878
7669.000000;0.532189
7668.000000;0.532391
7667.000000;0.532380
7666.000000;0.532282
7665.000000;0.532169
7664.000000;0.531897
7663.000000;0.531382
7662.000000;0.530914
7661.000000;0.530949
7660.000000;0.531564
7659.000000;0.532308
7658.000000;0.532683
7657.000000;0.532634
7656.000000;0.532437
7655.000000;0.532284
7654.000000;0.532160
7653.000000;0.532040
7652.000000;0.531948
7651.000000;0.531830
7650.000000;0.531594
7649.000000;0.531316
7648.000000;0.531176
7647.000000;0.531129
7646.000000;0.530865
7645.000000;0.530268
7644.000000;0.529702
7643.000000;0.529623
7642.000000;0.530006
7641.000000;0.530395
7640.000000;0.530475
7639.000000;0.530359
7638.000000;0.530315
7637.000000;0.530421
7636.000000;0.530585
7635.000000;0.530735
7634.000000;0.530851
7633.000000;0.530910
7632.000000;0.530910
7631.000000;0.530920
7630.000000;0.531010
7629.000000;0.531136
7628.000000;0.531181
7627.000000;0.531105
7626.000000;0.531013
7625.000000;0.531051
7624.000000;0.531224
7623.000000;0.531348
7622.000000;0.531206
7621.000000;0.530788
7620.000000;0.530337
7619.000000;0.530113
7618.000000;0.530117
7617.000000;0.530125
7616.000000;0.529981
7615.000000;0.529783
7614.000000;0.529743
7613.000000;0.529915
7612.000000;0.530114
7611.000000;0.530074
7610.000000;0.529665
7609.000000;0.528986
7608.000000;0.528305
7607.000000;0.527896
7606.000000;0.527892
7605.000000;0.528233
7604.000000;0.528714
7603.000000;0.529076
7602.000000;0.529128
7601.000000;0.528856
7600.000000;0.528441
7599.000000;0.528160
7598.000000;0.528208
7597.000000;0.528568
7596.000000;0.529001
7595.000000;0.529200
7594.000000;0.529072
7593.000000;0.528888
7592.000000;0.529046
7591.000000;0.529589
7590.000000;0.530074
7589.000000;0.530024
7588.000000;0.529464
7587.000000;0.528846
7586.000000;0.528512
7585.000000;0.528415
7584.000000;0.528369
7583.000000;0.528353
7582.000000;0.528421
7581.000000;0.528486
7580.000000;0.528371
7579.000000;0.528081
7578.000000;0.527854
7577.000000;0.527920
7576.000000;0.528261
7575.000000;0.528624
7574.000000;0.528735
7573.000000;0.528504
7572.000000;0.528070
7571.000000;0.527681
7570.000000;0.527533
7569.000000;0.527661
7568.000000;0.527947
7567.000000;0.528220
7566.000000;0.528392
7565.000000;0.528527
7564.000000;0.528736
7563.000000;0.528985
7562.000000;0.529095
7561.000000;0.528980
7560.000000;0.528815
7559.000000;0.528838
7558.000000;0.529052
7557.000000;0.529244
7556.000000;0.529273
7555.000000;0.529168
7554.000000;0.528961
7553.000000;0.528618
7552.000000;0.528198
7551.000000;0.527896
7550.000000;0.527796
7549.000000;0.527718
7548.000000;0.527458
7547.000000;0.527109
7546.000000;0.526978
7545.000000;0.527222
7544.000000;0.527685
7543.000000;0.528064
7542.000000;0.528142
7541.000000;0.527901
7540.000000;0.527524
7539.000000;0.527278
7538.000000;0.527299
7537.000000;0.527469
7536.000000;0.527591
7535.000000;0.527634
7534.000000;0.527737
7533.000000;0.527963
7532.000000;0.528178
7531.000000;0.528189
7530.000000;0.527915
7529.000000;0.527422
7528.000000;0.526876
7527.000000;0.526508
7526.000000;0.526502
7525.000000;0.526842
7524.000000;0.527273
7523.000000;0.527498
7522.000000;0.527397
7521.000000;0.527049
7520.000000;0.526600
7519.000000;0.526200
7518.000000;0.526019
7517.000000;0.526235
7516.000000;0.526878
7515.000000;0.527694
7514.000000;0.528240
7513.000000;0.528229
7512.000000;0.527804
7511.000000;0.527406
7510.000000;0.527339
7509.000000;0.527494
7508.000000;0.527548
7507.000000;0.527370
7506.000000;0.527146
7505.000000;0.527115
7504.000000;0.527283
7503.000000;0.527447
7502.000000;0.527460
7501.000000;0.527377
7500.000000;0.527345
7499.000000;0.527424
7498.000000;0.527550
7497.000000;0.527667
7496.000000;0.527784
7495.000000;0.527888
7494.000000;0.527875
7493.000000;0.527652
7492.000000;0.527278
7491.000000;0.526943
7490.000000;0.526754
7489.000000;0.526676
7488.000000;0.526672
7487.000000;0.526776
7486.000000;0.526994
7485.000000;0.527221
7484.000000;0.527324
7483.000000;0.527249
7482.000000;0.527010
7481.000000;0.526637
7480.000000;0.526221
7479.000000;0.525922
7478.000000;0.525851
7477.000000;0.525977
7476.000000;0.526214
7475.000000;0.526530
7474.000000;0.526878
7473.000000;0.527119
7472.000000;0.527163
7471.000000;0.527156
7470.000000;0.527362
7469.000000;0.527835
7468.000000;0.528338
7467.000000;0.528620
7466.000000;0.528652
7465.000000;0.528561
7464.000000;0.528448
7463.000000;0.528328
7462.000000;0.528179
7461.000000;0.527972
7460.000000;0.527695
7459.000000;0.527385
7458.000000;0.527117
7457.000000;0.526946
7456.000000;0.526898
7455.000000;0.526986
7454.000000;0.527156
7453.000000;0.527262
7452.000000;0.527227
7451.000000;0.527226
7450.000000;0.527533
7449.000000;0.528126
7448.000000;0.528565
7447.000000;0.528406
7446.000000;0.527650
7445.000000;0.526734
7444.000000;0.526134
7443.000000;0.526059
7442.000000;0.526397
7441.000000;0.526837
7440.000000;0.527089
7439.000000;0.527109
7438.000000;0.527095
7437.000000;0.527215
7436.000000;0.527396
7435.000000;0.527464
7434.000000;0.527411
7433.000000;0.527405
7432.000000;0.527587
7431.000000;0.527962
7430.000000;0.528417
7429.000000;0.528715
7428.000000;0.528579
7427.000000;0.527985
7426.000000;0.527357
7425.000000;0.527246
7424.000000;0.527739
7423.000000;0.528332
7422.000000;0.528495
7421.000000;0.528222
7420.000000;0.527924
7419.000000;0.527891
7418.000000;0.528038
7417.000000;0.528144
7416.000000;0.528162
7415.000000;0.528251
7414.000000;0.528576
7413.000000;0.529108
7412.000000;0.529580
7411.000000;0.529671
7410.000000;0.529273
7409.000000;0.528576
7408.000000;0.527890
7407.000000;0.527428
7406.000000;0.527292
7405.000000;0.527540
7404.000000;0.528108
7403.000000;0.528702
7402.000000;0.528941
7401.000000;0.528731
7400.000000;0.528409
7399.000000;0.528404
7398.000000;0.528792
7397.000000;0.529249
7396.000000;0.529421
7395.000000;0.529251
7394.000000;0.528941
7393.000000;0.528675
7392.000000;0.528491
7391.000000;0.528389
7390.000000;0.528424
7389.000000;0.528658
7388.000000;0.529044
7387.000000;0.529429
7386.000000;0.529643
7385.000000;0.529597
7384.000000;0.529345
7383.000000;0.529108
7382.000000;0.529185
7381.000000;0.529711
7380.000000;0.530454
7379.000000;0.530915
7378.000000;0.530756
7377.000000;0.530156
7376.000000;0.529708
7375.000000;0.529924
7374.000000;0.530775
7373.000000;0.531712
7372.000000;0.532153
7371.000000;0.531963
7370.000000;0.531514
7369.000000;0.531285
7368.000000;0.531416
7367.000000;0.531650
7366.000000;0.531684
7365.000000;0.531479
7364.000000;0.531204
7363.000000;0.531026
7362.000000;0.531028
7361.000000;0.531223
7360.000000;0.531547
7359.000000;0.531844
7358.000000;0.531923
7357.000000;0.531702
7356.000000;0.531294
7355.000000;0.530955
7354.000000;0.530938
7353.000000;0.531312
7352.000000;0.531844
7351.000000;0.532153
7350.000000;0.532095
7349.000000;0.531947
7348.000000;0.532073
7347.000000;0.532439
7346.000000;0.532623
7345.000000;0.532332
7344.000000;0.531785
7343.000000;0.531506
7342.000000;0.531808
7341.000000;0.532539
7340.000000;0.533305
7339.000000;0.533886
7338.000000;0.534422
7337.000000;0.535154
7336.000000;0.535994
7335.000000;0.536528
7334.000000;0.536475
7333.000000;0.536034
7332.000000;0.535573
7331.000000;0.535087
7330.000000;0.534250
7329.000000;0.533046
7328.000000;0.532040
7327.000000;0.531825
7326.000000;0.532363
7325.000000;0.533049
7324.000000;0.533336
7323.000000;0.533195
7322.000000;0.533087
7321.000000;0.533540
7320.000000;0.534599
7319.000000;0.535617
7318.000000;0.535781
7317.000000;0.534941
7316.000000;0.533794
7315.000000;0.533143
7314.000000;0.533099
7313.000000;0.533160
7312.000000;0.532958
7311.000000;0.532676
7310.000000;0.532684
7309.000000;0.533057
7308.000000;0.533612
7307.000000;0.534226
7306.000000;0.534906
7305.000000;0.535616
7304.000000;0.536180
7303.000000;0.536442
7302.000000;0.536462
7301.000000;0.536518
7300.000000;0.536826
7299.000000;0.537264
7298.000000;0.537469
7297.000000;0.537191
7296.000000;0.536516
7295.000000;0.535819
7294.000000;0.535572
7293.000000;0.536038
7292.000000;0.537002
7291.000000;0.537819
7290.000000;0.537955
7289.000000;0.537586
7288.000000;0.537506
7287.000000;0.538253
7286.000000;0.539442
7285.000000;0.540187
7284.000000;0.540065
7283.000000;0.539418
7282.000000;0.538821
7281.000000;0.538571
7280.000000;0.538671
7279.000000;0.539002
7278.000000;0.539377
7277.000000;0.539590
7276.000000;0.539600
7275.000000;0.539586
7274.000000;0.539700
7273.000000;0.539862
7272.000000;0.539937
7271.000000;0.540023
7270.000000;0.540361
7269.000000;0.540981
7268.000000;0.541612
7267.000000;0.541985
7266.000000;0.542137
7265.000000;0.542294
7264.000000;0.542538
7263.000000;0.542733
7262.000000;0.542791
7261.000000;0.542879
7260.000000;0.543237
7259.000000;0.543805
7258.000000;0.544172
7257.000000;0.544014
7256.000000;0.543558
7255.000000;0.543466
7254.000000;0.544201
7253.000000;0.545556
7252.000000;0.546835
7251.000000;0.547473
7250.000000;0.547422
7249.000000;0.547029
7248.000000;0.546733
7247.000000;0.546890
7246.000000;0.547637
7245.000000;0.548735
7244.000000;0.549639
7243.000000;0.549934
7242.000000;0.549755
7241.000000;0.549702
7240.000000;0.550201
7239.000000;0.551045
7238.000000;0.551763
7237.000000;0.552255
7236.000000;0.552823
7235.000000;0.553564
7234.000000;0.554032
7233.000000;0.553777
7232.000000;0.553078
7231.000000;0.552787
7230.000000;0.553422
7229.000000;0.554673
7228.000000;0.555931
7227.000000;0.557035
7226.000000;0.558256
7225.000000;0.559663
7224.000000;0.560817
7223.000000;0.561142
7222.000000;0.560502
7221.000000;0.559455
7220.000000;0.558916
7219.000000;0.559470
7218.000000;0.560905
7217.000000;0.562393
7216.000000;0.563221
7215.000000;0.563356
7214.000000;0.563299
7213.000000;0.563504
7212.000000;0.564065
7211.000000;0.564909
7210.000000;0.565976
7209.000000;0.567042
7208.000000;0.567637
7207.000000;0.567481
7206.000000;0.566894
7205.000000;0.566500
7204.000000;0.566571
7203.000000;0.566908
7202.000000;0.567333
7201.000000;0.567964
7200.000000;0.568841
7199.000000;0.569601
7198.000000;0.569859
7197.000000;0.569781
7196.000000;0.569958
7195.000000;0.570664
7194.000000;0.571501
7193.000000;0.571862
7192.000000;0.571646
7191.000000;0.571412
7190.000000;0.571855
7189.000000;0.573162
7188.000000;0.574842
7187.000000;0.576149
7186.000000;0.576744
7185.000000;0.576959
7184.000000;0.577393
7183.000000;0.578316
7182.000000;0.579583
7181.000000;0.581027
7180.000000;0.582668
7179.000000;0.584493
7178.000000;0.586273
7177.000000;0.587785
7176.000000;0.589039
7175.000000;0.590108
7174.000000;0.590851
7173.000000;0.591035
7172.000000;0.590643
7171.000000;0.589836
7170.000000;0.588722
7169.000000;0.587538
7168.000000;0.586958
7167.000000;0.587781
7166.000000;0.590105
7165.000000;0.592995
7164.000000;0.595140
7163.000000;0.595797
7162.000000;0.595224
7161.000000;0.594444
7160.000000;0.594567
7159.000000;0.595974
7158.000000;0.597952
7157.000000;0.599393
7156.000000;0.599886
7155.000000;0.599913
7154.000000;0.600023
7153.000000;0.600268
7152.000000;0.600641
7151.000000;0.601473
7150.000000;0.602961
7149.000000;0.604616
7148.000000;0.605654
7147.000000;0.605893
7146.000000;0.605873
7145.000000;0.606194
7144.000000;0.606985
7143.000000;0.607833
7142.000000;0.608087
7141.000000;0.607530
7140.000000;0.607026
7139.000000;0.608019
7138.000000;0.610777
7137.000000;0.613564
7136.000000;0.614409
7135.000000;0.613456
7134.000000;0.612700
7133.000000;0.613479
7132.000000;0.615006
7131.000000;0.615406
7130.000000;0.613656
7129.000000;0.610538
7128.000000;0.608231
7127.000000;0.608962
7126.000000;0.613104
7125.000000;0.618112
7124.000000;0.620329
7123.000000;0.618721
7122.000000;0.616027
7121.000000;0.615650
7120.000000;0.618242
7119.000000;0.621630
7118.000000;0.623330
7117.000000;0.622552
7116.000000;0.620294
7115.000000;0.618413
7114.000000;0.618513
7113.000000;0.620863
7112.000000;0.624055
7111.000000;0.626202
7110.000000;0.626714
7109.000000;0.626394
7108.000000;0.625880
7107.000000;0.624924
7106.000000;0.623423
7105.000000;0.622296
7104.000000;0.622508
7103.000000;0.623505
7102.000000;0.623436
7101.000000;0.621177
7100.000000;0.617729
7099.000000;0.615191
7098.000000;0.614432
7097.000000;0.614337
7096.000000;0.613753
7095.000000;0.613612
7094.000000;0.615843
7093.000000;0.620049
7092.000000;0.622922
7091.000000;0.622074
7090.000000;0.619126
7089.000000;0.617445
7088.000000;0.617975
7087.000000;0.618967
7086.000000;0.619075
7085.000000;0.618576
7084.000000;0.617289
7083.000000;0.613761
7082.000000;0.607863
7081.000000;0.602339
7080.000000;0.600139
7079.000000;0.601438
7078.000000;0.604295
7077.000000;0.606908
7076.000000;0.607884
7075.000000;0.605575
7074.000000;0.599626
7073.000000;0.592995
7072.000000;0.590075
7071.000000;0.592344
7070.000000;0.597006
7069.000000;0.600171
7068.000000;0.600371
7067.000000;0.598117
7066.000000;0.593940
7065.000000;0.588227
7064.000000;0.582235
7063.000000;0.578294
7062.000000;0.578087
7061.000000;0.580766
7060.000000;0.583211
7059.000000;0.582706
7058.000000;0.579658
7057.000000;0.576644
7056.000000;0.574669
7055.000000;0.571965
7054.000000;0.567120
7053.000000;0.562129
7052.000000;0.560310
7051.000000;0.561761
7050.000000;0.563198
7049.000000;0.562612
7048.000000;0.561818
7047.000000;0.562916
7046.000000;0.564175
7045.000000;0.561897
7044.000000;0.555822
7043.000000;0.550095
7042.000000;0.548822
7041.000000;0.552234
7040.000000;0.556628
7039.000000;0.556978
7038.000000;0.550711
7037.000000;0.540176
7036.000000;0.530557
7035.000000;0.525173
7034.000000;0.523302
7033.000000;0.522104
7032.000000;0.520026
7031.000000;0.517508
7030.000000;0.515219
7029.000000;0.513642
7028.000000;0.513831
7027.000000;0.516436
7026.000000;0.519954
7025.000000;0.521700
7024.000000;0.520689
7023.000000;0.517713
7022.000000;0.512859
7021.000000;0.505501
7020.000000;0.497189
7019.000000;0.491659
7018.000000;0.490489
7017.000000;0.490758
7016.000000;0.488636
7015.000000;0.484082
7014.000000;0.479889
7013.000000;0.477506
7012.000000;0.476071
7011.000000;0.474769
7010.000000;0.473619
7009.000000;0.471797
7008.000000;0.467989
7007.000000;0.463180
7006.000000;0.460804
7005.000000;0.462879
7004.000000;0.467024
7003.000000;0.468384
7002.000000;0.464109
7001.000000;0.455061
7000.000000;0.444201
6999.000000;0.435113
6998.000000;0.430940
6997.000000;0.432135
6996.000000;0.434797
6995.000000;0.433314
6994.000000;0.426178
6993.000000;0.417357
6992.000000;0.411071
6991.000000;0.407642
6990.000000;0.405217
6989.000000;0.404083
6988.000000;0.406783
6987.000000;0.413438
6986.000000;0.419739
6985.000000;0.420849
6984.000000;0.415851
6983.000000;0.407879
6982.000000;0.401007
6981.000000;0.397579
6980.000000;0.397653
6979.000000;0.399153
6978.000000;0.399034
6977.000000;0.395921
6976.000000;0.391273
6975.000000;0.387114
6974.000000;0.383606
6973.000000;0.379868
6972.000000;0.376096
6971.000000;0.373003
6970.000000;0.369791
6969.000000;0.364915
6968.000000;0.359009
6967.000000;0.354837
6966.000000;0.353817
6965.000000;0.354558
6964.000000;0.355335
6963.000000;0.355752
6962.000000;0.354768
6961.000000;0.349846
6960.000000;0.340788
6959.000000;0.332437
6958.000000;0.330317
6957.000000;0.334235
6956.000000;0.338371
6955.000000;0.337695
6954.000000;0.332594
6953.000000;0.326647
6952.000000;0.322242
6951.000000;0.319675
6950.000000;0.318122
6949.000000;0.315898
6948.000000;0.311345
6947.000000;0.304590
6946.000000;0.297908
6945.000000;0.294119
6944.000000;0.294580
6943.000000;0.298231
6942.000000;0.302075
6941.000000;0.303093
6940.000000;0.300962
6939.000000;0.298579
6938.000000;0.298506
6937.000000;0.299263
6936.000000;0.296832
6935.000000;0.289779
6934.000000;0.281037
6933.000000;0.274613
6932.000000;0.272091
6931.000000;0.272703
6930.000000;0.274537
6929.000000;0.275041
6928.000000;0.272646
6927.000000;0.268628
6926.000000;0.266015
6925.000000;0.265900
6924.000000;0.265936
6923.000000;0.263156
6922.000000;0.256979
6921.000000;0.248922
6920.000000;0.241280
6919.000000;0.236811
6918.000000;0.237292
6917.000000;0.240688
6916.000000;0.241849
6915.000000;0.238638
6914.000000;0.235298
6913.000000;0.236759
6912.000000;0.241929
6911.000000;0.245487
6910.000000;0.245227
6909.000000;0.244078
6908.000000;0.244437
6907.000000;0.244260
6906.000000;0.240265
6905.000000;0.232729
6904.000000;0.225113
6903.000000;0.220335
6902.000000;0.218930
6901.000000;0.219447
6900.000000;0.219285
6899.000000;0.216199
6898.000000;0.210406
6897.000000;0.204850
6896.000000;0.202570
6895.000000;0.204191
6894.000000;0.207951
6893.000000;0.211304
6892.000000;0.212529
6891.000000;0.211559
6890.000000;0.209913
6889.000000;0.209411
6888.000000;0.210114
6887.000000;0.209996
6886.000000;0.207399
6885.000000;0.203402
6884.000000;0.201059
6883.000000;0.202190
6882.000000;0.204981
6881.000000;0.205081
6880.000000;0.199874
6879.000000;0.191443
6878.000000;0.184539
6877.000000;0.182041
6876.000000;0.182857
6875.000000;0.184025
6874.000000;0.184142
6873.000000;0.183966
6872.000000;0.184144
6871.000000;0.183910
6870.000000;0.182590
6869.000000;0.181358
6868.000000;0.182270
6867.000000;0.185692
6866.000000;0.189410
6865.000000;0.190779
6864.000000;0.189553
6863.000000;0.187625
6862.000000;0.186129
6861.000000;0.184190
6860.000000;0.180945
6859.000000;0.177552
6858.000000;0.175785
6857.000000;0.175312
6856.000000;0.174061
6855.000000;0.171489
6854.000000;0.169664
6853.000000;0.170285
6852.000000;0.172293
6851.000000;0.173478
6850.000000;0.173232
6849.000000;0.172433
6848.000000;0.171718
6847.000000;0.171469
6846.000000;0.172475
6845.000000;0.174764
6844.000000;0.176492
6843.000000;0.175681
6842.000000;0.172636
6841.000000;0.169215
6840.000000;0.166386
6839.000000;0.164360
6838.000000;0.164417
6837.000000;0.167868
6836.000000;0.173038
6835.000000;0.175857
6834.000000;0.174524
6833.000000;0.171639
6832.000000;0.170560
6831.000000;0.171747
6830.000000;0.173790
6829.000000;0.175875
6828.000000;0.177484
6827.000000;0.177255
6826.000000;0.174424
6825.000000;0.170669
6824.000000;0.168319
6823.000000;0.167152
6822.000000;0.165178
6821.000000;0.162474
6820.000000;0.161979
6819.000000;0.165694
6818.000000;0.171650
6817.000000;0.175893
6816.000000;0.176733
6815.000000;0.175698
6814.000000;0.174833
6813.000000;0.174813
6812.000000;0.175568
6811.000000;0.176918
6810.000000;0.178494
6809.000000;0.179850
6808.000000;0.180674
6807.000000;0.180708
6806.000000;0.179637
6805.000000;0.177740
6804.000000;0.176452
6803.000000;0.177230
6802.000000;0.179713
6801.000000;0.181708
6800.000000;0.181644
6799.000000;0.180494
6798.000000;0.180291
6797.000000;0.181474
6796.000000;0.182816
6795.000000;0.183614
6794.000000;0.184705
6793.000000;0.187079
6792.000000;0.190400
6791.000000;0.193266
6790.000000;0.194392
6789.000000;0.193443
6788.000000;0.191233
6787.000000;0.189350
6786.000000;0.189248
6785.000000;0.191016
6784.000000;0.193152
6783.000000;0.194291
6782.000000;0.194567
6781.000000;0.194246
6780.000000;0.192404
6779.000000;0.188788
6778.000000;0.185848
6777.000000;0.186817
6776.000000;0.191861
6775.000000;0.197280
6774.000000;0.199191
6773.000000;0.197512
6772.000000;0.195168
6771.000000;0.194248
6770.000000;0.194585
6769.000000;0.195397
6768.000000;0.196462
6767.000000;0.197496
6766.000000;0.197837
6765.000000;0.197595
6764.000000;0.198234
6763.000000;0.200838
6762.000000;0.204356
6761.000000;0.206505
6760.000000;0.206409
6759.000000;0.205473
6758.000000;0.205370
6757.000000;0.206193
6756.000000;0.207101
6755.000000;0.207903
6754.000000;0.209122
6753.000000;0.210829
6752.000000;0.212279
6751.000000;0.212757
6750.000000;0.212238
6749.000000;0.211248
6748.000000;0.210617
6747.000000;0.211218
6746.000000;0.213238
6745.000000;0.215653
6744.000000;0.217033
6743.000000;0.217050
6742.000000;0.216701
6741.000000;0.216866
6740.000000;0.217340
6739.000000;0.217564
6738.000000;0.217719
6737.000000;0.218535
6736.000000;0.220263
6735.000000;0.222269
6734.000000;0.223547
6733.000000;0.223483
6732.000000;0.222412
6731.000000;0.221547
6730.000000;0.222030
6729.000000;0.223870
6728.000000;0.226062
6727.000000;0.227710
6726.000000;0.228451
6725.000000;0.227806
6724.000000;0.225302
6723.000000;0.221934
6722.000000;0.220340
6721.000000;0.222260
6720.000000;0.226290
6719.000000;0.229217
6718.000000;0.229648
6717.000000;0.229184
6716.000000;0.229744
6715.000000;0.231153
6714.000000;0.232026
6713.000000;0.232020
6712.000000;0.232195
6711.000000;0.233537
6710.000000;0.235977
6709.000000;0.238706
6708.000000;0.240877
6707.000000;0.242047
6706.000000;0.242443
6705.000000;0.242787
6704.000000;0.243554
6703.000000;0.244419
6702.000000;0.244601
6701.000000;0.243824
6700.000000;0.242854
6699.000000;0.242872
6698.000000;0.244359
6697.000000;0.246628
6696.000000;0.248382
6695.000000;0.248996
6694.000000;0.248903
6693.000000;0.248821
6692.000000;0.248819
6691.000000;0.248537
6690.000000;0.248127
6689.000000;0.248328
6688.000000;0.249489
6687.000000;0.251078
6686.000000;0.252400
6685.000000;0.253339
6684.000000;0.254056
6683.000000;0.254374
6682.000000;0.254001
6681.000000;0.253214
6680.000000;0.252793
6679.000000;0.253225
6678.000000;0.254287
6677.000000;0.255405
6676.000000;0.256174
6675.000000;0.256520
6674.000000;0.256655
6673.000000;0.256950
6672.000000;0.257710
6671.000000;0.258943
6670.000000;0.260362
6669.000000;0.261545
6668.000000;0.262148
6667.000000;0.262189
6666.000000;0.262207
6665.000000;0.262848
6664.000000;0.264097
6663.000000;0.265225
6662.000000;0.265744
6661.000000;0.266067
6660.000000;0.266776
6659.000000;0.267590
6658.000000;0.267724
6657.000000;0.267123
6656.000000;0.266613
6655.000000;0.266778
6654.000000;0.267387
6653.000000;0.268098
6652.000000;0.269009
6651.000000;0.270150
6650.000000;0.271091
6649.000000;0.271645
6648.000000;0.272433
6647.000000;0.274017
6646.000000;0.275813
6645.000000;0.276662
6644.000000;0.276426
6643.000000;0.276201
6642.000000;0.276818
6641.000000;0.277811
6640.000000;0.278174
6639.000000;0.277665
6638.000000;0.276917
6637.000000;0.276625
6636.000000;0.277018
6635.000000;0.277944
6634.000000;0.279065
6633.000000;0.279985
6632.000000;0.280436
6631.000000;0.280509
6630.000000;0.280687
6629.000000;0.281596
6628.000000;0.283551
6627.000000;0.286125
6626.000000;0.288224
6625.000000;0.288963
6624.000000;0.288618
6623.000000;0.288434
6622.000000;0.289348
6621.000000;0.291110
6620.000000;0.292720
6619.000000;0.293449
6618.000000;0.293224
6617.000000;0.292269
6616.000000;0.290876
6615.000000;0.289551
6614.000000;0.288910
6613.000000;0.289156
6612.000000;0.289817
6611.000000;0.290246
6610.000000;0.290369
6609.000000;0.290794
6608.000000;0.292084
6607.000000;0.294020
6606.000000;0.295687
6605.000000;0.296380
6604.000000;0.296325
6603.000000;0.296341
6602.000000;0.296906
6601.000000;0.297768
6600.000000;0.298406
6599.000000;0.298627
6598.000000;0.298605
6597.000000;0.298576
6596.000000;0.298680
6595.000000;0.298927
6594.000000;0.299187
6593.000000;0.299367
6592.000000;0.299687
6591.000000;0.300523
6590.000000;0.301790
6589.000000;0.302774
6588.000000;0.302900
6587.000000;0.302519
6586.000000;0.302540
6585.000000;0.303433
6584.000000;0.304911
6583.000000;0.306463
6582.000000;0.307736
6581.000000;0.308455
6580.000000;0.308496
6579.000000;0.308177
6578.000000;0.308069
6577.000000;0.308323
6576.000000;0.308492
6575.000000;0.308196
6574.000000;0.307655
6573.000000;0.307377
6572.000000;0.307615
6571.000000;0.308375
6570.000000;0.309642
6569.000000;0.311239
6568.000000;0.312628
6567.000000;0.313265
6566.000000;0.313201
6565.000000;0.313081
6564.000000;0.313482
6563.000000;0.314394
6562.000000;0.315334
6561.000000;0.315883
6560.000000;0.316076
6559.000000;0.316319
6558.000000;0.316899
6557.000000;0.317636
6556.000000;0.318137
6555.000000;0.318349
6554.000000;0.318626
6553.000000;0.319167
6552.000000;0.319657
6551.000000;0.319683
6550.000000;0.319337
6549.000000;0.319108
6548.000000;0.319263
6547.000000;0.319624
6546.000000;0.319941
6545.000000;0.320189
6544.000000;0.320465
6543.000000;0.320782
6542.000000;0.321110
6541.000000;0.321515
6540.000000;0.322146
6539.000000;0.323080
6538.000000;0.324167
6537.000000;0.325080
6536.000000;0.325623
6535.000000;0.325987
6534.000000;0.326532
6533.000000;0.327254
6532.000000;0.327691
6531.000000;0.327536
6530.000000;0.327132
6529.000000;0.327127
6528.000000;0.327748
6527.000000;0.328638
6526.000000;0.329326
6525.000000;0.329618
6524.000000;0.329572
6523.000000;0.329400
6522.000000;0.329418
6521.000000;0.329839
6520.000000;0.330511
6519.000000;0.331046
6518.000000;0.331268
6517.000000;0.331403
6516.000000;0.331750
6515.000000;0.332335
6514.000000;0.332951
6513.000000;0.333412
6512.000000;0.333690
6511.000000;0.333903
6510.000000;0.334238
6509.000000;0.334792
6508.000000;0.335415
6507.000000;0.335821
6506.000000;0.335899
6505.000000;0.335855
6504.000000;0.335986
6503.000000;0.336374
6502.000000;0.336824
6501.000000;0.337071
6500.000000;0.337070
6499.000000;0.337123
6498.000000;0.337647
6497.000000;0.338701
6496.000000;0.339782
6495.000000;0.340266
6494.000000;0.340086
6493.000000;0.339813
6492.000000;0.340028
6491.000000;0.340748
6490.000000;0.341534
6489.000000;0.342013
6488.000000;0.342207
6487.000000;0.342419
6486.000000;0.342884
6485.000000;0.343475
6484.000000;0.343759
6483.000000;0.343458
6482.000000;0.342860
6481.000000;0.342625
6480.000000;0.343120
6479.000000;0.344044
6478.000000;0.344792
6477.000000;0.345098
6476.000000;0.345233
6475.000000;0.345630
6474.000000;0.346415
6473.000000;0.347272
6472.000000;0.347724
6471.000000;0.347588
6470.000000;0.347160
6469.000000;0.346914
6468.000000;0.347067
6467.000000;0.347499
6466.000000;0.348065
6465.000000;0.348773
6464.000000;0.349623
6463.000000;0.350431
6462.000000;0.350943
6461.000000;0.351065
6460.000000;0.350896
6459.000000;0.350647
6458.000000;0.350591
6457.000000;0.350980
6456.000000;0.351816
6455.000000;0.352715
6454.000000;0.353130
6453.000000;0.352851
6452.000000;0.352270
6451.000000;0.352081
6450.000000;0.352638
6449.000000;0.353604
6448.000000;0.354293
6447.000000;0.354410
6446.000000;0.354315
6445.000000;0.354495
6444.000000;0.354944
6443.000000;0.355263
6442.000000;0.355280
6441.000000;0.355255
6440.000000;0.355485
6439.000000;0.355982
6438.000000;0.356594
6437.000000;0.357195
6436.000000;0.357632
6435.000000;0.357746
6434.000000;0.357586
6433.000000;0.357445
6432.000000;0.357510
6431.000000;0.357666
6430.000000;0.357787
6429.000000;0.357983
6428.000000;0.358355
6427.000000;0.358697
6426.000000;0.358734
6425.000000;0.358564
6424.000000;0.358580
6423.000000;0.358995
6422.000000;0.359658
6421.000000;0.360279
6420.000000;0.360653
6419.000000;0.360704
6418.000000;0.360534
6417.000000;0.360440
6416.000000;0.360650
6415.000000;0.361048
6414.000000;0.361331
6413.000000;0.361452
6412.000000;0.361684
6411.000000;0.362202
6410.000000;0.362805
6409.000000;0.363137
6408.000000;0.363079
6407.000000;0.362857
6406.000000;0.362850
6405.000000;0.363299
6404.000000;0.364084
6403.000000;0.364775
6402.000000;0.365026
6401.000000;0.364915
6400.000000;0.364776
6399.000000;0.364749
6398.000000;0.364697
6397.000000;0.364565
6396.000000;0.364564
6395.000000;0.364870
6394.000000;0.365346
6393.000000;0.365710
6392.000000;0.365846
6391.000000;0.365855
6390.000000;0.365907
6389.000000;0.366158
6388.000000;0.366685
6387.000000;0.367337
6386.000000;0.367785
6385.000000;0.367872
6384.000000;0.367870
6383.000000;0.368173
6382.000000;0.368769
6381.000000;0.369179
6380.000000;0.368996
6379.000000;0.368351
6378.000000;0.367785
6377.000000;0.367745
6376.000000;0.368263
6375.000000;0.369040
6374.000000;0.369692
6373.000000;0.369949
6372.000000;0.369754
6371.000000;0.369324
6370.000000;0.369075
6369.000000;0.369349
6368.000000;0.370102
6367.000000;0.370905
6366.000000;0.371308
6365.000000;0.371189
6364.000000;0.370739
6363.000000;0.370248
6362.000000;0.369998
6361.000000;0.370226
6360.000000;0.370927
6359.000000;0.371692
6358.000000;0.371985
6357.000000;0.371696
6356.000000;0.371265
6355.000000;0.371180
6354.000000;0.371514
6353.000000;0.372040
6352.000000;0.372620
6351.000000;0.373254
6350.000000;0.373859
6349.000000;0.374230
6348.000000;0.374245
6347.000000;0.373999
6346.000000;0.373713
6345.000000;0.373627
6344.000000;0.373918
6343.000000;0.374586
6342.000000;0.375388
6341.000000;0.376005
6340.000000;0.376275
6339.000000;0.376219
6338.000000;0.375876
6337.000000;0.375308
6336.000000;0.374761
6335.000000;0.374587
6334.000000;0.374895
6333.000000;0.375383
6332.000000;0.375620
6331.000000;0.375441
6330.000000;0.375014
6329.000000;0.374624
6328.000000;0.374498
6327.000000;0.374746
6326.000000;0.375302
6325.000000;0.375915
6324.000000;0.376336
6323.000000;0.376555
6322.000000;0.376765
6321.000000;0.377086
6320.000000;0.377424
6319.000000;0.377617
6318.000000;0.377637
6317.000000;0.377574
6316.000000;0.377510
6315.000000;0.377485
6314.000000;0.377536
6313.000000;0.377673
6312.000000;0.377814
6311.000000;0.377852
6310.000000;0.377808
6309.000000;0.377852
6308.000000;0.378114
6307.000000;0.378508
6306.000000;0.378807
6305.000000;0.378872
6304.000000;0.378778
6303.000000;0.378726
6302.000000;0.378847
6301.000000;0.379105
6300.000000;0.379353
6299.000000;0.379475
6298.000000;0.379491
6297.000000;0.379504
6296.000000;0.379558
6295.000000;0.379547
6294.000000;0.379331
6293.000000;0.378932
6292.000000;0.378592
6291.000000;0.378576
6290.000000;0.378923
6289.000000;0.379398
6288.000000;0.379731
6287.000000;0.379857
6286.000000;0.379910
6285.000000;0.379990
6284.000000;0.380054
6283.000000;0.380070
6282.000000;0.380171
6281.000000;0.380495
6280.000000;0.380899
6279.000000;0.381004
6278.000000;0.380637
6277.000000;0.380114
6276.000000;0.379939
6275.000000;0.380270
6274.000000;0.380810
6273.000000;0.381199
6272.000000;0.381353
6271.000000;0.381371
6270.000000;0.381269
6269.000000;0.380970
6268.000000;0.380541
6267.000000;0.380268
6266.000000;0.380410
6265.000000;0.380921
6264.000000;0.381502
6263.000000;0.381895
6262.000000;0.382045
6261.000000;0.381982
6260.000000;0.381701
6259.000000;0.381273
6258.000000;0.380979
6257.000000;0.381103
6256.000000;0.381571
6255.000000;0.381968
6254.000000;0.381999
6253.000000;0.381787
6252.000000;0.381618
6251.000000;0.381557
6250.000000;0.381492
6249.000000;0.381446
6248.000000;0.381585
6247.000000;0.381933
6246.000000;0.382293
6245.000000;0.382504
6244.000000;0.382581
6243.000000;0.382566
6242.000000;0.382433
6241.000000;0.382260
6240.000000;0.382287
6239.000000;0.382630
6238.000000;0.383047
6237.000000;0.383180
6236.000000;0.382982
6235.000000;0.382742
6234.000000;0.382725
6233.000000;0.382924
6232.000000;0.383163
6231.000000;0.383311
6230.000000;0.383329
6229.000000;0.383229
6228.000000;0.383050
6227.000000;0.382873
6226.000000;0.382813
6225.000000;0.382970
6224.000000;0.383336
6223.000000;0.383706
6222.000000;0.383783
6221.000000;0.383461
6220.000000;0.382980
6219.000000;0.382731
6218.000000;0.382899
6217.000000;0.383334
6216.000000;0.383751
6215.000000;0.383978
6214.000000;0.384017
6213.000000;0.383961
6212.000000;0.383890
6211.000000;0.383808
6210.000000;0.383671
6209.000000;0.383474
6208.000000;0.383267
6207.000000;0.383086
6206.000000;0.382929
6205.000000;0.382853
6204.000000;0.383006
6203.000000;0.383430
6202.000000;0.383905
6201.000000;0.384134
6200.000000;0.384107
6199.000000;0.384107
6198.000000;0.384315
6197.000000;0.384546
6196.000000;0.384485
6195.000000;0.384090
6194.000000;0.383635
6193.000000;0.383407
6192.000000;0.383445
6191.000000;0.383583
6190.000000;0.383655
6189.000000;0.383646
6188.000000;0.383658
6187.000000;0.383759
6186.000000;0.383887
6185.000000;0.383943
6184.000000;0.383964
6183.000000;0.384094
6182.000000;0.384381
6181.000000;0.384683
6180.000000;0.384834
6179.000000;0.384828
6178.000000;0.384759
6177.000000;0.384652
6176.000000;0.384490
6175.000000;0.384350
6174.000000;0.384352
6173.000000;0.384460
6172.000000;0.384472
6171.000000;0.384285
6170.000000;0.384063
6169.000000;0.384024
6168.000000;0.384143
6167.000000;0.384187
6166.000000;0.384045
6165.000000;0.383895
6164.000000;0.383977
6163.000000;0.384298
6162.000000;0.384642
6161.000000;0.384832
6160.000000;0.384885
6159.000000;0.384890
6158.000000;0.384849
6157.000000;0.384700
6156.000000;0.384440
6155.000000;0.384168
6154.000000;0.383995
6153.000000;0.383954
6152.000000;0.384004
6151.000000;0.384075
6150.000000;0.384131
6149.000000;0.384185
6148.000000;0.384254
6147.000000;0.384301
6146.000000;0.384253
6145.000000;0.384114
6144.000000;0.384027
6143.000000;0.384155
6142.000000;0.384502
6141.000000;0.384896
6140.000000;0.385133
6139.000000;0.385097
6138.000000;0.384786
6137.000000;0.384307
6136.000000;0.383879
6135.000000;0.383756
6134.000000;0.384039
6133.000000;0.384564
6132.000000;0.384988
6131.000000;0.385023
6130.000000;0.384639
6129.000000;0.384081
6128.000000;0.383698
6127.000000;0.383691
6126.000000;0.383986
6125.000000;0.384342
6124.000000;0.384570
6123.000000;0.384621
6122.000000;0.384538
6121.000000;0.384411
6120.000000;0.384365
6119.000000;0.384453
6118.000000;0.384561
6117.000000;0.384531
6116.000000;0.384411
6115.000000;0.384434
6114.000000;0.384680
6113.000000;0.384887
6112.000000;0.384739
6111.000000;0.384282
6110.000000;0.383905
6109.000000;0.383914
6108.000000;0.384249
6107.000000;0.384618
6106.000000;0.384791
6105.000000;0.384731
6104.000000;0.384541
6103.000000;0.384341
6102.000000;0.384189
6101.000000;0.384102
6100.000000;0.384127
6099.000000;0.384332
6098.000000;0.384677
6097.000000;0.384959
6096.000000;0.384994
6095.000000;0.384841
6094.000000;0.384737
6093.000000;0.384807
6092.000000;0.384923
6091.000000;0.384892
6090.000000;0.384688
6089.000000;0.384479
6088.000000;0.384469
6087.000000;0.384737
6086.000000;0.385165
6085.000000;0.385497
6084.000000;0.385522
6083.000000;0.385223
6082.000000;0.384747
6081.000000;0.384263
6080.000000;0.383905
6079.000000;0.383790
6078.000000;0.383936
6077.000000;0.384169
6076.000000;0.384239
6075.000000;0.384100
6074.000000;0.383943
6073.000000;0.383930
6072.000000;0.384005
6071.000000;0.384062
6070.000000;0.384150
6069.000000;0.384375
6068.000000;0.384684
6067.000000;0.384890
6066.000000;0.384878
6065.000000;0.384680
6064.000000;0.384376
6063.000000;0.384052
6062.000000;0.383856
6061.000000;0.383939
6060.000000;0.384279
6059.000000;0.384631
6058.000000;0.384720
6057.000000;0.384480
6056.000000;0.384110
6055.000000;0.383914
6054.000000;0.384076
6053.000000;0.384506
6052.000000;0.384907
6051.000000;0.385018
6050.000000;0.384835
6049.000000;0.384562
6048.000000;0.384401
6047.000000;0.384419
6046.000000;0.384577
6045.000000;0.384789
6044.000000;0.384945
6043.000000;0.384972
6042.000000;0.384896
6041.000000;0.384800
6040.000000;0.384718
6039.000000;0.384638
6038.000000;0.384581
6037.000000;0.384592
6036.000000;0.384625
6035.000000;0.384554
6034.000000;0.384356
6033.000000;0.384203
6032.000000;0.384282
6031.000000;0.384543
6030.000000;0.384722
6029.000000;0.384621
6028.000000;0.384326
6027.000000;0.384112
6026.000000;0.384158
6025.000000;0.384388
6024.000000;0.384584
6023.000000;0.384626
6022.000000;0.384580
6021.000000;0.384567
6020.000000;0.384613
6019.000000;0.384678
6018.000000;0.384758
6017.000000;0.384850
6016.000000;0.384884
6015.000000;0.384790
6014.000000;0.384661
6013.000000;0.384708
6012.000000;0.384999
6011.000000;0.385347
6010.000000;0.385509
6009.000000;0.385419
6008.000000;0.385157
6007.000000;0.384798
6006.000000;0.384411
6005.000000;0.384126
6004.000000;0.384066
6003.000000;0.384182
6002.000000;0.384283
6001.000000;0.384239
6000.000000;0.384089
5999.000000;0.383957
5998.000000;0.383942
5997.000000;0.384100
5996.000000;0.384429
5995.000000;0.384824
5994.000000;0.385113
5993.000000;0.385205
5992.000000;0.385164
5991.000000;0.385105
5990.000000;0.385051
5989.000000;0.384960
5988.000000;0.384838
5987.000000;0.384771
5986.000000;0.384825
5985.000000;0.384971
5984.000000;0.385082
5983.000000;0.385024
5982.000000;0.384781
5981.000000;0.384514
5980.000000;0.384463
5979.000000;0.384708
5978.000000;0.385067
5977.000000;0.385273
5976.000000;0.385245
5975.000000;0.385141
5974.000000;0.385132
5973.000000;0.385222
5972.000000;0.385323
5971.000000;0.385410
5970.000000;0.385532
5969.000000;0.385669
5968.000000;0.385698
5967.000000;0.385512
5966.000000;0.385147
5965.000000;0.384777
5964.000000;0.384591
5963.000000;0.384686
5962.000000;0.385010
5961.000000;0.385378
5960.000000;0.385583
5959.000000;0.385538
5958.000000;0.385325
5957.000000;0.385094
5956.000000;0.384923
5955.000000;0.384815
5954.000000;0.384801
5953.000000;0.384951
5952.000000;0.385275
5951.000000;0.385650
5950.000000;0.385913
5949.000000;0.385993
5948.000000;0.385940
5947.000000;0.385831
5946.000000;0.385720
5945.000000;0.385637
5944.000000;0.385591
5943.000000;0.385537
5942.000000;0.385404
5941.000000;0.385180
5940.000000;0.384954
5939.000000;0.384837
5938.000000;0.384864
5937.000000;0.385004
5936.000000;0.385218
5935.000000;0.385486
5934.000000;0.385779
5933.000000;0.386044
5932.000000;0.386222
5931.000000;0.386253
5930.000000;0.386107
5929.000000;0.385862
5928.000000;0.385700
5927.000000;0.385748
5926.000000;0.385910
5925.000000;0.385960
5924.000000;0.385836
5923.000000;0.385740
5922.000000;0.385878
5921.000000;0.386171
5920.000000;0.386338
5919.000000;0.386244
5918.000000;0.386035
5917.000000;0.385930
5916.000000;0.385979
5915.000000;0.386080
5914.000000;0.386148
5913.000000;0.386187
5912.000000;0.386214
5911.000000;0.386198
5910.000000;0.386095
5909.000000;0.385922
5908.000000;0.385774
5907.000000;0.385725
5906.000000;0.385728
5905.000000;0.385660
5904.000000;0.385508
5903.000000;0.385449
5902.000000;0.385690
5901.000000;0.386220
5900.000000;0.386807
5899.000000;0.387202
5898.000000;0.387301
5897.000000;0.387117
5896.000000;0.386748
5895.000000;0.386400
5894.000000;0.386291
5893.000000;0.386438
5892.000000;0.386620
5891.000000;0.386617
5890.000000;0.386431
5889.000000;0.386191
5888.000000;0.385971
5887.000000;0.385802
5886.000000;0.385762
5885.000000;0.385885
5884.000000;0.386029
5883.000000;0.386010
5882.000000;0.385876
5881.000000;0.385878
5880.000000;0.386128
5879.000000;0.386449
5878.000000;0.386622
5877.000000;0.386653
5876.000000;0.386711
5875.000000;0.386897
5874.000000;0.387177
5873.000000;0.387444
5872.000000;0.387540
5871.000000;0.387305
5870.000000;0.386750
5869.000000;0.386151
5868.000000;0.385852
5867.000000;0.385974
5866.000000;0.386372
5865.000000;0.386831
5864.000000;0.387213
5863.000000;0.387405
5862.000000;0.387308
5861.000000;0.386952
5860.000000;0.386546
5859.000000;0.386342
5858.000000;0.386444
5857.000000;0.386770
5856.000000;0.387135
5855.000000;0.387332
5854.000000;0.387216
5853.000000;0.386826
5852.000000;0.386422
5851.000000;0.386291
5850.000000;0.386481
5849.000000;0.386771
5848.000000;0.386953
5847.000000;0.387069
5846.000000;0.387288
5845.000000;0.387594
5844.000000;0.387759
5843.000000;0.387653
5842.000000;0.387441
5841.000000;0.387374
5840.000000;0.387453
5839.000000;0.387452
5838.000000;0.387259
5837.000000;0.387050
5836.000000;0.387065
5835.000000;0.387313
5834.000000;0.387570
5833.000000;0.387611
5832.000000;0.387382
5831.000000;0.387003
5830.000000;0.386716
5829.000000;0.386771
5828.000000;0.387222
5827.000000;0.387794
5826.000000;0.388056
5825.000000;0.387829
5824.000000;0.387377
5823.000000;0.387153
5822.000000;0.387345
5821.000000;0.387733
5820.000000;0.387963
5819.000000;0.387890
5818.000000;0.387662
5817.000000;0.387516
5816.000000;0.387574
5815.000000;0.387786
5814.000000;0.388009
5813.000000;0.388121
5812.000000;0.388121
5811.000000;0.388106
5810.000000;0.388141
5809.000000;0.388151
5808.000000;0.388023
5807.000000;0.387806
5806.000000;0.387722
5805.000000;0.387917
5804.000000;0.388276
5803.000000;0.388539
5802.000000;0.388567
5801.000000;0.388408
5800.000000;0.388191
5799.000000;0.388045
5798.000000;0.388065
5797.000000;0.388242
5796.000000;0.388401
5795.000000;0.388368
5794.000000;0.388194
5793.000000;0.388117
5792.000000;0.388237
5791.000000;0.388400
5790.000000;0.388434
5789.000000;0.388388
5788.000000;0.388406
5787.000000;0.388488
5786.000000;0.388521
5785.000000;0.388491
5784.000000;0.388503
5783.000000;0.388603
5782.000000;0.388703
5781.000000;0.388704
5780.000000;0.388600
5779.000000;0.388449
5778.000000;0.388342
5777.000000;0.388412
5776.000000;0.388751
5775.000000;0.389240
5774.000000;0.389572
5773.000000;0.389528
5772.000000;0.389206
5771.000000;0.388909
5770.000000;0.388839
5769.000000;0.388950
5768.000000;0.389068
5767.000000;0.389049
5766.000000;0.388860
5765.000000;0.388572
5764.000000;0.388330
5763.000000;0.388248
5762.000000;0.388292
5761.000000;0.388301
5760.000000;0.388164
5759.000000;0.387974
5758.000000;0.387935
5757.000000;0.388119
5756.000000;0.388386
5755.000000;0.388562
5754.000000;0.388638
5753.000000;0.388745
5752.000000;0.388953
5751.000000;0.389167
5750.000000;0.389230
5749.000000;0.389075
5748.000000;0.388754
5747.000000;0.388365
5746.000000;0.388007
5745.000000;0.387777
5744.000000;0.387762
5743.000000;0.387972
5742.000000;0.388288
5741.000000;0.388494
5740.000000;0.388425
5739.000000;0.388139
5738.000000;0.387921
5737.000000;0.388067
5736.000000;0.388625
5735.000000;0.389322
5734.000000;0.389751
5733.000000;0.389648
5732.000000;0.389077
5731.000000;0.388412
5730.000000;0.388107
5729.000000;0.388392
5728.000000;0.389103
5727.000000;0.389813
5726.000000;0.390152
5725.000000;0.390025
5724.000000;0.389591
5723.000000;0.389095
5722.000000;0.388719
5721.000000;0.388505
5720.000000;0.388374
5719.000000;0.388250
5718.000000;0.388171
5717.000000;0.388219
5716.000000;0.388359
5715.000000;0.388426
5714.000000;0.388331
5713.000000;0.388215
5712.000000;0.388316
5711.000000;0.388686
5710.000000;0.389103
5709.000000;0.389262
5708.000000;0.389061
5707.000000;0.388713
5706.000000;0.388568
5705.000000;0.388782
5704.000000;0.389158
5703.000000;0.389356
5702.000000;0.389266
5701.000000;0.389099
5700.000000;0.389093
5699.000000;0.389242
5698.000000;0.389379
5697.000000;0.389439
5696.000000;0.389493
5695.000000;0.389576
5694.000000;0.389615
5693.000000;0.389505
5692.000000;0.389261
5691.000000;0.388967
5690.000000;0.388748
5689.000000;0.388722
5688.000000;0.388884
5687.000000;0.389014
5686.000000;0.388848
5685.000000;0.388421
5684.000000;0.388140
5683.000000;0.388385
5682.000000;0.389077
5681.000000;0.389744
5680.000000;0.390025
5679.000000;0.389957
5678.000000;0.389745
5677.000000;0.389446
5676.000000;0.389028
5675.000000;0.388653
5674.000000;0.388626
5673.000000;0.388991
5672.000000;0.389386
5671.000000;0.389445
5670.000000;0.389222
5669.000000;0.389070
5668.000000;0.389186
5667.000000;0.389480
5666.000000;0.389823
5665.000000;0.390172
5664.000000;0.390412
5663.000000;0.390330
5662.000000;0.389919
5661.000000;0.389532
5660.000000;0.389545
5659.000000;0.389941
5658.000000;0.390353
5657.000000;0.390465
5656.000000;0.390260
5655.000000;0.389934
5654.000000;0.389721
5653.000000;0.389793
5652.000000;0.390156
5651.000000;0.390615
5650.000000;0.390913
5649.000000;0.390947
5648.000000;0.390814
5647.000000;0.390676
5646.000000;0.390649
5645.000000;0.390794
5644.000000;0.391098
5643.000000;0.391461
5642.000000;0.391754
5641.000000;0.391897
5640.000000;0.391866
5639.000000;0.391674
5638.000000;0.391417
5637.000000;0.391272
5636.000000;0.391335
5635.000000;0.391494
5634.000000;0.391570
5633.000000;0.391562
5632.000000;0.391662
5631.000000;0.392018
5630.000000;0.392578
5629.000000;0.393165
5628.000000;0.393614
5627.000000;0.393841
5626.000000;0.393885
5625.000000;0.393882
5624.000000;0.393890
5623.000000;0.393767
5622.000000;0.393388
5621.000000;0.392951
5620.000000;0.392894
5619.000000;0.393401
5618.000000;0.394126
5617.000000;0.394511
5616.000000;0.394322
5615.000000;0.393814
5614.000000;0.393436
5613.000000;0.393455
5612.000000;0.393808
5611.000000;0.394220
5610.000000;0.394489
5609.000000;0.394682
5608.000000;0.395016
5607.000000;0.395552
5606.000000;0.396086
5605.000000;0.396375
5604.000000;0.396364
5603.000000;0.396162
5602.000000;0.395913
5601.000000;0.395769
5600.000000;0.395879
5599.000000;0.396236
5598.000000;0.396611
5597.000000;0.396774
5596.000000;0.396748
5595.000000;0.396755
5594.000000;0.396923
5593.000000;0.397185
5592.000000;0.397447
5591.000000;0.397703
5590.000000;0.397963
5589.000000;0.398190
5588.000000;0.398359
5587.000000;0.398503
5586.000000;0.398641
5585.000000;0.398732
5584.000000;0.398769
5583.000000;0.398844
5582.000000;0.399042
5581.000000;0.399303
5580.000000;0.399457
5579.000000;0.399397
5578.000000;0.399189
5577.000000;0.399029
5576.000000;0.399103
5575.000000;0.399469
5574.000000;0.400010
5573.000000;0.400510
5572.000000;0.400836
5571.000000;0.401027
5570.000000;0.401210
5569.000000;0.401407
5568.000000;0.401488
5567.000000;0.401349
5566.000000;0.401109
5565.000000;0.401080
5564.000000;0.401474
5563.000000;0.402130
5562.000000;0.402597
5561.000000;0.402569
5560.000000;0.402236
5559.000000;0.402098
5558.000000;0.402389
5557.000000;0.402840
5556.000000;0.403066
5555.000000;0.403075
5554.000000;0.403178
5553.000000;0.403467
5552.000000;0.403669
5551.000000;0.403592
5550.000000;0.403461
5549.000000;0.403605
5548.000000;0.403967
5547.000000;0.404169
5546.000000;0.404007
5545.000000;0.403660
5544.000000;0.403413
5543.000000;0.403382
5542.000000;0.403568
5541.000000;0.403933
5540.000000;0.404345
5539.000000;0.404605
5538.000000;0.404678
5537.000000;0.404769
5536.000000;0.405035
5535.000000;0.405334
5534.000000;0.405432
5533.000000;0.405357
5532.000000;0.405377
5531.000000;0.405640
5530.000000;0.406019
5529.000000;0.406304
5528.000000;0.406392
5527.000000;0.406299
5526.000000;0.406121
5525.000000;0.406008
5524.000000;0.406062
5523.000000;0.406223
5522.000000;0.406353
5521.000000;0.406460
5520.000000;0.406703
5519.000000;0.407133
5518.000000;0.407557
5517.000000;0.407718
5516.000000;0.407537
5515.000000;0.407129
5514.000000;0.406681
5513.000000;0.406390
5512.000000;0.406420
5511.000000;0.406794
5510.000000;0.407346
5509.000000;0.407822
5508.000000;0.408057
5507.000000;0.408038
5506.000000;0.407891
5505.000000;0.407854
5504.000000;0.408132
5503.000000;0.408678
5502.000000;0.409153
5501.000000;0.409224
5500.000000;0.408898
5499.000000;0.408516
5498.000000;0.408398
5497.000000;0.408588
5496.000000;0.408939
5495.000000;0.409363
5494.000000;0.409903
5493.000000;0.410577
5492.000000;0.411208
5491.000000;0.411551
5490.000000;0.411629
5489.000000;0.411802
5488.000000;0.412368
5487.000000;0.413148
5486.000000;0.413615
5485.000000;0.413448
5484.000000;0.412781
5483.000000;0.411942
5482.000000;0.411161
5481.000000;0.410600
5480.000000;0.410381
5479.000000;0.410429
5478.000000;0.410474
5477.000000;0.410437
5476.000000;0.410676
5475.000000;0.411581
5474.000000;0.412950
5473.000000;0.414146
5472.000000;0.414855
5471.000000;0.415331
5470.000000;0.415843
5469.000000;0.416181
5468.000000;0.415926
5467.000000;0.414995
5466.000000;0.413754
5465.000000;0.412685
5464.000000;0.412085
5463.000000;0.411983
5462.000000;0.412252
5461.000000;0.412792
5460.000000;0.413554
5459.000000;0.414407
5458.000000;0.415106
5457.000000;0.415509
5456.000000;0.415712
5455.000000;0.415830
5454.000000;0.415740
5453.000000;0.415307
5452.000000;0.414746
5451.000000;0.414525
5450.000000;0.414867
5449.000000;0.415538
5448.000000;0.416120
5447.000000;0.416410
5446.000000;0.416533
5445.000000;0.416772
5444.000000;0.417274
5443.000000;0.417890
5442.000000;0.418375
5441.000000;0.418710
5440.000000;0.419052
5439.000000;0.419376
5438.000000;0.419428
5437.000000;0.419105
5436.000000;0.418719
5435.000000;0.418690
5434.000000;0.419040
5433.000000;0.419403
5432.000000;0.419555
5431.000000;0.419699
5430.000000;0.420121
5429.000000;0.420751
5428.000000;0.421213
5427.000000;0.421314
5426.000000;0.421335
5425.000000;0.421712
5424.000000;0.422498
5423.000000;0.423237
5422.000000;0.423411
5421.000000;0.422893
5420.000000;0.421952
5419.000000;0.420983
5418.000000;0.420313
5417.000000;0.420103
5416.000000;0.420360
5415.000000;0.421012
5414.000000;0.421941
5413.000000;0.422908
5412.000000;0.423644
5411.000000;0.424078
5410.000000;0.424409
5409.000000;0.424897
5408.000000;0.425617
5407.000000;0.426482
5406.000000;0.427345
5405.000000;0.427914
5404.000000;0.427736
5403.000000;0.426617
5402.000000;0.425106
5401.000000;0.424204
5400.000000;0.424462
5399.000000;0.425545
5398.000000;0.426753
5397.000000;0.427781
5396.000000;0.428779
5395.000000;0.429832
5394.000000;0.430779
5393.000000;0.431485
5392.000000;0.432081
5391.000000;0.432831
5390.000000;0.433815
5389.000000;0.434843
5388.000000;0.435609
5387.000000;0.435946
5386.000000;0.435933
5385.000000;0.435779
5384.000000;0.435754
5383.000000;0.436156
5382.000000;0.437101
5381.000000;0.438259
5380.000000;0.438966
5379.000000;0.438865
5378.000000;0.438480
5377.000000;0.438866
5376.000000;0.440492
5375.000000;0.442716
5374.000000;0.444576
5373.000000;0.445795
5372.000000;0.446784
5371.000000;0.447962
5370.000000;0.449333
5369.000000;0.450621
5368.000000;0.451492
5367.000000;0.451725
5366.000000;0.451427
5365.000000;0.451106
5364.000000;0.451382
5363.000000;0.452546
5362.000000;0.454382
5361.000000;0.456393
5360.000000;0.458095
5359.000000;0.459229
5358.000000;0.459881
5357.000000;0.460445
5356.000000;0.461329
5355.000000;0.462710
5354.000000;0.464573
5353.000000;0.466808
5352.000000;0.469214
5351.000000;0.471490
5350.000000;0.473422
5349.000000;0.475106
5348.000000;0.476900
5347.000000;0.479138
5346.000000;0.481866
5345.000000;0.484721
5344.000000;0.487107
5343.000000;0.488833
5342.000000;0.490402
5341.000000;0.492330
5340.000000;0.494547
5339.000000;0.496678
5338.000000;0.498678
5337.000000;0.500839
5336.000000;0.503183
5335.000000;0.505407
5334.000000;0.507425
5333.000000;0.509292
5332.000000;0.510685
5331.000000;0.511234
5330.000000;0.511493
5329.000000;0.512669
5328.000000;0.515040
5327.000000;0.517376
5326.000000;0.518666
5325.000000;0.519626
5324.000000;0.521491
5323.000000;0.524179
5322.000000;0.526823
5321.000000;0.529358
5320.000000;0.531988
5319.000000;0.533028
5318.000000;0.529341
5317.000000;0.520427
5316.000000;0.510851
5315.000000;0.507342
5314.000000;0.513442
5313.000000;0.526186
5312.000000;0.536944
5311.000000;0.536408
5310.000000;0.521252
5309.000000;0.496090
5308.000000;0.468882
5307.000000;0.446574
5306.000000;0.433623
5305.000000;0.429657
5304.000000;0.427773
5303.000000;0.418885
5302.000000;0.402177
5301.000000;0.388540
5300.000000;0.384977
5299.000000;0.383182
5298.000000;0.378440
5297.000000;0.386911
5296.000000;0.421488
5295.000000;0.463343
5294.000000;0.481921
5293.000000;0.486171
5292.000000;0.514649
5291.000000;0.581025
5290.000000;0.647062
5289.000000;0.669853
5288.000000;0.661372
5287.000000;0.658299
5286.000000;0.695383
5285.000000;0.778952
5284.000000;0.881526
5283.000000;0.969367
5282.000000;1.019326
5281.000000;1.028558
5280.000000;1.003464
5279.000000;0.961868
5278.000000;0.934443
5277.000000;0.921472
5276.000000;0.933424
5275.000000;0.966179
5274.000000;0.962267
5273.000000;0.926911
5272.000000;0.906162
5271.000000;0.924818
5270.000000;0.985887
5269.000000;1.048000
5268.000000;1.060296
5267.000000;1.040158
5266.000000;1.035132
5265.000000;1.050146
5264.000000;1.061872
5263.000000;1.064930
5262.000000;1.076098
5261.000000;1.094245
5260.000000;1.070552
5259.000000;0.987723
5258.000000;0.911552
5257.000000;0.889815
5256.000000;0.920127
5255.000000;0.961198
5254.000000;0.963158
5253.000000;0.930041
5252.000000;0.900034
5251.000000;0.895779
5250.000000;0.912465
5249.000000;0.915452
5248.000000;0.877233
5247.000000;0.827967
5246.000000;0.827437
5245.000000;0.915326
5244.000000;1.099123
5243.000000;1.290335
5242.000000;1.275008
5241.000000;1.140686
5240.000000;1.052664
5239.000000;1.039307
5238.000000;1.076637
5237.000000;1.096905
5236.000000;1.045950
5235.000000;0.948131
5234.000000;0.869008
5233.000000;0.849935
5232.000000;0.890310
5231.000000;0.958527
5230.000000;1.008469
5229.000000;1.017335
5228.000000;1.005463
5227.000000;0.997742
5226.000000;0.994518
5225.000000;0.973503
5224.000000;0.914291
5223.000000;0.840280
5222.000000;0.797595
5221.000000;0.802598
5220.000000;0.831151
5219.000000;0.858120
5218.000000;0.895604
5217.000000;0.946524
5216.000000;0.968157
5215.000000;0.931679
5214.000000;0.877569
5213.000000;0.867135
5212.000000;0.936271
5211.000000;1.093280
5210.000000;1.337073
5209.000000;1.465134
5208.000000;1.277724
5207.000000;1.117128
5206.000000;1.062781
5205.000000;1.092933
5204.000000;1.154111
5203.000000;1.135681
5202.000000;1.017071
5201.000000;0.891914
5200.000000;0.818445
5199.000000;0.806998
5198.000000;0.849907
5197.000000;0.924711
5196.000000;0.958457
5195.000000;0.903026
5194.000000;0.840256
5193.000000;0.826796
5192.000000;0.856066
5191.000000;0.898818
5190.000000;0.934781
5189.000000;0.974410
5188.000000;1.033150
5187.000000;1.095928
5186.000000;1.132534
5185.000000;1.137981
5184.000000;1.100137
5183.000000;1.030515
5182.000000;0.976091
5181.000000;0.967035
5180.000000;1.009888
5179.000000;1.064922
5178.000000;1.063293
5177.000000;1.003392
5176.000000;0.948798
5175.000000;0.930127
5174.000000;0.928916
5173.000000;0.929269
5172.000000;0.935670
5171.000000;0.945934
5170.000000;0.955674
5169.000000;0.976426
5168.000000;1.007597
5167.000000;1.005057
5166.000000;0.943629
5165.000000;0.872188
5164.000000;0.841926
5163.000000;0.865897
5162.000000;0.925643
5161.000000;0.987946
5160.000000;1.015191
5159.000000;0.995729
5158.000000;0.954149
5157.000000;0.916115
5156.000000;0.907951
5155.000000;0.923046
5154.000000;0.913624
5153.000000;0.869422
5152.000000;0.835194
5151.000000;0.846697
5150.000000;0.908848
5149.000000;0.965761
5148.000000;0.969605
5147.000000;0.964677
5146.000000;0.955511
5145.000000;0.930346
5144.000000;0.920288
5143.000000;0.946223
5142.000000;0.998443
5141.000000;1.039240
5140.000000;1.034543
5139.000000;0.991822
5138.000000;0.944519
5137.000000;0.917183
5136.000000;0.916009
5135.000000;0.923068
5134.000000;0.907743
5133.000000;0.869852
5132.000000;0.843495
5131.000000;0.835834
5130.000000;0.825969
5129.000000;0.827198
5128.000000;0.871659
5127.000000;0.968001
5126.000000;1.087852
5125.000000;1.156085
5124.000000;1.137977
5123.000000;1.099351
5122.000000;1.081067
5121.000000;1.073969
5120.000000;1.067221
5119.000000;1.057828
5118.000000;1.046583
5117.000000;1.022155
5116.000000;0.986376
5115.000000;0.968746
5114.000000;0.976570
5113.000000;0.983716
5112.000000;0.975884
5111.000000;0.967272
5110.000000;0.964669
5109.000000;0.964900
5108.000000;0.965282
5107.000000;0.977708
5106.000000;1.016712
5105.000000;1.050342
5104.000000;1.025351
5103.000000;0.951938
5102.000000;0.876133
5101.000000;0.824715
5100.000000;0.804724
5099.000000;0.797173
5098.000000;0.769742
5097.000000;0.732925
5096.000000;0.723574
5095.000000;0.751283
5094.000000;0.792668
5093.000000;0.809890
5092.000000;0.792254
5091.000000;0.764778
5090.000000;0.752580
5089.000000;0.763392
5088.000000;0.791371
5087.000000;0.824390
5086.000000;0.858934
5085.000000;0.912947
5084.000000;0.992186
5083.000000;1.051111
5082.000000;1.022784
5081.000000;0.925239
5080.000000;0.847393
5079.000000;0.843926
5078.000000;0.915404
5077.000000;1.008198
5076.000000;1.038793
5075.000000;0.999696
5074.000000;0.946754
5073.000000;0.896306
5072.000000;0.845467
5071.000000;0.812390
5070.000000;0.819934
5069.000000;0.864706
5068.000000;0.912816
5067.000000;0.935636
5066.000000;0.927419
5065.000000;0.910770
5064.000000;0.917210
5063.000000;0.937241
5062.000000;0.946446
5061.000000;0.945781
5060.000000;0.941979
5059.000000;0.946377
5058.000000;0.971581
5057.000000;1.006158
5056.000000;1.011032
5055.000000;0.967151
5054.000000;0.910709
5053.000000;0.876520
5052.000000;0.871181
5051.000000;0.891095
5050.000000;0.919517
5049.000000;0.920051
5048.000000;0.877791
5047.000000;0.833105
5046.000000;0.830164
5045.000000;0.877927
5044.000000;0.939446
5043.000000;0.950034
5042.000000;0.905061
5041.000000;0.840417
5040.000000;0.780988
5039.000000;0.752235
5038.000000;0.766093
5037.000000;0.826452
5036.000000;0.927501
5035.000000;1.010665
5034.000000;1.013862
5033.000000;0.973905
5032.000000;0.931564
5031.000000;0.899299
5030.000000;0.886279
5029.000000;0.888902
5028.000000;0.887005
5027.000000;0.866254
5026.000000;0.834778
5025.000000;0.799826
5024.000000;0.760739
5023.000000;0.728719
5022.000000;0.727923
5021.000000;0.777345
5020.000000;0.863034
5019.000000;0.889383
5018.000000;0.812129
5017.000000;0.739329
5016.000000;0.729107
5015.000000;0.774822
5014.000000;0.850695
5013.000000;0.921092
5012.000000;0.965282
5011.000000;0.997570
5010.000000;1.015852
5009.000000;1.000731
5008.000000;0.966537
5007.000000;0.922326
5006.000000;0.856447
5005.000000;0.785057
5004.000000;0.745522
5003.000000;0.745211
5002.000000;0.751389
5001.000000;0.730305
5000.000000;0.696671
4999.000000;0.692203
4998.000000;0.731676
4997.000000;0.776260
4996.000000;0.759690
4995.000000;0.689627
4994.000000;0.639693
4993.000000;0.652918
4992.000000;0.719907
4991.000000;0.784183
4990.000000;0.777380
4989.000000;0.714900
4988.000000;0.665928
4987.000000;0.656735
4986.000000;0.671042
4985.000000;0.675695
4984.000000;0.658642
4983.000000;0.645780
4982.000000;0.659085
4981.000000;0.695877
4980.000000;0.730004
4979.000000;0.715933
4978.000000;0.655316
4977.000000;0.599096
4976.000000;0.571614
4975.000000;0.570466
4974.000000;0.585546
4973.000000;0.601088
4972.000000;0.608518
4971.000000;0.618234
4970.000000;0.636534
4969.000000;0.652272
4968.000000;0.658846
4967.000000;0.665310
4966.000000;0.677799
4965.000000;0.680707
4964.000000;0.659209
4963.000000;0.629689
4962.000000;0.616203
4961.000000;0.618755
4960.000000;0.612585
4959.000000;0.579978
4958.000000;0.532749
4957.000000;0.489920
4956.000000;0.459818
4955.000000;0.444406
4954.000000;0.441686
4953.000000;0.442064
4952.000000;0.431297
4951.000000;0.405692
4950.000000;0.379630
4949.000000;0.368916
4948.000000;0.374351
4947.000000;0.384129
4946.000000;0.389379
4945.000000;0.391695
4944.000000;0.391730
4943.000000;0.382635
4942.000000;0.361177
4941.000000;0.337982
4940.000000;0.329648
4939.000000;0.341516
4938.000000;0.360610
4937.000000;0.364066
4936.000000;0.339949
4935.000000;0.301886
4934.000000;0.276542
4933.000000;0.279360
4932.000000;0.302871
4931.000000;0.322673
4930.000000;0.316441
4929.000000;0.288672
4928.000000;0.263994
4927.000000;0.254520
4926.000000;0.254378
4925.000000;0.253798
4924.000000;0.248500
4923.000000;0.239551
4922.000000;0.228260
4921.000000;0.216111
4920.000000;0.206861
4919.000000;0.201474
4918.000000;0.196515
4917.000000;0.190242
4916.000000;0.184435
4915.000000;0.180309
4914.000000;0.174914
4913.000000;0.163587
4912.000000;0.147092
4911.000000;0.134458
4910.000000;0.132951
4909.000000;0.138641
4908.000000;0.140411
4907.000000;0.130067
4906.000000;0.108607
4905.000000;0.082896
4904.000000;0.059809
4903.000000;0.044341
4902.000000;0.038224
4901.000000;0.038369
4900.000000;0.038186
4899.000000;0.031627
4898.000000;0.018707
4897.000000;0.006429
4896.000000;-0.000177
4895.000000;-0.001807
4894.000000;-0.000558
4893.000000;-0.001261
4892.000000;-0.011100
4891.000000;-0.030545
4890.000000;-0.049639
4889.000000;-0.056596
4888.000000;-0.048240
4887.000000;-0.032349
4886.000000;-0.021299
4885.000000;-0.023255
4884.000000;-0.038366
4883.000000;-0.059938
4882.000000;-0.077503
4881.000000;-0.082648
4880.000000;-0.074741
4879.000000;-0.061901
4878.000000;-0.056409
4877.000000;-0.064815
4876.000000;-0.081785
4875.000000;-0.096862
4874.000000;-0.103171
4873.000000;-0.099644
4872.000000;-0.090450
4871.000000;-0.082425
4870.000000;-0.079744
4869.000000;-0.081199
4868.000000;-0.084631
4867.000000;-0.091628
4866.000000;-0.104409
4865.000000;-0.120045
4864.000000;-0.132083
4863.000000;-0.136878
4862.000000;-0.135370
4861.000000;-0.129753
4860.000000;-0.121732
4859.000000;-0.114351
4858.000000;-0.111965
4857.000000;-0.115577
4856.000000;-0.119041
4855.000000;-0.113923
4854.000000;-0.099152
4853.000000;-0.083550
4852.000000;-0.077018
4851.000000;-0.080087
4850.000000;-0.084845
4849.000000;-0.084020
4848.000000;-0.077580
4847.000000;-0.072223
4846.000000;-0.073562
4845.000000;-0.079257
4844.000000;-0.082165
4843.000000;-0.077978
4842.000000;-0.067714
4841.000000;-0.055160
4840.000000;-0.044930
4839.000000;-0.041655
4838.000000;-0.046325
4837.000000;-0.052955
4836.000000;-0.052781
4835.000000;-0.042702
4834.000000;-0.028697
4833.000000;-0.020554
4832.000000;-0.022418
4831.000000;-0.030152
4830.000000;-0.037157
4829.000000;-0.038627
4828.000000;-0.032457
4827.000000;-0.020705
4826.000000;-0.009516
4825.000000;-0.004347
4824.000000;-0.004924
4823.000000;-0.006782
4822.000000;-0.006552
4821.000000;-0.003418
4820.000000;0.002801
4819.000000;0.011933
4818.000000;0.022094
4817.000000;0.030747
4816.000000;0.037402
4815.000000;0.042588
4814.000000;0.044553
4813.000000;0.041075
4812.000000;0.034685
4811.000000;0.031873
4810.000000;0.036145
4809.000000;0.044226
4808.000000;0.049951
4807.000000;0.050591
4806.000000;0.047678
4805.000000;0.043302
4804.000000;0.039060
4803.000000;0.037801
4802.000000;0.042361
4801.000000;0.051744
4800.000000;0.060838
4799.000000;0.065543
4798.000000;0.066980
4797.000000;0.068763
4796.000000;0.071868
4795.000000;0.074266
4794.000000;0.074526
4793.000000;0.073617
4792.000000;0.072991
4791.000000;0.072809
4790.000000;0.072778
4789.000000;0.073611
4788.000000;0.076863
4787.000000;0.083543
4786.000000;0.092885
4785.000000;0.101953
4784.000000;0.107002
4783.000000;0.106648
4782.000000;0.103849
4781.000000;0.103257
4780.000000;0.106254
4779.000000;0.109975
4778.000000;0.111573
4777.000000;0.111912
4776.000000;0.113788
4775.000000;0.117838
4774.000000;0.122197
4773.000000;0.125612
4772.000000;0.128594
4771.000000;0.131187
4770.000000;0.131910
4769.000000;0.130228
4768.000000;0.128474
4767.000000;0.129604
4766.000000;0.133863
4765.000000;0.138861
4764.000000;0.142408
4763.000000;0.144189
4762.000000;0.144855
4761.000000;0.144793
4760.000000;0.144363
4759.000000;0.144548
4758.000000;0.146619
4757.000000;0.151178
4756.000000;0.157463
4755.000000;0.163333
4754.000000;0.166379
4753.000000;0.165986
4752.000000;0.164323
4751.000000;0.164461
4750.000000;0.167400
4749.000000;0.171472
4748.000000;0.174645
4747.000000;0.176760
4746.000000;0.178903
4745.000000;0.181096
4744.000000;0.181949
4743.000000;0.180935
4742.000000;0.179949
4741.000000;0.181451
4740.000000;0.185475
4739.000000;0.189449
4738.000000;0.191037
4737.000000;0.190556
4736.000000;0.190140
4735.000000;0.191061
4734.000000;0.192631
4733.000000;0.193543
4732.000000;0.193501
4731.000000;0.193341
4730.000000;0.194068
4729.000000;0.196145
4728.000000;0.199406
4727.000000;0.203218
4726.000000;0.206604
4725.000000;0.208586
4724.000000;0.208851
4723.000000;0.208138
4722.000000;0.207765
4721.000000;0.208576
4720.000000;0.210268
4719.000000;0.211738
4718.000000;0.212255
4717.000000;0.212338
4716.000000;0.213261
4715.000000;0.215639
4714.000000;0.218603
4713.000000;0.220482
4712.000000;0.220397
4711.000000;0.219205
4710.000000;0.218835
4709.000000;0.220649
4708.000000;0.224205
4707.000000;0.227529
4706.000000;0.228837
4705.000000;0.228005
4704.000000;0.226385
4703.000000;0.225640
4702.000000;0.226745
4701.000000;0.229546
4700.000000;0.232887
4699.000000;0.235385
4698.000000;0.236632
4697.000000;0.237658
4696.000000;0.239834
4695.000000;0.243183
4694.000000;0.246056
4693.000000;0.246670
4692.000000;0.244910
4691.000000;0.242494
4690.000000;0.241497
4689.000000;0.242785
4688.000000;0.245547
4687.000000;0.248076
4686.000000;0.249215
4685.000000;0.249189
4684.000000;0.248950
4683.000000;0.248900
4682.000000;0.248685
4681.000000;0.248185
4680.000000;0.247982
4679.000000;0.248517
4678.000000;0.249474
4677.000000;0.250497
4676.000000;0.252144
4675.000000;0.255379
4674.000000;0.259991
4673.000000;0.264057
4672.000000;0.265444
4671.000000;0.263795
4670.000000;0.260885
4669.000000;0.259070
4668.000000;0.259532
4667.000000;0.261622
4666.000000;0.263522
4665.000000;0.263823
4664.000000;0.262789
4663.000000;0.261904
4662.000000;0.262341
4661.000000;0.264189
4660.000000;0.266892
4659.000000;0.269789
4658.000000;0.272105
4657.000000;0.273085
4656.000000;0.272760
4655.000000;0.272324
4654.000000;0.273081
4653.000000;0.274911
4652.000000;0.276215
4651.000000;0.275608
4650.000000;0.273443
4649.000000;0.271353
4648.000000;0.270634
4647.000000;0.271447
4646.000000;0.273209
4645.000000;0.275247
4644.000000;0.277117
4643.000000;0.278573
4642.000000;0.279342
4641.000000;0.279109
4640.000000;0.277936
4639.000000;0.276619
4638.000000;0.276433
4637.000000;0.278194
4636.000000;0.281381
4635.000000;0.284420
4634.000000;0.286013
4633.000000;0.286097
4632.000000;0.285580
4631.000000;0.285408
4630.000000;0.285973
4629.000000;0.287064
4628.000000;0.288112
4627.000000;0.288646
4626.000000;0.288853
4625.000000;0.289629
4624.000000;0.291769
4623.000000;0.294940
4622.000000;0.297540
4621.000000;0.297888
4620.000000;0.295721
4619.000000;0.292522
4618.000000;0.290381
4617.000000;0.290474
4616.000000;0.292325
4615.000000;0.294309
4614.000000;0.295068
4613.000000;0.294548
4612.000000;0.293837
4611.000000;0.294196
4610.000000;0.296105
4609.000000;0.298926
4608.000000;0.301388
4607.000000;0.302585
4606.000000;0.302709
4605.000000;0.302725
4604.000000;0.303269
4603.000000;0.304016
4602.000000;0.304137
4601.000000;0.303224
4600.000000;0.301770
4599.000000;0.300847
4598.000000;0.301252
4597.000000;0.302728
4596.000000;0.304012
4595.000000;0.303982
4594.000000;0.302939
4593.000000;0.302349
4592.000000;0.303160
4591.000000;0.304908
4590.000000;0.306899
4589.000000;0.309575
4588.000000;0.313549
4587.000000;0.317461
4586.000000;0.318341
4585.000000;0.314853
4584.000000;0.309285
4583.000000;0.305461
4582.000000;0.305228
4581.000000;0.307414
4580.000000;0.309603
4579.000000;0.310301
4578.000000;0.309562
4577.000000;0.308267
4576.000000;0.307265
4575.000000;0.306967
4574.000000;0.307382
4573.000000;0.308428
4572.000000;0.310087
4571.000000;0.312086
4570.000000;0.313569
4569.000000;0.313661
4568.000000;0.312588
4567.000000;0.311734
4566.000000;0.312193
4565.000000;0.313569
4564.000000;0.314594
4563.000000;0.314730
4562.000000;0.314605
4561.000000;0.314839
4560.000000;0.315089
4559.000000;0.314630
4558.000000;0.313503
4557.000000;0.312555
4556.000000;0.312490
4555.000000;0.313340
4554.000000;0.314809
4553.000000;0.316721
4552.000000;0.318855
4551.000000;0.320566
4550.000000;0.321131
4549.000000;0.320475
4548.000000;0.319290
4547.000000;0.318376
4546.000000;0.317906
4545.000000;0.317431
4544.000000;0.316627
4543.000000;0.315961
4542.000000;0.316462
4541.000000;0.318692
4540.000000;0.322080
4539.000000;0.325360
4538.000000;0.327391
4537.000000;0.327440
4536.000000;0.325389
4535.000000;0.322411
4534.000000;0.320936
4533.000000;0.322736
4532.000000;0.326617
4531.000000;0.328853
4530.000000;0.326921
4529.000000;0.322296
4528.000000;0.318481
4527.000000;0.316968
4526.000000;0.316339
4525.000000;0.314987
4524.000000;0.313479
4523.000000;0.313597
4522.000000;0.315807
4521.000000;0.318674
4520.000000;0.320678
4519.000000;0.321740
4518.000000;0.322602
4517.000000;0.323314
4516.000000;0.323117
4515.000000;0.321779
4514.000000;0.320347
4513.000000;0.320082
4512.000000;0.320955
4511.000000;0.321674
4510.000000;0.321154
4509.000000;0.319564
4508.000000;0.317899
4507.000000;0.317134
4506.000000;0.317906
4505.000000;0.320285
4504.000000;0.323371
4503.000000;0.325566
4502.000000;0.325755
4501.000000;0.324044
4500.000000;0.321225
4499.000000;0.318222
4498.000000;0.316419
4497.000000;0.317493
4496.000000;0.321722
4495.000000;0.326837
4494.000000;0.329687
4493.000000;0.329137
4492.000000;0.326660
4491.000000;0.324404
4490.000000;0.323590
4489.000000;0.324342
4488.000000;0.325683
4487.000000;0.325707
4486.000000;0.323269
4485.000000;0.319956
4484.000000;0.318921
4483.000000;0.321152
4482.000000;0.324073
4481.000000;0.324787
4480.000000;0.323672
4479.000000;0.323290
4478.000000;0.324601
4477.000000;0.325946
4476.000000;0.325589
4475.000000;0.323935
4474.000000;0.322914
4473.000000;0.324184
4472.000000;0.328024
4471.000000;0.332895
4470.000000;0.335951
4469.000000;0.335203
4468.000000;0.331568
4467.000000;0.327783
4466.000000;0.325305
4465.000000;0.323476
4464.000000;0.321805
4463.000000;0.321329
4462.000000;0.322678
4461.000000;0.324077
4460.000000;0.322829
4459.000000;0.318671
4458.000000;0.314275
4457.000000;0.312352
4456.000000;0.313357
4455.000000;0.315840
4454.000000;0.317997
4453.000000;0.318987
4452.000000;0.319603
4451.000000;0.321831
4450.000000;0.326917
4449.000000;0.333363
4448.000000;0.337398
4447.000000;0.336246
4446.000000;0.330799
4445.000000;0.324594
4444.000000;0.320878
4443.000000;0.321009
4442.000000;0.324386
4441.000000;0.328765
4440.000000;0.331152
4439.000000;0.329816
4438.000000;0.325819
4437.000000;0.321955
4436.000000;0.320198
4435.000000;0.320575
4434.000000;0.322185
4433.000000;0.324492
4432.000000;0.327259
4431.000000;0.329739
4430.000000;0.330714
4429.000000;0.329677
4428.000000;0.327758
4427.000000;0.326929
4426.000000;0.327949
4425.000000;0.329272
4424.000000;0.328536
4423.000000;0.325326
4422.000000;0.321668
4421.000000;0.319537
4420.000000;0.318916
4419.000000;0.318751
4418.000000;0.318805
4417.000000;0.319474
4416.000000;0.320458
4415.000000;0.321081
4414.000000;0.321483
4413.000000;0.322106
4412.000000;0.322636
4411.000000;0.322718
4410.000000;0.323033
4409.000000;0.324011
4408.000000;0.323883
4407.000000;0.320315
4406.000000;0.314461
4405.000000;0.311002
4404.000000;0.312897
4403.000000;0.317632
4402.000000;0.320163
4401.000000;0.319170
4400.000000;0.318102
4399.000000;0.320185
4398.000000;0.324794
4397.000000;0.328722
4396.000000;0.329874
4395.000000;0.329163
4394.000000;0.328954
4393.000000;0.330162
4392.000000;0.330824
4391.000000;0.327743
4390.000000;0.320101
4389.000000;0.311057
4388.000000;0.305263
4387.000000;0.305080
4386.000000;0.308906
4385.000000;0.312412
4384.000000;0.311863
4383.000000;0.307304
4382.000000;0.302313
4381.000000;0.300089
4380.000000;0.300291
4379.000000;0.300386
4378.000000;0.299666
4377.000000;0.300300
4376.000000;0.303940
4375.000000;0.309316
4374.000000;0.314237
4373.000000;0.318188
4372.000000;0.321448
4371.000000;0.322710
4370.000000;0.319700
4369.000000;0.312766
4368.000000;0.306251
4367.000000;0.304765
4366.000000;0.308999
4365.000000;0.314880
4364.000000;0.315647
4363.000000;0.307442
4362.000000;0.294232
4361.000000;0.284688
4360.000000;0.283707
4359.000000;0.287477
4358.000000;0.287632
4357.000000;0.280960
4356.000000;0.272903
4355.000000;0.270838
4354.000000;0.276311
4353.000000;0.283359
4352.000000;0.283553
4351.000000;0.274776
4350.000000;0.264577
4349.000000;0.262246
4348.000000;0.268895
4347.000000;0.276887
4346.000000;0.279498
4345.000000;0.278963
4344.000000;0.281194
4343.000000;0.286185
4342.000000;0.288778
4341.000000;0.286576
4340.000000;0.282416
4339.000000;0.279488
4338.000000;0.277310
4337.000000;0.273617
4336.000000;0.266671
4335.000000;0.255695
4334.000000;0.243277
4333.000000;0.235559
4332.000000;0.237092
4331.000000;0.245401
4330.000000;0.252522
4329.000000;0.253620
4328.000000;0.251609
4327.000000;0.251402
4326.000000;0.253571
4325.000000;0.255610
4324.000000;0.256184
4323.000000;0.255301
4322.000000;0.252652
4321.000000;0.248702
4320.000000;0.245888
4319.000000;0.246953
4318.000000;0.252869
4317.000000;0.262359
4316.000000;0.271496
4315.000000;0.274609
4314.000000;0.269179
4313.000000;0.258831
4312.000000;0.248756
4311.000000;0.239945
4310.000000;0.230685
4309.000000;0.222181
4308.000000;0.217829
4307.000000;0.217805
4306.000000;0.219712
4305.000000;0.223490
4304.000000;0.229540
4303.000000;0.232612
4302.000000;0.225130
4301.000000;0.208758
4300.000000;0.194858
4299.000000;0.191737
4298.000000;0.197496
4297.000000;0.205068
4296.000000;0.210124
4295.000000;0.212478
4294.000000;0.213738
4293.000000;0.217069
4292.000000;0.225417
4291.000000;0.236602
4290.000000;0.243492
4289.000000;0.243895
4288.000000;0.243991
4287.000000;0.247069
4286.000000;0.248314
4285.000000;0.243873
4284.000000;0.235515
4283.000000;0.224791
4282.000000;0.211605
4281.000000;0.199940
4280.000000;0.197326
4279.000000;0.203609
4278.000000;0.207842
4277.000000;0.203358
4276.000000;0.197122
4275.000000;0.200892
4274.000000;0.219268
4273.000000;0.244071
4272.000000;0.264925
4271.000000;0.280154
4270.000000;0.293478
4269.000000;0.311525
4268.000000;0.341854
4267.000000;0.380906
4266.000000;0.396839
4265.000000;0.363020
4264.000000;0.315388
4263.000000;0.299191
4262.000000;0.320973
4261.000000;0.358736
4260.000000;0.383636
4259.000000;0.383849
4258.000000;0.365309
4257.000000;0.338149
4256.000000;0.314842
4255.000000;0.306627
4254.000000;0.314936
4253.000000;0.332030
4252.000000;0.349764
4251.000000;0.363348
4250.000000;0.366241
4249.000000;0.351449
4248.000000;0.326898
4247.000000;0.317904
4246.000000;0.344057
4245.000000;0.399281
4244.000000;0.447816
4243.000000;0.453841
4242.000000;0.437551
4241.000000;0.437320
4240.000000;0.455471
4239.000000;0.478225
4238.000000;0.489656
4237.000000;0.486584
4236.000000;0.482305
4235.000000;0.488380
4234.000000;0.514088
4233.000000;0.560389
4232.000000;0.613241
4231.000000;0.638647
4230.000000;0.615930
4229.000000;0.573174
4228.000000;0.550692
4227.000000;0.564943
4226.000000;0.609615
4225.000000;0.675013
4224.000000;0.739361
4223.000000;0.753640
4222.000000;0.708131
4221.000000;0.659998
4220.000000;0.661002
4219.000000;0.730543
4218.000000;0.839898
4217.000000;0.889018
4216.000000;0.866168
4215.000000;0.847501
4214.000000;0.838707
4213.000000;0.838800
4212.000000;0.865382
4211.000000;0.935430
4210.000000;1.022333
4209.000000;1.026131
4208.000000;0.926484
4207.000000;0.833124
4206.000000;0.812052
4205.000000;0.882387
4204.000000;1.039353
4203.000000;1.217682
4202.000000;1.206056
4201.000000;1.023408
4200.000000;0.873988
4199.000000;0.793228
4198.000000;0.760601
4197.000000;0.769185
4196.000000;0.838689
4195.000000;0.999805
4194.000000;1.281324
4193.000000;1.557317
4192.000000;1.332968
4191.000000;1.059055
4190.000000;0.892791
4189.000000;0.832486
4188.000000;0.865933
4187.000000;0.957487
4186.000000;1.018454
4185.000000;0.991307
4184.000000;0.901572
4183.000000;0.823655
4182.000000;0.802920
4181.000000;0.821021
4180.000000;0.848767
4179.000000;0.890794
4178.000000;0.974736
4177.000000;1.093689
4176.000000;1.149452
4175.000000;1.058102
4174.000000;0.957179
4173.000000;0.934567
4172.000000;0.983114
4171.000000;1.103361
4170.000000;1.365041
4169.000000;1.957688
4168.000000;1.473453
4167.000000;1.409438
4166.000000;1.528421
4165.000000;1.667606
4164.000000;1.418743
4163.000000;1.116221
4162.000000;1.022008
4161.000000;1.070945
4160.000000;1.161356
4159.000000;1.089712
4158.000000;0.944108
4157.000000;0.911973
4156.000000;1.031129
4155.000000;1.302977
4154.000000;1.433860
4153.000000;1.238957
4152.000000;1.088872
4151.000000;1.052122
4150.000000;1.096882
4149.000000;1.166739
4148.000000;1.282974
4147.000000;1.335573
4146.000000;1.142518
4145.000000;1.019345
4144.000000;1.031526
4143.000000;1.158297
4142.000000;1.379018
4141.000000;1.615569
4140.000000;1.434321
4139.000000;1.273193
4138.000000;1.244702
4137.000000;1.262543
4136.000000;1.316174
4135.000000;1.481715
4134.000000;1.483328
4133.000000;1.182093
4132.000000;1.044911
4131.000000;1.068929
4130.000000;1.175907
4129.000000;1.236476
4128.000000;1.216926
4127.000000;1.151800
4126.000000;1.125280
4125.000000;1.193470
4124.000000;1.302016
4123.000000;1.273056
4122.000000;1.183250
4121.000000;1.129478
4120.000000;1.116970
4119.000000;1.160538
4118.000000;1.244699
4117.000000;1.313701
4116.000000;1.315078
4115.000000;1.268674
4114.000000;1.272862
4113.000000;1.369604
4112.000000;1.502771
4111.000000;1.510987
4110.000000;1.316404
4109.000000;1.165557
4108.000000;1.141126
4107.000000;1.275672
4106.000000;1.567244
4105.000000;1.594738
4104.000000;1.733991
4103.000000;1.626880
4102.000000;1.332919
4101.000000;1.350867
4100.000000;1.855769
4099.000000;1.895874
4098.000000;1.411676
4097.000000;1.313926
4096.000000;1.316685
4095.000000;1.588972
4094.000000;1.661101
4093.000000;1.245288
4092.000000;1.169211
4091.000000;1.441002
4090.000000;1.712772
4089.000000;1.184836
4088.000000;1.071225
4087.000000;1.150961
4086.000000;1.466094
4085.000000;1.971297
4084.000000;1.664212
4083.000000;1.706459
4082.000000;1.904864
4081.000000;1.905330
4080.000000;1.588703
4079.000000;1.425904
4078.000000;1.395984
4077.000000;1.481409
4076.000000;1.619970
4075.000000;1.749793
4074.000000;1.656945
4073.000000;1.475805
4072.000000;1.433876
4071.000000;1.467432
4070.000000;1.386836
4069.000000;1.317782
4068.000000;1.348108
4067.000000;1.436878
4066.000000;1.474291
4065.000000;1.312271
4064.000000;1.266006
4063.000000;1.476604
4062.000000;2.155845
4061.000000;2.454748
4060.000000;1.754803
4059.000000;1.536009
4058.000000;1.808871
4057.000000;1.737572
4056.000000;1.320455
4055.000000;1.312732
4054.000000;1.492091
4053.000000;1.809775
4052.000000;1.711842
4051.000000;1.321447
4050.000000;1.062866
4049.000000;0.960841
4048.000000;0.985774
4047.000000;1.047379
4046.000000;1.013920
4045.000000;0.980124
4044.000000;1.045418
4043.000000;1.195368
4042.000000;1.362513
4041.000000;1.336295
4040.000000;1.305171
4039.000000;1.535465
4038.000000;1.677623
4037.000000;1.265826
4036.000000;1.084140
4035.000000;1.037715
4034.000000;1.078942
4033.000000;1.265984
4032.000000;1.592468
4031.000000;1.249828
4030.000000;1.062840
4029.000000;1.069076
4028.000000;1.188629
4027.000000;1.339283
4026.000000;1.357499
4025.000000;1.244694
4024.000000;1.214658
4023.000000;1.307971
4022.000000;1.420739
4021.000000;1.533512
4020.000000;1.775207
4019.000000;1.570415
4018.000000;1.358455
4017.000000;1.659679
4016.000000;1.611637
4015.000000;1.213128
4014.000000;1.119542
4013.000000;1.164948
4012.000000;1.283209
4011.000000;1.563307
4010.000000;2.080670
4009.000000;1.484119
4008.000000;1.489979
4007.000000;2.202668
4006.000000;1.442936
4005.000000;1.248056
4004.000000;1.302266
4003.000000;1.642625
4002.000000;2.355532
4001.000000;1.834141
4000.000000;1.611549
3999.000000;1.395890
3998.000000;1.449414
3997.000000;1.724937
3996.000000;1.416671
3995.000000;1.220961
3994.000000;1.648940
3993.000000;1.605946
3992.000000;1.170808
3991.000000;1.149620
3990.000000;1.301029
3989.000000;1.641235
3988.000000;1.673804
3987.000000;1.579032
3986.000000;1.736098
3985.000000;1.963781
3984.000000;1.691228
3983.000000;1.659456
3982.000000;1.525467
3981.000000;1.213320
3980.000000;1.113738
3979.000000;1.184123
3978.000000;1.268260
3977.000000;1.303571
3976.000000;1.517855
3975.000000;1.682055
3974.000000;1.768228
3973.000000;1.530444
3972.000000;1.111499
3971.000000;1.011482
3970.000000;1.114753
3969.000000;1.515932
3968.000000;1.922279
3967.000000;1.668010
3966.000000;1.377394
3965.000000;1.176194
3964.000000;1.151261
3963.000000;1.242693
3962.000000;1.412387
3961.000000;1.584964
3960.000000;1.672747
3959.000000;1.667243
3958.000000;1.631449
3957.000000;1.639269
3956.000000;1.675141
3955.000000;1.623130
3954.000000;1.535729
3953.000000;1.511422
3952.000000;1.485996
3951.000000;1.346089
3950.000000;1.245622
3949.000000;1.324790
3948.000000;1.471275
3947.000000;1.425936
3946.000000;1.373613
3945.000000;1.366735
3944.000000;1.329405
3943.000000;1.282060
3942.000000;1.317636
3941.000000;1.498748
3940.000000;2.016273
3939.000000;1.727440
3938.000000;1.325844
3937.000000;1.188832
3936.000000;1.171020
3935.000000;1.212737
3934.000000;1.366320
3933.000000;1.856747
3932.000000;1.401717
3931.000000;1.208741
3930.000000;1.229500
3929.000000;1.302706
3928.000000;1.412708
3927.000000;1.524046
3926.000000;1.500203
3925.000000;1.378563
3924.000000;1.324971
3923.000000;1.350956
3922.000000;1.420595
3921.000000;1.485589
3920.000000;1.556781
3919.000000;1.617091
3918.000000;1.754302
3917.000000;2.097004
3916.000000;1.963577
3915.000000;1.786862
3914.000000;1.822902
3913.000000;1.915025
3912.000000;1.870427
3911.000000;1.573851
3910.000000;1.453299
3909.000000;1.464423
3908.000000;1.479887
3907.000000;1.816262
3906.000000;1.653214
3905.000000;1.316184
3904.000000;1.270532
3903.000000;1.353711
3902.000000;1.509321
3901.000000;1.694632
3900.000000;1.881625
3899.000000;2.113949
3898.000000;2.459951
3897.000000;2.064319
3896.000000;1.629772
3895.000000;1.395056
3894.000000;1.310916
3893.000000;1.592561
3892.000000;1.886509
3891.000000;1.361381
3890.000000;1.374851
3889.000000;1.585601
3888.000000;1.571795
3887.000000;1.599562
3886.000000;1.712942
3885.000000;1.491213
3884.000000;1.445097
3883.000000;1.638249
3882.000000;1.853557
3881.000000;1.863370
3880.000000;1.738109
3879.000000;1.633845
3878.000000;1.648927
3877.000000;1.709324
3876.000000;1.534032
3875.000000;1.405881
3874.000000;1.359147
3873.000000;1.306191
3872.000000;1.261430
3871.000000;1.210673
3870.000000;1.170676
3869.000000;1.210492
3868.000000;1.278299
3867.000000;1.264939
3866.000000;1.195417
3865.000000;1.205856
3864.000000;1.334322
3863.000000;1.271195
3862.000000;0.979022
3861.000000;0.837983
3860.000000;0.860743
3859.000000;0.958686
3858.000000;1.004737
3857.000000;0.980178
3856.000000;0.982977
3855.000000;1.085421
3854.000000;1.320927
3853.000000;1.544299
3852.000000;1.467510
3851.000000;1.374541
3850.000000;1.395458
3849.000000;1.432490
3848.000000;1.319261
3847.000000;1.120267
3846.000000;1.005506
3845.000000;0.971511
3844.000000;0.919872
3843.000000;0.885387
3842.000000;0.898448
3841.000000;0.941368
3840.000000;1.018645
3839.000000;1.111451
3838.000000;1.139884
3837.000000;1.103796
3836.000000;1.118956
3835.000000;1.241014
3834.000000;1.428006
3833.000000;1.444988
3832.000000;1.173132
3831.000000;0.921263
3830.000000;0.834871
3829.000000;0.926234
3828.000000;1.174088
3827.000000;1.321689
3826.000000;1.238040
3825.000000;1.142481
3824.000000;1.297758
3823.000000;1.922611
3822.000000;1.308838
3821.000000;0.992059
3820.000000;0.760495
3819.000000;0.558355
3818.000000;0.641224
3817.000000;1.125181
3816.000000;0.941895
3815.000000;0.712611
3814.000000;0.726156
3813.000000;0.914771
3812.000000;1.294544
3811.000000;1.694561
3810.000000;1.724932
3809.000000;1.670594
3808.000000;1.727870
3807.000000;1.478188
3806.000000;1.140076
3805.000000;0.967216
3804.000000;0.928964
3803.000000;0.930794
3802.000000;0.919702
3801.000000;0.946319
3800.000000;0.980465
3799.000000;1.084747
3798.000000;1.060489
3797.000000;1.154299
3796.000000;1.900642
3795.000000;1.068022
3794.000000;0.840583
3793.000000;0.994815
3792.000000;1.238191
3791.000000;1.143145
3790.000000;1.026101
3789.000000;1.141432
3788.000000;1.536118
3787.000000;1.455929
3786.000000;1.532390
3785.000000;1.811551
3784.000000;1.196433
3783.000000;1.075648
3782.000000;1.210373
3781.000000;1.518010
3780.000000;1.584687
3779.000000;1.348999
3778.000000;1.167221
3777.000000;0.985708
3776.000000;0.948912
3775.000000;1.038908
3774.000000;1.160479
3773.000000;1.353951
3772.000000;1.635963
3771.000000;1.502057
3770.000000;1.188180
3769.000000;0.999482
3768.000000;0.927884
3767.000000;1.062776
3766.000000;1.388794
3765.000000;1.310420
3764.000000;1.208306
3763.000000;1.225911
3762.000000;1.192923
3761.000000;1.116398
3760.000000;1.105188
3759.000000;1.274489
3758.000000;1.780760
3757.000000;1.889056
3756.000000;1.349972
3755.000000;1.216403
3754.000000;1.377656
3753.000000;1.742879
3752.000000;1.879300
3751.000000;1.657495
3750.000000;1.374467
3749.000000;1.123893
3748.000000;1.009833
3747.000000;1.027104
3746.000000;1.237723
3745.000000;1.577240
3744.000000;1.422175
3743.000000;1.407477
3742.000000;1.607061
3741.000000;1.816771
3740.000000;1.844587
3739.000000;1.731343
3738.000000;1.808169
3737.000000;2.325205
3736.000000;2.846403
3735.000000;1.970545
3734.000000;1.600659
3733.000000;1.464487
3732.000000;1.386503
3731.000000;1.326547
3730.000000;1.401906
3729.000000;1.532911
3728.000000;1.862389
3727.000000;1.807057
3726.000000;1.521261
3725.000000;1.986775
3724.000000;2.095965
3723.000000;1.694254
3722.000000;1.757407
3721.000000;1.746980
3720.000000;1.398106
3719.000000;1.240975
3718.000000;1.415904
3717.000000;1.774169
3716.000000;1.462616
3715.000000;1.243233
3714.000000;1.279963
3713.000000;1.477066
3712.000000;1.672847
3711.000000;1.437903
3710.000000;1.145505
3709.000000;0.994361
3708.000000;1.272823
3707.000000;1.522000
3706.000000;0.966544
3705.000000;0.858435
3704.000000;0.893486
3703.000000;1.035469
3702.000000;1.207919
3701.000000;1.192362
3700.000000;1.250077
3699.000000;1.377927
3698.000000;1.240728
3697.000000;1.157817
3696.000000;1.207597
3695.000000;1.201632
3694.000000;1.145264
3693.000000;1.147206
3692.000000;1.237830
3691.000000;1.439324
3690.000000;1.755601
3689.000000;1.625955
3688.000000;1.431585
3687.000000;1.298818
3686.000000;1.146632
3685.000000;1.100788
3684.000000;1.106459
3683.000000;1.139863
3682.000000;1.228512
3681.000000;1.324876
3680.000000;1.278762
3679.000000;1.057513
3678.000000;0.821329
3677.000000;0.665185
3676.000000;0.611794
3675.000000;0.683540
3674.000000;0.767543
3673.000000;0.700026
3672.000000;0.712480
3671.000000;0.893315
3670.000000;1.114122
3669.000000;1.282508
3668.000000;1.354706
3667.000000;1.350721
3666.000000;1.236127
3665.000000;1.209536
3664.000000;1.270722
3663.000000;1.224633
3662.000000;1.228002
3661.000000;1.409808
3660.000000;1.588065
3659.000000;1.660090
3658.000000;1.619336
3657.000000;1.384402
3656.000000;1.396080
3655.000000;1.685284
3654.000000;1.447337
3653.000000;1.206517
3652.000000;1.278580
3651.000000;1.336319
3650.000000;1.054001
3649.000000;0.961641
3648.000000;1.192011
3647.000000;1.505689
3646.000000;1.611323
3645.000000;1.673820
3644.000000;1.447644
3643.000000;1.354710
3642.000000;1.514868
3641.000000;1.721911
3640.000000;1.587998
3639.000000;1.502778
3638.000000;1.374584
3637.000000;1.192041
3636.000000;1.122780
3635.000000;1.203917
3634.000000;1.410374
3633.000000;1.517365
3632.000000;1.413580
3631.000000;1.201702
3630.000000;1.064955
3629.000000;1.081174
3628.000000;1.226471
3627.000000;1.455220
3626.000000;1.633656
3625.000000;1.630296
3624.000000;1.553258
3623.000000;1.571352
3622.000000;1.590155
3621.000000;1.428211
3620.000000;1.628870
3619.000000;1.870628
3618.000000;1.376943
3617.000000;1.233642
3616.000000;1.353405
3615.000000;1.749824
3614.000000;1.917595
3613.000000;1.737615
3612.000000;1.586337
3611.000000;1.496980
3610.000000;1.490911
3609.000000;1.467642
3608.000000;1.494679
3607.000000;1.609695
3606.000000;1.798921
3605.000000;2.025489
3604.000000;2.268054
3603.000000;1.658853
3602.000000;1.287933
3601.000000;1.128667
3600.000000;1.292218
3599.000000;1.729549
3598.000000;1.282112
3597.000000;1.108743
3596.000000;1.074359
3595.000000;1.047903
3594.000000;1.144593
3593.000000;1.339024
3592.000000;1.721180
3591.000000;1.897780
3590.000000;1.571534
3589.000000;1.359844
3588.000000;1.345447
3587.000000;1.518105
3586.000000;1.861956
3585.000000;2.656008
3584.000000;2.463043
3583.000000;1.993591
3582.000000;1.840125
3581.000000;1.715555
3580.000000;1.575486
3579.000000;1.482155
3578.000000;1.394867
3577.000000;1.336135
3576.000000;1.433823
3575.000000;1.372819
3574.000000;1.105268
3573.000000;0.981875
3572.000000;0.966223
3571.000000;1.014301
3570.000000;1.308220
3569.000000;1.829318
3568.000000;1.517111
3567.000000;1.457793
3566.000000;1.618418
3565.000000;1.761742
3564.000000;1.862062
3563.000000;1.853229
3562.000000;1.814230
3561.000000;1.551989
3560.000000;1.300146
3559.000000;1.214675
3558.000000;1.229497
3557.000000;1.257308
3556.000000;1.244844
3555.000000;1.146345
3554.000000;1.017011
3553.000000;0.910616
3552.000000;0.901754
3551.000000;0.978731
3550.000000;1.244251
3549.000000;1.757336
3548.000000;1.339321
3547.000000;1.184827
3546.000000;1.327157
3545.000000;1.671653
3544.000000;2.125042
3543.000000;1.906042
3542.000000;1.928355
3541.000000;2.001025
3540.000000;1.667927
3539.000000;1.392169
3538.000000;1.350770
3537.000000;1.676196
3536.000000;1.949984
3535.000000;1.461508
3534.000000;1.308475
3533.000000;1.327266
3532.000000;1.419771
3531.000000;1.481235
3530.000000;1.446092
3529.000000;1.424040
3528.000000;1.349280
3527.000000;1.282332
3526.000000;1.338256
3525.000000;1.555417
3524.000000;1.681491
3523.000000;1.474107
3522.000000;1.346461
3521.000000;1.355427
3520.000000;1.428739
3519.000000;1.762308
3518.000000;2.113514
3517.000000;1.438521
3516.000000;1.161451
3515.000000;1.029035
3514.000000;0.974809
3513.000000;1.018249
3512.000000;1.208085
3511.000000;1.224935
3510.000000;1.014213
3509.000000;0.961491
3508.000000;0.970643
3507.000000;0.981600
3506.000000;1.017868
3505.000000;1.151714
3504.000000;1.396151
3503.000000;1.625583
3502.000000;1.566210
3501.000000;1.276977
3500.000000;1.130418
3499.000000;1.077162
3498.000000;1.050826
3497.000000;1.068039
3496.000000;1.130592
3495.000000;1.212830
3494.000000;1.280204
3493.000000;1.360765
3492.000000;1.409231
3491.000000;1.352548
3490.000000;1.311044
3489.000000;1.339750
3488.000000;1.413676
3487.000000;1.524000
3486.000000;1.697839
3485.000000;1.589372
3484.000000;1.438974
3483.000000;1.457412
3482.000000;1.323009
3481.000000;1.149857
3480.000000;1.185070
3479.000000;1.540176
3478.000000;1.709261
3477.000000;1.422317
3476.000000;1.412031
3475.000000;1.569211
3474.000000;1.674982
3473.000000;1.497700
3472.000000;1.172499
3471.000000;0.984472
3470.000000;0.947586
3469.000000;1.184689
3468.000000;1.483147
3467.000000;1.099529
3466.000000;1.125301
3465.000000;1.529505
3464.000000;1.432333
3463.000000;1.288851
3462.000000;1.275132
3461.000000;1.106741
3460.000000;1.068987
3459.000000;1.370573
3458.000000;1.421588
3457.000000;1.129906
3456.000000;1.137183
3455.000000;1.306017
3454.000000;1.476401
3453.000000;1.516802
3452.000000;1.662998
3451.000000;1.743432
3450.000000;1.594370
3449.000000;1.424537
3448.000000;1.505428
3447.000000;2.437266
3446.000000;1.570811
3445.000000;1.284745
3444.000000;1.356687
3443.000000;1.587671
3442.000000;1.697775
3441.000000;1.857109
3440.000000;1.774162
3439.000000;1.223587
3438.000000;1.080053
3437.000000;1.140964
3436.000000;1.254158
3435.000000;1.117558
3434.000000;0.953595
3433.000000;0.948214
3432.000000;1.077570
3431.000000;1.347075
3430.000000;1.236122
3429.000000;0.950527
3428.000000;0.842303
3427.000000;0.877677
3426.000000;0.970616
3425.000000;0.908969
3424.000000;0.825172
3423.000000;0.860567
3422.000000;1.013001
3421.000000;1.131435
3420.000000;1.087546
3419.000000;1.087589
3418.000000;1.274496
3417.000000;1.799197
3416.000000;1.624578
3415.000000;1.278392
3414.000000;1.131881
3413.000000;1.062694
3412.000000;1.130456
3411.000000;1.361968
3410.000000;1.782428
3409.000000;2.028277
3408.000000;1.590512
3407.000000;1.352350
3406.000000;1.331745
3405.000000;1.300360
3404.000000;1.229953
3403.000000;1.257766
3402.000000;1.343423
3401.000000;1.321478
3400.000000;1.228025
3399.000000;1.173853
3398.000000;1.189065
3397.000000;1.206680
3396.000000;1.132271
3395.000000;1.034847
3394.000000;0.979018
3393.000000;0.978522
3392.000000;1.029729
3391.000000;1.112250
3390.000000;1.204964
3389.000000;1.290912
3388.000000;1.349178
3387.000000;1.451615
3386.000000;1.602606
3385.000000;1.542376
3384.000000;1.504338
3383.000000;1.646716
3382.000000;1.862031
3381.000000;2.114597
3380.000000;1.972069
3379.000000;1.697398
3378.000000;1.475043
3377.000000;1.215172
3376.000000;1.034364
3375.000000;0.969777
3374.000000;1.022995
3373.000000;1.075501
3372.000000;0.988139
3371.000000;0.911483
3370.000000;0.926101
3369.000000;0.999066
3368.000000;1.020879
3367.000000;0.993082
3366.000000;1.041283
3365.000000;1.167584
3364.000000;1.305561
3363.000000;1.320951
3362.000000;1.206781
3361.000000;1.138192
3360.000000;1.125645
3359.000000;1.157981
3358.000000;1.222965
3357.000000;1.174187
3356.000000;1.057315
3355.000000;1.088100
3354.000000;1.153406
3353.000000;1.223449
3352.000000;1.546063
3351.000000;1.262415
3350.000000;0.942982
3349.000000;0.875977
3348.000000;0.882463
3347.000000;0.977938
3346.000000;1.148942
3345.000000;1.371135
3344.000000;1.583950
3343.000000;1.383954
3342.000000;1.197466
3341.000000;1.118045
3340.000000;1.080052
3339.000000;1.050709
3338.000000;1.152398
3337.000000;1.482474
3336.000000;1.320255
3335.000000;1.160082
3334.000000;1.246536
3333.000000;1.277234
3332.000000;1.161940
3331.000000;1.082001
3330.000000;1.085872
3329.000000;1.217487
3328.000000;1.349874
3327.000000;1.229031
3326.000000;1.156232
3325.000000;1.181320
3324.000000;1.255528
3323.000000;1.304596
3322.000000;1.289007
3321.000000;1.356251
3320.000000;1.460700
3319.000000;1.506612
3318.000000;1.449080
3317.000000;1.398845
3316.000000;1.557329
3315.000000;1.845070
3314.000000;1.713092
3313.000000;1.367880
3312.000000;1.159712
3311.000000;1.038714
3310.000000;0.985725
3309.000000;0.994490
3308.000000;1.008925
3307.000000;1.001712
3306.000000;1.004518
3305.000000;1.103862
3304.000000;1.258531
3303.000000;1.337475
3302.000000;1.367181
3301.000000;1.213985
3300.000000;1.047868
3299.000000;0.991487
3298.000000;1.012772
3297.000000;1.090204
3296.000000;1.350802
3295.000000;1.576626
3294.000000;1.154951
3293.000000;0.953333
3292.000000;0.947259
3291.000000;1.117202
3290.000000;1.557357
3289.000000;1.547253
3288.000000;1.380498
3287.000000;1.393265
3286.000000;1.349230
3285.000000;1.298588
3284.000000;1.300613
3283.000000;1.367104
3282.000000;1.400873
3281.000000;1.302819
3280.000000;1.151937
3279.000000;1.058300
3278.000000;1.057307
3277.000000;1.122756
3276.000000;1.180613
3275.000000;1.122318
3274.000000;0.964991
3273.000000;0.847758
3272.000000;0.809893
3271.000000;0.866424
3270.000000;1.017775
3269.000000;1.017850
3268.000000;0.869932
3267.000000;0.814197
3266.000000;0.855838
3265.000000;0.973123
3264.000000;1.115982
3263.000000;1.157962
3262.000000;1.031430
3261.000000;0.907246
3260.000000;0.908294
3259.000000;0.951139
3258.000000;0.882934
3257.000000;0.837305
3256.000000;0.958908
3255.000000;1.317667
3254.000000;1.389405
3253.000000;1.171648
3252.000000;1.190627
3251.000000;1.308437
3250.000000;1.417323
3249.000000;1.468574
3248.000000;1.459139
3247.000000;1.565735
3246.000000;1.731890
3245.000000;1.753609
3244.000000;1.423592
3243.000000;1.129737
3242.000000;1.051727
3241.000000;1.176231
3240.000000;1.397799
3239.000000;1.170258
3238.000000;0.959538
3237.000000;0.974152
3236.000000;1.317674
3235.000000;1.594938
3234.000000;1.256894
3233.000000;1.390298
3232.000000;1.510010
3231.000000;1.251514
3230.000000;1.219239
3229.000000;1.275142
3228.000000;1.378150
3227.000000;1.648728
3226.000000;1.724789
3225.000000;1.284072
3224.000000;1.018559
3223.000000;0.898241
3222.000000;0.895950
3221.000000;1.137831
3220.000000;1.440832
3219.000000;1.156013
3218.000000;1.065159
3217.000000;1.015846
3216.000000;0.947145
3215.000000;0.952118
3214.000000;1.040900
3213.000000;1.292717
3212.000000;1.601309
3211.000000;1.198265
3210.000000;0.960344
3209.000000;0.996988
3208.000000;1.194051
3207.000000;1.195517
3206.000000;1.181345
3205.000000;1.349099
3204.000000;1.333601
3203.000000;1.366808
3202.000000;1.793786
3201.000000;1.564725
3200.000000;1.203649
3199.000000;1.170595
3198.000000;1.479087
3197.000000;1.536225
3196.000000;1.128738
3195.000000;1.242069
3194.000000;1.647581
3193.000000;1.298975
3192.000000;1.083347
3191.000000;1.038390
3190.000000;1.044677
3189.000000;1.286681
3188.000000;1.658892
3187.000000;1.264512
3186.000000;1.141980
3185.000000;1.151067
3184.000000;1.057011
3183.000000;1.017596
3182.000000;1.099687
3181.000000;1.401223
3180.000000;1.962449
3179.000000;1.559701
3178.000000;1.575004
3177.000000;1.777636
3176.000000;1.205249
3175.000000;0.968610
3174.000000;0.937572
3173.000000;1.039351
3172.000000;1.232807
3171.000000;1.414927
3170.000000;1.458469
3169.000000;1.424521
3168.000000;1.591886
3167.000000;1.571972
3166.000000;1.231340
3165.000000;1.112567
3164.000000;1.045436
3163.000000;1.041480
3162.000000;1.105639
3161.000000;1.228344
3160.000000;1.761286
3159.000000;1.946657
3158.000000;1.389025
3157.000000;1.229537
3156.000000;1.240124
3155.000000;1.202325
3154.000000;1.149709
3153.000000;1.237306
3152.000000;1.106890
3151.000000;0.979158
3150.000000;1.042355
3149.000000;1.229454
3148.000000;1.237133
3147.000000;1.192284
3146.000000;1.401568
3145.000000;1.600559
3144.000000;1.345614
3143.000000;1.312242
3142.000000;1.308968
3141.000000;1.263495
3140.000000;1.266360
3139.000000;1.386416
3138.000000;1.815788
3137.000000;1.591176
3136.000000;1.189372
3135.000000;1.062794
3134.000000;0.984450
3133.000000;1.024670
3132.000000;1.398205
3131.000000;1.485631
3130.000000;1.142160
3129.000000;1.009706
3128.000000;1.011219
3127.000000;1.177682
3126.000000;1.205576
3125.000000;1.186420
3124.000000;1.188663
3123.000000;1.069851
3122.000000;1.070171
3121.000000;1.349422
3120.000000;1.646375
3119.000000;1.197032
3118.000000;1.083923
3117.000000;1.062788
3116.000000;1.032500
3115.000000;1.027953
3114.000000;1.063015
3113.000000;1.130615
3112.000000;1.269799
3111.000000;1.568260
3110.000000;1.644773
3109.000000;1.499257
3108.000000;1.439348
3107.000000;1.281056
3106.000000;1.195996
3105.000000;1.204676
3104.000000;1.171486
3103.000000;1.025420
3102.000000;0.889738
3101.000000;0.848451
3100.000000;0.900200
3099.000000;0.988475
3098.000000;1.066393
3097.000000;1.133438
3096.000000;1.152218
3095.000000;1.195832
3094.000000;1.365890
3093.000000;1.329260
3092.000000;1.199761
3091.000000;1.372687
3090.000000;1.457050
3089.000000;1.055303
3088.000000;0.938567
3087.000000;1.255492
3086.000000;1.468059
3085.000000;0.850270
3084.000000;0.825458
3083.000000;1.129069
3082.000000;1.654666
3081.000000;1.302028
3080.000000;1.295997
3079.000000;1.518409
3078.000000;1.857437
3077.000000;1.330437
3076.000000;1.015274
3075.000000;0.960160
3074.000000;1.079693
3073.000000;1.974682
3072.000000;1.282159
3071.000000;1.008674
3070.000000;1.217118
3069.000000;1.496655
3068.000000;0.968162
3067.000000;0.862076
3066.000000;0.994755
3065.000000;1.294551
3064.000000;1.462994
3063.000000;1.470613
3062.000000;1.666236
3061.000000;1.667844
3060.000000;1.270949
3059.000000;1.017408
3058.000000;0.937514
3057.000000;1.023422
3056.000000;1.187788
3055.000000;1.135453
3054.000000;1.048743
3053.000000;1.118449
3052.000000;1.532961
3051.000000;1.507105
3050.000000;1.169178
3049.000000;1.152063
3048.000000;1.475700
3047.000000;1.469953
3046.000000;1.126728
3045.000000;1.084022
3044.000000;1.269220
3043.000000;1.810458
3042.000000;1.365527
3041.000000;1.203378
3040.000000;1.241752
3039.000000;1.313839
3038.000000;1.358512
3037.000000;1.148856
3036.000000;1.040278
3035.000000;1.229864
3034.000000;1.830099
3033.000000;1.502339
3032.000000;1.559780
3031.000000;1.657315
3030.000000;1.243032
3029.000000;1.021582
3028.000000;0.869128
3027.000000;0.806288
3026.000000;0.846819
3025.000000;0.997886
3024.000000;1.091011
3023.000000;0.980094
3022.000000;0.869388
3021.000000;0.819946
3020.000000;0.851216
3019.000000;0.943586
3018.000000;1.077675
3017.000000;1.106314
3016.000000;1.016322
3015.000000;1.016349
3014.000000;1.065385
3013.000000;1.055294
3012.000000;1.015106
3011.000000;1.028998
3010.000000;1.142828
3009.000000;1.143123
3008.000000;0.963005
3007.000000;0.890035
3006.000000;0.877036
3005.000000;0.871140
3004.000000;0.897176
3003.000000;0.959436
3002.000000;1.249388
3001.000000;1.265864
3000.000000;0.846465
2999.000000;0.714795
2998.000000;0.732379
2997.000000;0.883101
2996.000000;1.072608
2995.000000;1.027955
2994.000000;0.872504
2993.000000;0.815080
2992.000000;0.883958
2991.000000;0.948345
2990.000000;0.853735
2989.000000;0.789891
2988.000000;0.822729
2987.000000;0.945815
2986.000000;1.128269
2985.000000;1.055215
2984.000000;0.852553
2983.000000;0.745416
2982.000000;0.730015
2981.000000;0.795375
2980.000000;0.894745
2979.000000;0.931192
2978.000000;0.926930
2977.000000;0.983756
2976.000000;1.125060
2975.000000;1.200223
2974.000000;1.152874
2973.000000;1.112536
2972.000000;1.064685
2971.000000;1.055541
2970.000000;1.110890
2969.000000;1.306507
2968.000000;1.390905
2967.000000;1.115288
2966.000000;0.927837
2965.000000;0.834799
2964.000000;0.808747
2963.000000;0.860218
2962.000000;0.995589
2961.000000;1.078826
2960.000000;0.972017
2959.000000;0.895030
2958.000000;0.888685
2957.000000;0.929395
2956.000000;0.934372
2955.000000;0.862907
2954.000000;0.857198
2953.000000;1.032253
2952.000000;1.260134
2951.000000;1.057102
2950.000000;0.925376
2949.000000;0.898328
2948.000000;0.953241
2947.000000;1.159241
2946.000000;1.609503
2945.000000;1.337488
2944.000000;1.030794
2943.000000;0.883614
2942.000000;0.828578
2941.000000;0.954549
2940.000000;1.239653
2939.000000;1.315523
2938.000000;1.346335
2937.000000;1.416274
2936.000000;1.233876
2935.000000;0.967014
2934.000000;0.790377
2933.000000;0.719162
2932.000000;0.749282
2931.000000;0.872753
2930.000000;1.008930
2929.000000;0.937978
2928.000000;0.788789
2927.000000;0.726099
2926.000000;0.755274
2925.000000;0.831034
2924.000000;0.874083
2923.000000;0.905716
2922.000000;0.990958
2921.000000;1.054381
2920.000000;1.082278
2919.000000;1.229947
2918.000000;1.372843
2917.000000;2.034517
2916.000000;1.679346
2915.000000;1.213683
2914.000000;1.157413
2913.000000;1.211175
2912.000000;1.448348
2911.000000;2.056255
2910.000000;1.522724
2909.000000;1.371976
2908.000000;1.459334
2907.000000;1.561212
2906.000000;1.573015
2905.000000;1.469999
2904.000000;1.358619
2903.000000;1.320280
2902.000000;1.336710
2901.000000;1.368843
2900.000000;1.375585
2899.000000;1.688678
2898.000000;1.941660
2897.000000;1.219850
2896.000000;1.166320
2895.000000;1.461879
2894.000000;1.900793
2893.000000;1.361284
2892.000000;1.105668
2891.000000;0.878311
2890.000000;0.773955
2889.000000;0.796210
2888.000000;0.932999
2887.000000;1.010089
2886.000000;0.960003
2885.000000;0.917683
2884.000000;0.877776
2883.000000;0.843159
2882.000000;0.897106
2881.000000;1.112574
2880.000000;2.044848
2879.000000;1.476414
2878.000000;1.397761
2877.000000;1.344087
2876.000000;1.016897
2875.000000;0.845330
2874.000000;0.845361
2873.000000;1.021887
2872.000000;1.018214
2871.000000;0.796525
2870.000000;0.762951
2869.000000;0.859940
2868.000000;1.027618
2867.000000;1.026050
2866.000000;0.953707
2865.000000;1.008900
2864.000000;1.004096
2863.000000;0.943774
2862.000000;1.019503
2861.000000;1.213312
2860.000000;1.335675
2859.000000;1.525896
2858.000000;1.276697
2857.000000;1.004987
2856.000000;0.894258
2855.000000;0.857863
2854.000000;0.876621
2853.000000;0.933547
2852.000000;0.948920
2851.000000;0.932891
2850.000000;1.055832
2849.000000;1.442739
2848.000000;1.106835
2847.000000;0.993408
2846.000000;1.135506
2845.000000;1.413668
2844.000000;1.694698
2843.000000;1.651359
2842.000000;1.359421
2841.000000;1.239251
2840.000000;1.053216
2839.000000;0.920480
2838.000000;0.892575
2837.000000;0.977574
2836.000000;1.154285
2835.000000;1.519185
2834.000000;1.305795
2833.000000;1.098557
2832.000000;1.171601
2831.000000;1.339576
2830.000000;1.331035
2829.000000;1.188841
2828.000000;1.120532
2827.000000;1.009169
2826.000000;0.917113
2825.000000;0.951117
2824.000000;1.140881
2823.000000;1.524156
2822.000000;1.105346
2821.000000;0.905859
2820.000000;0.950331
2819.000000;1.191261
2818.000000;1.201315
2817.000000;1.030761
2816.000000;1.020727
2815.000000;1.349052
2814.000000;1.420889
2813.000000;1.011871
2812.000000;0.929762
2811.000000;0.931357
2810.000000;1.122234
2809.000000;1.684046
2808.000000;1.325476
2807.000000;0.991323
2806.000000;0.905667
2805.000000;0.944167
2804.000000;1.038228
2803.000000;0.938410
2802.000000;0.853862
2801.000000;0.892500
2800.000000;1.047780
2799.000000;1.245697
2798.000000;1.266379
2797.000000;1.090498
2796.000000;1.004141
2795.000000;1.144419
2794.000000;1.354917
2793.000000;1.169017
2792.000000;1.216475
2791.000000;1.535609
2790.000000;1.739603
2789.000000;1.279722
2788.000000;1.039119
2787.000000;0.939028
2786.000000;1.056688
2785.000000;1.227965
2784.000000;1.059151
2783.000000;0.967361
2782.000000;1.043975
2781.000000;1.162562
2780.000000;1.191445
2779.000000;1.188978
2778.000000;1.201158
2777.000000;1.146013
2776.000000;1.041202
2775.000000;0.970682
2774.000000;0.962386
2773.000000;1.002035
2772.000000;1.112359
2771.000000;1.376321
2770.000000;1.656032
2769.000000;1.137277
2768.000000;0.950549
2767.000000;0.960610
2766.000000;1.127131
2765.000000;1.125405
2764.000000;0.935938
2763.000000;0.831264
2762.000000;0.813697
2761.000000;0.918359
2760.000000;1.115889
2759.000000;1.305913
2758.000000;1.105259
2757.000000;0.834865
2756.000000;0.771410
2755.000000;0.878559
2754.000000;1.005034
2753.000000;0.951256
2752.000000;0.904331
2751.000000;0.943999
2750.000000;1.057817
2749.000000;1.171325
2748.000000;1.266027
2747.000000;1.295221
2746.000000;1.127454
2745.000000;1.015758
2744.000000;0.955393
2743.000000;0.944090
2742.000000;1.055754
2741.000000;1.348518
2740.000000;1.375868
2739.000000;1.239314
2738.000000;1.296168
2737.000000;1.064456
2736.000000;0.827144
2735.000000;0.785434
2734.000000;0.921659
2733.000000;1.348950
2732.000000;1.856739
2731.000000;1.492744
2730.000000;1.213249
2729.000000;1.050610
2728.000000;1.067796
2727.000000;1.143503
2726.000000;1.155791
2725.000000;1.078232
2724.000000;0.982217
2723.000000;0.983116
2722.000000;1.124334
2721.000000;1.146359
2720.000000;1.032513
2719.000000;0.972984
2718.000000;0.967141
2717.000000;0.964964
2716.000000;0.905106
2715.000000;0.857161
2714.000000;0.895002
2713.000000;1.082977
2712.000000;1.548835
2711.000000;1.641444
2710.000000;1.721015
2709.000000;1.524145
2708.000000;0.998815
2707.000000;0.924176
2706.000000;1.059105
2705.000000;1.317387
2704.000000;1.237003
2703.000000;1.110387
2702.000000;1.008850
2701.000000;0.945488
2700.000000;0.963417
2699.000000;1.257645
2698.000000;1.365291
2697.000000;0.932092
2696.000000;0.815060
2695.000000;0.930115
2694.000000;1.288163
2693.000000;1.393293
2692.000000;1.242812
2691.000000;1.190073
2690.000000;1.176940
2689.000000;1.236845
2688.000000;1.342324
2687.000000;1.388295
2686.000000;1.246640
2685.000000;1.061563
2684.000000;1.082634
2683.000000;1.054498
2682.000000;0.869319
2681.000000;0.850492
2680.000000;0.997739
2679.000000;1.129528
2678.000000;1.046018
2677.000000;1.043916
2676.000000;1.212046
2675.000000;1.057967
2674.000000;0.867796
2673.000000;0.865257
2672.000000;0.878943
2671.000000;0.861392
2670.000000;0.888387
2669.000000;0.932828
2668.000000;0.851491
2667.000000;0.763818
2666.000000;0.791456
2665.000000;0.965499
2664.000000;1.341612
2663.000000;1.779856
2662.000000;1.059606
2661.000000;0.804961
2660.000000;0.740312
2659.000000;0.812636
2658.000000;0.956407
2657.000000;1.129636
2656.000000;1.503128
2655.000000;1.493507
2654.000000;1.168047
2653.000000;1.305240
2652.000000;1.178080
2651.000000;0.906070
2650.000000;0.916627
2649.000000;1.238425
2648.000000;1.264146
2647.000000;1.087721
2646.000000;1.311320
2645.000000;1.668461
2644.000000;1.294083
2643.000000;1.024633
2642.000000;0.939361
2641.000000;1.012552
2640.000000;1.337463
2639.000000;1.066333
2638.000000;0.886978
2637.000000;0.994000
2636.000000;1.563010
2635.000000;1.349991
2634.000000;1.188312
2633.000000;1.461563
2632.000000;1.652376
2631.000000;1.339815
2630.000000;1.461500
2629.000000;1.586831
2628.000000;1.352983
2627.000000;1.229098
2626.000000;1.191219
2625.000000;1.199100
2624.000000;1.230163
2623.000000;1.215093
2622.000000;1.052558
2621.000000;0.902595
2620.000000;0.843366
2619.000000;0.811990
2618.000000;0.791063
2617.000000;0.845158
2616.000000;0.996064
2615.000000;0.978931
2614.000000;0.836396
2613.000000;0.759963
2612.000000;0.731009
2611.000000;0.732551
2610.000000;0.762624
2609.000000;0.825300
2608.000000;0.918825
2607.000000;0.951635
2606.000000;0.853040
2605.000000;0.765569
2604.000000;0.734516
2603.000000;0.751808
2602.000000;0.833903
2601.000000;1.111677
2600.000000;1.643017
2599.000000;1.259977
2598.000000;1.007110
2597.000000;0.953907
2596.000000;1.008909
2595.000000;1.059842
2594.000000;1.006640
2593.000000;1.014422
2592.000000;1.341050
2591.000000;1.456440
2590.000000;1.170072
2589.000000;1.226227
2588.000000;1.514043
2587.000000;1.349278
2586.000000;1.131598
2585.000000;1.014577
2584.000000;0.958512
2583.000000;1.047052
2582.000000;1.320005
2581.000000;1.100795
2580.000000;0.928097
2579.000000;0.919287
2578.000000;0.915652
2577.000000;0.877481
2576.000000;0.842008
2575.000000;0.869516
2574.000000;0.972734
2573.000000;1.017024
2572.000000;0.983037
2571.000000;1.118055
2570.000000;1.248590
2569.000000;1.075748
2568.000000;1.388314
2567.000000;1.230060
2566.000000;0.773818
2565.000000;0.682218
2564.000000;0.769061
2563.000000;1.085482
2562.000000;1.344945
2561.000000;1.334281
2560.000000;1.775357
2559.000000;1.597608
2558.000000;1.453919
2557.000000;1.152287
2556.000000;0.949934
2555.000000;1.003416
2554.000000;1.278382
2553.000000;1.327298
2552.000000;1.232215
2551.000000;1.160534
2550.000000;1.303945
2549.000000;1.596430
2548.000000;1.106089
2547.000000;0.987349
2546.000000;1.093680
2545.000000;1.489418
2544.000000;1.680454
2543.000000;1.294528
2542.000000;1.232616
2541.000000;1.272253
2540.000000;1.121020
2539.000000;0.905623
2538.000000;0.816675
2537.000000;0.839030
2536.000000;0.965478
2535.000000;1.138136
2534.000000;1.081363
2533.000000;0.925195
2532.000000;0.848894
2531.000000;0.886799
2530.000000;1.029531
2529.000000;0.944231
2528.000000;0.805533
2527.000000;0.848465
2526.000000;1.066443
2525.000000;1.275442
2524.000000;1.155313
2523.000000;1.103826
2522.000000;1.002122
2521.000000;0.803076
2520.000000;0.764662
2519.000000;1.121077
2518.000000;1.557805
2517.000000;0.997267
2516.000000;1.038522
2515.000000;1.206739
2514.000000;1.050832
2513.000000;0.930725
2512.000000;1.028724
2511.000000;1.328426
2510.000000;1.522965
2509.000000;1.256809
2508.000000;0.963959
2507.000000;0.817038
2506.000000;0.798071
2505.000000;0.873498
2504.000000;1.027347
2503.000000;1.255533
2502.000000;1.212956
2501.000000;0.858350
2500.000000;0.658909
2499.000000;0.619673
2498.000000;0.761349
2497.000000;1.129565
2496.000000;1.113732
2495.000000;1.086716
2494.000000;1.444709
2493.000000;1.015251
2492.000000;0.754698
2491.000000;0.742364
2490.000000;0.839203
2489.000000;0.910398
2488.000000;0.875961
2487.000000;0.903416
2486.000000;1.095339
2485.000000;1.542360
2484.000000;2.068025
2483.000000;1.591457
2482.000000;1.158840
2481.000000;0.956639
2480.000000;0.876790
2479.000000;0.843085
2478.000000;0.848946
2477.000000;0.863349
2476.000000;0.826714
2475.000000;0.830225
2474.000000;0.955868
2473.000000;1.094515
2472.000000;0.989613
2471.000000;0.813699
2470.000000;0.765309
2469.000000;0.855489
2468.000000;1.004701
2467.000000;1.007322
2466.000000;0.895574
2465.000000;0.853923
2464.000000;0.841788
2463.000000;0.803233
2462.000000;0.854146
2461.000000;0.979163
2460.000000;0.973421
2459.000000;1.165646
2458.000000;1.184868
2457.000000;0.770202
2456.000000;0.623002
2455.000000;0.669850
2454.000000;0.891348
2453.000000;1.054463
2452.000000;0.922391
2451.000000;0.934527
2450.000000;1.170688
2449.000000;1.272349
2448.000000;1.067733
2447.000000;1.004497
2446.000000;1.042412
2445.000000;1.252269
2444.000000;1.643107
2443.000000;1.170666
2442.000000;0.889890
2441.000000;0.787384
2440.000000;0.754357
2439.000000;0.729568
2438.000000;0.715572
2437.000000;0.763710
2436.000000;0.886906
2435.000000;1.040628
2434.000000;1.112061
2433.000000;1.084247
2432.000000;1.081056
2431.000000;1.190934
2430.000000;1.186425
2429.000000;1.075557
2428.000000;1.085098
2427.000000;1.225183
2426.000000;1.647279
2425.000000;1.689459
2424.000000;1.247380
2423.000000;1.104428
2422.000000;1.141379
2421.000000;1.312677
2420.000000;1.501802
2419.000000;1.542074
2418.000000;1.259252
2417.000000;0.974051
2416.000000;1.059864
2415.000000;1.315881
2414.000000;0.930539
2413.000000;0.759006
2412.000000;0.859905
2411.000000;1.132025
2410.000000;0.893947
2409.000000;0.640630
2408.000000;0.617898
2407.000000;0.754696
2406.000000;1.210236
2405.000000;1.344597
2404.000000;1.203258
2403.000000;1.506428
2402.000000;1.155690
2401.000000;0.895750
2400.000000;0.841490
2399.000000;0.903185
2398.000000;1.233126
2397.000000;1.310460
2396.000000;0.862407
2395.000000;0.729033
2394.000000;0.879502
2393.000000;1.180242
2392.000000;1.029350
2391.000000;1.019158
2390.000000;1.120774
2389.000000;1.023025
2388.000000;0.895686
2387.000000;0.780030
2386.000000;0.718913
2385.000000;0.738415
2384.000000;0.785599
2383.000000;0.779316
2382.000000;0.770835
2381.000000;0.822366
2380.000000;0.988760
2379.000000;0.937524
2378.000000;0.706879
2377.000000;0.619150
2376.000000;0.693269
2375.000000;0.923933
2374.000000;0.740669
2373.000000;0.463773
2372.000000;0.383027
2371.000000;0.481653
2370.000000;0.698421
2369.000000;0.689413
2368.000000;0.640797
2367.000000;0.667136
2366.000000;0.708685
2365.000000;0.783963
2364.000000;0.751897
2363.000000;0.739886
2362.000000;0.864752
2361.000000;0.831834
2360.000000;0.582104
2359.000000;0.421198
2358.000000;0.411862
2357.000000;0.551033
2356.000000;0.762789
2355.000000;0.929388
2354.000000;1.060228
2353.000000;1.007540
2352.000000;0.835808
2351.000000;0.764498
2350.000000;0.778358
2349.000000;0.727837
2348.000000;0.608792
2347.000000;0.568298
2346.000000;0.630131
2345.000000;0.670560
2344.000000;0.615546
2343.000000;0.586495
2342.000000;0.644902
2341.000000;0.610633
2340.000000;0.445608
2339.000000;0.366412
2338.000000;0.409732
2337.000000;0.585816
2336.000000;0.874374
2335.000000;1.095709
2334.000000;1.053378
2333.000000;0.894295
2332.000000;0.859803
2331.000000;0.803718
2330.000000;0.666565
2329.000000;0.577789
2328.000000;0.545917
2327.000000;0.597106
2326.000000;0.656629
2325.000000;0.608283
2324.000000;0.598563
2323.000000;0.670247
2322.000000;0.796679
2321.000000;1.056188
2320.000000;1.295118
2319.000000;1.146017
2318.000000;1.259434
2317.000000;1.657478
2316.000000;1.036522
2315.000000;0.761378
2314.000000;0.687180
2313.000000;0.699885
2312.000000;0.752367
2311.000000;0.767211
2310.000000;0.759322
2309.000000;0.746196
2308.000000;0.756535
2307.000000;0.796203
2306.000000;0.852677
2305.000000;0.876411
2304.000000;0.933404
2303.000000;1.073243
2302.000000;0.855462
2301.000000;0.616014
2300.000000;0.583385
2299.000000;0.741358
2298.000000;1.080693
2297.000000;1.044863
2296.000000;0.948056
2295.000000;1.057869
2294.000000;0.991476
2293.000000;0.845014
2292.000000;0.744699
2291.000000;0.720551
2290.000000;0.753658
2289.000000;0.777459
2288.000000;0.844835
2287.000000;1.162732
2286.000000;1.507817
2285.000000;1.150790
2284.000000;1.238618
2283.000000;1.623630
2282.000000;1.513520
2281.000000;1.360665
2280.000000;1.301540
2279.000000;1.308198
2278.000000;1.342210
2277.000000;1.461863
2276.000000;1.344847
2275.000000;1.063946
2274.000000;0.891223
2273.000000;0.808654
2272.000000;0.823155
2271.000000;0.926202
2270.000000;1.069126
2269.000000;1.287145
2268.000000;1.608212
2267.000000;1.594569
2266.000000;1.344564
2265.000000;1.220653
2264.000000;1.447216
2263.000000;1.596811
2262.000000;1.202067
2261.000000;1.137993
2260.000000;1.161347
2259.000000;1.144565
2258.000000;1.146232
2257.000000;1.042810
2256.000000;0.881182
2255.000000;0.767810
2254.000000;0.738689
2253.000000;0.789830
2252.000000;0.948491
2251.000000;1.207802
2250.000000;1.142916
2249.000000;0.990085
2248.000000;1.189078
2247.000000;1.457240
2246.000000;1.138859
2245.000000;1.042536
2244.000000;1.060455
2243.000000;1.285454
2242.000000;1.579641
2241.000000;1.062610
2240.000000;0.832615
2239.000000;0.939889
2238.000000;1.449344
2237.000000;1.158104
2236.000000;1.024371
2235.000000;1.175320
2234.000000;0.908353
2233.000000;0.734575
2232.000000;0.721035
2231.000000;0.804618
2230.000000;0.896926
2229.000000;0.839565
2228.000000;0.672745
2227.000000;0.557960
2226.000000;0.559199
2225.000000;0.677050
2224.000000;1.054744
2223.000000;1.455120
2222.000000;0.959016
2221.000000;0.753245
2220.000000;0.693669
2219.000000;0.704637
2218.000000;0.688876
2217.000000;0.625630
2216.000000;0.606468
2215.000000;0.650988
2214.000000;0.755748
2213.000000;0.786537
2212.000000;0.745552
2211.000000;0.777378
2210.000000;0.836780
2209.000000;0.822083
2208.000000;0.799538
2207.000000;0.894342
2206.000000;0.909668
2205.000000;0.664799
2204.000000;0.527574
2203.000000;0.529086
2202.000000;0.692443
2201.000000;1.168450
2200.000000;1.217458
2199.000000;1.099426
2198.000000;1.190720
2197.000000;0.892330
2196.000000;0.852565
2195.000000;0.937778
2194.000000;0.772435
2193.000000;0.637793
2192.000000;0.664293
2191.000000;0.829719
2190.000000;0.988576
2189.000000;0.927440
2188.000000;0.770096
2187.000000;0.744495
2186.000000;0.872406
2185.000000;1.181008
2184.000000;1.359308
2183.000000;1.388244
2182.000000;2.282416
2181.000000;1.292911
2180.000000;1.117687
2179.000000;1.572370
2178.000000;1.311648
2177.000000;0.988221
2176.000000;0.950019
2175.000000;1.121026
2174.000000;1.228868
2173.000000;1.197758
2172.000000;1.526046
2171.000000;1.246078
2170.000000;0.880654
2169.000000;0.831937
2168.000000;0.900748
2167.000000;1.227821
2166.000000;1.710378
2165.000000;1.307621
2164.000000;1.432056
2163.000000;1.807591
2162.000000;1.493801
2161.000000;1.411557
2160.000000;1.265286
2159.000000;1.239096
2158.000000;1.268649
2157.000000;1.066855
2156.000000;0.968650
2155.000000;0.991820
2154.000000;1.115811
2153.000000;1.236198
2152.000000;1.026779
2151.000000;0.835677
2150.000000;0.768412
2149.000000;0.746483
2148.000000;0.719820
2147.000000;0.710935
2146.000000;0.752164
2145.000000;0.786013
2144.000000;0.764325
2143.000000;0.745918
2142.000000;0.817376
2141.000000;0.961489
2140.000000;1.038603
2139.000000;1.246457
2138.000000;1.309520
2137.000000;0.825922
2136.000000;0.570263
2135.000000;0.490454
2134.000000;0.547046
2133.000000;0.802259
2132.000000;1.020744
2131.000000;0.833526
2130.000000;0.744888
2129.000000;0.712912
2128.000000;0.651848
2127.000000;0.685817
2126.000000;0.816598
2125.000000;0.796356
2124.000000;0.721207
2123.000000;0.743742
2122.000000;0.875474
2121.000000;0.953626
2120.000000;0.750875
2119.000000;0.662273
2118.000000;0.729283
2117.000000;0.986960
2116.000000;1.209308
2115.000000;0.901634
2114.000000;0.764851
2113.000000;0.741727
2112.000000;0.767760
2111.000000;0.867994
2110.000000;1.111228
2109.000000;1.757284
2108.000000;1.993994
2107.000000;1.928802
2106.000000;1.782761
2105.000000;1.235542
2104.000000;1.089579
2103.000000;1.324440
2102.000000;1.754597
2101.000000;1.528448
2100.000000;1.266416
2099.000000;0.975284
2098.000000;0.828226
2097.000000;0.811278
2096.000000;0.836213
2095.000000;0.967686
2094.000000;1.056431
2093.000000;0.966268
2092.000000;1.055868
2091.000000;1.487549
2090.000000;1.732609
2089.000000;1.542676
2088.000000;1.480459
2087.000000;1.215152
2086.000000;1.030112
2085.000000;0.982321
2084.000000;1.038425
2083.000000;1.147495
2082.000000;1.291504
2081.000000;1.452376
2080.000000;0.972897
2079.000000;0.687265
2078.000000;0.624371
2077.000000;0.759258
2076.000000;1.339058
2075.000000;1.392778
2074.000000;1.301970
2073.000000;1.507812
2072.000000;0.929050
2071.000000;0.814822
2070.000000;0.891128
2069.000000;0.813660
2068.000000;0.751013
2067.000000;0.832484
2066.000000;0.925757
2065.000000;0.902636
2064.000000;1.091778
2063.000000;1.384152
2062.000000;1.073385
2061.000000;0.949428
2060.000000;0.923430
2059.000000;0.927495
2058.000000;0.872124
2057.000000;0.808212
2056.000000;0.922003
2055.000000;0.898391
2054.000000;0.713910
2053.000000;0.740177
2052.000000;1.126943
2051.000000;1.316735
2050.000000;0.954408
2049.000000;0.874321
2048.000000;0.903709
2047.000000;1.089310
2046.000000;1.272570
2045.000000;0.989006
2044.000000;0.821007
2043.000000;0.787985
2042.000000;0.852985
2041.000000;0.905916
2040.000000;0.759967
2039.000000;0.598531
2038.000000;0.535493
2037.000000;0.560521
2036.000000;0.668381
2035.000000;0.897011
2034.000000;0.893396
2033.000000;0.674830
2032.000000;0.633081
2031.000000;0.689106
2030.000000;0.808898
2029.000000;0.838444
2028.000000;0.657413
2027.000000;0.520798
2026.000000;0.551124
2025.000000;0.832447
2024.000000;1.008235
2023.000000;0.807166
2022.000000;0.991661
2021.000000;1.309235
2020.000000;0.817354
2019.000000;0.646575
2018.000000;0.642530
2017.000000;0.648771
2016.000000;0.657445
2015.000000;0.717454
2014.000000;0.846744
2013.000000;0.886856
2012.000000;0.869906
2011.000000;0.972048
2010.000000;1.137436
2009.000000;1.347970
2008.000000;1.253379
2007.000000;0.907168
2006.000000;0.960442
2005.000000;1.131718
2004.000000;0.821867
2003.000000;0.611520
2002.000000;0.547736
2001.000000;0.579142
2000.000000;0.810435
1999.000000;1.052376
1998.000000;0.897996
1997.000000;0.840507
1996.000000;1.059470
1995.000000;1.587407
1994.000000;1.208784
1993.000000;1.126219
1992.000000;1.113163
1991.000000;0.997695
1990.000000;1.020460
1989.000000;0.816879
1988.000000;0.733650
1987.000000;0.898708
1986.000000;0.736300
1985.000000;0.467188
1984.000000;0.431140
1983.000000;0.620306
1982.000000;0.850945
1981.000000;0.779222
1980.000000;0.732249
1979.000000;0.709517
1978.000000;0.701048
1977.000000;0.833833
1976.000000;1.206503
1975.000000;1.030595
1974.000000;0.695359
1973.000000;0.635596
1972.000000;0.711195
1971.000000;0.959168
1970.000000;1.200054
1969.000000;1.007627
1968.000000;0.918982
1967.000000;1.007807
1966.000000;0.959972
1965.000000;0.775320
1964.000000;0.663447
1963.000000;0.627591
1962.000000;0.695846
1961.000000;1.000912
1960.000000;1.293741
1959.000000;1.323803
1958.000000;1.537965
1957.000000;1.097008
1956.000000;0.991725
1955.000000;0.973460
1954.000000;0.806432
1953.000000;0.701629
1952.000000;0.713909
1951.000000;0.774220
1950.000000;0.894275
1949.000000;1.065423
1948.000000;0.732482
1947.000000;0.457601
1946.000000;0.414620
1945.000000;0.505615
1944.000000;0.627650
1943.000000;0.593957
1942.000000;0.696628
1941.000000;1.318031
1940.000000;0.915278
1939.000000;0.676904
1938.000000;0.762232
1937.000000;1.085493
1936.000000;1.274027
1935.000000;0.871819
1934.000000;0.824862
1933.000000;0.981486
1932.000000;1.239787
1931.000000;1.217303
1930.000000;1.185446
1929.000000;1.441995
1928.000000;1.576392
1927.000000;1.562743
1926.000000;1.314100
1925.000000;0.841788
1924.000000;0.653491
1923.000000;0.887021
1922.000000;1.055142
1921.000000;0.725331
1920.000000;0.721505
1919.000000;0.721893
1918.000000;0.533094
1917.000000;0.432796
1916.000000;0.453087
1915.000000;0.517184
1914.000000;0.558270
1913.000000;0.609277
1912.000000;0.707941
1911.000000;0.845024
1910.000000;1.057799
1909.000000;1.183835
1908.000000;1.111291
1907.000000;1.114488
1906.000000;0.992002
1905.000000;1.035113
1904.000000;1.112313
1903.000000;0.824464
1902.000000;0.636561
1901.000000;0.537055
1900.000000;0.506447
1899.000000;0.583434
1898.000000;0.742631
1897.000000;0.758744
1896.000000;0.614024
1895.000000;0.512859
1894.000000;0.504828
1893.000000;0.611304
1892.000000;0.720964
1891.000000;0.637161
1890.000000;0.518202
1889.000000;0.496692
1888.000000;0.615932
1887.000000;0.829863
1886.000000;0.856075
1885.000000;0.824115
1884.000000;0.867972
1883.000000;0.836011
1882.000000;0.677971
1881.000000;0.526301
1880.000000;0.474050
1879.000000;0.563755
1878.000000;0.817554
1877.000000;0.988008
1876.000000;0.867554
1875.000000;0.816748
1874.000000;1.115572
1873.000000;1.331584
1872.000000;0.852878
1871.000000;0.883538
1870.000000;1.054520
1869.000000;0.750200
1868.000000;0.561114
1867.000000;0.622241
1866.000000;0.880687
1865.000000;1.173714
1864.000000;1.108456
1863.000000;0.872449
1862.000000;0.734018
1861.000000;0.710663
1860.000000;0.804428
1859.000000;0.996219
1858.000000;0.997137
1857.000000;0.820896
1856.000000;0.843634
1855.000000;1.186760
1854.000000;1.112733
1853.000000;0.779583
1852.000000;0.635015
1851.000000;0.537093
1850.000000;0.547086
1849.000000;0.709397
1848.000000;0.923451
1847.000000;0.939454
1846.000000;0.780058
1845.000000;0.702916
1844.000000;0.757258
1843.000000;0.897263
1842.000000;1.251795
1841.000000;1.082344
1840.000000;0.774964
1839.000000;0.763904
1838.000000;0.842768
1837.000000;0.871228
1836.000000;0.925110
1835.000000;1.027827
1834.000000;0.894402
1833.000000;0.978908
1832.000000;1.281046
1831.000000;0.664203
1830.000000;0.532849
1829.000000;0.668445
1828.000000;0.571740
1827.000000;0.471404
1826.000000;0.521992
1825.000000;0.683445
1824.000000;0.834896
1823.000000;0.735404
1822.000000;0.619282
1821.000000;0.589871
1820.000000;0.626638
1819.000000;0.745758
1818.000000;0.899204
1817.000000;0.847159
1816.000000;0.695532
1815.000000;0.619160
1814.000000;0.612429
1813.000000;0.683490
1812.000000;0.945096
1811.000000;1.358244
1810.000000;0.925947
1809.000000;0.730397
1808.000000;0.877645
1807.000000;1.028468
1806.000000;0.840440
1805.000000;0.785436
1804.000000;0.870279
1803.000000;0.981884
1802.000000;1.053982
1801.000000;1.020430
1800.000000;0.924782
1799.000000;0.798795
1798.000000;0.723427
1797.000000;0.716513
1796.000000;0.739256
1795.000000;0.805242
1794.000000;0.792272
1793.000000;0.652156
1792.000000;0.618969
1791.000000;0.789102
1790.000000;1.121465
1789.000000;0.854393
1788.000000;0.563467
1787.000000;0.472264
1786.000000;0.538781
1785.000000;0.787016
1784.000000;0.845059
1783.000000;1.061912
1782.000000;1.068136
1781.000000;0.620796
1780.000000;0.518875
1779.000000;0.614039
1778.000000;0.820517
1777.000000;1.070590
1776.000000;1.234343
1775.000000;1.342013
1774.000000;1.599173
1773.000000;1.201286
1772.000000;0.828846
1771.000000;0.705678
1770.000000;0.985057
1769.000000;1.351400
1768.000000;0.728962
1767.000000;0.655334
1766.000000;0.743934
1765.000000;0.871228
1764.000000;1.220712
1763.000000;1.385785
1762.000000;0.775306
1761.000000;0.502926
1760.000000;0.446785
1759.000000;0.559424
1758.000000;0.877684
1757.000000;1.321363
1756.000000;0.713641
1755.000000;0.414804
1754.000000;0.361979
1753.000000;0.532213
1752.000000;1.183190
1751.000000;0.670954
1750.000000;0.452390
1749.000000;0.539384
1748.000000;0.937010
1747.000000;1.357014
1746.000000;1.047716
1745.000000;1.014075
1744.000000;0.817126
1743.000000;0.786861
1742.000000;0.859335
1741.000000;1.159344
1740.000000;1.638523
1739.000000;0.972842
1738.000000;1.000265
1737.000000;1.327473
1736.000000;1.088742
1735.000000;0.837097
1734.000000;0.740349
1733.000000;0.727330
1732.000000;0.893327
1731.000000;1.360042
1730.000000;1.626579
1729.000000;1.075379
1728.000000;0.915780
1727.000000;1.114897
1726.000000;0.932442
1725.000000;0.768375
1724.000000;0.834830
1723.000000;0.775620
1722.000000;0.681011
1721.000000;0.733248
1720.000000;0.939779
1719.000000;1.030282
1718.000000;1.068193
1717.000000;1.269808
1716.000000;0.879114
1715.000000;0.651783
1714.000000;0.521195
1713.000000;0.407297
1712.000000;0.321906
1711.000000;0.302660
1710.000000;0.358124
1709.000000;0.448676
1708.000000;0.538436
1707.000000;0.631796
1706.000000;0.871931
1705.000000;1.186437
1704.000000;0.674494
1703.000000;0.476176
1702.000000;0.533234
1701.000000;0.766156
1700.000000;0.794345
1699.000000;0.466468
1698.000000;0.428542
1697.000000;0.567397
1696.000000;0.780290
1695.000000;0.950539
1694.000000;0.885775
1693.000000;0.810766
1692.000000;0.616210
1691.000000;0.482579
1690.000000;0.519581
1689.000000;0.632513
1688.000000;0.631903
1687.000000;0.617239
1686.000000;0.640874
1685.000000;0.624137
1684.000000;0.544894
1683.000000;0.474654
1682.000000;0.500092
1681.000000;0.624482
1680.000000;0.728844
1679.000000;0.698416
1678.000000;0.603214
1677.000000;0.538485
1676.000000;0.562364
1675.000000;0.659336
1674.000000;0.420132
1673.000000;0.325196
1672.000000;0.453248
1671.000000;0.653422
1670.000000;0.737819
1669.000000;0.493577
1668.000000;0.357498
1667.000000;0.435031
1666.000000;0.634570
1665.000000;0.701124
1664.000000;0.557148
1663.000000;0.499091
1662.000000;0.613321
1661.000000;0.738290
1660.000000;0.732949
1659.000000;0.715251
1658.000000;0.642470
1657.000000;0.583680
1656.000000;0.584108
1655.000000;0.621126
1654.000000;0.551637
1653.000000;0.456208
1652.000000;0.531593
1651.000000;0.714418
1650.000000;0.762530
1649.000000;0.645312
1648.000000;0.578685
1647.000000;0.840794
1646.000000;0.834943
1645.000000;0.667856
1644.000000;0.741041
1643.000000;0.876963
1642.000000;1.112360
1641.000000;1.365158
1640.000000;0.847385
1639.000000;0.656664
1638.000000;0.690080
1637.000000;0.964826
1636.000000;0.843254
1635.000000;0.634744
1634.000000;0.580386
1633.000000;0.541654
1632.000000;0.594403
1631.000000;0.698296
1630.000000;0.808202
1629.000000;1.064825
1628.000000;1.180335
1627.000000;0.748925
1626.000000;0.546348
1625.000000;0.485918
1624.000000;0.483814
1623.000000;0.659633
1622.000000;0.735320
1621.000000;0.512627
1620.000000;0.531790
1619.000000;0.932391
1618.000000;1.091334
1617.000000;0.837003
1616.000000;0.901555
1615.000000;1.084151
1614.000000;1.035817
1613.000000;1.095248
1612.000000;1.188701
1611.000000;1.041573
1610.000000;1.139414
1609.000000;1.129476
1608.000000;1.068769
1607.000000;0.837043
1606.000000;0.603215
1605.000000;0.494261
1604.000000;0.457703
1603.000000;0.523241
1602.000000;0.760371
1601.000000;1.296789
1600.000000;1.233381
1599.000000;0.887083
1598.000000;0.814945
1597.000000;0.847985
1596.000000;0.833597
1595.000000;0.675191
1594.000000;0.603736
1593.000000;0.717165
1592.000000;1.226659
1591.000000;1.041528
1590.000000;0.780788
1589.000000;0.740097
1588.000000;0.886947
1587.000000;1.301964
1586.000000;0.683146
1585.000000;0.501730
1584.000000;0.536389
1583.000000;0.739800
1582.000000;1.008014
1581.000000;1.187542
1580.000000;1.058855
1579.000000;0.683609
1578.000000;0.550242
1577.000000;0.621722
1576.000000;0.665563
1575.000000;0.553531
1574.000000;0.497880
1573.000000;0.529181
1572.000000;0.619116
1571.000000;0.869160
1570.000000;1.103025
1569.000000;0.906842
1568.000000;0.815550
1567.000000;0.646811
1566.000000;0.489315
1565.000000;0.429399
1564.000000;0.481569
1563.000000;0.557327
1562.000000;0.541007
1561.000000;0.544533
1560.000000;0.572317
1559.000000;0.567531
1558.000000;0.653124
1557.000000;0.710277
1556.000000;0.611772
1555.000000;0.559257
1554.000000;0.538037
1553.000000;0.526907
1552.000000;0.514567
1551.000000;0.484220
1550.000000;0.439751
1549.000000;0.442762
1548.000000;0.533931
1547.000000;0.670315
1546.000000;0.748199
1545.000000;0.923814
1544.000000;0.966552
1543.000000;0.639091
1542.000000;0.501812
1541.000000;0.479916
1540.000000;0.435386
1539.000000;0.424923
1538.000000;0.458956
1537.000000;0.475319
1536.000000;0.433999
1535.000000;0.385190
1534.000000;0.401316
1533.000000;0.527504
1532.000000;0.861924
1531.000000;1.805071
1530.000000;1.319320
1529.000000;1.468628
1528.000000;1.603500
1527.000000;0.839508
1526.000000;0.710692
1525.000000;0.843860
1524.000000;0.787413
1523.000000;0.618830
1522.000000;0.638900
1521.000000;0.491255
1520.000000;0.362550
1519.000000;0.343151
1518.000000;0.352694
1517.000000;0.226609
1516.000000;0.098204
1515.000000;0.149463
1514.000000;0.458994
1513.000000;1.024753
1512.000000;0.590486
1511.000000;0.456038
1510.000000;0.487338
1509.000000;0.507487
1508.000000;0.509947
1507.000000;0.515586
1506.000000;0.630963
1505.000000;0.911537
1504.000000;0.640264
1503.000000;0.551840
1502.000000;0.585989
1501.000000;0.655030
1500.000000;0.658763
1499.000000;0.622851
1498.000000;0.710394
1497.000000;0.983583
1496.000000;0.703947
1495.000000;0.505552
1494.000000;0.537340
1493.000000;0.811810
1492.000000;0.995423
1491.000000;0.627524
1490.000000;0.488978
1489.000000;0.438769
1488.000000;0.363191
1487.000000;0.300753
1486.000000;0.343061
1485.000000;0.565350
1484.000000;0.626370
1483.000000;0.495948
1482.000000;0.466872
1481.000000;0.469208
1480.000000;0.537245
1479.000000;0.814332
1478.000000;1.502384
1477.000000;1.322615
1476.000000;0.701906
1475.000000;0.358982
1474.000000;0.331869
1473.000000;0.654321
1472.000000;1.210365
1471.000000;0.506302
1470.000000;0.482164
1469.000000;0.646051
1468.000000;0.993518
1467.000000;1.105295
1466.000000;1.112566
1465.000000;1.035000
1464.000000;0.873016
1463.000000;0.818095
1462.000000;0.858753
1461.000000;1.220711
1460.000000;0.989618
1459.000000;0.709299
1458.000000;0.724200
1457.000000;0.811991
1456.000000;0.544757
1455.000000;0.477092
1454.000000;0.652284
1453.000000;0.977185
1452.000000;0.997364
1451.000000;0.550612
1450.000000;0.321014
1449.000000;0.293348
1448.000000;0.441189
1447.000000;0.538897
1446.000000;0.423237
1445.000000;0.369137
1444.000000;0.396444
1443.000000;0.514726
1442.000000;0.729072
1441.000000;0.782472
1440.000000;0.594709
1439.000000;0.561847
1438.000000;0.685432
1437.000000;0.912295
1436.000000;1.208944
1435.000000;0.635068
1434.000000;0.414203
1433.000000;0.432846
1432.000000;0.492593
1431.000000;0.515448
1430.000000;0.605800
1429.000000;0.893334
1428.000000;0.920173
1427.000000;0.964129
1426.000000;1.485712
1425.000000;1.104222
1424.000000;0.768814
1423.000000;0.641005
1422.000000;0.572686
1421.000000;0.501811
1420.000000;0.452360
1419.000000;0.467423
1418.000000;0.600146
1417.000000;0.765741
1416.000000;0.786095
1415.000000;0.790383
1414.000000;0.845106
1413.000000;1.140492
1412.000000;0.944573
1411.000000;0.625321
1410.000000;0.625488
1409.000000;0.699311
1408.000000;0.490258
1407.000000;0.297380
1406.000000;0.253013
1405.000000;0.323877
1404.000000;0.490475
1403.000000;0.633368
1402.000000;0.733244
1401.000000;0.935274
1400.000000;1.288928
1399.000000;0.887328
1398.000000;0.593439
1397.000000;0.380009
1396.000000;0.250411
1395.000000;0.241222
1394.000000;0.347409
1393.000000;0.363064
1392.000000;0.323267
1391.000000;0.453128
1390.000000;0.669615
1389.000000;0.941335
1388.000000;0.899985
1387.000000;0.513275
1386.000000;0.391231
1385.000000;0.411020
1384.000000;0.445733
1383.000000;0.412565
1382.000000;0.397756
1381.000000;0.445844
1380.000000;0.640554
1379.000000;0.783370
1378.000000;0.546803
1377.000000;0.436053
1376.000000;0.472936
1375.000000;0.638384
1374.000000;1.063046
1373.000000;1.260961
1372.000000;1.098112
1371.000000;1.024914
1370.000000;0.763403
1369.000000;0.679741
1368.000000;0.865961
1367.000000;1.261630
1366.000000;0.771256
1365.000000;0.578363
1364.000000;0.518410
1363.000000;0.570792
1362.000000;0.613887
1361.000000;0.571316
1360.000000;0.553087
1359.000000;0.682650
1358.000000;0.931804
1357.000000;0.740728
1356.000000;0.601605
1355.000000;0.668538
1354.000000;1.313244
1353.000000;0.981088
1352.000000;0.724970
1351.000000;0.589987
1350.000000;0.416476
1349.000000;0.418089
1348.000000;0.562061
1347.000000;0.727496
1346.000000;0.715594
1345.000000;0.557086
1344.000000;0.507703
1343.000000;0.654656
1342.000000;1.144125
1341.000000;1.239122
1340.000000;0.872147
1339.000000;0.796155
1338.000000;0.759535
1337.000000;0.799281
1336.000000;1.023780
1335.000000;0.959068
1334.000000;0.713941
1333.000000;0.783905
1332.000000;0.715982
1331.000000;0.603287
1330.000000;0.906519
1329.000000;0.809802
1328.000000;0.544234
1327.000000;0.608015
1326.000000;0.626947
1325.000000;0.474102
1324.000000;0.419614
1323.000000;0.513167
1322.000000;1.098875
1321.000000;0.809913
1320.000000;0.479761
1319.000000;0.423690
1318.000000;0.540333
1317.000000;0.717713
1316.000000;0.625291
1315.000000;0.635123
1314.000000;0.809972
1313.000000;0.975621
1312.000000;0.819511
1311.000000;0.601506
1310.000000;0.524396
1309.000000;0.602775
1308.000000;0.706131
1307.000000;0.999249
1306.000000;1.009917
1305.000000;0.522526
1304.000000;0.412071
1303.000000;0.473344
1302.000000;0.567660
1301.000000;0.481672
1300.000000;0.336882
1299.000000;0.267930
1298.000000;0.309954
1297.000000;0.436678
1296.000000;0.488115
1295.000000;0.530495
1294.000000;0.792099
1293.000000;0.641588
1292.000000;0.438617
1291.000000;0.433047
1290.000000;0.474578
1289.000000;0.387369
1288.000000;0.318148
1287.000000;0.383473
1286.000000;0.629092
1285.000000;0.956792
1284.000000;0.840711
1283.000000;0.687199
1282.000000;0.630674
1281.000000;0.724569
1280.000000;1.157842
1279.000000;1.317026
1278.000000;0.943904
1277.000000;0.870547
1276.000000;0.774374
1275.000000;0.747775
1274.000000;1.129503
1273.000000;1.225102
1272.000000;0.760808
1271.000000;0.638118
1270.000000;0.695703
1269.000000;1.031643
1268.000000;1.194496
1267.000000;0.811052
1266.000000;0.689090
1265.000000;0.737373
1264.000000;0.964560
1263.000000;1.211208
1262.000000;1.160396
1261.000000;0.948186
1260.000000;0.596427
1259.000000;0.493903
1258.000000;0.576946
1257.000000;0.539864
1256.000000;0.357426
1255.000000;0.338512
1254.000000;0.538550
1253.000000;1.075333
1252.000000;0.883724
1251.000000;0.654339
1250.000000;0.707617
1249.000000;0.630892
1248.000000;0.510888
1247.000000;0.500728
1246.000000;1.049632
1245.000000;0.973464
1244.000000;0.667806
1243.000000;0.538748
1242.000000;0.343943
1241.000000;0.287074
1240.000000;0.338289
1239.000000;0.429639
1238.000000;0.514060
1237.000000;0.581527
1236.000000;0.668525
1235.000000;0.795026
1234.000000;0.816148
1233.000000;0.814780
1232.000000;0.931233
1231.000000;1.021868
1230.000000;0.915254
1229.000000;0.780446
1228.000000;0.842503
1227.000000;0.814602
1226.000000;0.521909
1225.000000;0.379806
1224.000000;0.377239
1223.000000;0.515509
1222.000000;0.663597
1221.000000;0.590360
1220.000000;0.576167
1219.000000;0.737510
1218.000000;0.928361
1217.000000;1.051926
1216.000000;1.315082
1215.000000;1.497817
1214.000000;1.232589
1213.000000;0.924331
1212.000000;0.646391
1211.000000;0.447834
1210.000000;0.360689
1209.000000;0.402537
1208.000000;0.594527
1207.000000;0.767414
1206.000000;0.962641
1205.000000;1.242737
1204.000000;0.542006
1203.000000;0.327430
1202.000000;0.246503
1201.000000;0.256899
1200.000000;0.361745
