Criado como novo conjunto de dados;"2706_e01_daniel.spp","54184.9 Secs"
cm-1;Abs
10000.000000;0.652715
9999.000000;0.651892
9998.000000;0.651579
9997.000000;0.651519
9996.000000;0.651502
9995.000000;0.651474
9994.000000;0.651421
9993.000000;0.651388
9992.000000;0.651504
9991.000000;0.651805
9990.000000;0.652120
9989.000000;0.652285
9988.000000;0.652354
9987.000000;0.652431
9986.000000;0.652391
9985.000000;0.651971
9984.000000;0.651147
9983.000000;0.650284
9982.000000;0.649880
9981.000000;0.650166
9980.000000;0.650899
9979.000000;0.651525
9978.000000;0.651610
9977.000000;0.651182
9976.000000;0.650621
9975.000000;0.650248
9974.000000;0.650109
9973.000000;0.650076
9972.000000;0.650019
9971.000000;0.649877
9970.000000;0.649744
9969.000000;0.649850
9968.000000;0.650289
9967.000000;0.650791
9966.000000;0.650962
9965.000000;0.650756
9964.000000;0.650486
9963.000000;0.650374
9962.000000;0.650343
9961.000000;0.650278
9960.000000;0.650155
9959.000000;0.649832
9958.000000;0.649088
9957.000000;0.648064
9956.000000;0.647347
9955.000000;0.647353
9954.000000;0.647805
9953.000000;0.648089
9952.000000;0.647973
9951.000000;0.647726
9950.000000;0.647650
9949.000000;0.647722
9948.000000;0.647691
9947.000000;0.647331
9946.000000;0.646660
9945.000000;0.646033
9944.000000;0.645908
9943.000000;0.646369
9942.000000;0.646973
9941.000000;0.647217
9940.000000;0.647091
9939.000000;0.646995
9938.000000;0.647166
9937.000000;0.647415
9936.000000;0.647422
9935.000000;0.647123
9934.000000;0.646723
9933.000000;0.646415
9932.000000;0.646189
9931.000000;0.645913
9930.000000;0.645547
9929.000000;0.645224
9928.000000;0.645092
9927.000000;0.645154
9926.000000;0.645338
9925.000000;0.645658
9924.000000;0.646165
9923.000000;0.646756
9922.000000;0.647148
9921.000000;0.647106
9920.000000;0.646618
9919.000000;0.645871
9918.000000;0.645170
9917.000000;0.644805
9916.000000;0.644834
9915.000000;0.644975
9914.000000;0.644895
9913.000000;0.644626
9912.000000;0.644510
9911.000000;0.644702
9910.000000;0.644910
9909.000000;0.644716
9908.000000;0.643993
9907.000000;0.642939
9906.000000;0.641897
9905.000000;0.641229
9904.000000;0.641195
9903.000000;0.641764
9902.000000;0.642568
9901.000000;0.643139
9900.000000;0.643200
9899.000000;0.642772
9898.000000;0.642154
9897.000000;0.641774
9896.000000;0.641892
9895.000000;0.642350
9894.000000;0.642743
9893.000000;0.642861
9892.000000;0.642841
9891.000000;0.642886
9890.000000;0.643020
9889.000000;0.643180
9888.000000;0.643302
9887.000000;0.643211
9886.000000;0.642643
9885.000000;0.641598
9884.000000;0.640538
9883.000000;0.640026
9882.000000;0.640175
9881.000000;0.640583
9880.000000;0.640792
9879.000000;0.640723
9878.000000;0.640638
9877.000000;0.640734
9876.000000;0.640857
9875.000000;0.640685
9874.000000;0.640189
9873.000000;0.639752
9872.000000;0.639716
9871.000000;0.639945
9870.000000;0.640052
9869.000000;0.639969
9868.000000;0.640001
9867.000000;0.640323
9866.000000;0.640722
9865.000000;0.640955
9864.000000;0.641076
9863.000000;0.641241
9862.000000;0.641380
9861.000000;0.641282
9860.000000;0.640868
9859.000000;0.640234
9858.000000;0.639503
9857.000000;0.638804
9856.000000;0.638319
9855.000000;0.638197
9854.000000;0.638409
9853.000000;0.638805
9852.000000;0.639248
9851.000000;0.639643
9850.000000;0.639854
9849.000000;0.639729
9848.000000;0.639243
9847.000000;0.638589
9846.000000;0.638138
9845.000000;0.638211
9844.000000;0.638797
9843.000000;0.639444
9842.000000;0.639537
9841.000000;0.638812
9840.000000;0.637625
9839.000000;0.636715
9838.000000;0.636668
9837.000000;0.637480
9836.000000;0.638547
9835.000000;0.639140
9834.000000;0.638981
9833.000000;0.638338
9832.000000;0.637567
9831.000000;0.636757
9830.000000;0.635930
9829.000000;0.635361
9828.000000;0.635382
9827.000000;0.635915
9826.000000;0.636473
9825.000000;0.636664
9824.000000;0.636511
9823.000000;0.636273
9822.000000;0.636160
9821.000000;0.636239
9820.000000;0.636403
9819.000000;0.636393
9818.000000;0.636055
9817.000000;0.635607
9816.000000;0.635458
9815.000000;0.635710
9814.000000;0.636027
9813.000000;0.636079
9812.000000;0.635909
9811.000000;0.635761
9810.000000;0.635749
9809.000000;0.635842
9808.000000;0.636011
9807.000000;0.636220
9806.000000;0.636345
9805.000000;0.636248
9804.000000;0.635919
9803.000000;0.635468
9802.000000;0.635029
9801.000000;0.634705
9800.000000;0.634547
9799.000000;0.634510
9798.000000;0.634453
9797.000000;0.634245
9796.000000;0.633893
9795.000000;0.633573
9794.000000;0.633517
9793.000000;0.633788
9792.000000;0.634142
9791.000000;0.634213
9790.000000;0.633901
9789.000000;0.633477
9788.000000;0.633214
9787.000000;0.633089
9786.000000;0.632967
9785.000000;0.632910
9784.000000;0.633050
9783.000000;0.633282
9782.000000;0.633347
9781.000000;0.633176
9780.000000;0.632876
9779.000000;0.632464
9778.000000;0.631916
9777.000000;0.631462
9776.000000;0.631459
9775.000000;0.631871
9774.000000;0.632194
9773.000000;0.632052
9772.000000;0.631653
9771.000000;0.631485
9770.000000;0.631744
9769.000000;0.632223
9768.000000;0.632611
9767.000000;0.632723
9766.000000;0.632541
9765.000000;0.632192
9764.000000;0.631863
9763.000000;0.631668
9762.000000;0.631596
9761.000000;0.631592
9760.000000;0.631620
9759.000000;0.631639
9758.000000;0.631625
9757.000000;0.631592
9756.000000;0.631536
9755.000000;0.631380
9754.000000;0.631100
9753.000000;0.630845
9752.000000;0.630781
9751.000000;0.630845
9750.000000;0.630823
9749.000000;0.630644
9748.000000;0.630423
9747.000000;0.630228
9746.000000;0.630009
9745.000000;0.629793
9744.000000;0.629750
9743.000000;0.629979
9742.000000;0.630359
9741.000000;0.630672
9740.000000;0.630753
9739.000000;0.630506
9738.000000;0.629936
9737.000000;0.629201
9736.000000;0.628548
9735.000000;0.628145
9734.000000;0.628048
9733.000000;0.628268
9732.000000;0.628730
9731.000000;0.629227
9730.000000;0.629565
9729.000000;0.629734
9728.000000;0.629808
9727.000000;0.629753
9726.000000;0.629508
9725.000000;0.629169
9724.000000;0.628873
9723.000000;0.628546
9722.000000;0.628023
9721.000000;0.627394
9720.000000;0.626979
9719.000000;0.626917
9718.000000;0.627017
9717.000000;0.627041
9716.000000;0.626930
9715.000000;0.626758
9714.000000;0.626656
9713.000000;0.626773
9712.000000;0.627115
9711.000000;0.627437
9710.000000;0.627510
9709.000000;0.627453
9708.000000;0.627527
9707.000000;0.627664
9706.000000;0.627536
9705.000000;0.627082
9704.000000;0.626590
9703.000000;0.626202
9702.000000;0.625735
9701.000000;0.625155
9700.000000;0.624826
9699.000000;0.625051
9698.000000;0.625612
9697.000000;0.626036
9696.000000;0.626101
9695.000000;0.625896
9694.000000;0.625571
9693.000000;0.625265
9692.000000;0.625141
9691.000000;0.625275
9690.000000;0.625555
9689.000000;0.625809
9688.000000;0.625942
9687.000000;0.625893
9686.000000;0.625604
9685.000000;0.625134
9684.000000;0.624653
9683.000000;0.624245
9682.000000;0.623865
9681.000000;0.623544
9680.000000;0.623413
9679.000000;0.623446
9678.000000;0.623412
9677.000000;0.623209
9676.000000;0.623036
9675.000000;0.623081
9674.000000;0.623249
9673.000000;0.623370
9672.000000;0.623483
9671.000000;0.623678
9670.000000;0.623828
9669.000000;0.623707
9668.000000;0.623319
9667.000000;0.622921
9666.000000;0.622745
9665.000000;0.622828
9664.000000;0.623037
9663.000000;0.623159
9662.000000;0.623048
9661.000000;0.622794
9660.000000;0.622633
9659.000000;0.622638
9658.000000;0.622632
9657.000000;0.622500
9656.000000;0.622389
9655.000000;0.622445
9654.000000;0.622518
9653.000000;0.622353
9652.000000;0.622005
9651.000000;0.621796
9650.000000;0.621903
9649.000000;0.622160
9648.000000;0.622310
9647.000000;0.622278
9646.000000;0.622163
9645.000000;0.622070
9644.000000;0.622013
9643.000000;0.621952
9642.000000;0.621888
9641.000000;0.621908
9640.000000;0.622087
9639.000000;0.622334
9638.000000;0.622412
9637.000000;0.622178
9636.000000;0.621753
9635.000000;0.621407
9634.000000;0.621300
9633.000000;0.621349
9632.000000;0.621316
9631.000000;0.621017
9630.000000;0.620514
9629.000000;0.620094
9628.000000;0.620000
9627.000000;0.620186
9626.000000;0.620387
9625.000000;0.620428
9624.000000;0.620332
9623.000000;0.620176
9622.000000;0.619981
9621.000000;0.619790
9620.000000;0.619720
9619.000000;0.619834
9618.000000;0.620031
9617.000000;0.620112
9616.000000;0.619951
9615.000000;0.619598
9614.000000;0.619267
9613.000000;0.619189
9612.000000;0.619389
9611.000000;0.619638
9610.000000;0.619695
9609.000000;0.619546
9608.000000;0.619297
9607.000000;0.618965
9606.000000;0.618553
9605.000000;0.618236
9604.000000;0.618218
9603.000000;0.618410
9602.000000;0.618507
9601.000000;0.618438
9600.000000;0.618449
9599.000000;0.618675
9598.000000;0.618888
9597.000000;0.618822
9596.000000;0.618537
9595.000000;0.618288
9594.000000;0.618185
9593.000000;0.618164
9592.000000;0.618190
9591.000000;0.618310
9590.000000;0.618522
9589.000000;0.618705
9588.000000;0.618670
9587.000000;0.618279
9586.000000;0.617599
9585.000000;0.616931
9584.000000;0.616572
9583.000000;0.616526
9582.000000;0.616559
9581.000000;0.616544
9580.000000;0.616580
9579.000000;0.616749
9578.000000;0.616944
9577.000000;0.617049
9576.000000;0.617114
9575.000000;0.617224
9574.000000;0.617343
9573.000000;0.617388
9572.000000;0.617365
9571.000000;0.617311
9570.000000;0.617221
9569.000000;0.617141
9568.000000;0.617197
9567.000000;0.617403
9566.000000;0.617534
9565.000000;0.617324
9564.000000;0.616778
9563.000000;0.616163
9562.000000;0.615748
9561.000000;0.615611
9560.000000;0.615651
9559.000000;0.615675
9558.000000;0.615527
9557.000000;0.615198
9556.000000;0.614824
9555.000000;0.614549
9554.000000;0.614419
9553.000000;0.614423
9552.000000;0.614558
9551.000000;0.614802
9550.000000;0.615083
9549.000000;0.615290
9548.000000;0.615318
9547.000000;0.615111
9546.000000;0.614739
9545.000000;0.614401
9544.000000;0.614271
9543.000000;0.614329
9542.000000;0.614397
9541.000000;0.614344
9540.000000;0.614168
9539.000000;0.613940
9538.000000;0.613764
9537.000000;0.613763
9536.000000;0.613951
9535.000000;0.614163
9534.000000;0.614202
9533.000000;0.614028
9532.000000;0.613723
9531.000000;0.613336
9530.000000;0.612931
9529.000000;0.612664
9528.000000;0.612623
9527.000000;0.612660
9526.000000;0.612621
9525.000000;0.612678
9524.000000;0.613100
9523.000000;0.613725
9522.000000;0.614004
9521.000000;0.613675
9520.000000;0.613094
9519.000000;0.612732
9518.000000;0.612636
9517.000000;0.612566
9516.000000;0.612397
9515.000000;0.612162
9514.000000;0.611864
9513.000000;0.611506
9512.000000;0.611219
9511.000000;0.611129
9510.000000;0.611196
9509.000000;0.611302
9508.000000;0.611437
9507.000000;0.611641
9506.000000;0.611865
9505.000000;0.612017
9504.000000;0.612083
9503.000000;0.612074
9502.000000;0.611937
9501.000000;0.611644
9500.000000;0.611295
9499.000000;0.611012
9498.000000;0.610784
9497.000000;0.610534
9496.000000;0.610280
9495.000000;0.610122
9494.000000;0.610079
9493.000000;0.610054
9492.000000;0.609943
9491.000000;0.609738
9490.000000;0.609586
9489.000000;0.609743
9488.000000;0.610339
9487.000000;0.611124
9486.000000;0.611566
9485.000000;0.611326
9484.000000;0.610570
9483.000000;0.609746
9482.000000;0.609150
9481.000000;0.608823
9480.000000;0.608719
9479.000000;0.608789
9478.000000;0.608927
9477.000000;0.608999
9476.000000;0.608960
9475.000000;0.608875
9474.000000;0.608821
9473.000000;0.608819
9472.000000;0.608848
9471.000000;0.608851
9470.000000;0.608790
9469.000000;0.608725
9468.000000;0.608807
9467.000000;0.609104
9466.000000;0.609459
9465.000000;0.609576
9464.000000;0.609280
9463.000000;0.608695
9462.000000;0.608161
9461.000000;0.607966
9460.000000;0.608096
9459.000000;0.608270
9458.000000;0.608273
9457.000000;0.608192
9456.000000;0.608249
9455.000000;0.608453
9454.000000;0.608590
9453.000000;0.608541
9452.000000;0.608407
9451.000000;0.608265
9450.000000;0.608006
9449.000000;0.607543
9448.000000;0.607036
9447.000000;0.606750
9446.000000;0.606752
9445.000000;0.606883
9444.000000;0.606985
9443.000000;0.607043
9442.000000;0.607126
9441.000000;0.607267
9440.000000;0.607402
9439.000000;0.607406
9438.000000;0.607200
9437.000000;0.606830
9436.000000;0.606406
9435.000000;0.605976
9434.000000;0.605544
9433.000000;0.605215
9432.000000;0.605169
9431.000000;0.605440
9430.000000;0.605803
9429.000000;0.605972
9428.000000;0.605855
9427.000000;0.605571
9426.000000;0.605287
9425.000000;0.605104
9424.000000;0.605033
9423.000000;0.605019
9422.000000;0.605012
9421.000000;0.605022
9420.000000;0.605056
9419.000000;0.605030
9418.000000;0.604849
9417.000000;0.604605
9416.000000;0.604520
9415.000000;0.604647
9414.000000;0.604753
9413.000000;0.604608
9412.000000;0.604301
9411.000000;0.604139
9410.000000;0.604279
9409.000000;0.604572
9408.000000;0.604755
9407.000000;0.604708
9406.000000;0.604496
9405.000000;0.604236
9404.000000;0.603968
9403.000000;0.603673
9402.000000;0.603403
9401.000000;0.603290
9400.000000;0.603375
9399.000000;0.603479
9398.000000;0.603365
9397.000000;0.603018
9396.000000;0.602637
9395.000000;0.602370
9394.000000;0.602189
9393.000000;0.602053
9392.000000;0.602052
9391.000000;0.602303
9390.000000;0.602793
9389.000000;0.603355
9388.000000;0.603759
9387.000000;0.603831
9386.000000;0.603577
9385.000000;0.603219
9384.000000;0.602997
9383.000000;0.602925
9382.000000;0.602836
9381.000000;0.602667
9380.000000;0.602534
9379.000000;0.602507
9378.000000;0.602466
9377.000000;0.602298
9376.000000;0.602073
9375.000000;0.601920
9374.000000;0.601809
9373.000000;0.601586
9372.000000;0.601164
9371.000000;0.600608
9370.000000;0.600088
9369.000000;0.599806
9368.000000;0.599870
9367.000000;0.600159
9366.000000;0.600385
9365.000000;0.600354
9364.000000;0.600128
9363.000000;0.599894
9362.000000;0.599769
9361.000000;0.599786
9360.000000;0.599953
9359.000000;0.600199
9358.000000;0.600342
9357.000000;0.600249
9356.000000;0.599996
9355.000000;0.599784
9354.000000;0.599720
9353.000000;0.599767
9352.000000;0.599859
9351.000000;0.599958
9350.000000;0.600005
9349.000000;0.599910
9348.000000;0.599642
9347.000000;0.599321
9346.000000;0.599187
9345.000000;0.599424
9344.000000;0.599961
9343.000000;0.600450
9342.000000;0.600537
9341.000000;0.600181
9340.000000;0.599671
9339.000000;0.599311
9338.000000;0.599163
9337.000000;0.599111
9336.000000;0.599069
9335.000000;0.599030
9334.000000;0.598990
9333.000000;0.598908
9332.000000;0.598738
9331.000000;0.598465
9330.000000;0.598126
9329.000000;0.597804
9328.000000;0.597566
9327.000000;0.597388
9326.000000;0.597199
9325.000000;0.597035
9324.000000;0.597056
9323.000000;0.597367
9322.000000;0.597868
9321.000000;0.598330
9320.000000;0.598579
9319.000000;0.598576
9318.000000;0.598361
9317.000000;0.598000
9316.000000;0.597585
9315.000000;0.597224
9314.000000;0.597022
9313.000000;0.597037
9312.000000;0.597248
9311.000000;0.597555
9310.000000;0.597840
9309.000000;0.598013
9308.000000;0.598012
9307.000000;0.597809
9306.000000;0.597470
9305.000000;0.597151
9304.000000;0.596933
9303.000000;0.596710
9302.000000;0.596325
9301.000000;0.595819
9300.000000;0.595408
9299.000000;0.595230
9298.000000;0.595222
9297.000000;0.595258
9296.000000;0.595305
9295.000000;0.595381
9294.000000;0.595476
9293.000000;0.595557
9292.000000;0.595583
9291.000000;0.595482
9290.000000;0.595187
9289.000000;0.594751
9288.000000;0.594334
9287.000000;0.594062
9286.000000;0.593962
9285.000000;0.594062
9284.000000;0.594424
9283.000000;0.595008
9282.000000;0.595581
9281.000000;0.595866
9280.000000;0.595748
9279.000000;0.595333
9278.000000;0.594847
9277.000000;0.594508
9276.000000;0.594421
9275.000000;0.594508
9274.000000;0.594583
9273.000000;0.594522
9272.000000;0.594339
9271.000000;0.594096
9270.000000;0.593841
9269.000000;0.593633
9268.000000;0.593547
9267.000000;0.593591
9266.000000;0.593688
9265.000000;0.593773
9264.000000;0.593840
9263.000000;0.593844
9262.000000;0.593669
9261.000000;0.593289
9260.000000;0.592880
9259.000000;0.592681
9258.000000;0.592750
9257.000000;0.592913
9256.000000;0.592947
9255.000000;0.592759
9254.000000;0.592409
9253.000000;0.592043
9252.000000;0.591812
9251.000000;0.591807
9250.000000;0.592017
9249.000000;0.592309
9248.000000;0.592474
9247.000000;0.592361
9246.000000;0.592018
9245.000000;0.591673
9244.000000;0.591514
9243.000000;0.591496
9242.000000;0.591454
9241.000000;0.591359
9240.000000;0.591369
9239.000000;0.591612
9238.000000;0.592014
9237.000000;0.592375
9236.000000;0.592526
9235.000000;0.592405
9234.000000;0.592050
9233.000000;0.591595
9232.000000;0.591193
9231.000000;0.590910
9230.000000;0.590703
9229.000000;0.590506
9228.000000;0.590277
9227.000000;0.589998
9226.000000;0.589704
9225.000000;0.589517
9224.000000;0.589548
9223.000000;0.589733
9222.000000;0.589858
9221.000000;0.589826
9220.000000;0.589785
9219.000000;0.589905
9218.000000;0.590116
9217.000000;0.590176
9216.000000;0.589985
9215.000000;0.589715
9214.000000;0.589592
9213.000000;0.589637
9212.000000;0.589655
9211.000000;0.589476
9210.000000;0.589144
9209.000000;0.588847
9208.000000;0.588696
9207.000000;0.588622
9206.000000;0.588507
9205.000000;0.588358
9204.000000;0.588267
9203.000000;0.588267
9202.000000;0.588277
9201.000000;0.588217
9200.000000;0.588094
9199.000000;0.587991
9198.000000;0.588004
9197.000000;0.588180
9196.000000;0.588455
9195.000000;0.588670
9194.000000;0.588698
9193.000000;0.588558
9192.000000;0.588366
9191.000000;0.588188
9190.000000;0.588010
9189.000000;0.587824
9188.000000;0.587665
9187.000000;0.587564
9186.000000;0.587535
9185.000000;0.587606
9184.000000;0.587784
9183.000000;0.587987
9182.000000;0.588076
9181.000000;0.587992
9180.000000;0.587801
9179.000000;0.587598
9178.000000;0.587443
9177.000000;0.587365
9176.000000;0.587377
9175.000000;0.587461
9174.000000;0.587600
9173.000000;0.587801
9172.000000;0.588014
9171.000000;0.588069
9170.000000;0.587808
9169.000000;0.587284
9168.000000;0.586743
9167.000000;0.586382
9166.000000;0.586193
9165.000000;0.586062
9164.000000;0.585910
9163.000000;0.585724
9162.000000;0.585536
9161.000000;0.585422
9160.000000;0.585452
9159.000000;0.585608
9158.000000;0.585805
9157.000000;0.585991
9156.000000;0.586166
9155.000000;0.586272
9154.000000;0.586170
9153.000000;0.585809
9152.000000;0.585330
9151.000000;0.584963
9150.000000;0.584836
9149.000000;0.584934
9148.000000;0.585166
9147.000000;0.585410
9146.000000;0.585516
9145.000000;0.585386
9144.000000;0.585069
9143.000000;0.584759
9142.000000;0.584636
9141.000000;0.584666
9140.000000;0.584602
9139.000000;0.584226
9138.000000;0.583610
9137.000000;0.583084
9136.000000;0.582908
9135.000000;0.583050
9134.000000;0.583312
9133.000000;0.583565
9132.000000;0.583777
9131.000000;0.583895
9130.000000;0.583864
9129.000000;0.583753
9128.000000;0.583721
9127.000000;0.583819
9126.000000;0.583928
9125.000000;0.583917
9124.000000;0.583779
9123.000000;0.583604
9122.000000;0.583492
9121.000000;0.583481
9120.000000;0.583510
9119.000000;0.583425
9118.000000;0.583134
9117.000000;0.582739
9116.000000;0.582437
9115.000000;0.582290
9114.000000;0.582185
9113.000000;0.582040
9112.000000;0.581921
9111.000000;0.581927
9110.000000;0.582063
9109.000000;0.582254
9108.000000;0.582400
9107.000000;0.582386
9106.000000;0.582150
9105.000000;0.581795
9104.000000;0.581553
9103.000000;0.581553
9102.000000;0.581667
9101.000000;0.581642
9100.000000;0.581352
9099.000000;0.580898
9098.000000;0.580521
9097.000000;0.580433
9096.000000;0.580674
9095.000000;0.581087
9094.000000;0.581462
9093.000000;0.581697
9092.000000;0.581798
9091.000000;0.581748
9090.000000;0.581505
9089.000000;0.581132
9088.000000;0.580814
9087.000000;0.580668
9086.000000;0.580622
9085.000000;0.580547
9084.000000;0.580428
9083.000000;0.580330
9082.000000;0.580262
9081.000000;0.580167
9080.000000;0.580017
9079.000000;0.579844
9078.000000;0.579685
9077.000000;0.579551
9076.000000;0.579438
9075.000000;0.579337
9074.000000;0.579248
9073.000000;0.579197
9072.000000;0.579212
9071.000000;0.579246
9070.000000;0.579187
9069.000000;0.578983
9068.000000;0.578707
9067.000000;0.578490
9066.000000;0.578391
9065.000000;0.578381
9064.000000;0.578416
9063.000000;0.578476
9062.000000;0.578556
9061.000000;0.578651
9060.000000;0.578757
9059.000000;0.578839
9058.000000;0.578838
9057.000000;0.578727
9056.000000;0.578569
9055.000000;0.578472
9054.000000;0.578477
9053.000000;0.578510
9052.000000;0.578451
9051.000000;0.578268
9050.000000;0.578062
9049.000000;0.577944
9048.000000;0.577902
9047.000000;0.577828
9046.000000;0.577668
9045.000000;0.577489
9044.000000;0.577379
9043.000000;0.577336
9042.000000;0.577319
9041.000000;0.577323
9040.000000;0.577335
9039.000000;0.577271
9038.000000;0.577046
9037.000000;0.576702
9036.000000;0.576390
9035.000000;0.576226
9034.000000;0.576222
9033.000000;0.576326
9032.000000;0.576448
9031.000000;0.576470
9030.000000;0.576320
9029.000000;0.576072
9028.000000;0.575879
9027.000000;0.575801
9026.000000;0.575747
9025.000000;0.575621
9024.000000;0.575445
9023.000000;0.575328
9022.000000;0.575352
9021.000000;0.575502
9020.000000;0.575677
9019.000000;0.575760
9018.000000;0.575710
9017.000000;0.575600
9016.000000;0.575521
9015.000000;0.575491
9014.000000;0.575462
9013.000000;0.575413
9012.000000;0.575352
9011.000000;0.575265
9010.000000;0.575132
9009.000000;0.574998
9008.000000;0.574949
9007.000000;0.575000
9006.000000;0.575072
9005.000000;0.575080
9004.000000;0.575007
9003.000000;0.574889
9002.000000;0.574789
9001.000000;0.574773
9000.000000;0.574842
8999.000000;0.574886
8998.000000;0.574787
8997.000000;0.574574
8996.000000;0.574402
8995.000000;0.574370
8994.000000;0.574412
8993.000000;0.574400
8992.000000;0.574287
8991.000000;0.574106
8990.000000;0.573903
8989.000000;0.573712
8988.000000;0.573568
8987.000000;0.573485
8986.000000;0.573455
8985.000000;0.573450
8984.000000;0.573445
8983.000000;0.573441
8982.000000;0.573486
8981.000000;0.573646
8980.000000;0.573903
8979.000000;0.574098
8978.000000;0.574049
8977.000000;0.573728
8976.000000;0.573290
8975.000000;0.572932
8974.000000;0.572772
8973.000000;0.572823
8972.000000;0.572991
8971.000000;0.573094
8970.000000;0.572979
8969.000000;0.572653
8968.000000;0.572276
8967.000000;0.572005
8966.000000;0.571877
8965.000000;0.571838
8964.000000;0.571827
8963.000000;0.571826
8962.000000;0.571855
8961.000000;0.571933
8960.000000;0.572000
8959.000000;0.571935
8958.000000;0.571705
8957.000000;0.571465
8956.000000;0.571413
8955.000000;0.571546
8954.000000;0.571649
8953.000000;0.571542
8952.000000;0.571270
8951.000000;0.571012
8950.000000;0.570894
8949.000000;0.570892
8948.000000;0.570884
8947.000000;0.570756
8946.000000;0.570504
8945.000000;0.570266
8944.000000;0.570184
8943.000000;0.570257
8942.000000;0.570348
8941.000000;0.570359
8940.000000;0.570299
8939.000000;0.570204
8938.000000;0.570082
8937.000000;0.569982
8936.000000;0.570031
8935.000000;0.570291
8934.000000;0.570635
8933.000000;0.570827
8932.000000;0.570745
8931.000000;0.570494
8930.000000;0.570279
8929.000000;0.570200
8928.000000;0.570178
8927.000000;0.570067
8926.000000;0.569837
8925.000000;0.569603
8924.000000;0.569474
8923.000000;0.569425
8922.000000;0.569349
8921.000000;0.569204
8920.000000;0.569057
8919.000000;0.569027
8918.000000;0.569199
8917.000000;0.569556
8916.000000;0.569912
8915.000000;0.569988
8914.000000;0.569650
8913.000000;0.569089
8912.000000;0.568659
8911.000000;0.568530
8910.000000;0.568567
8909.000000;0.568552
8908.000000;0.568417
8907.000000;0.568231
8906.000000;0.568060
8905.000000;0.567922
8904.000000;0.567828
8903.000000;0.567792
8902.000000;0.567813
8901.000000;0.567890
8900.000000;0.568035
8899.000000;0.568245
8898.000000;0.568458
8897.000000;0.568569
8896.000000;0.568484
8895.000000;0.568188
8894.000000;0.567779
8893.000000;0.567432
8892.000000;0.567281
8891.000000;0.567319
8890.000000;0.567413
8889.000000;0.567429
8888.000000;0.567332
8887.000000;0.567196
8886.000000;0.567139
8885.000000;0.567216
8884.000000;0.567335
8883.000000;0.567315
8882.000000;0.567070
8881.000000;0.566734
8880.000000;0.566534
8879.000000;0.566557
8878.000000;0.566686
8877.000000;0.566752
8876.000000;0.566687
8875.000000;0.566532
8874.000000;0.566367
8873.000000;0.566248
8872.000000;0.566169
8871.000000;0.566052
8870.000000;0.565836
8869.000000;0.565580
8868.000000;0.565456
8867.000000;0.565587
8866.000000;0.565912
8865.000000;0.566231
8864.000000;0.566367
8863.000000;0.566280
8862.000000;0.566051
8861.000000;0.565782
8860.000000;0.565524
8859.000000;0.565288
8858.000000;0.565113
8857.000000;0.565066
8856.000000;0.565162
8855.000000;0.565318
8854.000000;0.565428
8853.000000;0.565450
8852.000000;0.565402
8851.000000;0.565318
8850.000000;0.565224
8849.000000;0.565142
8848.000000;0.565061
8847.000000;0.564940
8846.000000;0.564791
8845.000000;0.564704
8844.000000;0.564744
8843.000000;0.564841
8842.000000;0.564862
8841.000000;0.564755
8840.000000;0.564579
8839.000000;0.564410
8838.000000;0.564285
8837.000000;0.564227
8836.000000;0.564241
8835.000000;0.564292
8834.000000;0.564316
8833.000000;0.564278
8832.000000;0.564173
8831.000000;0.564010
8830.000000;0.563828
8829.000000;0.563713
8828.000000;0.563730
8827.000000;0.563847
8826.000000;0.563971
8825.000000;0.564043
8824.000000;0.564056
8823.000000;0.564027
8822.000000;0.563989
8821.000000;0.564007
8820.000000;0.564103
8819.000000;0.564167
8818.000000;0.564048
8817.000000;0.563745
8816.000000;0.563466
8815.000000;0.563430
8814.000000;0.563654
8813.000000;0.563930
8812.000000;0.564017
8811.000000;0.563831
8810.000000;0.563491
8809.000000;0.563178
8808.000000;0.562965
8807.000000;0.562790
8806.000000;0.562598
8805.000000;0.562432
8804.000000;0.562369
8803.000000;0.562404
8802.000000;0.562457
8801.000000;0.562471
8800.000000;0.562435
8799.000000;0.562356
8798.000000;0.562253
8797.000000;0.562170
8796.000000;0.562149
8795.000000;0.562189
8794.000000;0.562275
8793.000000;0.562397
8792.000000;0.562525
8791.000000;0.562593
8790.000000;0.562573
8789.000000;0.562514
8788.000000;0.562463
8787.000000;0.562391
8786.000000;0.562275
8785.000000;0.562196
8784.000000;0.562249
8783.000000;0.562370
8782.000000;0.562356
8781.000000;0.562078
8780.000000;0.561616
8779.000000;0.561176
8778.000000;0.560924
8777.000000;0.560900
8776.000000;0.561024
8775.000000;0.561164
8774.000000;0.561228
8773.000000;0.561213
8772.000000;0.561153
8771.000000;0.561052
8770.000000;0.560900
8769.000000;0.560726
8768.000000;0.560597
8767.000000;0.560564
8766.000000;0.560651
8765.000000;0.560851
8764.000000;0.561080
8763.000000;0.561201
8762.000000;0.561147
8761.000000;0.560999
8760.000000;0.560872
8759.000000;0.560757
8758.000000;0.560575
8757.000000;0.560344
8756.000000;0.560182
8755.000000;0.560154
8754.000000;0.560197
8753.000000;0.560238
8752.000000;0.560284
8751.000000;0.560366
8750.000000;0.560448
8749.000000;0.560458
8748.000000;0.560393
8747.000000;0.560354
8746.000000;0.560451
8745.000000;0.560646
8744.000000;0.560738
8743.000000;0.560552
8742.000000;0.560169
8741.000000;0.559883
8740.000000;0.559894
8739.000000;0.560120
8738.000000;0.560338
8737.000000;0.560442
8736.000000;0.560472
8735.000000;0.560467
8734.000000;0.560427
8733.000000;0.560366
8732.000000;0.560304
8731.000000;0.560212
8730.000000;0.560051
8729.000000;0.559874
8728.000000;0.559789
8727.000000;0.559836
8726.000000;0.559960
8725.000000;0.560100
8724.000000;0.560213
8723.000000;0.560244
8722.000000;0.560171
8721.000000;0.560072
8720.000000;0.560062
8719.000000;0.560147
8718.000000;0.560219
8717.000000;0.560200
8716.000000;0.560111
8715.000000;0.560009
8714.000000;0.559918
8713.000000;0.559856
8712.000000;0.559828
8711.000000;0.559785
8710.000000;0.559653
8709.000000;0.559430
8708.000000;0.559193
8707.000000;0.559015
8706.000000;0.558906
8705.000000;0.558828
8704.000000;0.558734
8703.000000;0.558600
8702.000000;0.558487
8701.000000;0.558519
8700.000000;0.558727
8699.000000;0.558946
8698.000000;0.558961
8697.000000;0.558763
8696.000000;0.558551
8695.000000;0.558489
8694.000000;0.558581
8693.000000;0.558758
8692.000000;0.558964
8691.000000;0.559111
8690.000000;0.559087
8689.000000;0.558877
8688.000000;0.558612
8687.000000;0.558425
8686.000000;0.558331
8685.000000;0.558291
8684.000000;0.558310
8683.000000;0.558384
8682.000000;0.558424
8681.000000;0.558332
8680.000000;0.558139
8679.000000;0.557991
8678.000000;0.557976
8677.000000;0.558031
8676.000000;0.558030
8675.000000;0.557932
8674.000000;0.557819
8673.000000;0.557786
8672.000000;0.557833
8671.000000;0.557865
8670.000000;0.557789
8669.000000;0.557589
8668.000000;0.557306
8667.000000;0.557005
8666.000000;0.556763
8665.000000;0.556650
8664.000000;0.556665
8663.000000;0.556709
8662.000000;0.556678
8661.000000;0.556552
8660.000000;0.556399
8659.000000;0.556279
8658.000000;0.556208
8657.000000;0.556184
8656.000000;0.556202
8655.000000;0.556255
8654.000000;0.556320
8653.000000;0.556359
8652.000000;0.556337
8651.000000;0.556266
8650.000000;0.556217
8649.000000;0.556230
8648.000000;0.556207
8647.000000;0.556010
8646.000000;0.555662
8645.000000;0.555366
8644.000000;0.555259
8643.000000;0.555240
8642.000000;0.555138
8641.000000;0.554948
8640.000000;0.554796
8639.000000;0.554731
8638.000000;0.554691
8637.000000;0.554633
8636.000000;0.554561
8635.000000;0.554436
8634.000000;0.554195
8633.000000;0.553877
8632.000000;0.553621
8631.000000;0.553526
8630.000000;0.553570
8629.000000;0.553681
8628.000000;0.553784
8627.000000;0.553793
8626.000000;0.553657
8625.000000;0.553430
8624.000000;0.553235
8623.000000;0.553133
8622.000000;0.553082
8621.000000;0.553031
8620.000000;0.552955
8619.000000;0.552822
8618.000000;0.552605
8617.000000;0.552367
8616.000000;0.552235
8615.000000;0.552233
8614.000000;0.552222
8613.000000;0.552054
8612.000000;0.551758
8611.000000;0.551511
8610.000000;0.551448
8609.000000;0.551536
8608.000000;0.551605
8607.000000;0.551506
8606.000000;0.551248
8605.000000;0.550961
8604.000000;0.550740
8603.000000;0.550554
8602.000000;0.550356
8601.000000;0.550210
8600.000000;0.550209
8599.000000;0.550308
8598.000000;0.550338
8597.000000;0.550202
8596.000000;0.549981
8595.000000;0.549810
8594.000000;0.549720
8593.000000;0.549645
8592.000000;0.549519
8591.000000;0.549340
8590.000000;0.549154
8589.000000;0.549020
8588.000000;0.548964
8587.000000;0.548952
8586.000000;0.548919
8585.000000;0.548819
8584.000000;0.548649
8583.000000;0.548426
8582.000000;0.548190
8581.000000;0.548001
8580.000000;0.547910
8579.000000;0.547916
8578.000000;0.547999
8577.000000;0.548148
8576.000000;0.548314
8575.000000;0.548383
8574.000000;0.548268
8573.000000;0.548009
8572.000000;0.547745
8571.000000;0.547564
8570.000000;0.547422
8569.000000;0.547217
8568.000000;0.546902
8567.000000;0.546542
8566.000000;0.546262
8565.000000;0.546142
8564.000000;0.546123
8563.000000;0.546057
8562.000000;0.545881
8561.000000;0.545682
8560.000000;0.545580
8559.000000;0.545586
8558.000000;0.545651
8557.000000;0.545750
8556.000000;0.545844
8555.000000;0.545822
8554.000000;0.545603
8553.000000;0.545273
8552.000000;0.545001
8551.000000;0.544835
8550.000000;0.544699
8549.000000;0.544571
8548.000000;0.544540
8547.000000;0.544639
8546.000000;0.544752
8545.000000;0.544734
8544.000000;0.544560
8543.000000;0.544311
8542.000000;0.544059
8541.000000;0.543840
8540.000000;0.543664
8539.000000;0.543520
8538.000000;0.543382
8537.000000;0.543252
8536.000000;0.543164
8535.000000;0.543140
8534.000000;0.543151
8533.000000;0.543128
8532.000000;0.542993
8531.000000;0.542706
8530.000000;0.542321
8529.000000;0.541976
8528.000000;0.541780
8527.000000;0.541708
8526.000000;0.541657
8525.000000;0.541582
8524.000000;0.541522
8523.000000;0.541505
8522.000000;0.541506
8521.000000;0.541495
8520.000000;0.541456
8519.000000;0.541346
8518.000000;0.541110
8517.000000;0.540773
8516.000000;0.540463
8515.000000;0.540299
8514.000000;0.540298
8513.000000;0.540390
8512.000000;0.540488
8511.000000;0.540523
8510.000000;0.540463
8509.000000;0.540326
8508.000000;0.540169
8507.000000;0.540024
8506.000000;0.539870
8505.000000;0.539683
8504.000000;0.539484
8503.000000;0.539350
8502.000000;0.539346
8501.000000;0.539423
8500.000000;0.539404
8499.000000;0.539143
8498.000000;0.538725
8497.000000;0.538428
8496.000000;0.538429
8495.000000;0.538607
8494.000000;0.538704
8493.000000;0.538634
8492.000000;0.538518
8491.000000;0.538451
8490.000000;0.538367
8489.000000;0.538158
8488.000000;0.537832
8487.000000;0.537517
8486.000000;0.537350
8485.000000;0.537370
8484.000000;0.537484
8483.000000;0.537520
8482.000000;0.537374
8481.000000;0.537107
8480.000000;0.536875
8479.000000;0.536768
8478.000000;0.536765
8477.000000;0.536804
8476.000000;0.536818
8475.000000;0.536745
8474.000000;0.536587
8473.000000;0.536441
8472.000000;0.536395
8471.000000;0.536388
8470.000000;0.536278
8469.000000;0.536057
8468.000000;0.535887
8467.000000;0.535888
8466.000000;0.535984
8465.000000;0.535993
8464.000000;0.535816
8463.000000;0.535502
8462.000000;0.535168
8461.000000;0.534923
8460.000000;0.534807
8459.000000;0.534767
8458.000000;0.534713
8457.000000;0.534623
8456.000000;0.534553
8455.000000;0.534530
8454.000000;0.534492
8453.000000;0.534366
8452.000000;0.534161
8451.000000;0.533953
8450.000000;0.533797
8449.000000;0.533696
8448.000000;0.533621
8447.000000;0.533536
8446.000000;0.533440
8445.000000;0.533386
8444.000000;0.533441
8443.000000;0.533585
8442.000000;0.533691
8441.000000;0.533633
8440.000000;0.533411
8439.000000;0.533133
8438.000000;0.532896
8437.000000;0.532707
8436.000000;0.532517
8435.000000;0.532320
8434.000000;0.532173
8433.000000;0.532133
8432.000000;0.532176
8431.000000;0.532216
8430.000000;0.532192
8429.000000;0.532119
8428.000000;0.532038
8427.000000;0.531947
8426.000000;0.531821
8425.000000;0.531656
8424.000000;0.531487
8423.000000;0.531355
8422.000000;0.531283
8421.000000;0.531255
8420.000000;0.531209
8419.000000;0.531081
8418.000000;0.530868
8417.000000;0.530640
8416.000000;0.530455
8415.000000;0.530312
8414.000000;0.530198
8413.000000;0.530133
8412.000000;0.530133
8411.000000;0.530176
8410.000000;0.530239
8409.000000;0.530326
8408.000000;0.530427
8407.000000;0.530473
8406.000000;0.530404
8405.000000;0.530223
8404.000000;0.529967
8403.000000;0.529647
8402.000000;0.529311
8401.000000;0.529094
8400.000000;0.529115
8399.000000;0.529324
8398.000000;0.529524
8397.000000;0.529547
8396.000000;0.529380
8395.000000;0.529126
8394.000000;0.528906
8393.000000;0.528797
8392.000000;0.528788
8391.000000;0.528786
8390.000000;0.528692
8389.000000;0.528484
8388.000000;0.528201
8387.000000;0.527896
8386.000000;0.527622
8385.000000;0.527438
8384.000000;0.527341
8383.000000;0.527242
8382.000000;0.527066
8381.000000;0.526860
8380.000000;0.526738
8379.000000;0.526750
8378.000000;0.526836
8377.000000;0.526905
8376.000000;0.526889
8375.000000;0.526756
8374.000000;0.526562
8373.000000;0.526454
8372.000000;0.526533
8371.000000;0.526714
8370.000000;0.526794
8369.000000;0.526661
8368.000000;0.526368
8367.000000;0.526021
8366.000000;0.525706
8365.000000;0.525513
8364.000000;0.525527
8363.000000;0.525726
8362.000000;0.525940
8361.000000;0.525988
8360.000000;0.525816
8359.000000;0.525513
8358.000000;0.525219
8357.000000;0.525039
8356.000000;0.524984
8355.000000;0.524962
8354.000000;0.524868
8353.000000;0.524699
8352.000000;0.524549
8351.000000;0.524492
8350.000000;0.524508
8349.000000;0.524534
8348.000000;0.524519
8347.000000;0.524432
8346.000000;0.524263
8345.000000;0.524035
8344.000000;0.523813
8343.000000;0.523646
8342.000000;0.523547
8341.000000;0.523501
8340.000000;0.523490
8339.000000;0.523493
8338.000000;0.523496
8337.000000;0.523508
8336.000000;0.523531
8335.000000;0.523525
8334.000000;0.523427
8333.000000;0.523214
8332.000000;0.522929
8331.000000;0.522654
8330.000000;0.522469
8329.000000;0.522420
8328.000000;0.522482
8327.000000;0.522565
8326.000000;0.522589
8325.000000;0.522553
8324.000000;0.522509
8323.000000;0.522491
8322.000000;0.522501
8321.000000;0.522525
8320.000000;0.522511
8319.000000;0.522367
8318.000000;0.522041
8317.000000;0.521617
8316.000000;0.521247
8315.000000;0.521020
8314.000000;0.520922
8313.000000;0.520922
8312.000000;0.521008
8311.000000;0.521131
8310.000000;0.521186
8309.000000;0.521103
8308.000000;0.520924
8307.000000;0.520758
8306.000000;0.520667
8305.000000;0.520614
8304.000000;0.520514
8303.000000;0.520324
8302.000000;0.520102
8301.000000;0.519945
8300.000000;0.519885
8299.000000;0.519875
8298.000000;0.519871
8297.000000;0.519879
8296.000000;0.519879
8295.000000;0.519782
8294.000000;0.519518
8293.000000;0.519152
8292.000000;0.518839
8291.000000;0.518685
8290.000000;0.518698
8289.000000;0.518819
8288.000000;0.518954
8287.000000;0.518991
8286.000000;0.518873
8285.000000;0.518664
8284.000000;0.518490
8283.000000;0.518415
8282.000000;0.518421
8281.000000;0.518472
8280.000000;0.518519
8279.000000;0.518496
8278.000000;0.518369
8277.000000;0.518194
8276.000000;0.518061
8275.000000;0.517980
8274.000000;0.517902
8273.000000;0.517816
8272.000000;0.517750
8271.000000;0.517693
8270.000000;0.517592
8269.000000;0.517446
8268.000000;0.517321
8267.000000;0.517244
8266.000000;0.517165
8265.000000;0.517050
8264.000000;0.516932
8263.000000;0.516857
8262.000000;0.516818
8261.000000;0.516777
8260.000000;0.516718
8259.000000;0.516654
8258.000000;0.516609
8257.000000;0.516598
8256.000000;0.516582
8255.000000;0.516467
8254.000000;0.516209
8253.000000;0.515908
8252.000000;0.515723
8251.000000;0.515687
8250.000000;0.515691
8249.000000;0.515648
8248.000000;0.515583
8247.000000;0.515532
8246.000000;0.515459
8245.000000;0.515316
8244.000000;0.515148
8243.000000;0.515052
8242.000000;0.515059
8241.000000;0.515101
8240.000000;0.515091
8239.000000;0.514992
8238.000000;0.514845
8237.000000;0.514715
8236.000000;0.514635
8235.000000;0.514576
8234.000000;0.514509
8233.000000;0.514460
8232.000000;0.514473
8231.000000;0.514526
8230.000000;0.514539
8229.000000;0.514479
8228.000000;0.514386
8227.000000;0.514288
8226.000000;0.514155
8225.000000;0.513956
8224.000000;0.513728
8223.000000;0.513541
8222.000000;0.513428
8221.000000;0.513383
8220.000000;0.513385
8219.000000;0.513389
8218.000000;0.513336
8217.000000;0.513201
8216.000000;0.513024
8215.000000;0.512869
8214.000000;0.512772
8213.000000;0.512721
8212.000000;0.512693
8211.000000;0.512664
8210.000000;0.512619
8209.000000;0.512549
8208.000000;0.512450
8207.000000;0.512310
8206.000000;0.512126
8205.000000;0.511926
8204.000000;0.511766
8203.000000;0.511694
8202.000000;0.511713
8201.000000;0.511780
8200.000000;0.511823
8199.000000;0.511791
8198.000000;0.511697
8197.000000;0.511593
8196.000000;0.511510
8195.000000;0.511441
8194.000000;0.511400
8193.000000;0.511428
8192.000000;0.511503
8191.000000;0.511492
8190.000000;0.511279
8189.000000;0.510918
8188.000000;0.510584
8187.000000;0.510393
8186.000000;0.510316
8185.000000;0.510282
8184.000000;0.510280
8183.000000;0.510329
8182.000000;0.510417
8181.000000;0.510499
8180.000000;0.510543
8179.000000;0.510529
8178.000000;0.510447
8177.000000;0.510313
8176.000000;0.510164
8175.000000;0.510026
8174.000000;0.509880
8173.000000;0.509691
8172.000000;0.509456
8171.000000;0.509238
8170.000000;0.509139
8169.000000;0.509213
8168.000000;0.509383
8167.000000;0.509480
8166.000000;0.509396
8165.000000;0.509187
8164.000000;0.508991
8163.000000;0.508866
8162.000000;0.508768
8161.000000;0.508660
8160.000000;0.508576
8159.000000;0.508553
8158.000000;0.508559
8157.000000;0.508535
8156.000000;0.508446
8155.000000;0.508298
8154.000000;0.508123
8153.000000;0.507977
8152.000000;0.507919
8151.000000;0.507951
8150.000000;0.508003
8149.000000;0.507992
8148.000000;0.507902
8147.000000;0.507788
8146.000000;0.507719
8145.000000;0.507715
8144.000000;0.507739
8143.000000;0.507732
8142.000000;0.507678
8141.000000;0.507606
8140.000000;0.507530
8139.000000;0.507411
8138.000000;0.507207
8137.000000;0.506942
8136.000000;0.506712
8135.000000;0.506617
8134.000000;0.506694
8133.000000;0.506888
8132.000000;0.507065
8131.000000;0.507091
8130.000000;0.506943
8129.000000;0.506727
8128.000000;0.506566
8127.000000;0.506481
8126.000000;0.506408
8125.000000;0.506295
8124.000000;0.506141
8123.000000;0.505972
8122.000000;0.505824
8121.000000;0.505737
8120.000000;0.505715
8119.000000;0.505710
8118.000000;0.505684
8117.000000;0.505662
8116.000000;0.505679
8115.000000;0.505694
8114.000000;0.505630
8113.000000;0.505480
8112.000000;0.505301
8111.000000;0.505126
8110.000000;0.504945
8109.000000;0.504787
8108.000000;0.504722
8107.000000;0.504755
8106.000000;0.504786
8105.000000;0.504720
8104.000000;0.504576
8103.000000;0.504454
8102.000000;0.504428
8101.000000;0.504492
8100.000000;0.504588
8099.000000;0.504651
8098.000000;0.504649
8097.000000;0.504589
8096.000000;0.504493
8095.000000;0.504363
8094.000000;0.504197
8093.000000;0.504035
8092.000000;0.503931
8091.000000;0.503896
8090.000000;0.503892
8089.000000;0.503888
8088.000000;0.503881
8087.000000;0.503846
8086.000000;0.503735
8085.000000;0.503541
8084.000000;0.503327
8083.000000;0.503172
8082.000000;0.503102
8081.000000;0.503099
8080.000000;0.503127
8079.000000;0.503128
8078.000000;0.503033
8077.000000;0.502814
8076.000000;0.502537
8075.000000;0.502311
8074.000000;0.502197
8073.000000;0.502161
8072.000000;0.502138
8071.000000;0.502102
8070.000000;0.502080
8069.000000;0.502089
8068.000000;0.502090
8067.000000;0.502029
8066.000000;0.501915
8065.000000;0.501836
8064.000000;0.501860
8063.000000;0.501951
8062.000000;0.502019
8061.000000;0.502006
8060.000000;0.501905
8059.000000;0.501727
8058.000000;0.501493
8057.000000;0.501267
8056.000000;0.501130
8055.000000;0.501103
8054.000000;0.501138
8053.000000;0.501188
8052.000000;0.501240
8051.000000;0.501274
8050.000000;0.501234
8049.000000;0.501085
8048.000000;0.500877
8047.000000;0.500714
8046.000000;0.500662
8045.000000;0.500696
8044.000000;0.500739
8043.000000;0.500732
8042.000000;0.500684
8041.000000;0.500645
8040.000000;0.500650
8039.000000;0.500678
8038.000000;0.500674
8037.000000;0.500602
8036.000000;0.500463
8035.000000;0.500293
8034.000000;0.500147
8033.000000;0.500052
8032.000000;0.499985
8031.000000;0.499898
8030.000000;0.499797
8029.000000;0.499753
8028.000000;0.499802
8027.000000;0.499873
8026.000000;0.499857
8025.000000;0.499740
8024.000000;0.499598
8023.000000;0.499485
8022.000000;0.499364
8021.000000;0.499193
8020.000000;0.499000
8019.000000;0.498860
8018.000000;0.498801
8017.000000;0.498776
8016.000000;0.498726
8015.000000;0.498648
8014.000000;0.498601
8013.000000;0.498628
8012.000000;0.498694
8011.000000;0.498718
8010.000000;0.498669
8009.000000;0.498600
8008.000000;0.498558
8007.000000;0.498522
8006.000000;0.498454
8005.000000;0.498375
8004.000000;0.498326
8003.000000;0.498278
8002.000000;0.498159
8001.000000;0.497982
8000.000000;0.497881
7999.000000;0.497966
7998.000000;0.498169
7997.000000;0.498288
7996.000000;0.498175
7995.000000;0.497870
7994.000000;0.497533
7993.000000;0.497297
7992.000000;0.497178
7991.000000;0.497116
7990.000000;0.497069
7989.000000;0.497043
7988.000000;0.497050
7987.000000;0.497080
7986.000000;0.497113
7985.000000;0.497137
7984.000000;0.497125
7983.000000;0.497045
7982.000000;0.496894
7981.000000;0.496716
7980.000000;0.496559
7979.000000;0.496429
7978.000000;0.496315
7977.000000;0.496222
7976.000000;0.496168
7975.000000;0.496154
7974.000000;0.496164
7973.000000;0.496176
7972.000000;0.496163
7971.000000;0.496107
7970.000000;0.496022
7969.000000;0.495949
7968.000000;0.495921
7967.000000;0.495921
7966.000000;0.495915
7965.000000;0.495872
7964.000000;0.495765
7963.000000;0.495579
7962.000000;0.495356
7961.000000;0.495193
7960.000000;0.495145
7959.000000;0.495174
7958.000000;0.495205
7957.000000;0.495213
7956.000000;0.495215
7955.000000;0.495212
7954.000000;0.495179
7953.000000;0.495112
7952.000000;0.495022
7951.000000;0.494911
7950.000000;0.494779
7949.000000;0.494653
7948.000000;0.494552
7947.000000;0.494468
7946.000000;0.494388
7945.000000;0.494336
7944.000000;0.494326
7943.000000;0.494314
7942.000000;0.494240
7941.000000;0.494117
7940.000000;0.494011
7939.000000;0.493958
7938.000000;0.493935
7937.000000;0.493920
7936.000000;0.493900
7935.000000;0.493850
7934.000000;0.493743
7933.000000;0.493605
7932.000000;0.493496
7931.000000;0.493439
7930.000000;0.493406
7929.000000;0.493387
7928.000000;0.493405
7927.000000;0.493451
7926.000000;0.493461
7925.000000;0.493382
7924.000000;0.493238
7923.000000;0.493086
7922.000000;0.492958
7921.000000;0.492864
7920.000000;0.492826
7919.000000;0.492854
7918.000000;0.492910
7917.000000;0.492932
7916.000000;0.492887
7915.000000;0.492797
7914.000000;0.492707
7913.000000;0.492651
7912.000000;0.492625
7911.000000;0.492579
7910.000000;0.492451
7909.000000;0.492236
7908.000000;0.492012
7907.000000;0.491887
7906.000000;0.491900
7905.000000;0.491983
7904.000000;0.492020
7903.000000;0.491958
7902.000000;0.491855
7901.000000;0.491804
7900.000000;0.491818
7899.000000;0.491804
7898.000000;0.491666
7897.000000;0.491420
7896.000000;0.491184
7895.000000;0.491085
7894.000000;0.491151
7893.000000;0.491288
7892.000000;0.491348
7891.000000;0.491245
7890.000000;0.491028
7889.000000;0.490831
7888.000000;0.490737
7887.000000;0.490726
7886.000000;0.490735
7885.000000;0.490744
7884.000000;0.490748
7883.000000;0.490720
7882.000000;0.490636
7881.000000;0.490526
7880.000000;0.490456
7879.000000;0.490447
7878.000000;0.490458
7877.000000;0.490429
7876.000000;0.490325
7875.000000;0.490148
7874.000000;0.489948
7873.000000;0.489802
7872.000000;0.489745
7871.000000;0.489735
7870.000000;0.489708
7869.000000;0.489666
7868.000000;0.489666
7867.000000;0.489727
7866.000000;0.489787
7865.000000;0.489771
7864.000000;0.489671
7863.000000;0.489551
7862.000000;0.489477
7861.000000;0.489465
7860.000000;0.489480
7859.000000;0.489483
7858.000000;0.489478
7857.000000;0.489492
7856.000000;0.489509
7855.000000;0.489468
7854.000000;0.489333
7853.000000;0.489153
7852.000000;0.489020
7851.000000;0.488977
7850.000000;0.488991
7849.000000;0.488987
7848.000000;0.488898
7847.000000;0.488703
7846.000000;0.488463
7845.000000;0.488285
7844.000000;0.488228
7843.000000;0.488256
7842.000000;0.488299
7841.000000;0.488328
7840.000000;0.488346
7839.000000;0.488338
7838.000000;0.488281
7837.000000;0.488195
7836.000000;0.488118
7835.000000;0.488057
7834.000000;0.487995
7833.000000;0.487922
7832.000000;0.487842
7831.000000;0.487751
7830.000000;0.487658
7829.000000;0.487610
7828.000000;0.487649
7827.000000;0.487751
7826.000000;0.487851
7825.000000;0.487905
7824.000000;0.487899
7823.000000;0.487811
7822.000000;0.487631
7821.000000;0.487408
7820.000000;0.487230
7819.000000;0.487141
7818.000000;0.487117
7817.000000;0.487115
7816.000000;0.487099
7815.000000;0.487028
7814.000000;0.486876
7813.000000;0.486668
7812.000000;0.486478
7811.000000;0.486361
7810.000000;0.486321
7809.000000;0.486345
7808.000000;0.486424
7807.000000;0.486531
7806.000000;0.486610
7805.000000;0.486604
7804.000000;0.486498
7803.000000;0.486332
7802.000000;0.486185
7801.000000;0.486120
7800.000000;0.486124
7799.000000;0.486117
7798.000000;0.486054
7797.000000;0.485975
7796.000000;0.485929
7795.000000;0.485890
7794.000000;0.485808
7793.000000;0.485713
7792.000000;0.485677
7791.000000;0.485693
7790.000000;0.485675
7789.000000;0.485589
7788.000000;0.485502
7787.000000;0.485472
7786.000000;0.485462
7785.000000;0.485401
7784.000000;0.485278
7783.000000;0.485115
7782.000000;0.484915
7781.000000;0.484691
7780.000000;0.484517
7779.000000;0.484476
7778.000000;0.484558
7777.000000;0.484653
7776.000000;0.484650
7775.000000;0.484534
7774.000000;0.484369
7773.000000;0.484232
7772.000000;0.484162
7771.000000;0.484162
7770.000000;0.484213
7769.000000;0.484280
7768.000000;0.484319
7767.000000;0.484294
7766.000000;0.484207
7765.000000;0.484105
7764.000000;0.484021
7763.000000;0.483942
7762.000000;0.483844
7761.000000;0.483742
7760.000000;0.483672
7759.000000;0.483630
7758.000000;0.483577
7757.000000;0.483486
7756.000000;0.483370
7755.000000;0.483251
7754.000000;0.483144
7753.000000;0.483069
7752.000000;0.483049
7751.000000;0.483075
7750.000000;0.483098
7749.000000;0.483064
7748.000000;0.482959
7747.000000;0.482804
7746.000000;0.482651
7745.000000;0.482554
7744.000000;0.482532
7743.000000;0.482542
7742.000000;0.482527
7741.000000;0.482480
7740.000000;0.482444
7739.000000;0.482458
7738.000000;0.482507
7737.000000;0.482543
7736.000000;0.482526
7735.000000;0.482441
7734.000000;0.482315
7733.000000;0.482200
7732.000000;0.482128
7731.000000;0.482078
7730.000000;0.482018
7729.000000;0.481956
7728.000000;0.481922
7727.000000;0.481907
7726.000000;0.481869
7725.000000;0.481800
7724.000000;0.481749
7723.000000;0.481754
7722.000000;0.481791
7721.000000;0.481789
7720.000000;0.481687
7719.000000;0.481474
7718.000000;0.481199
7717.000000;0.480957
7716.000000;0.480819
7715.000000;0.480784
7714.000000;0.480799
7713.000000;0.480826
7712.000000;0.480852
7711.000000;0.480843
7710.000000;0.480751
7709.000000;0.480584
7708.000000;0.480427
7707.000000;0.480362
7706.000000;0.480395
7705.000000;0.480465
7704.000000;0.480501
7703.000000;0.480448
7702.000000;0.480299
7701.000000;0.480126
7700.000000;0.480032
7699.000000;0.480045
7698.000000;0.480083
7697.000000;0.480057
7696.000000;0.479971
7695.000000;0.479901
7694.000000;0.479892
7693.000000;0.479924
7692.000000;0.479955
7691.000000;0.479949
7690.000000;0.479882
7689.000000;0.479760
7688.000000;0.479620
7687.000000;0.479497
7686.000000;0.479382
7685.000000;0.479255
7684.000000;0.479151
7683.000000;0.479137
7682.000000;0.479213
7681.000000;0.479293
7680.000000;0.479299
7679.000000;0.479239
7678.000000;0.479171
7677.000000;0.479106
7676.000000;0.479007
7675.000000;0.478864
7674.000000;0.478736
7673.000000;0.478693
7672.000000;0.478729
7671.000000;0.478759
7670.000000;0.478702
7669.000000;0.478553
7668.000000;0.478377
7667.000000;0.478255
7666.000000;0.478223
7665.000000;0.478260
7664.000000;0.478309
7663.000000;0.478317
7662.000000;0.478261
7661.000000;0.478159
7660.000000;0.478051
7659.000000;0.477968
7658.000000;0.477913
7657.000000;0.477868
7656.000000;0.477815
7655.000000;0.477751
7654.000000;0.477687
7653.000000;0.477633
7652.000000;0.477598
7651.000000;0.477583
7650.000000;0.477563
7649.000000;0.477496
7648.000000;0.477364
7647.000000;0.477206
7646.000000;0.477097
7645.000000;0.477063
7644.000000;0.477064
7643.000000;0.477050
7642.000000;0.477017
7641.000000;0.476984
7640.000000;0.476945
7639.000000;0.476881
7638.000000;0.476812
7637.000000;0.476785
7636.000000;0.476797
7635.000000;0.476785
7634.000000;0.476695
7633.000000;0.476545
7632.000000;0.476406
7631.000000;0.476334
7630.000000;0.476341
7629.000000;0.476396
7628.000000;0.476447
7627.000000;0.476455
7626.000000;0.476433
7625.000000;0.476417
7624.000000;0.476408
7623.000000;0.476369
7622.000000;0.476278
7621.000000;0.476166
7620.000000;0.476088
7619.000000;0.476068
7618.000000;0.476083
7617.000000;0.476089
7616.000000;0.476037
7615.000000;0.475924
7614.000000;0.475803
7613.000000;0.475734
7612.000000;0.475702
7611.000000;0.475645
7610.000000;0.475548
7609.000000;0.475469
7608.000000;0.475457
7607.000000;0.475496
7606.000000;0.475549
7605.000000;0.475604
7604.000000;0.475618
7603.000000;0.475524
7602.000000;0.475326
7601.000000;0.475140
7600.000000;0.475070
7599.000000;0.475064
7598.000000;0.474997
7597.000000;0.474859
7596.000000;0.474766
7595.000000;0.474789
7594.000000;0.474861
7593.000000;0.474881
7592.000000;0.474837
7591.000000;0.474793
7590.000000;0.474787
7589.000000;0.474806
7588.000000;0.474818
7587.000000;0.474799
7586.000000;0.474751
7585.000000;0.474685
7584.000000;0.474606
7583.000000;0.474505
7582.000000;0.474376
7581.000000;0.474257
7580.000000;0.474201
7579.000000;0.474219
7578.000000;0.474265
7577.000000;0.474285
7576.000000;0.474269
7575.000000;0.474242
7574.000000;0.474237
7573.000000;0.474255
7572.000000;0.474263
7571.000000;0.474212
7570.000000;0.474098
7569.000000;0.473972
7568.000000;0.473890
7567.000000;0.473860
7566.000000;0.473857
7565.000000;0.473858
7564.000000;0.473846
7563.000000;0.473794
7562.000000;0.473695
7561.000000;0.473601
7560.000000;0.473570
7559.000000;0.473596
7558.000000;0.473616
7557.000000;0.473594
7556.000000;0.473551
7555.000000;0.473522
7554.000000;0.473516
7553.000000;0.473531
7552.000000;0.473560
7551.000000;0.473579
7550.000000;0.473564
7549.000000;0.473513
7548.000000;0.473443
7547.000000;0.473350
7546.000000;0.473236
7545.000000;0.473143
7544.000000;0.473135
7543.000000;0.473204
7542.000000;0.473268
7541.000000;0.473260
7540.000000;0.473202
7539.000000;0.473157
7538.000000;0.473151
7537.000000;0.473155
7536.000000;0.473127
7535.000000;0.473049
7534.000000;0.472935
7533.000000;0.472827
7532.000000;0.472763
7531.000000;0.472742
7530.000000;0.472733
7529.000000;0.472717
7528.000000;0.472702
7527.000000;0.472688
7526.000000;0.472662
7525.000000;0.472636
7524.000000;0.472646
7523.000000;0.472695
7522.000000;0.472725
7521.000000;0.472678
7520.000000;0.472577
7519.000000;0.472493
7518.000000;0.472468
7517.000000;0.472483
7516.000000;0.472503
7515.000000;0.472515
7514.000000;0.472531
7513.000000;0.472560
7512.000000;0.472595
7511.000000;0.472607
7510.000000;0.472564
7509.000000;0.472468
7508.000000;0.472361
7507.000000;0.472286
7506.000000;0.472245
7505.000000;0.472215
7504.000000;0.472193
7503.000000;0.472194
7502.000000;0.472211
7501.000000;0.472205
7500.000000;0.472156
7499.000000;0.472104
7498.000000;0.472110
7497.000000;0.472188
7496.000000;0.472276
7495.000000;0.472317
7494.000000;0.472292
7493.000000;0.472219
7492.000000;0.472129
7491.000000;0.472055
7490.000000;0.472035
7489.000000;0.472092
7488.000000;0.472194
7487.000000;0.472276
7486.000000;0.472297
7485.000000;0.472277
7484.000000;0.472261
7483.000000;0.472261
7482.000000;0.472255
7481.000000;0.472234
7480.000000;0.472224
7479.000000;0.472261
7478.000000;0.472337
7477.000000;0.472397
7476.000000;0.472394
7475.000000;0.472332
7474.000000;0.472261
7473.000000;0.472224
7472.000000;0.472220
7471.000000;0.472226
7470.000000;0.472233
7469.000000;0.472244
7468.000000;0.472262
7467.000000;0.472290
7466.000000;0.472336
7465.000000;0.472396
7464.000000;0.472435
7463.000000;0.472413
7462.000000;0.472339
7461.000000;0.472263
7460.000000;0.472221
7459.000000;0.472202
7458.000000;0.472180
7457.000000;0.472150
7456.000000;0.472129
7455.000000;0.472126
7454.000000;0.472149
7453.000000;0.472191
7452.000000;0.472226
7451.000000;0.472229
7450.000000;0.472210
7449.000000;0.472214
7448.000000;0.472270
7447.000000;0.472352
7446.000000;0.472418
7445.000000;0.472444
7444.000000;0.472424
7443.000000;0.472364
7442.000000;0.472293
7441.000000;0.472262
7440.000000;0.472298
7439.000000;0.472380
7438.000000;0.472466
7437.000000;0.472531
7436.000000;0.472566
7435.000000;0.472573
7434.000000;0.472580
7433.000000;0.472627
7432.000000;0.472707
7431.000000;0.472754
7430.000000;0.472710
7429.000000;0.472604
7428.000000;0.472512
7427.000000;0.472469
7426.000000;0.472453
7425.000000;0.472446
7424.000000;0.472467
7423.000000;0.472528
7422.000000;0.472601
7421.000000;0.472637
7420.000000;0.472615
7419.000000;0.472567
7418.000000;0.472546
7417.000000;0.472586
7416.000000;0.472658
7415.000000;0.472701
7414.000000;0.472692
7413.000000;0.472677
7412.000000;0.472710
7411.000000;0.472782
7410.000000;0.472844
7409.000000;0.472876
7408.000000;0.472901
7407.000000;0.472934
7406.000000;0.472955
7405.000000;0.472945
7404.000000;0.472920
7403.000000;0.472904
7402.000000;0.472900
7401.000000;0.472898
7400.000000;0.472895
7399.000000;0.472900
7398.000000;0.472930
7397.000000;0.472983
7396.000000;0.473034
7395.000000;0.473057
7394.000000;0.473073
7393.000000;0.473135
7392.000000;0.473269
7391.000000;0.473424
7390.000000;0.473520
7389.000000;0.473525
7388.000000;0.473470
7387.000000;0.473405
7386.000000;0.473371
7385.000000;0.473399
7384.000000;0.473507
7383.000000;0.473675
7382.000000;0.473845
7381.000000;0.473964
7380.000000;0.474016
7379.000000;0.474008
7378.000000;0.473942
7377.000000;0.473817
7376.000000;0.473655
7375.000000;0.473524
7374.000000;0.473505
7373.000000;0.473631
7372.000000;0.473846
7371.000000;0.474051
7370.000000;0.474187
7369.000000;0.474269
7368.000000;0.474346
7367.000000;0.474428
7366.000000;0.474498
7365.000000;0.474545
7364.000000;0.474570
7363.000000;0.474556
7362.000000;0.474482
7361.000000;0.474369
7360.000000;0.474288
7359.000000;0.474301
7358.000000;0.474391
7357.000000;0.474488
7356.000000;0.474548
7355.000000;0.474590
7354.000000;0.474657
7353.000000;0.474757
7352.000000;0.474853
7351.000000;0.474910
7350.000000;0.474939
7349.000000;0.474980
7348.000000;0.475061
7347.000000;0.475160
7346.000000;0.475222
7345.000000;0.475224
7344.000000;0.475203
7343.000000;0.475218
7342.000000;0.475284
7341.000000;0.475356
7340.000000;0.475393
7339.000000;0.475431
7338.000000;0.475550
7337.000000;0.475755
7336.000000;0.475959
7335.000000;0.476069
7334.000000;0.476082
7333.000000;0.476065
7332.000000;0.476078
7331.000000;0.476143
7330.000000;0.476256
7329.000000;0.476398
7328.000000;0.476525
7327.000000;0.476591
7326.000000;0.476606
7325.000000;0.476643
7324.000000;0.476764
7323.000000;0.476964
7322.000000;0.477178
7321.000000;0.477338
7320.000000;0.477416
7319.000000;0.477431
7318.000000;0.477436
7317.000000;0.477474
7316.000000;0.477555
7315.000000;0.477669
7314.000000;0.477801
7313.000000;0.477929
7312.000000;0.478031
7311.000000;0.478128
7310.000000;0.478276
7309.000000;0.478490
7308.000000;0.478704
7307.000000;0.478844
7306.000000;0.478918
7305.000000;0.478987
7304.000000;0.479058
7303.000000;0.479089
7302.000000;0.479096
7301.000000;0.479167
7300.000000;0.479349
7299.000000;0.479578
7298.000000;0.479763
7297.000000;0.479887
7296.000000;0.479982
7295.000000;0.480068
7294.000000;0.480173
7293.000000;0.480347
7292.000000;0.480601
7291.000000;0.480853
7290.000000;0.481014
7289.000000;0.481105
7288.000000;0.481232
7287.000000;0.481462
7286.000000;0.481765
7285.000000;0.482070
7284.000000;0.482319
7283.000000;0.482489
7282.000000;0.482599
7281.000000;0.482723
7280.000000;0.482926
7279.000000;0.483187
7278.000000;0.483437
7277.000000;0.483651
7276.000000;0.483867
7275.000000;0.484110
7274.000000;0.484352
7273.000000;0.484573
7272.000000;0.484795
7271.000000;0.485035
7270.000000;0.485262
7269.000000;0.485444
7268.000000;0.485611
7267.000000;0.485824
7266.000000;0.486099
7265.000000;0.486402
7264.000000;0.486704
7263.000000;0.487014
7262.000000;0.487336
7261.000000;0.487619
7260.000000;0.487815
7259.000000;0.487956
7258.000000;0.488158
7257.000000;0.488503
7256.000000;0.488954
7255.000000;0.489394
7254.000000;0.489744
7253.000000;0.490016
7252.000000;0.490257
7251.000000;0.490504
7250.000000;0.490769
7249.000000;0.491052
7248.000000;0.491337
7247.000000;0.491622
7246.000000;0.491942
7245.000000;0.492329
7244.000000;0.492766
7243.000000;0.493213
7242.000000;0.493670
7241.000000;0.494163
7240.000000;0.494644
7239.000000;0.495006
7238.000000;0.495221
7237.000000;0.495402
7236.000000;0.495684
7235.000000;0.496090
7234.000000;0.496554
7233.000000;0.497011
7232.000000;0.497429
7231.000000;0.497802
7230.000000;0.498180
7229.000000;0.498629
7228.000000;0.499148
7227.000000;0.499635
7226.000000;0.499997
7225.000000;0.500285
7224.000000;0.500640
7223.000000;0.501123
7222.000000;0.501673
7221.000000;0.502198
7220.000000;0.502663
7219.000000;0.503078
7218.000000;0.503466
7217.000000;0.503870
7216.000000;0.504325
7215.000000;0.504817
7214.000000;0.505294
7213.000000;0.505728
7212.000000;0.506133
7211.000000;0.506551
7210.000000;0.507029
7209.000000;0.507586
7208.000000;0.508169
7207.000000;0.508674
7206.000000;0.509067
7205.000000;0.509451
7204.000000;0.509954
7203.000000;0.510586
7202.000000;0.511247
7201.000000;0.511866
7200.000000;0.512443
7199.000000;0.512994
7198.000000;0.513526
7197.000000;0.514066
7196.000000;0.514641
7195.000000;0.515225
7194.000000;0.515773
7193.000000;0.516312
7192.000000;0.516909
7191.000000;0.517572
7190.000000;0.518233
7189.000000;0.518833
7188.000000;0.519356
7187.000000;0.519806
7186.000000;0.520217
7185.000000;0.520696
7184.000000;0.521339
7183.000000;0.522102
7182.000000;0.522822
7181.000000;0.523399
7180.000000;0.523901
7179.000000;0.524470
7178.000000;0.525168
7177.000000;0.525948
7176.000000;0.526717
7175.000000;0.527412
7174.000000;0.528046
7173.000000;0.528676
7172.000000;0.529332
7171.000000;0.529981
7170.000000;0.530602
7169.000000;0.531242
7168.000000;0.531943
7167.000000;0.532656
7166.000000;0.533307
7165.000000;0.533913
7164.000000;0.534553
7163.000000;0.535248
7162.000000;0.535969
7161.000000;0.536718
7160.000000;0.537515
7159.000000;0.538306
7158.000000;0.539009
7157.000000;0.539662
7156.000000;0.540422
7155.000000;0.541385
7154.000000;0.542472
7153.000000;0.543493
7152.000000;0.544293
7151.000000;0.544860
7150.000000;0.545338
7149.000000;0.545914
7148.000000;0.546636
7147.000000;0.547340
7146.000000;0.547824
7145.000000;0.548072
7144.000000;0.548281
7143.000000;0.548695
7142.000000;0.549438
7141.000000;0.550438
7140.000000;0.551462
7139.000000;0.552266
7138.000000;0.552795
7137.000000;0.553188
7136.000000;0.553599
7135.000000;0.554096
7134.000000;0.554748
7133.000000;0.555620
7132.000000;0.556604
7131.000000;0.557402
7130.000000;0.557801
7129.000000;0.557876
7128.000000;0.557842
7127.000000;0.557860
7126.000000;0.558059
7125.000000;0.558546
7124.000000;0.559210
7123.000000;0.559714
7122.000000;0.559851
7121.000000;0.559757
7120.000000;0.559628
7119.000000;0.559454
7118.000000;0.559275
7117.000000;0.559425
7116.000000;0.560137
7115.000000;0.561103
7114.000000;0.561822
7113.000000;0.562218
7112.000000;0.562541
7111.000000;0.562827
7110.000000;0.562874
7109.000000;0.562672
7108.000000;0.562440
7107.000000;0.562234
7106.000000;0.561915
7105.000000;0.561512
7104.000000;0.561235
7103.000000;0.561114
7102.000000;0.560988
7101.000000;0.560871
7100.000000;0.560944
7099.000000;0.561141
7098.000000;0.561105
7097.000000;0.560687
7096.000000;0.560145
7095.000000;0.559756
7094.000000;0.559486
7093.000000;0.559154
7092.000000;0.558635
7091.000000;0.557815
7090.000000;0.556606
7089.000000;0.555136
7088.000000;0.553771
7087.000000;0.552845
7086.000000;0.552470
7085.000000;0.552502
7084.000000;0.552576
7083.000000;0.552273
7082.000000;0.551509
7081.000000;0.550632
7080.000000;0.549944
7079.000000;0.549269
7078.000000;0.548295
7077.000000;0.547112
7076.000000;0.545994
7075.000000;0.544796
7074.000000;0.543097
7073.000000;0.540915
7072.000000;0.538816
7071.000000;0.537283
7070.000000;0.536350
7069.000000;0.535811
7068.000000;0.535369
7067.000000;0.534602
7066.000000;0.533261
7065.000000;0.531649
7064.000000;0.530293
7063.000000;0.529225
7062.000000;0.527987
7061.000000;0.526312
7060.000000;0.524387
7059.000000;0.522482
7058.000000;0.520786
7057.000000;0.519545
7056.000000;0.518819
7055.000000;0.518024
7054.000000;0.516312
7053.000000;0.513629
7052.000000;0.510893
7051.000000;0.508904
7050.000000;0.507510
7049.000000;0.506014
7048.000000;0.503966
7047.000000;0.501372
7046.000000;0.498562
7045.000000;0.496079
7044.000000;0.494345
7043.000000;0.493185
7042.000000;0.491949
7041.000000;0.490242
7040.000000;0.488223
7039.000000;0.486100
7038.000000;0.483790
7037.000000;0.481283
7036.000000;0.478888
7035.000000;0.476809
7034.000000;0.474770
7033.000000;0.472355
7032.000000;0.469537
7031.000000;0.466661
7030.000000;0.464074
7029.000000;0.461946
7028.000000;0.460234
7027.000000;0.458636
7026.000000;0.456765
7025.000000;0.454483
7024.000000;0.451920
7023.000000;0.449171
7022.000000;0.446256
7021.000000;0.443418
7020.000000;0.441043
7019.000000;0.439121
7018.000000;0.437130
7017.000000;0.434662
7016.000000;0.431864
7015.000000;0.429066
7014.000000;0.426310
7013.000000;0.423528
7012.000000;0.420894
7011.000000;0.418623
7010.000000;0.416581
7009.000000;0.414423
7008.000000;0.412015
7007.000000;0.409409
7006.000000;0.406555
7005.000000;0.403464
7004.000000;0.400591
7003.000000;0.398554
7002.000000;0.397276
7001.000000;0.395773
7000.000000;0.393075
6999.000000;0.389189
6998.000000;0.384918
6997.000000;0.380969
6996.000000;0.377530
6995.000000;0.374552
6994.000000;0.371978
6993.000000;0.369659
6992.000000;0.367393
6991.000000;0.365169
6990.000000;0.363115
6989.000000;0.361124
6988.000000;0.358861
6987.000000;0.356221
6986.000000;0.353441
6985.000000;0.350558
6984.000000;0.347196
6983.000000;0.343164
6982.000000;0.338961
6981.000000;0.335292
6980.000000;0.332420
6979.000000;0.330326
6978.000000;0.329074
6977.000000;0.328398
6976.000000;0.327312
6975.000000;0.324936
6974.000000;0.321615
6973.000000;0.318486
6972.000000;0.315943
6971.000000;0.313288
6970.000000;0.309939
6969.000000;0.306246
6968.000000;0.302861
6967.000000;0.300018
6966.000000;0.297768
6965.000000;0.296254
6964.000000;0.295277
6963.000000;0.294040
6962.000000;0.291807
6961.000000;0.288642
6960.000000;0.285206
6959.000000;0.282096
6958.000000;0.279587
6957.000000;0.277642
6956.000000;0.275861
6955.000000;0.273681
6954.000000;0.270916
6953.000000;0.267906
6952.000000;0.265014
6951.000000;0.262316
6950.000000;0.259920
6949.000000;0.258093
6948.000000;0.256709
6947.000000;0.254985
6946.000000;0.252246
6945.000000;0.248786
6944.000000;0.245555
6943.000000;0.243063
6942.000000;0.240916
6941.000000;0.238426
6940.000000;0.235437
6939.000000;0.232486
6938.000000;0.230192
6937.000000;0.228510
6936.000000;0.226711
6935.000000;0.224223
6934.000000;0.221351
6933.000000;0.218882
6932.000000;0.217120
6931.000000;0.215672
6930.000000;0.214118
6929.000000;0.212406
6928.000000;0.210540
6927.000000;0.208371
6926.000000;0.205949
6925.000000;0.203688
6924.000000;0.201901
6923.000000;0.200354
6922.000000;0.198531
6921.000000;0.196210
6920.000000;0.193695
6919.000000;0.191564
6918.000000;0.190185
6917.000000;0.189312
6916.000000;0.188201
6915.000000;0.186385
6914.000000;0.184209
6913.000000;0.182314
6912.000000;0.180783
6911.000000;0.179221
6910.000000;0.177508
6909.000000;0.175869
6908.000000;0.174180
6907.000000;0.171855
6906.000000;0.168700
6905.000000;0.165380
6904.000000;0.162773
6903.000000;0.161197
6902.000000;0.160446
6901.000000;0.160150
6900.000000;0.159820
6899.000000;0.158905
6898.000000;0.157189
6897.000000;0.154982
6896.000000;0.152709
6895.000000;0.150540
6894.000000;0.148604
6893.000000;0.147236
6892.000000;0.146657
6891.000000;0.146549
6890.000000;0.146223
6889.000000;0.145176
6888.000000;0.143411
6887.000000;0.141346
6886.000000;0.139582
6885.000000;0.138610
6884.000000;0.138466
6883.000000;0.138611
6882.000000;0.138268
6881.000000;0.136996
6880.000000;0.135018
6879.000000;0.132980
6878.000000;0.131385
6877.000000;0.130276
6876.000000;0.129470
6875.000000;0.128907
6874.000000;0.128550
6873.000000;0.128131
6872.000000;0.127394
6871.000000;0.126516
6870.000000;0.125804
6869.000000;0.124965
6868.000000;0.123303
6867.000000;0.120890
6866.000000;0.118883
6865.000000;0.118203
6864.000000;0.118451
6863.000000;0.118701
6862.000000;0.118834
6861.000000;0.119321
6860.000000;0.120056
6859.000000;0.120275
6858.000000;0.119589
6857.000000;0.118390
6856.000000;0.117197
6855.000000;0.116190
6854.000000;0.115417
6853.000000;0.114871
6852.000000;0.114255
6851.000000;0.113223
6850.000000;0.111961
6849.000000;0.111133
6848.000000;0.111100
6847.000000;0.111547
6846.000000;0.111903
6845.000000;0.111772
6844.000000;0.110977
6843.000000;0.109638
6842.000000;0.108318
6841.000000;0.107727
6840.000000;0.108082
6839.000000;0.108967
6838.000000;0.109799
6837.000000;0.110201
6836.000000;0.110035
6835.000000;0.109441
6834.000000;0.108806
6833.000000;0.108417
6832.000000;0.108235
6831.000000;0.108226
6830.000000;0.108640
6829.000000;0.109522
6828.000000;0.110260
6827.000000;0.110201
6826.000000;0.109602
6825.000000;0.109320
6824.000000;0.109611
6823.000000;0.109862
6822.000000;0.109590
6821.000000;0.109115
6820.000000;0.109108
6819.000000;0.109900
6818.000000;0.111315
6817.000000;0.112768
6816.000000;0.113528
6815.000000;0.113357
6814.000000;0.112981
6813.000000;0.113432
6812.000000;0.114793
6811.000000;0.116060
6810.000000;0.116372
6809.000000;0.115951
6808.000000;0.115610
6807.000000;0.115785
6806.000000;0.116304
6805.000000;0.116760
6804.000000;0.116843
6803.000000;0.116552
6802.000000;0.116255
6801.000000;0.116316
6800.000000;0.116630
6799.000000;0.116849
6798.000000;0.117063
6797.000000;0.117804
6796.000000;0.119220
6795.000000;0.120712
6794.000000;0.121654
6793.000000;0.122102
6792.000000;0.122535
6791.000000;0.123203
6790.000000;0.124051
6789.000000;0.124995
6788.000000;0.125894
6787.000000;0.126425
6786.000000;0.126385
6785.000000;0.126076
6784.000000;0.126097
6783.000000;0.126744
6782.000000;0.127786
6781.000000;0.128826
6780.000000;0.129663
6779.000000;0.130282
6778.000000;0.130702
6777.000000;0.130970
6776.000000;0.131253
6775.000000;0.131762
6774.000000;0.132523
6773.000000;0.133252
6772.000000;0.133601
6771.000000;0.133548
6770.000000;0.133414
6769.000000;0.133471
6768.000000;0.133719
6767.000000;0.134144
6766.000000;0.134930
6765.000000;0.136155
6764.000000;0.137481
6763.000000;0.138477
6762.000000;0.139175
6761.000000;0.139983
6760.000000;0.141099
6759.000000;0.142323
6758.000000;0.143394
6757.000000;0.144189
6756.000000;0.144583
6755.000000;0.144543
6754.000000;0.144445
6753.000000;0.144931
6752.000000;0.146201
6751.000000;0.147707
6750.000000;0.148749
6749.000000;0.149203
6748.000000;0.149472
6747.000000;0.149924
6746.000000;0.150575
6745.000000;0.151213
6744.000000;0.151644
6743.000000;0.151879
6742.000000;0.152154
6741.000000;0.152688
6740.000000;0.153376
6739.000000;0.153893
6738.000000;0.154190
6737.000000;0.154680
6736.000000;0.155737
6735.000000;0.157119
6734.000000;0.158138
6733.000000;0.158403
6732.000000;0.158253
6731.000000;0.158429
6730.000000;0.159393
6729.000000;0.160964
6728.000000;0.162524
6727.000000;0.163556
6726.000000;0.163999
6725.000000;0.164154
6724.000000;0.164347
6723.000000;0.164699
6722.000000;0.165147
6721.000000;0.165572
6720.000000;0.165932
6719.000000;0.166332
6718.000000;0.166933
6717.000000;0.167736
6716.000000;0.168544
6715.000000;0.169225
6714.000000;0.169917
6713.000000;0.170807
6712.000000;0.171806
6711.000000;0.172660
6710.000000;0.173311
6709.000000;0.173937
6708.000000;0.174610
6707.000000;0.175185
6706.000000;0.175575
6705.000000;0.175922
6704.000000;0.176383
6703.000000;0.176919
6702.000000;0.177450
6701.000000;0.177978
6700.000000;0.178580
6699.000000;0.179278
6698.000000;0.180053
6697.000000;0.180878
6696.000000;0.181672
6695.000000;0.182318
6694.000000;0.182807
6693.000000;0.183266
6692.000000;0.183804
6691.000000;0.184426
6690.000000;0.185116
6689.000000;0.185875
6688.000000;0.186620
6687.000000;0.187206
6686.000000;0.187635
6685.000000;0.188094
6684.000000;0.188720
6683.000000;0.189417
6682.000000;0.190018
6681.000000;0.190504
6680.000000;0.190971
6679.000000;0.191477
6678.000000;0.192023
6677.000000;0.192606
6676.000000;0.193197
6675.000000;0.193741
6674.000000;0.194266
6673.000000;0.194903
6672.000000;0.195737
6671.000000;0.196685
6670.000000;0.197586
6669.000000;0.198331
6668.000000;0.198850
6667.000000;0.199109
6666.000000;0.199239
6665.000000;0.199553
6664.000000;0.200269
6663.000000;0.201251
6662.000000;0.202138
6661.000000;0.202721
6660.000000;0.203085
6659.000000;0.203418
6658.000000;0.203816
6657.000000;0.204267
6656.000000;0.204728
6655.000000;0.205173
6654.000000;0.205633
6653.000000;0.206210
6652.000000;0.206986
6651.000000;0.207912
6650.000000;0.208814
6649.000000;0.209532
6648.000000;0.210029
6647.000000;0.210376
6646.000000;0.210669
6645.000000;0.210974
6644.000000;0.211329
6643.000000;0.211779
6642.000000;0.212381
6641.000000;0.213130
6640.000000;0.213928
6639.000000;0.214659
6638.000000;0.215312
6637.000000;0.215942
6636.000000;0.216549
6635.000000;0.217075
6634.000000;0.217537
6633.000000;0.218050
6632.000000;0.218646
6631.000000;0.219192
6630.000000;0.219570
6629.000000;0.219858
6628.000000;0.220226
6627.000000;0.220709
6626.000000;0.221187
6625.000000;0.221580
6624.000000;0.221946
6623.000000;0.222371
6622.000000;0.222859
6621.000000;0.223350
6620.000000;0.223814
6619.000000;0.224282
6618.000000;0.224816
6617.000000;0.225447
6616.000000;0.226152
6615.000000;0.226867
6614.000000;0.227539
6613.000000;0.228140
6612.000000;0.228655
6611.000000;0.229081
6610.000000;0.229468
6609.000000;0.229909
6608.000000;0.230461
6607.000000;0.231095
6606.000000;0.231730
6605.000000;0.232296
6604.000000;0.232760
6603.000000;0.233129
6602.000000;0.233451
6601.000000;0.233782
6600.000000;0.234129
6599.000000;0.234457
6598.000000;0.234768
6597.000000;0.235125
6596.000000;0.235573
6595.000000;0.236102
6594.000000;0.236694
6593.000000;0.237353
6592.000000;0.238050
6591.000000;0.238681
6590.000000;0.239153
6589.000000;0.239498
6588.000000;0.239832
6587.000000;0.240244
6586.000000;0.240735
6585.000000;0.241258
6584.000000;0.241750
6583.000000;0.242163
6582.000000;0.242512
6581.000000;0.242877
6580.000000;0.243332
6579.000000;0.243856
6578.000000;0.244374
6577.000000;0.244862
6576.000000;0.245369
6575.000000;0.245935
6574.000000;0.246524
6573.000000;0.247059
6572.000000;0.247487
6571.000000;0.247813
6570.000000;0.248085
6569.000000;0.248362
6568.000000;0.248689
6567.000000;0.249079
6566.000000;0.249527
6565.000000;0.250017
6564.000000;0.250537
6563.000000;0.251066
6562.000000;0.251567
6561.000000;0.252000
6560.000000;0.252375
6559.000000;0.252770
6558.000000;0.253263
6557.000000;0.253823
6556.000000;0.254311
6555.000000;0.254654
6554.000000;0.254957
6553.000000;0.255377
6552.000000;0.255900
6551.000000;0.256357
6550.000000;0.256645
6549.000000;0.256855
6548.000000;0.257131
6547.000000;0.257506
6546.000000;0.257929
6545.000000;0.258378
6544.000000;0.258863
6543.000000;0.259347
6542.000000;0.259774
6541.000000;0.260140
6540.000000;0.260501
6539.000000;0.260894
6538.000000;0.261314
6537.000000;0.261739
6536.000000;0.262145
6535.000000;0.262489
6534.000000;0.262752
6533.000000;0.262978
6532.000000;0.263243
6531.000000;0.263573
6530.000000;0.263945
6529.000000;0.264339
6528.000000;0.264771
6527.000000;0.265254
6526.000000;0.265761
6525.000000;0.266243
6524.000000;0.266654
6523.000000;0.266972
6522.000000;0.267211
6521.000000;0.267437
6520.000000;0.267739
6519.000000;0.268164
6518.000000;0.268673
6517.000000;0.269169
6516.000000;0.269576
6515.000000;0.269903
6514.000000;0.270242
6513.000000;0.270673
6512.000000;0.271177
6511.000000;0.271644
6510.000000;0.271999
6509.000000;0.272278
6508.000000;0.272580
6507.000000;0.272952
6506.000000;0.273345
6505.000000;0.273679
6504.000000;0.273931
6503.000000;0.274149
6502.000000;0.274399
6501.000000;0.274707
6500.000000;0.275057
6499.000000;0.275423
6498.000000;0.275805
6497.000000;0.276207
6496.000000;0.276600
6495.000000;0.276930
6494.000000;0.277174
6493.000000;0.277377
6492.000000;0.277609
6491.000000;0.277914
6490.000000;0.278287
6489.000000;0.278676
6488.000000;0.279028
6487.000000;0.279326
6486.000000;0.279605
6485.000000;0.279902
6484.000000;0.280209
6483.000000;0.280492
6482.000000;0.280758
6481.000000;0.281058
6480.000000;0.281416
6479.000000;0.281801
6478.000000;0.282170
6477.000000;0.282513
6476.000000;0.282829
6475.000000;0.283112
6474.000000;0.283382
6473.000000;0.283690
6472.000000;0.284066
6471.000000;0.284471
6470.000000;0.284841
6469.000000;0.285143
6468.000000;0.285385
6467.000000;0.285585
6466.000000;0.285794
6465.000000;0.286086
6464.000000;0.286489
6463.000000;0.286924
6462.000000;0.287276
6461.000000;0.287516
6460.000000;0.287728
6459.000000;0.287990
6458.000000;0.288287
6457.000000;0.288555
6456.000000;0.288779
6455.000000;0.289005
6454.000000;0.289267
6453.000000;0.289539
6452.000000;0.289770
6451.000000;0.289959
6450.000000;0.290171
6449.000000;0.290462
6448.000000;0.290810
6447.000000;0.291148
6446.000000;0.291440
6445.000000;0.291710
6444.000000;0.291988
6443.000000;0.292269
6442.000000;0.292538
6441.000000;0.292792
6440.000000;0.293042
6439.000000;0.293293
6438.000000;0.293550
6437.000000;0.293817
6436.000000;0.294083
6435.000000;0.294326
6434.000000;0.294542
6433.000000;0.294747
6432.000000;0.294954
6431.000000;0.295164
6430.000000;0.295398
6429.000000;0.295687
6428.000000;0.296013
6427.000000;0.296298
6426.000000;0.296485
6425.000000;0.296612
6424.000000;0.296763
6423.000000;0.296972
6422.000000;0.297212
6421.000000;0.297452
6420.000000;0.297691
6419.000000;0.297934
6418.000000;0.298178
6417.000000;0.298417
6416.000000;0.298643
6415.000000;0.298839
6414.000000;0.299006
6413.000000;0.299180
6412.000000;0.299406
6411.000000;0.299687
6410.000000;0.299986
6409.000000;0.300273
6408.000000;0.300547
6407.000000;0.300796
6406.000000;0.300995
6405.000000;0.301144
6404.000000;0.301296
6403.000000;0.301507
6402.000000;0.301784
6401.000000;0.302089
6400.000000;0.302375
6399.000000;0.302610
6398.000000;0.302778
6397.000000;0.302895
6396.000000;0.303011
6395.000000;0.303180
6394.000000;0.303405
6393.000000;0.303627
6392.000000;0.303787
6391.000000;0.303890
6390.000000;0.303991
6389.000000;0.304137
6388.000000;0.304330
6387.000000;0.304552
6386.000000;0.304793
6385.000000;0.305043
6384.000000;0.305280
6383.000000;0.305484
6382.000000;0.305662
6381.000000;0.305833
6380.000000;0.306010
6379.000000;0.306196
6378.000000;0.306390
6377.000000;0.306579
6376.000000;0.306745
6375.000000;0.306889
6374.000000;0.307036
6373.000000;0.307192
6372.000000;0.307325
6371.000000;0.307419
6370.000000;0.307532
6369.000000;0.307730
6368.000000;0.307993
6367.000000;0.308225
6366.000000;0.308380
6365.000000;0.308506
6364.000000;0.308650
6363.000000;0.308792
6362.000000;0.308899
6361.000000;0.308999
6360.000000;0.309140
6359.000000;0.309325
6358.000000;0.309514
6357.000000;0.309685
6356.000000;0.309830
6355.000000;0.309937
6354.000000;0.310009
6353.000000;0.310100
6352.000000;0.310274
6351.000000;0.310519
6350.000000;0.310762
6349.000000;0.310950
6348.000000;0.311092
6347.000000;0.311206
6346.000000;0.311291
6345.000000;0.311351
6344.000000;0.311421
6343.000000;0.311524
6342.000000;0.311650
6341.000000;0.311775
6340.000000;0.311908
6339.000000;0.312079
6338.000000;0.312292
6337.000000;0.312505
6336.000000;0.312663
6335.000000;0.312747
6334.000000;0.312784
6333.000000;0.312822
6332.000000;0.312887
6331.000000;0.312977
6330.000000;0.313077
6329.000000;0.313180
6328.000000;0.313280
6327.000000;0.313369
6326.000000;0.313443
6325.000000;0.313519
6324.000000;0.313622
6323.000000;0.313767
6322.000000;0.313951
6321.000000;0.314159
6320.000000;0.314358
6319.000000;0.314504
6318.000000;0.314582
6317.000000;0.314620
6316.000000;0.314672
6315.000000;0.314769
6314.000000;0.314902
6313.000000;0.315048
6312.000000;0.315187
6311.000000;0.315306
6310.000000;0.315392
6309.000000;0.315437
6308.000000;0.315448
6307.000000;0.315462
6306.000000;0.315527
6305.000000;0.315664
6304.000000;0.315844
6303.000000;0.316008
6302.000000;0.316122
6301.000000;0.316196
6300.000000;0.316249
6299.000000;0.316281
6298.000000;0.316295
6297.000000;0.316317
6296.000000;0.316366
6295.000000;0.316427
6294.000000;0.316468
6293.000000;0.316495
6292.000000;0.316537
6291.000000;0.316606
6290.000000;0.316687
6289.000000;0.316773
6288.000000;0.316881
6287.000000;0.317018
6286.000000;0.317158
6285.000000;0.317275
6284.000000;0.317359
6283.000000;0.317424
6282.000000;0.317481
6281.000000;0.317539
6280.000000;0.317603
6279.000000;0.317674
6278.000000;0.317752
6277.000000;0.317848
6276.000000;0.317983
6275.000000;0.318149
6274.000000;0.318296
6273.000000;0.318369
6272.000000;0.318366
6271.000000;0.318350
6270.000000;0.318378
6269.000000;0.318449
6268.000000;0.318515
6267.000000;0.318547
6266.000000;0.318558
6265.000000;0.318587
6264.000000;0.318647
6263.000000;0.318727
6262.000000;0.318804
6261.000000;0.318860
6260.000000;0.318886
6259.000000;0.318888
6258.000000;0.318885
6257.000000;0.318902
6256.000000;0.318952
6255.000000;0.319039
6254.000000;0.319158
6253.000000;0.319294
6252.000000;0.319413
6251.000000;0.319493
6250.000000;0.319544
6249.000000;0.319593
6248.000000;0.319643
6247.000000;0.319669
6246.000000;0.319656
6245.000000;0.319628
6244.000000;0.319622
6243.000000;0.319644
6242.000000;0.319673
6241.000000;0.319695
6240.000000;0.319717
6239.000000;0.319752
6238.000000;0.319797
6237.000000;0.319837
6236.000000;0.319865
6235.000000;0.319883
6234.000000;0.319912
6233.000000;0.319968
6232.000000;0.320053
6231.000000;0.320140
6230.000000;0.320198
6229.000000;0.320223
6228.000000;0.320243
6227.000000;0.320285
6226.000000;0.320342
6225.000000;0.320381
6224.000000;0.320385
6223.000000;0.320367
6222.000000;0.320345
6221.000000;0.320325
6220.000000;0.320304
6219.000000;0.320298
6218.000000;0.320328
6217.000000;0.320387
6216.000000;0.320446
6215.000000;0.320489
6214.000000;0.320532
6213.000000;0.320587
6212.000000;0.320637
6211.000000;0.320665
6210.000000;0.320691
6209.000000;0.320754
6208.000000;0.320859
6207.000000;0.320962
6206.000000;0.321018
6205.000000;0.321026
6204.000000;0.321014
6203.000000;0.321004
6202.000000;0.320987
6201.000000;0.320948
6200.000000;0.320894
6199.000000;0.320857
6198.000000;0.320871
6197.000000;0.320931
6196.000000;0.321005
6195.000000;0.321071
6194.000000;0.321132
6193.000000;0.321188
6192.000000;0.321208
6191.000000;0.321168
6190.000000;0.321086
6189.000000;0.321015
6188.000000;0.320987
6187.000000;0.321003
6186.000000;0.321059
6185.000000;0.321147
6184.000000;0.321236
6183.000000;0.321282
6182.000000;0.321267
6181.000000;0.321211
6180.000000;0.321145
6179.000000;0.321086
6178.000000;0.321041
6177.000000;0.321015
6176.000000;0.321001
6175.000000;0.320990
6174.000000;0.320991
6173.000000;0.321024
6172.000000;0.321095
6171.000000;0.321179
6170.000000;0.321248
6169.000000;0.321288
6168.000000;0.321291
6167.000000;0.321264
6166.000000;0.321235
6165.000000;0.321241
6164.000000;0.321286
6163.000000;0.321334
6162.000000;0.321350
6161.000000;0.321336
6160.000000;0.321308
6159.000000;0.321278
6158.000000;0.321256
6157.000000;0.321253
6156.000000;0.321260
6155.000000;0.321254
6154.000000;0.321234
6153.000000;0.321233
6152.000000;0.321277
6151.000000;0.321339
6150.000000;0.321377
6149.000000;0.321381
6148.000000;0.321374
6147.000000;0.321376
6146.000000;0.321387
6145.000000;0.321401
6144.000000;0.321418
6143.000000;0.321433
6142.000000;0.321436
6141.000000;0.321421
6140.000000;0.321387
6139.000000;0.321346
6138.000000;0.321314
6137.000000;0.321303
6136.000000;0.321302
6135.000000;0.321286
6134.000000;0.321251
6133.000000;0.321224
6132.000000;0.321235
6131.000000;0.321276
6130.000000;0.321318
6129.000000;0.321340
6128.000000;0.321340
6127.000000;0.321333
6126.000000;0.321333
6125.000000;0.321343
6124.000000;0.321353
6123.000000;0.321342
6122.000000;0.321316
6121.000000;0.321311
6120.000000;0.321346
6119.000000;0.321398
6118.000000;0.321418
6117.000000;0.321387
6116.000000;0.321326
6115.000000;0.321267
6114.000000;0.321231
6113.000000;0.321230
6112.000000;0.321258
6111.000000;0.321289
6110.000000;0.321299
6109.000000;0.321293
6108.000000;0.321297
6107.000000;0.321317
6106.000000;0.321338
6105.000000;0.321348
6104.000000;0.321354
6103.000000;0.321365
6102.000000;0.321370
6101.000000;0.321354
6100.000000;0.321321
6099.000000;0.321295
6098.000000;0.321296
6097.000000;0.321320
6096.000000;0.321348
6095.000000;0.321358
6094.000000;0.321344
6093.000000;0.321318
6092.000000;0.321297
6091.000000;0.321291
6090.000000;0.321296
6089.000000;0.321305
6088.000000;0.321315
6087.000000;0.321327
6086.000000;0.321352
6085.000000;0.321387
6084.000000;0.321420
6083.000000;0.321432
6082.000000;0.321420
6081.000000;0.321405
6080.000000;0.321407
6079.000000;0.321427
6078.000000;0.321442
6077.000000;0.321428
6076.000000;0.321376
6075.000000;0.321302
6074.000000;0.321247
6073.000000;0.321248
6072.000000;0.321308
6071.000000;0.321384
6070.000000;0.321419
6069.000000;0.321386
6068.000000;0.321303
6067.000000;0.321215
6066.000000;0.321150
6065.000000;0.321108
6064.000000;0.321079
6063.000000;0.321063
6062.000000;0.321076
6061.000000;0.321134
6060.000000;0.321232
6059.000000;0.321342
6058.000000;0.321424
6057.000000;0.321443
6056.000000;0.321391
6055.000000;0.321305
6054.000000;0.321246
6053.000000;0.321249
6052.000000;0.321285
6051.000000;0.321307
6050.000000;0.321305
6049.000000;0.321322
6048.000000;0.321383
6047.000000;0.321462
6046.000000;0.321508
6045.000000;0.321505
6044.000000;0.321484
6043.000000;0.321485
6042.000000;0.321515
6041.000000;0.321553
6040.000000;0.321573
6039.000000;0.321573
6038.000000;0.321567
6037.000000;0.321564
6036.000000;0.321548
6035.000000;0.321501
6034.000000;0.321439
6033.000000;0.321404
6032.000000;0.321419
6031.000000;0.321458
6030.000000;0.321475
6029.000000;0.321458
6028.000000;0.321432
6027.000000;0.321424
6026.000000;0.321432
6025.000000;0.321436
6024.000000;0.321423
6023.000000;0.321402
6022.000000;0.321389
6021.000000;0.321392
6020.000000;0.321410
6019.000000;0.321435
6018.000000;0.321468
6017.000000;0.321516
6016.000000;0.321578
6015.000000;0.321646
6014.000000;0.321706
6013.000000;0.321751
6012.000000;0.321786
6011.000000;0.321821
6010.000000;0.321851
6009.000000;0.321863
6008.000000;0.321857
6007.000000;0.321859
6006.000000;0.321889
6005.000000;0.321928
6004.000000;0.321922
6003.000000;0.321843
6002.000000;0.321725
6001.000000;0.321631
6000.000000;0.321599
5999.000000;0.321617
5998.000000;0.321659
5997.000000;0.321703
5996.000000;0.321741
5995.000000;0.321773
5994.000000;0.321807
5993.000000;0.321853
5992.000000;0.321898
5991.000000;0.321920
5990.000000;0.321906
5989.000000;0.321871
5988.000000;0.321842
5987.000000;0.321836
5986.000000;0.321851
5985.000000;0.321873
5984.000000;0.321896
5983.000000;0.321928
5982.000000;0.321980
5981.000000;0.322036
5980.000000;0.322064
5979.000000;0.322055
5978.000000;0.322038
5977.000000;0.322046
5976.000000;0.322086
5975.000000;0.322144
5974.000000;0.322207
5973.000000;0.322264
5972.000000;0.322303
5971.000000;0.322326
5970.000000;0.322352
5969.000000;0.322391
5968.000000;0.322419
5967.000000;0.322411
5966.000000;0.322383
5965.000000;0.322371
5964.000000;0.322385
5963.000000;0.322402
5962.000000;0.322410
5961.000000;0.322420
5960.000000;0.322435
5959.000000;0.322438
5958.000000;0.322430
5957.000000;0.322426
5956.000000;0.322432
5955.000000;0.322425
5954.000000;0.322398
5953.000000;0.322373
5952.000000;0.322376
5951.000000;0.322402
5950.000000;0.322439
5949.000000;0.322492
5948.000000;0.322563
5947.000000;0.322638
5946.000000;0.322701
5945.000000;0.322756
5944.000000;0.322816
5943.000000;0.322874
5942.000000;0.322917
5941.000000;0.322944
5940.000000;0.322975
5939.000000;0.323018
5938.000000;0.323066
5937.000000;0.323106
5936.000000;0.323131
5935.000000;0.323143
5934.000000;0.323151
5933.000000;0.323169
5932.000000;0.323203
5931.000000;0.323252
5930.000000;0.323305
5929.000000;0.323356
5928.000000;0.323405
5927.000000;0.323456
5926.000000;0.323514
5925.000000;0.323577
5924.000000;0.323634
5923.000000;0.323672
5922.000000;0.323685
5921.000000;0.323686
5920.000000;0.323689
5919.000000;0.323700
5918.000000;0.323711
5917.000000;0.323709
5916.000000;0.323679
5915.000000;0.323631
5914.000000;0.323597
5913.000000;0.323607
5912.000000;0.323656
5911.000000;0.323710
5910.000000;0.323739
5909.000000;0.323732
5908.000000;0.323697
5907.000000;0.323657
5906.000000;0.323642
5905.000000;0.323672
5904.000000;0.323737
5903.000000;0.323802
5902.000000;0.323846
5901.000000;0.323868
5900.000000;0.323876
5899.000000;0.323873
5898.000000;0.323870
5897.000000;0.323891
5896.000000;0.323952
5895.000000;0.324039
5894.000000;0.324119
5893.000000;0.324161
5892.000000;0.324152
5891.000000;0.324112
5890.000000;0.324083
5889.000000;0.324096
5888.000000;0.324147
5887.000000;0.324197
5886.000000;0.324213
5885.000000;0.324191
5884.000000;0.324142
5883.000000;0.324086
5882.000000;0.324047
5881.000000;0.324053
5880.000000;0.324113
5879.000000;0.324214
5878.000000;0.324321
5877.000000;0.324398
5876.000000;0.324429
5875.000000;0.324430
5874.000000;0.324440
5873.000000;0.324480
5872.000000;0.324537
5871.000000;0.324583
5870.000000;0.324613
5869.000000;0.324640
5868.000000;0.324663
5867.000000;0.324670
5866.000000;0.324658
5865.000000;0.324644
5864.000000;0.324638
5863.000000;0.324635
5862.000000;0.324640
5861.000000;0.324669
5860.000000;0.324720
5859.000000;0.324768
5858.000000;0.324793
5857.000000;0.324804
5856.000000;0.324817
5855.000000;0.324830
5854.000000;0.324842
5853.000000;0.324870
5852.000000;0.324935
5851.000000;0.325023
5850.000000;0.325097
5849.000000;0.325132
5848.000000;0.325145
5847.000000;0.325165
5846.000000;0.325192
5845.000000;0.325197
5844.000000;0.325166
5843.000000;0.325126
5842.000000;0.325121
5841.000000;0.325158
5840.000000;0.325201
5839.000000;0.325215
5838.000000;0.325200
5837.000000;0.325180
5836.000000;0.325174
5835.000000;0.325186
5834.000000;0.325221
5833.000000;0.325272
5832.000000;0.325321
5831.000000;0.325366
5830.000000;0.325421
5829.000000;0.325496
5828.000000;0.325567
5827.000000;0.325615
5826.000000;0.325655
5825.000000;0.325713
5824.000000;0.325769
5823.000000;0.325789
5822.000000;0.325789
5821.000000;0.325825
5820.000000;0.325911
5819.000000;0.325996
5818.000000;0.326033
5817.000000;0.326037
5816.000000;0.326042
5815.000000;0.326053
5814.000000;0.326062
5813.000000;0.326080
5812.000000;0.326132
5811.000000;0.326212
5810.000000;0.326289
5809.000000;0.326335
5808.000000;0.326350
5807.000000;0.326348
5806.000000;0.326348
5805.000000;0.326366
5804.000000;0.326398
5803.000000;0.326421
5802.000000;0.326416
5801.000000;0.326393
5800.000000;0.326379
5799.000000;0.326397
5798.000000;0.326451
5797.000000;0.326531
5796.000000;0.326615
5795.000000;0.326683
5794.000000;0.326735
5793.000000;0.326768
5792.000000;0.326770
5791.000000;0.326734
5790.000000;0.326685
5789.000000;0.326670
5788.000000;0.326709
5787.000000;0.326776
5786.000000;0.326835
5785.000000;0.326885
5784.000000;0.326948
5783.000000;0.327028
5782.000000;0.327101
5781.000000;0.327131
5780.000000;0.327102
5779.000000;0.327031
5778.000000;0.326960
5777.000000;0.326929
5776.000000;0.326939
5775.000000;0.326966
5774.000000;0.326992
5773.000000;0.327011
5772.000000;0.327018
5771.000000;0.327009
5770.000000;0.326994
5769.000000;0.326994
5768.000000;0.327023
5767.000000;0.327078
5766.000000;0.327152
5765.000000;0.327229
5764.000000;0.327280
5763.000000;0.327280
5762.000000;0.327244
5761.000000;0.327211
5760.000000;0.327208
5759.000000;0.327220
5758.000000;0.327228
5757.000000;0.327224
5756.000000;0.327206
5755.000000;0.327182
5754.000000;0.327178
5753.000000;0.327217
5752.000000;0.327279
5751.000000;0.327316
5750.000000;0.327311
5749.000000;0.327290
5748.000000;0.327278
5747.000000;0.327268
5746.000000;0.327254
5745.000000;0.327252
5744.000000;0.327266
5743.000000;0.327282
5742.000000;0.327292
5741.000000;0.327308
5740.000000;0.327330
5739.000000;0.327334
5738.000000;0.327320
5737.000000;0.327323
5736.000000;0.327364
5735.000000;0.327407
5734.000000;0.327413
5733.000000;0.327399
5732.000000;0.327407
5731.000000;0.327436
5730.000000;0.327456
5729.000000;0.327456
5728.000000;0.327456
5727.000000;0.327470
5726.000000;0.327491
5725.000000;0.327516
5724.000000;0.327536
5723.000000;0.327524
5722.000000;0.327456
5721.000000;0.327356
5720.000000;0.327281
5719.000000;0.327259
5718.000000;0.327266
5717.000000;0.327271
5716.000000;0.327269
5715.000000;0.327270
5714.000000;0.327277
5713.000000;0.327283
5712.000000;0.327285
5711.000000;0.327276
5710.000000;0.327250
5709.000000;0.327223
5708.000000;0.327225
5707.000000;0.327266
5706.000000;0.327317
5705.000000;0.327347
5704.000000;0.327356
5703.000000;0.327370
5702.000000;0.327406
5701.000000;0.327447
5700.000000;0.327475
5699.000000;0.327498
5698.000000;0.327546
5697.000000;0.327615
5696.000000;0.327664
5695.000000;0.327655
5694.000000;0.327608
5693.000000;0.327587
5692.000000;0.327625
5691.000000;0.327686
5690.000000;0.327719
5689.000000;0.327715
5688.000000;0.327707
5687.000000;0.327725
5686.000000;0.327765
5685.000000;0.327801
5684.000000;0.327809
5683.000000;0.327794
5682.000000;0.327783
5681.000000;0.327792
5680.000000;0.327800
5679.000000;0.327772
5678.000000;0.327710
5677.000000;0.327655
5676.000000;0.327645
5675.000000;0.327674
5674.000000;0.327714
5673.000000;0.327752
5672.000000;0.327797
5671.000000;0.327852
5670.000000;0.327915
5669.000000;0.327984
5668.000000;0.328063
5667.000000;0.328155
5666.000000;0.328260
5665.000000;0.328362
5664.000000;0.328433
5663.000000;0.328450
5662.000000;0.328429
5661.000000;0.328412
5660.000000;0.328428
5659.000000;0.328477
5658.000000;0.328559
5657.000000;0.328681
5656.000000;0.328825
5655.000000;0.328946
5654.000000;0.329007
5653.000000;0.329016
5652.000000;0.329009
5651.000000;0.329017
5650.000000;0.329059
5649.000000;0.329148
5648.000000;0.329267
5647.000000;0.329375
5646.000000;0.329446
5645.000000;0.329494
5644.000000;0.329551
5643.000000;0.329630
5642.000000;0.329733
5641.000000;0.329872
5640.000000;0.330051
5639.000000;0.330227
5638.000000;0.330349
5637.000000;0.330400
5636.000000;0.330415
5635.000000;0.330428
5634.000000;0.330461
5633.000000;0.330535
5632.000000;0.330670
5631.000000;0.330855
5630.000000;0.331036
5629.000000;0.331166
5628.000000;0.331246
5627.000000;0.331321
5626.000000;0.331436
5625.000000;0.331598
5624.000000;0.331776
5623.000000;0.331934
5622.000000;0.332053
5621.000000;0.332143
5620.000000;0.332221
5619.000000;0.332308
5618.000000;0.332424
5617.000000;0.332585
5616.000000;0.332785
5615.000000;0.332991
5614.000000;0.333169
5613.000000;0.333301
5612.000000;0.333389
5611.000000;0.333450
5610.000000;0.333525
5609.000000;0.333652
5608.000000;0.333836
5607.000000;0.334034
5606.000000;0.334201
5605.000000;0.334333
5604.000000;0.334460
5603.000000;0.334612
5602.000000;0.334800
5601.000000;0.335020
5600.000000;0.335243
5599.000000;0.335431
5598.000000;0.335566
5597.000000;0.335676
5596.000000;0.335802
5595.000000;0.335952
5594.000000;0.336103
5593.000000;0.336243
5592.000000;0.336387
5591.000000;0.336544
5590.000000;0.336707
5589.000000;0.336861
5588.000000;0.337006
5587.000000;0.337153
5586.000000;0.337306
5585.000000;0.337464
5584.000000;0.337631
5583.000000;0.337818
5582.000000;0.338024
5581.000000;0.338227
5580.000000;0.338396
5579.000000;0.338522
5578.000000;0.338636
5577.000000;0.338773
5576.000000;0.338948
5575.000000;0.339134
5574.000000;0.339297
5573.000000;0.339426
5572.000000;0.339535
5571.000000;0.339652
5570.000000;0.339795
5569.000000;0.339957
5568.000000;0.340123
5567.000000;0.340283
5566.000000;0.340445
5565.000000;0.340617
5564.000000;0.340789
5563.000000;0.340944
5562.000000;0.341078
5561.000000;0.341207
5560.000000;0.341343
5559.000000;0.341486
5558.000000;0.341629
5557.000000;0.341766
5556.000000;0.341898
5555.000000;0.342027
5554.000000;0.342159
5553.000000;0.342284
5552.000000;0.342387
5551.000000;0.342465
5550.000000;0.342547
5549.000000;0.342659
5548.000000;0.342796
5547.000000;0.342925
5546.000000;0.343040
5545.000000;0.343162
5544.000000;0.343312
5543.000000;0.343477
5542.000000;0.343634
5541.000000;0.343772
5540.000000;0.343885
5539.000000;0.343974
5538.000000;0.344051
5537.000000;0.344151
5536.000000;0.344292
5535.000000;0.344456
5534.000000;0.344604
5533.000000;0.344719
5532.000000;0.344810
5531.000000;0.344894
5530.000000;0.344981
5529.000000;0.345075
5528.000000;0.345184
5527.000000;0.345318
5526.000000;0.345484
5525.000000;0.345674
5524.000000;0.345862
5523.000000;0.346027
5522.000000;0.346163
5521.000000;0.346272
5520.000000;0.346355
5519.000000;0.346412
5518.000000;0.346465
5517.000000;0.346544
5516.000000;0.346648
5515.000000;0.346743
5514.000000;0.346806
5513.000000;0.346853
5512.000000;0.346924
5511.000000;0.347048
5510.000000;0.347229
5509.000000;0.347435
5508.000000;0.347606
5507.000000;0.347697
5506.000000;0.347724
5505.000000;0.347746
5504.000000;0.347808
5503.000000;0.347905
5502.000000;0.348017
5501.000000;0.348148
5500.000000;0.348309
5499.000000;0.348475
5498.000000;0.348604
5497.000000;0.348691
5496.000000;0.348777
5495.000000;0.348903
5494.000000;0.349064
5493.000000;0.349215
5492.000000;0.349324
5491.000000;0.349397
5490.000000;0.349457
5489.000000;0.349523
5488.000000;0.349600
5487.000000;0.349701
5486.000000;0.349840
5485.000000;0.350007
5484.000000;0.350170
5483.000000;0.350311
5482.000000;0.350434
5481.000000;0.350540
5480.000000;0.350609
5479.000000;0.350636
5478.000000;0.350665
5477.000000;0.350755
5476.000000;0.350913
5475.000000;0.351081
5474.000000;0.351207
5473.000000;0.351297
5472.000000;0.351380
5471.000000;0.351475
5470.000000;0.351594
5469.000000;0.351741
5468.000000;0.351909
5467.000000;0.352080
5466.000000;0.352244
5465.000000;0.352407
5464.000000;0.352573
5463.000000;0.352742
5462.000000;0.352915
5461.000000;0.353084
5460.000000;0.353234
5459.000000;0.353362
5458.000000;0.353491
5457.000000;0.353646
5456.000000;0.353820
5455.000000;0.353996
5454.000000;0.354168
5453.000000;0.354343
5452.000000;0.354508
5451.000000;0.354648
5450.000000;0.354766
5449.000000;0.354887
5448.000000;0.355018
5447.000000;0.355145
5446.000000;0.355266
5445.000000;0.355405
5444.000000;0.355592
5443.000000;0.355835
5442.000000;0.356111
5441.000000;0.356369
5440.000000;0.356567
5439.000000;0.356714
5438.000000;0.356862
5437.000000;0.357063
5436.000000;0.357317
5435.000000;0.357596
5434.000000;0.357873
5433.000000;0.358134
5432.000000;0.358375
5431.000000;0.358623
5430.000000;0.358904
5429.000000;0.359200
5428.000000;0.359452
5427.000000;0.359625
5426.000000;0.359760
5425.000000;0.359928
5424.000000;0.360155
5423.000000;0.360406
5422.000000;0.360645
5421.000000;0.360875
5420.000000;0.361113
5419.000000;0.361365
5418.000000;0.361636
5417.000000;0.361933
5416.000000;0.362248
5415.000000;0.362559
5414.000000;0.362869
5413.000000;0.363196
5412.000000;0.363531
5411.000000;0.363848
5410.000000;0.364151
5409.000000;0.364487
5408.000000;0.364897
5407.000000;0.365370
5406.000000;0.365864
5405.000000;0.366342
5404.000000;0.366772
5403.000000;0.367128
5402.000000;0.367422
5401.000000;0.367712
5400.000000;0.368043
5399.000000;0.368438
5398.000000;0.368914
5397.000000;0.369478
5396.000000;0.370079
5395.000000;0.370623
5394.000000;0.371065
5393.000000;0.371464
5392.000000;0.371909
5391.000000;0.372422
5390.000000;0.372961
5389.000000;0.373501
5388.000000;0.374048
5387.000000;0.374599
5386.000000;0.375139
5385.000000;0.375682
5384.000000;0.376268
5383.000000;0.376931
5382.000000;0.377667
5381.000000;0.378441
5380.000000;0.379220
5379.000000;0.379985
5378.000000;0.380753
5377.000000;0.381552
5376.000000;0.382378
5375.000000;0.383202
5374.000000;0.384025
5373.000000;0.384878
5372.000000;0.385781
5371.000000;0.386723
5370.000000;0.387676
5369.000000;0.388604
5368.000000;0.389490
5367.000000;0.390366
5366.000000;0.391314
5365.000000;0.392395
5364.000000;0.393569
5363.000000;0.394731
5362.000000;0.395835
5361.000000;0.396934
5360.000000;0.398100
5359.000000;0.399358
5358.000000;0.400700
5357.000000;0.402108
5356.000000;0.403547
5355.000000;0.404982
5354.000000;0.406415
5353.000000;0.407886
5352.000000;0.409412
5351.000000;0.410959
5350.000000;0.412488
5349.000000;0.413995
5348.000000;0.415500
5347.000000;0.417032
5346.000000;0.418675
5345.000000;0.420551
5344.000000;0.422700
5343.000000;0.424981
5342.000000;0.427145
5341.000000;0.429018
5340.000000;0.430615
5339.000000;0.432145
5338.000000;0.433880
5337.000000;0.435877
5336.000000;0.437911
5335.000000;0.439783
5334.000000;0.441578
5333.000000;0.443526
5332.000000;0.445713
5331.000000;0.448045
5330.000000;0.450399
5329.000000;0.452614
5328.000000;0.454422
5327.000000;0.455672
5326.000000;0.456636
5325.000000;0.457753
5324.000000;0.459056
5323.000000;0.460160
5322.000000;0.460842
5321.000000;0.461289
5320.000000;0.461673
5319.000000;0.461783
5318.000000;0.461280
5317.000000;0.460084
5316.000000;0.458330
5315.000000;0.456109
5314.000000;0.453346
5313.000000;0.449759
5312.000000;0.444870
5311.000000;0.438303
5310.000000;0.430107
5309.000000;0.420692
5308.000000;0.410539
5307.000000;0.399968
5306.000000;0.388791
5305.000000;0.376176
5304.000000;0.361497
5303.000000;0.345576
5302.000000;0.330518
5301.000000;0.317997
5300.000000;0.308290
5299.000000;0.301644
5298.000000;0.300838
5297.000000;0.310777
5296.000000;0.333584
5295.000000;0.366417
5294.000000;0.406071
5293.000000;0.450551
5292.000000;0.495531
5291.000000;0.537199
5290.000000;0.577298
5289.000000;0.617426
5288.000000;0.653011
5287.000000;0.681192
5286.000000;0.707791
5285.000000;0.736874
5284.000000;0.762071
5283.000000;0.778710
5282.000000;0.795139
5281.000000;0.818844
5280.000000;0.841388
5279.000000;0.851231
5278.000000;0.853741
5277.000000;0.860966
5276.000000;0.871658
5275.000000;0.877483
5274.000000;0.880325
5273.000000;0.887363
5272.000000;0.896109
5271.000000;0.899785
5270.000000;0.901717
5269.000000;0.909483
5268.000000;0.920402
5267.000000;0.926519
5266.000000;0.929324
5265.000000;0.935551
5264.000000;0.943116
5263.000000;0.945334
5262.000000;0.944042
5261.000000;0.944340
5260.000000;0.942130
5259.000000;0.931144
5258.000000;0.917030
5257.000000;0.910593
5256.000000;0.912937
5255.000000;0.917894
5254.000000;0.922798
5253.000000;0.926402
5252.000000;0.922523
5251.000000;0.909556
5250.000000;0.899640
5249.000000;0.904505
5248.000000;0.919627
5247.000000;0.930892
5246.000000;0.934097
5245.000000;0.936158
5244.000000;0.938291
5243.000000;0.934130
5242.000000;0.923901
5241.000000;0.916362
5240.000000;0.915732
5239.000000;0.918112
5238.000000;0.920197
5237.000000;0.922844
5236.000000;0.925954
5235.000000;0.927606
5234.000000;0.928975
5233.000000;0.933348
5232.000000;0.940063
5231.000000;0.945315
5230.000000;0.947916
5229.000000;0.949103
5228.000000;0.948846
5227.000000;0.947136
5226.000000;0.945906
5225.000000;0.945156
5224.000000;0.941168
5223.000000;0.933753
5222.000000;0.929129
5221.000000;0.930028
5220.000000;0.930305
5219.000000;0.925764
5218.000000;0.923266
5217.000000;0.930853
5216.000000;0.945243
5215.000000;0.955940
5214.000000;0.958494
5213.000000;0.955854
5212.000000;0.949947
5211.000000;0.941783
5210.000000;0.935462
5209.000000;0.933603
5208.000000;0.933430
5207.000000;0.934066
5206.000000;0.940352
5205.000000;0.952791
5204.000000;0.962015
5203.000000;0.961309
5202.000000;0.957697
5201.000000;0.959981
5200.000000;0.964682
5199.000000;0.963371
5198.000000;0.957026
5197.000000;0.952360
5196.000000;0.950291
5195.000000;0.948874
5194.000000;0.951647
5193.000000;0.961680
5192.000000;0.971106
5191.000000;0.968736
5190.000000;0.957013
5189.000000;0.947755
5188.000000;0.946027
5187.000000;0.949333
5186.000000;0.956666
5185.000000;0.967392
5184.000000;0.974175
5183.000000;0.969658
5182.000000;0.959451
5181.000000;0.955170
5180.000000;0.957725
5179.000000;0.958531
5178.000000;0.954168
5177.000000;0.949403
5176.000000;0.947667
5175.000000;0.947955
5174.000000;0.950085
5173.000000;0.956823
5172.000000;0.967913
5171.000000;0.977924
5170.000000;0.982738
5169.000000;0.982712
5168.000000;0.979595
5167.000000;0.975962
5166.000000;0.975841
5165.000000;0.979682
5164.000000;0.980591
5163.000000;0.972654
5162.000000;0.961729
5161.000000;0.958462
5160.000000;0.963711
5159.000000;0.969340
5158.000000;0.971163
5157.000000;0.972829
5156.000000;0.976196
5155.000000;0.976714
5154.000000;0.971082
5153.000000;0.962825
5152.000000;0.956416
5151.000000;0.952969
5150.000000;0.952262
5149.000000;0.953711
5148.000000;0.956050
5147.000000;0.958808
5146.000000;0.962495
5145.000000;0.965505
5144.000000;0.964243
5143.000000;0.959421
5142.000000;0.957834
5141.000000;0.963292
5140.000000;0.970453
5139.000000;0.972443
5138.000000;0.970092
5137.000000;0.967217
5136.000000;0.963850
5135.000000;0.960234
5134.000000;0.961562
5133.000000;0.971635
5132.000000;0.985137
5131.000000;0.993205
5130.000000;0.993905
5129.000000;0.991524
5128.000000;0.988267
5127.000000;0.984207
5126.000000;0.981930
5125.000000;0.983399
5124.000000;0.984603
5123.000000;0.980080
5122.000000;0.971504
5121.000000;0.965302
5120.000000;0.964334
5119.000000;0.967047
5118.000000;0.970877
5117.000000;0.971810
5116.000000;0.965601
5115.000000;0.954751
5114.000000;0.948175
5113.000000;0.950022
5112.000000;0.954788
5111.000000;0.956262
5110.000000;0.956882
5109.000000;0.961599
5108.000000;0.966736
5107.000000;0.965660
5106.000000;0.961462
5105.000000;0.961294
5104.000000;0.963228
5103.000000;0.961048
5102.000000;0.958154
5101.000000;0.963962
5100.000000;0.977595
5099.000000;0.985994
5098.000000;0.981313
5097.000000;0.970857
5096.000000;0.963880
5095.000000;0.961160
5094.000000;0.960758
5093.000000;0.964394
5092.000000;0.972618
5091.000000;0.979885
5090.000000;0.978813
5089.000000;0.967405
5088.000000;0.950098
5087.000000;0.933117
5086.000000;0.921844
5085.000000;0.919822
5084.000000;0.927537
5083.000000;0.942418
5082.000000;0.959871
5081.000000;0.974164
5080.000000;0.980906
5079.000000;0.981198
5078.000000;0.980424
5077.000000;0.980388
5076.000000;0.976466
5075.000000;0.965623
5074.000000;0.952809
5073.000000;0.945222
5072.000000;0.944474
5071.000000;0.947390
5070.000000;0.950740
5069.000000;0.952256
5068.000000;0.950644
5067.000000;0.947698
5066.000000;0.946780
5065.000000;0.947646
5064.000000;0.946591
5063.000000;0.943194
5062.000000;0.942536
5061.000000;0.946952
5060.000000;0.951121
5059.000000;0.950771
5058.000000;0.949683
5057.000000;0.951329
5056.000000;0.950538
5055.000000;0.941594
5054.000000;0.929232
5053.000000;0.922437
5052.000000;0.923602
5051.000000;0.929591
5050.000000;0.937588
5049.000000;0.943656
5048.000000;0.940655
5047.000000;0.926249
5046.000000;0.909333
5045.000000;0.899471
5044.000000;0.895312
5043.000000;0.890936
5042.000000;0.887644
5041.000000;0.890894
5040.000000;0.898705
5039.000000;0.901754
5038.000000;0.895628
5037.000000;0.885657
5036.000000;0.878955
5035.000000;0.878484
5034.000000;0.882980
5033.000000;0.887291
5032.000000;0.884723
5031.000000;0.874373
5030.000000;0.863112
5029.000000;0.856263
5028.000000;0.851142
5027.000000;0.843999
5026.000000;0.837939
5025.000000;0.837605
5024.000000;0.840972
5023.000000;0.842351
5022.000000;0.840935
5021.000000;0.839636
5020.000000;0.837520
5019.000000;0.831976
5018.000000;0.825725
5017.000000;0.823065
5016.000000;0.821807
5015.000000;0.816783
5014.000000;0.808961
5013.000000;0.802686
5012.000000;0.797004
5011.000000;0.788259
5010.000000;0.778560
5009.000000;0.773001
5008.000000;0.771739
5007.000000;0.771212
5006.000000;0.771029
5005.000000;0.773329
5004.000000;0.775646
5003.000000;0.772454
5002.000000;0.764439
5001.000000;0.757725
5000.000000;0.753686
4999.000000;0.747720
4998.000000;0.738322
4997.000000;0.729903
4996.000000;0.724800
4995.000000;0.719992
4994.000000;0.713410
4993.000000;0.707191
4992.000000;0.702606
4991.000000;0.697522
4990.000000;0.690847
4989.000000;0.684690
4988.000000;0.680342
4987.000000;0.676260
4986.000000;0.671411
4985.000000;0.666627
4984.000000;0.661715
4983.000000;0.655217
4982.000000;0.647671
4981.000000;0.641166
4980.000000;0.635244
4979.000000;0.627139
4978.000000;0.616704
4977.000000;0.607079
4976.000000;0.599355
4975.000000;0.591114
4974.000000;0.581231
4973.000000;0.572126
4972.000000;0.565632
4971.000000;0.560086
4970.000000;0.553206
4969.000000;0.545234
4968.000000;0.537436
4967.000000;0.529646
4966.000000;0.521109
4965.000000;0.511838
4964.000000;0.502042
4963.000000;0.491827
4962.000000;0.482187
4961.000000;0.474705
4960.000000;0.469600
4959.000000;0.465130
4958.000000;0.459325
4957.000000;0.451590
4956.000000;0.442929
4955.000000;0.435364
4954.000000;0.430640
4953.000000;0.428181
4952.000000;0.424569
4951.000000;0.416604
4950.000000;0.404716
4949.000000;0.391854
4948.000000;0.380108
4947.000000;0.370249
4946.000000;0.363123
4945.000000;0.358826
4944.000000;0.355083
4943.000000;0.348885
4942.000000;0.340102
4941.000000;0.331357
4940.000000;0.324138
4939.000000;0.317210
4938.000000;0.308893
4937.000000;0.299075
4936.000000;0.288625
4935.000000;0.278319
4934.000000;0.268688
4933.000000;0.259618
4932.000000;0.250100
4931.000000;0.239416
4930.000000;0.228630
4929.000000;0.219737
4928.000000;0.213391
4927.000000;0.208349
4926.000000;0.202794
4925.000000;0.195454
4924.000000;0.186059
4923.000000;0.175822
4922.000000;0.166994
4921.000000;0.160799
4920.000000;0.156173
4919.000000;0.151250
4918.000000;0.145226
4917.000000;0.137985
4916.000000;0.129055
4915.000000;0.118366
4914.000000;0.107220
4913.000000;0.097033
4912.000000;0.087688
4911.000000;0.078338
4910.000000;0.069199
4909.000000;0.061082
4908.000000;0.053734
4907.000000;0.046271
4906.000000;0.038893
4905.000000;0.032439
4904.000000;0.026521
4903.000000;0.019652
4902.000000;0.011199
4901.000000;0.001905
4900.000000;-0.007550
4899.000000;-0.017216
4898.000000;-0.026867
4897.000000;-0.035536
4896.000000;-0.042551
4895.000000;-0.048275
4894.000000;-0.053540
4893.000000;-0.058957
4892.000000;-0.064851
4891.000000;-0.071199
4890.000000;-0.077445
4889.000000;-0.082898
4888.000000;-0.087354
4887.000000;-0.091024
4886.000000;-0.094130
4885.000000;-0.097150
4884.000000;-0.101099
4883.000000;-0.106657
4882.000000;-0.113035
4881.000000;-0.118597
4880.000000;-0.122677
4879.000000;-0.126100
4878.000000;-0.129864
4877.000000;-0.134043
4876.000000;-0.138269
4875.000000;-0.142465
4874.000000;-0.146485
4873.000000;-0.149636
4872.000000;-0.151357
4871.000000;-0.152190
4870.000000;-0.153278
4869.000000;-0.154866
4868.000000;-0.156004
4867.000000;-0.155959
4866.000000;-0.155325
4865.000000;-0.155333
4864.000000;-0.156485
4863.000000;-0.158093
4862.000000;-0.159062
4861.000000;-0.158862
4860.000000;-0.157793
4859.000000;-0.156613
4858.000000;-0.155896
4857.000000;-0.155600
4856.000000;-0.155095
4855.000000;-0.153532
4854.000000;-0.150399
4853.000000;-0.146070
4852.000000;-0.141803
4851.000000;-0.138805
4850.000000;-0.137079
4849.000000;-0.135492
4848.000000;-0.133222
4847.000000;-0.130713
4846.000000;-0.128866
4845.000000;-0.127768
4844.000000;-0.126704
4843.000000;-0.125122
4842.000000;-0.122970
4841.000000;-0.120266
4840.000000;-0.116931
4839.000000;-0.113074
4838.000000;-0.109080
4837.000000;-0.105390
4836.000000;-0.102338
4835.000000;-0.099953
4834.000000;-0.097688
4833.000000;-0.094733
4832.000000;-0.091008
4831.000000;-0.087527
4830.000000;-0.085246
4829.000000;-0.083839
4828.000000;-0.082107
4827.000000;-0.079345
4826.000000;-0.075709
4825.000000;-0.071525
4824.000000;-0.067077
4823.000000;-0.063063
4822.000000;-0.060318
4821.000000;-0.058699
4820.000000;-0.056866
4819.000000;-0.053633
4818.000000;-0.049245
4817.000000;-0.044965
4816.000000;-0.041657
4815.000000;-0.039078
4814.000000;-0.036410
4813.000000;-0.033188
4812.000000;-0.029627
4811.000000;-0.026231
4810.000000;-0.023234
4809.000000;-0.020490
4808.000000;-0.017731
4807.000000;-0.014821
4806.000000;-0.011771
4805.000000;-0.008753
4804.000000;-0.006050
4803.000000;-0.003757
4802.000000;-0.001483
4801.000000;0.001369
4800.000000;0.004925
4799.000000;0.008677
4798.000000;0.012071
4797.000000;0.014948
4796.000000;0.017354
4795.000000;0.019354
4794.000000;0.021268
4793.000000;0.023628
4792.000000;0.026537
4791.000000;0.029414
4790.000000;0.031721
4789.000000;0.033636
4788.000000;0.035637
4787.000000;0.037771
4786.000000;0.039835
4785.000000;0.041998
4784.000000;0.044637
4783.000000;0.047637
4782.000000;0.050387
4781.000000;0.052528
4780.000000;0.054298
4779.000000;0.056106
4778.000000;0.058134
4777.000000;0.060410
4776.000000;0.062895
4775.000000;0.065405
4774.000000;0.067730
4773.000000;0.069926
4772.000000;0.072238
4771.000000;0.074679
4770.000000;0.076941
4769.000000;0.078791
4768.000000;0.080340
4767.000000;0.081806
4766.000000;0.083239
4765.000000;0.084626
4764.000000;0.086129
4763.000000;0.088023
4762.000000;0.090401
4761.000000;0.093016
4760.000000;0.095463
4759.000000;0.097524
4758.000000;0.099316
4757.000000;0.101060
4756.000000;0.102763
4755.000000;0.104296
4754.000000;0.105753
4753.000000;0.107491
4752.000000;0.109643
4751.000000;0.111822
4750.000000;0.113520
4749.000000;0.114723
4748.000000;0.115932
4747.000000;0.117605
4746.000000;0.119715
4745.000000;0.121791
4744.000000;0.123314
4743.000000;0.124210
4742.000000;0.125040
4741.000000;0.126566
4740.000000;0.128935
4739.000000;0.131454
4738.000000;0.133344
4737.000000;0.134581
4736.000000;0.135775
4735.000000;0.137347
4734.000000;0.139139
4733.000000;0.140784
4732.000000;0.142132
4731.000000;0.143268
4730.000000;0.144356
4729.000000;0.145568
4728.000000;0.146988
4727.000000;0.148524
4726.000000;0.150026
4725.000000;0.151499
4724.000000;0.153041
4723.000000;0.154572
4722.000000;0.155837
4721.000000;0.156749
4720.000000;0.157566
4719.000000;0.158606
4718.000000;0.159890
4717.000000;0.161180
4716.000000;0.162306
4715.000000;0.163372
4714.000000;0.164623
4713.000000;0.166174
4712.000000;0.167876
4711.000000;0.169434
4710.000000;0.170672
4709.000000;0.171649
4708.000000;0.172566
4707.000000;0.173610
4706.000000;0.174871
4705.000000;0.176289
4704.000000;0.177621
4703.000000;0.178590
4702.000000;0.179185
4701.000000;0.179748
4700.000000;0.180619
4699.000000;0.181761
4698.000000;0.182853
4697.000000;0.183720
4696.000000;0.184512
4695.000000;0.185469
4694.000000;0.186644
4693.000000;0.187944
4692.000000;0.189298
4691.000000;0.190686
4690.000000;0.192041
4689.000000;0.193205
4688.000000;0.194056
4687.000000;0.194659
4686.000000;0.195247
4685.000000;0.196014
4684.000000;0.196930
4683.000000;0.197804
4682.000000;0.198515
4681.000000;0.199096
4680.000000;0.199637
4679.000000;0.200197
4678.000000;0.200858
4677.000000;0.201725
4676.000000;0.202825
4675.000000;0.204094
4674.000000;0.205485
4673.000000;0.206956
4672.000000;0.208321
4671.000000;0.209296
4670.000000;0.209836
4669.000000;0.210279
4668.000000;0.210985
4667.000000;0.211947
4666.000000;0.212904
4665.000000;0.213740
4664.000000;0.214547
4663.000000;0.215355
4662.000000;0.216049
4661.000000;0.216568
4660.000000;0.217002
4659.000000;0.217449
4658.000000;0.217950
4657.000000;0.218592
4656.000000;0.219497
4655.000000;0.220629
4654.000000;0.221726
4653.000000;0.222544
4652.000000;0.223082
4651.000000;0.223513
4650.000000;0.223984
4649.000000;0.224550
4648.000000;0.225203
4647.000000;0.225889
4646.000000;0.226519
4645.000000;0.227044
4644.000000;0.227482
4643.000000;0.227838
4642.000000;0.228105
4641.000000;0.228401
4640.000000;0.229005
4639.000000;0.230094
4638.000000;0.231451
4637.000000;0.232593
4636.000000;0.233261
4635.000000;0.233670
4634.000000;0.234215
4633.000000;0.235017
4632.000000;0.235873
4631.000000;0.236585
4630.000000;0.237193
4629.000000;0.237836
4628.000000;0.238519
4627.000000;0.239108
4626.000000;0.239515
4625.000000;0.239779
4624.000000;0.239998
4623.000000;0.240274
4622.000000;0.240711
4621.000000;0.241353
4620.000000;0.242102
4619.000000;0.242757
4618.000000;0.243200
4617.000000;0.243493
4616.000000;0.243779
4615.000000;0.244131
4614.000000;0.244552
4613.000000;0.245046
4612.000000;0.245620
4611.000000;0.246219
4610.000000;0.246735
4609.000000;0.247117
4608.000000;0.247432
4607.000000;0.247808
4606.000000;0.248307
4605.000000;0.248890
4604.000000;0.249486
4603.000000;0.250061
4602.000000;0.250618
4601.000000;0.251132
4600.000000;0.251571
4599.000000;0.251975
4598.000000;0.252443
4597.000000;0.252998
4596.000000;0.253531
4595.000000;0.253950
4594.000000;0.254320
4593.000000;0.254767
4592.000000;0.255266
4591.000000;0.255639
4590.000000;0.255781
4589.000000;0.255780
4588.000000;0.255800
4587.000000;0.255926
4586.000000;0.256173
4585.000000;0.256553
4584.000000;0.257044
4583.000000;0.257563
4582.000000;0.258010
4581.000000;0.258351
4580.000000;0.258612
4579.000000;0.258820
4578.000000;0.258967
4577.000000;0.259043
4576.000000;0.259106
4575.000000;0.259308
4574.000000;0.259797
4573.000000;0.260539
4572.000000;0.261275
4571.000000;0.261746
4570.000000;0.261934
4569.000000;0.262019
4568.000000;0.262139
4567.000000;0.262296
4566.000000;0.262480
4565.000000;0.262730
4564.000000;0.263038
4563.000000;0.263306
4562.000000;0.263499
4561.000000;0.263722
4560.000000;0.264078
4559.000000;0.264524
4558.000000;0.264937
4557.000000;0.265248
4556.000000;0.265440
4555.000000;0.265483
4554.000000;0.265397
4553.000000;0.265345
4552.000000;0.265538
4551.000000;0.266004
4550.000000;0.266524
4549.000000;0.266822
4548.000000;0.266827
4547.000000;0.266722
4546.000000;0.266731
4545.000000;0.266897
4544.000000;0.267087
4543.000000;0.267210
4542.000000;0.267356
4541.000000;0.267659
4540.000000;0.268085
4539.000000;0.268453
4538.000000;0.268668
4537.000000;0.268816
4536.000000;0.269011
4535.000000;0.269246
4534.000000;0.269435
4533.000000;0.269547
4532.000000;0.269626
4531.000000;0.269745
4530.000000;0.269941
4529.000000;0.270170
4528.000000;0.270307
4527.000000;0.270269
4526.000000;0.270150
4525.000000;0.270137
4524.000000;0.270293
4523.000000;0.270498
4522.000000;0.270632
4521.000000;0.270711
4520.000000;0.270806
4519.000000;0.270936
4518.000000;0.271105
4517.000000;0.271339
4516.000000;0.271630
4515.000000;0.271907
4514.000000;0.272122
4513.000000;0.272300
4512.000000;0.272436
4511.000000;0.272457
4510.000000;0.272375
4509.000000;0.272370
4508.000000;0.272593
4507.000000;0.272935
4506.000000;0.273132
4505.000000;0.273101
4504.000000;0.273039
4503.000000;0.273161
4502.000000;0.273422
4501.000000;0.273553
4500.000000;0.273357
4499.000000;0.272954
4498.000000;0.272727
4497.000000;0.272992
4496.000000;0.273680
4495.000000;0.274376
4494.000000;0.274695
4493.000000;0.274604
4492.000000;0.274352
4491.000000;0.274172
4490.000000;0.274116
4489.000000;0.274120
4488.000000;0.274104
4487.000000;0.273993
4486.000000;0.273777
4485.000000;0.273607
4484.000000;0.273736
4483.000000;0.274266
4482.000000;0.274982
4481.000000;0.275531
4480.000000;0.275766
4479.000000;0.275826
4478.000000;0.275896
4477.000000;0.275991
4476.000000;0.276045
4475.000000;0.276086
4474.000000;0.276221
4473.000000;0.276472
4472.000000;0.276747
4471.000000;0.276954
4470.000000;0.277047
4469.000000;0.276980
4468.000000;0.276744
4467.000000;0.276457
4466.000000;0.276272
4465.000000;0.276157
4464.000000;0.275921
4463.000000;0.275504
4462.000000;0.275125
4461.000000;0.275049
4460.000000;0.275310
4459.000000;0.275764
4458.000000;0.276252
4457.000000;0.276634
4456.000000;0.276773
4455.000000;0.276654
4454.000000;0.276435
4453.000000;0.276241
4452.000000;0.276032
4451.000000;0.275770
4450.000000;0.275585
4449.000000;0.275617
4448.000000;0.275800
4447.000000;0.275969
4446.000000;0.276088
4445.000000;0.276173
4444.000000;0.276142
4443.000000;0.275955
4442.000000;0.275808
4441.000000;0.275917
4440.000000;0.276152
4439.000000;0.276173
4438.000000;0.275915
4437.000000;0.275675
4436.000000;0.275718
4435.000000;0.276025
4434.000000;0.276439
4433.000000;0.276797
4432.000000;0.276904
4431.000000;0.276659
4430.000000;0.276303
4429.000000;0.276258
4428.000000;0.276613
4427.000000;0.276978
4426.000000;0.276960
4425.000000;0.276586
4424.000000;0.276154
4423.000000;0.275842
4422.000000;0.275605
4421.000000;0.275306
4420.000000;0.274867
4419.000000;0.274370
4418.000000;0.274053
4417.000000;0.274080
4416.000000;0.274313
4415.000000;0.274457
4414.000000;0.274417
4413.000000;0.274320
4412.000000;0.274230
4411.000000;0.274085
4410.000000;0.273893
4409.000000;0.273712
4408.000000;0.273422
4407.000000;0.272847
4406.000000;0.272151
4405.000000;0.271779
4404.000000;0.271859
4403.000000;0.271994
4402.000000;0.271785
4401.000000;0.271287
4400.000000;0.270751
4399.000000;0.270215
4398.000000;0.269613
4397.000000;0.269068
4396.000000;0.268780
4395.000000;0.268722
4394.000000;0.268649
4393.000000;0.268352
4392.000000;0.267811
4391.000000;0.267182
4390.000000;0.266681
4389.000000;0.266311
4388.000000;0.265720
4387.000000;0.264555
4386.000000;0.262990
4385.000000;0.261618
4384.000000;0.260757
4383.000000;0.260198
4382.000000;0.259688
4381.000000;0.259297
4380.000000;0.259152
4379.000000;0.259191
4378.000000;0.259340
4377.000000;0.259548
4376.000000;0.259439
4375.000000;0.258411
4374.000000;0.256422
4373.000000;0.254272
4372.000000;0.252708
4371.000000;0.251626
4370.000000;0.250592
4369.000000;0.249766
4368.000000;0.249673
4367.000000;0.250210
4366.000000;0.250486
4365.000000;0.249684
4364.000000;0.247727
4363.000000;0.245153
4362.000000;0.242761
4361.000000;0.241320
4360.000000;0.241078
4359.000000;0.241427
4358.000000;0.241423
4357.000000;0.240713
4356.000000;0.239651
4355.000000;0.238572
4354.000000;0.237439
4353.000000;0.236305
4352.000000;0.235576
4351.000000;0.235439
4350.000000;0.235329
4349.000000;0.234355
4348.000000;0.232264
4347.000000;0.229753
4346.000000;0.227745
4345.000000;0.226482
4344.000000;0.225477
4343.000000;0.224367
4342.000000;0.223610
4341.000000;0.223926
4340.000000;0.225049
4339.000000;0.225548
4338.000000;0.224361
4337.000000;0.222121
4336.000000;0.220341
4335.000000;0.219468
4334.000000;0.218484
4333.000000;0.216513
4332.000000;0.214020
4331.000000;0.211858
4330.000000;0.209897
4329.000000;0.207423
4328.000000;0.204619
4327.000000;0.202704
4326.000000;0.202337
4325.000000;0.202609
4324.000000;0.202059
4323.000000;0.200286
4322.000000;0.198002
4321.000000;0.195773
4320.000000;0.193471
4319.000000;0.191073
4318.000000;0.189238
4317.000000;0.188503
4316.000000;0.188336
4315.000000;0.187712
4314.000000;0.186497
4313.000000;0.185667
4312.000000;0.186028
4311.000000;0.187166
4310.000000;0.187780
4309.000000;0.186798
4308.000000;0.184140
4307.000000;0.180781
4306.000000;0.178209
4305.000000;0.177555
4304.000000;0.178958
4303.000000;0.181559
4302.000000;0.183899
4301.000000;0.184456
4300.000000;0.182549
4299.000000;0.179244
4298.000000;0.176825
4297.000000;0.176488
4296.000000;0.176711
4295.000000;0.174766
4294.000000;0.170006
4293.000000;0.164892
4292.000000;0.162652
4291.000000;0.164543
4290.000000;0.169342
4289.000000;0.174516
4288.000000;0.177654
4287.000000;0.177804
4286.000000;0.176045
4285.000000;0.174315
4284.000000;0.173625
4283.000000;0.173809
4282.000000;0.174765
4281.000000;0.177113
4280.000000;0.181338
4279.000000;0.186911
4278.000000;0.192693
4277.000000;0.197861
4276.000000;0.202360
4275.000000;0.206894
4274.000000;0.212352
4273.000000;0.218492
4272.000000;0.223630
4271.000000;0.226666
4270.000000;0.228713
4269.000000;0.231301
4268.000000;0.233827
4267.000000;0.234779
4266.000000;0.235225
4265.000000;0.238612
4264.000000;0.246604
4263.000000;0.257062
4262.000000;0.266797
4261.000000;0.274811
4260.000000;0.281733
4259.000000;0.288070
4258.000000;0.294948
4257.000000;0.304762
4256.000000;0.318522
4255.000000;0.332930
4254.000000;0.342284
4253.000000;0.344249
4252.000000;0.342607
4251.000000;0.343418
4250.000000;0.349765
4249.000000;0.360426
4248.000000;0.372320
4247.000000;0.384016
4246.000000;0.396624
4245.000000;0.411184
4244.000000;0.426192
4243.000000;0.439212
4242.000000;0.450492
4241.000000;0.462171
4240.000000;0.473977
4239.000000;0.482830
4238.000000;0.487865
4237.000000;0.493076
4236.000000;0.502659
4235.000000;0.516164
4234.000000;0.529856
4233.000000;0.541478
4232.000000;0.551541
4231.000000;0.560577
4230.000000;0.568209
4229.000000;0.575187
4228.000000;0.583561
4227.000000;0.593279
4226.000000;0.600210
4225.000000;0.600423
4224.000000;0.597071
4223.000000;0.599776
4222.000000;0.615570
4221.000000;0.641583
4220.000000;0.667217
4219.000000;0.684589
4218.000000;0.694598
4217.000000;0.701628
4216.000000;0.707873
4215.000000;0.714430
4214.000000;0.723147
4213.000000;0.733551
4212.000000;0.741505
4211.000000;0.745314
4210.000000;0.750296
4209.000000;0.762240
4208.000000;0.779148
4207.000000;0.795057
4206.000000;0.809778
4205.000000;0.827039
4204.000000;0.846127
4203.000000;0.862374
4202.000000;0.874118
4201.000000;0.883620
4200.000000;0.891332
4199.000000;0.896584
4198.000000;0.902255
4197.000000;0.910634
4196.000000;0.917442
4195.000000;0.918170
4194.000000;0.919894
4193.000000;0.934132
4192.000000;0.958625
4191.000000;0.977982
4190.000000;0.987666
4189.000000;0.999304
4188.000000;1.018135
4187.000000;1.036435
4186.000000;1.047609
4185.000000;1.057684
4184.000000;1.072588
4183.000000;1.083284
4182.000000;1.082694
4181.000000;1.084493
4180.000000;1.103554
4179.000000;1.136916
4178.000000;1.165988
4177.000000;1.179443
4176.000000;1.188157
4175.000000;1.201573
4174.000000;1.213946
4173.000000;1.217195
4172.000000;1.212293
4171.000000;1.205942
4170.000000;1.204272
4169.000000;1.211038
4168.000000;1.224763
4167.000000;1.234632
4166.000000;1.228888
4165.000000;1.212979
4164.000000;1.205214
4163.000000;1.219878
4162.000000;1.259574
4161.000000;1.311019
4160.000000;1.350050
4159.000000;1.366114
4158.000000;1.376761
4157.000000;1.399069
4156.000000;1.413725
4155.000000;1.391575
4154.000000;1.354838
4153.000000;1.339492
4152.000000;1.346168
4151.000000;1.349476
4150.000000;1.333450
4149.000000;1.313167
4148.000000;1.310371
4147.000000;1.329964
4146.000000;1.362640
4145.000000;1.395049
4144.000000;1.421000
4143.000000;1.433327
4142.000000;1.422528
4141.000000;1.410408
4140.000000;1.424175
4139.000000;1.461363
4138.000000;1.499595
4137.000000;1.524617
4136.000000;1.547074
4135.000000;1.585736
4134.000000;1.643611
4133.000000;1.701757
4132.000000;1.723805
4131.000000;1.669606
4130.000000;1.570039
4129.000000;1.498789
4128.000000;1.490405
4127.000000;1.549231
4126.000000;1.663160
4125.000000;1.799187
4124.000000;1.902235
4123.000000;1.940709
4122.000000;1.923101
4121.000000;1.835956
4120.000000;1.715080
4119.000000;1.637254
4118.000000;1.635011
4117.000000;1.717271
4116.000000;1.897599
4115.000000;2.216810
4114.000000;2.288943
4113.000000;1.897209
4112.000000;1.683179
4111.000000;1.601127
4110.000000;1.624407
4109.000000;1.684441
4108.000000;1.686313
4107.000000;1.613375
4106.000000;1.545847
4105.000000;1.537722
4104.000000;1.594186
4103.000000;1.683325
4102.000000;1.739765
4101.000000;1.738797
4100.000000;1.722542
4099.000000;1.704628
4098.000000;1.699483
4097.000000;1.731180
4096.000000;1.808295
4095.000000;1.929484
4094.000000;2.033560
4093.000000;2.089769
4092.000000;2.145929
4091.000000;2.134581
4090.000000;2.009961
4089.000000;1.905509
4088.000000;1.856711
4087.000000;1.816325
4086.000000;1.765207
4085.000000;1.741438
4084.000000;1.757068
4083.000000;1.769768
4082.000000;1.722425
4081.000000;1.643827
4080.000000;1.609190
4079.000000;1.646473
4078.000000;1.733264
4077.000000;1.806102
4076.000000;1.824338
4075.000000;1.808043
4074.000000;1.795065
4073.000000;1.815845
4072.000000;1.882812
4071.000000;1.993229
4070.000000;2.147028
4069.000000;2.193594
4068.000000;1.999148
4067.000000;1.837892
4066.000000;1.772163
4065.000000;1.777993
4064.000000;1.825954
4063.000000;1.887369
4062.000000;1.953428
4061.000000;2.014206
4060.000000;2.045546
4059.000000;2.062728
4058.000000;2.148181
4057.000000;2.305999
4056.000000;2.195531
4055.000000;2.015275
4054.000000;1.962686
4053.000000;1.959555
4052.000000;1.930233
4051.000000;1.864942
4050.000000;1.800571
4049.000000;1.771157
4048.000000;1.799376
4047.000000;1.883433
4046.000000;2.021160
4045.000000;2.157034
4044.000000;2.084123
4043.000000;1.944073
4042.000000;1.898317
4041.000000;1.957583
4040.000000;2.118964
4039.000000;2.230131
4038.000000;2.176133
4037.000000;2.130584
4036.000000;2.040064
4035.000000;1.946714
4034.000000;1.940887
4033.000000;2.027717
4032.000000;2.141708
4031.000000;2.132946
4030.000000;2.047078
4029.000000;2.047480
4028.000000;2.191706
4027.000000;2.572300
4026.000000;2.863616
4025.000000;2.596346
4024.000000;2.528273
4023.000000;2.502200
4022.000000;2.466211
4021.000000;2.602558
4020.000000;2.439765
4019.000000;2.082030
4018.000000;1.977144
4017.000000;2.052000
4016.000000;2.234736
4015.000000;2.265984
4014.000000;2.201795
4013.000000;2.188572
4012.000000;2.232066
4011.000000;2.382100
4010.000000;2.473287
4009.000000;2.171789
4008.000000;2.054408
4007.000000;2.103598
4006.000000;2.067281
4005.000000;1.970860
4004.000000;1.978220
4003.000000;2.028524
4002.000000;2.071180
4001.000000;2.099531
4000.000000;2.283688
3999.000000;2.526406
3998.000000;2.163931
3997.000000;1.979052
3996.000000;1.919536
3995.000000;1.899009
3994.000000;1.893706
3993.000000;1.911943
3992.000000;1.968458
3991.000000;2.088546
3990.000000;2.255962
3989.000000;2.342756
3988.000000;2.411368
3987.000000;2.460598
3986.000000;2.341046
3985.000000;2.220821
3984.000000;2.177396
3983.000000;2.226115
3982.000000;2.359773
3981.000000;2.354694
3980.000000;2.184666
3979.000000;1.979474
3978.000000;1.868477
3977.000000;1.949883
3976.000000;2.362102
3975.000000;2.279005
3974.000000;1.898943
3973.000000;1.842425
3972.000000;1.919716
3971.000000;2.054781
3970.000000;2.032186
3969.000000;1.968169
3968.000000;1.927437
3967.000000;1.961220
3966.000000;2.315546
3965.000000;2.524990
3964.000000;2.432822
3963.000000;2.601641
3962.000000;2.376420
3961.000000;2.521989
3960.000000;2.602071
3959.000000;2.378399
3958.000000;2.513671
3957.000000;3.055502
3956.000000;2.551180
3955.000000;2.397543
3954.000000;2.342348
3953.000000;2.381384
3952.000000;2.580625
3951.000000;2.507902
3950.000000;2.302002
3949.000000;2.202719
3948.000000;2.190021
3947.000000;2.346457
3946.000000;2.636575
3945.000000;2.710947
3944.000000;2.452236
3943.000000;2.346615
3942.000000;2.337892
3941.000000;2.220259
3940.000000;2.031455
3939.000000;1.884217
3938.000000;1.820598
3937.000000;1.849470
3936.000000;1.915861
3935.000000;1.937162
3934.000000;1.895778
3933.000000;1.847304
3932.000000;1.876767
3931.000000;2.041091
3930.000000;2.514449
3929.000000;2.729299
3928.000000;2.396202
3927.000000;2.310658
3926.000000;2.139164
3925.000000;1.986502
3924.000000;1.926052
3923.000000;1.959590
3922.000000;2.022147
3921.000000;2.051401
3920.000000;2.099542
3919.000000;2.324924
3918.000000;2.609055
3917.000000;2.329282
3916.000000;2.212413
3915.000000;2.230200
3914.000000;2.145878
3913.000000;1.940080
3912.000000;1.774928
3911.000000;1.707277
3910.000000;1.765254
3909.000000;1.948008
3908.000000;2.337003
3907.000000;2.281812
3906.000000;1.982457
3905.000000;1.844494
3904.000000;1.865533
3903.000000;2.039493
3902.000000;2.234340
3901.000000;2.250467
3900.000000;2.135789
3899.000000;2.068369
3898.000000;2.116915
3897.000000;2.273018
3896.000000;2.373385
3895.000000;2.217488
3894.000000;2.081672
3893.000000;2.035773
3892.000000;2.081134
3891.000000;2.227471
3890.000000;2.460680
3889.000000;2.742173
3888.000000;2.995528
3887.000000;2.848994
3886.000000;2.816525
3885.000000;2.910276
3884.000000;2.492110
3883.000000;2.329077
3882.000000;2.150740
3881.000000;1.981115
3880.000000;2.003516
3879.000000;2.283126
3878.000000;2.490661
3877.000000;2.352795
3876.000000;2.112302
3875.000000;1.905301
3874.000000;1.898182
3873.000000;2.117140
3872.000000;2.409604
3871.000000;2.376872
3870.000000;2.079264
3869.000000;2.082031
3868.000000;2.317162
3867.000000;2.661290
3866.000000;3.039187
3865.000000;2.291887
3864.000000;2.089901
3863.000000;2.176706
3862.000000;2.387887
3861.000000;2.487033
3860.000000;2.563061
3859.000000;2.563428
3858.000000;2.569107
3857.000000;2.676806
3856.000000;2.736480
3855.000000;2.699654
3854.000000;3.131397
3853.000000;2.888313
3852.000000;2.721109
3851.000000;2.729551
3850.000000;2.611354
3849.000000;2.455728
3848.000000;2.329217
3847.000000;2.273062
3846.000000;2.336833
3845.000000;2.358124
3844.000000;2.181892
3843.000000;2.195705
3842.000000;2.487916
3841.000000;2.940354
3840.000000;2.718286
3839.000000;2.541832
3838.000000;2.438051
3837.000000;2.373615
3836.000000;2.331043
3835.000000;2.283156
3834.000000;2.218764
3833.000000;2.139984
3832.000000;2.101338
3831.000000;2.196597
3830.000000;2.543170
3829.000000;2.556325
3828.000000;2.296738
3827.000000;2.250436
3826.000000;2.747313
3825.000000;2.849913
3824.000000;2.804105
3823.000000;2.897735
3822.000000;2.577995
3821.000000;2.357901
3820.000000;2.484224
3819.000000;2.625147
3818.000000;2.566824
3817.000000;2.351073
3816.000000;2.129973
3815.000000;2.113025
3814.000000;2.216406
3813.000000;2.231678
3812.000000;2.133953
3811.000000;2.076471
3810.000000;2.115484
3809.000000;2.097120
3808.000000;1.940203
3807.000000;1.845050
3806.000000;2.004824
3805.000000;2.364386
3804.000000;2.830725
3803.000000;3.105879
3802.000000;2.498312
3801.000000;2.327330
3800.000000;2.410996
3799.000000;2.460855
3798.000000;2.345418
3797.000000;2.171693
3796.000000;2.143236
3795.000000;2.200160
3794.000000;2.143772
3793.000000;2.125291
3792.000000;2.279653
3791.000000;2.630930
3790.000000;2.152081
3789.000000;2.054809
3788.000000;2.117584
3787.000000;2.281942
3786.000000;2.241101
3785.000000;2.018361
3784.000000;1.982441
3783.000000;2.113139
3782.000000;2.417657
3781.000000;2.657904
3780.000000;2.077891
3779.000000;1.824857
3778.000000;1.877263
3777.000000;2.032464
3776.000000;2.144264
3775.000000;2.215847
3774.000000;2.389341
3773.000000;2.506567
3772.000000;2.356952
3771.000000;2.317542
3770.000000;2.448465
3769.000000;2.491918
3768.000000;2.501532
3767.000000;2.416327
3766.000000;2.327914
3765.000000;2.324593
3764.000000;2.314356
3763.000000;2.255075
3762.000000;2.187028
3761.000000;2.136362
3760.000000;2.178084
3759.000000;2.275957
3758.000000;2.252860
3757.000000;2.192312
3756.000000;2.255940
3755.000000;2.431523
3754.000000;2.624567
3753.000000;2.843646
3752.000000;3.374018
3751.000000;3.555223
3750.000000;3.154804
3749.000000;3.080889
3748.000000;3.196692
3747.000000;3.292122
3746.000000;3.169314
3745.000000;2.916153
3744.000000;2.820410
3743.000000;2.785677
3742.000000;2.775818
3741.000000;2.611596
3740.000000;2.397799
3739.000000;2.225398
3738.000000;2.125849
3737.000000;2.098230
3736.000000;2.242187
3735.000000;2.600001
3734.000000;2.598108
3733.000000;2.504536
3732.000000;2.750747
3731.000000;3.067492
3730.000000;2.462347
3729.000000;2.323752
3728.000000;2.266062
3727.000000;2.350828
3726.000000;2.512244
3725.000000;2.933206
3724.000000;2.535426
3723.000000;2.196307
3722.000000;2.125168
3721.000000;2.152407
3720.000000;2.185044
3719.000000;2.183654
3718.000000;2.141216
3717.000000;2.078150
3716.000000;2.092755
3715.000000;2.156732
3714.000000;2.176065
3713.000000;2.107781
3712.000000;2.027816
3711.000000;2.044641
3710.000000;2.197621
3709.000000;2.503923
3708.000000;3.023320
3707.000000;2.783052
3706.000000;2.459130
3705.000000;2.277880
3704.000000;2.150881
3703.000000;2.066654
3702.000000;2.054521
3701.000000;2.224781
3700.000000;2.472320
3699.000000;2.370797
3698.000000;2.225811
3697.000000;2.158486
3696.000000;2.095370
3695.000000;2.053262
3694.000000;2.071487
3693.000000;2.118493
3692.000000;2.224860
3691.000000;2.484445
3690.000000;2.921162
3689.000000;2.770915
3688.000000;2.714171
3687.000000;2.748301
3686.000000;2.722685
3685.000000;2.594381
3684.000000;2.458385
3683.000000;2.273845
3682.000000;2.159673
3681.000000;2.244218
3680.000000;2.201407
3679.000000;2.137620
3678.000000;2.297151
3677.000000;2.520391
3676.000000;2.590357
3675.000000;2.682584
3674.000000;2.859177
3673.000000;2.932951
3672.000000;2.887547
3671.000000;2.737592
3670.000000;2.713443
3669.000000;3.026055
3668.000000;2.917287
3667.000000;2.444158
3666.000000;2.117696
3665.000000;1.944545
3664.000000;1.955923
3663.000000;2.151382
3662.000000;2.466066
3661.000000;2.720155
3660.000000;2.888001
3659.000000;2.693942
3658.000000;2.339441
3657.000000;2.110179
3656.000000;2.159167
3655.000000;2.603144
3654.000000;2.787234
3653.000000;2.561694
3652.000000;2.454083
3651.000000;2.492366
3650.000000;2.670089
3649.000000;2.595423
3648.000000;2.462980
3647.000000;2.324382
3646.000000;2.325061
3645.000000;2.716270
3644.000000;2.927305
3643.000000;2.396459
3642.000000;2.606418
3641.000000;2.760539
3640.000000;2.257227
3639.000000;2.059457
3638.000000;2.075181
3637.000000;2.101150
3636.000000;2.005420
3635.000000;1.917774
3634.000000;1.918463
3633.000000;2.072122
3632.000000;2.339095
3631.000000;2.553345
3630.000000;2.498199
3629.000000;2.361393
3628.000000;2.564989
3627.000000;3.103166
3626.000000;2.918929
3625.000000;2.682980
3624.000000;2.640842
3623.000000;2.466278
3622.000000;2.227147
3621.000000;2.066996
3620.000000;2.032469
3619.000000;2.183311
3618.000000;2.378269
3617.000000;2.287284
3616.000000;2.109779
3615.000000;1.967552
3614.000000;1.915933
3613.000000;2.031960
3612.000000;2.302485
3611.000000;2.255458
3610.000000;2.101249
3609.000000;2.071232
3608.000000;2.235171
3607.000000;2.152650
3606.000000;2.097344
3605.000000;2.239510
3604.000000;2.395846
3603.000000;2.660993
3602.000000;2.390189
3601.000000;1.983251
3600.000000;1.859730
3599.000000;1.831592
3598.000000;1.936198
3597.000000;2.195116
3596.000000;2.319416
3595.000000;2.120899
3594.000000;2.014797
3593.000000;2.066220
3592.000000;2.528643
3591.000000;2.719865
3590.000000;2.388105
3589.000000;2.414950
3588.000000;2.772672
3587.000000;3.002504
3586.000000;2.999754
3585.000000;2.938521
3584.000000;2.428613
3583.000000;2.076940
3582.000000;1.873169
3581.000000;1.824439
3580.000000;1.937566
3579.000000;2.124498
3578.000000;2.012272
3577.000000;1.917486
3576.000000;1.972051
3575.000000;2.216715
3574.000000;2.624444
3573.000000;2.248224
3572.000000;2.083671
3571.000000;2.063406
3570.000000;2.093545
3569.000000;2.111055
3568.000000;2.142016
3567.000000;2.073442
3566.000000;2.018870
3565.000000;2.106476
3564.000000;2.185473
3563.000000;2.197271
3562.000000;2.340137
3561.000000;2.408514
3560.000000;2.266639
3559.000000;2.285245
3558.000000;2.337088
3557.000000;2.283368
3556.000000;2.179773
3555.000000;2.135653
3554.000000;2.224195
3553.000000;2.502410
3552.000000;2.184467
3551.000000;2.089082
3550.000000;2.207604
3549.000000;2.416425
3548.000000;2.723571
3547.000000;3.610830
3546.000000;2.385222
3545.000000;2.163802
3544.000000;2.058910
3543.000000;2.019674
3542.000000;1.966988
3541.000000;1.906051
3540.000000;1.880154
3539.000000;1.890942
3538.000000;1.892235
3537.000000;1.900888
3536.000000;1.904420
3535.000000;1.870995
3534.000000;1.889863
3533.000000;2.008980
3532.000000;2.235848
3531.000000;2.456608
3530.000000;2.298058
3529.000000;2.127076
3528.000000;2.110062
3527.000000;2.228500
3526.000000;2.328450
3525.000000;2.311866
3524.000000;2.275599
3523.000000;2.359467
3522.000000;2.377649
3521.000000;2.066103
3520.000000;1.926048
3519.000000;1.919211
3518.000000;2.006263
3517.000000;2.103180
3516.000000;2.162851
3515.000000;2.344032
3514.000000;2.579164
3513.000000;2.259370
3512.000000;2.058104
3511.000000;2.036689
3510.000000;2.103656
3509.000000;2.054020
3508.000000;1.963712
3507.000000;1.940856
3506.000000;1.965985
3505.000000;2.057737
3504.000000;2.408881
3503.000000;2.314623
3502.000000;2.080301
3501.000000;2.058038
3500.000000;2.131028
3499.000000;2.279471
3498.000000;2.405694
3497.000000;2.293026
3496.000000;2.077241
3495.000000;1.923838
3494.000000;1.863697
3493.000000;1.857989
3492.000000;1.866761
3491.000000;1.907081
3490.000000;2.010706
3489.000000;2.361126
3488.000000;2.552529
3487.000000;2.098931
3486.000000;2.061534
3485.000000;2.121405
3484.000000;2.238074
3483.000000;2.271268
3482.000000;2.251892
3481.000000;2.166661
3480.000000;2.047722
3479.000000;2.016789
3478.000000;2.095935
3477.000000;2.210391
3476.000000;2.099045
3475.000000;1.976698
3474.000000;1.927487
3473.000000;1.887953
3472.000000;1.866605
3471.000000;1.871291
3470.000000;1.857635
3469.000000;1.797766
3468.000000;1.727591
3467.000000;1.693074
3466.000000;1.715907
3465.000000;1.781251
3464.000000;1.869901
3463.000000;1.988774
3462.000000;2.109593
3461.000000;2.392138
3460.000000;2.392256
3459.000000;2.049988
3458.000000;1.890364
3457.000000;1.820201
3456.000000;1.873095
3455.000000;2.438796
3454.000000;2.273692
3453.000000;1.849993
3452.000000;1.800301
3451.000000;1.899628
3450.000000;1.959981
3449.000000;1.711094
3448.000000;1.568284
3447.000000;1.582093
3446.000000;1.718092
3445.000000;1.800952
3444.000000;1.728480
3443.000000;1.732894
3442.000000;1.902709
3441.000000;2.047062
3440.000000;2.081438
3439.000000;2.445457
3438.000000;2.407980
3437.000000;2.116597
3436.000000;1.853626
3435.000000;1.697619
3434.000000;1.668186
3433.000000;1.610888
3432.000000;1.499189
3431.000000;1.425205
3430.000000;1.412956
3429.000000;1.457473
3428.000000;1.565835
3427.000000;1.795052
3426.000000;2.276674
3425.000000;1.807696
3424.000000;1.581437
3423.000000;1.642103
3422.000000;2.032266
3421.000000;2.182273
3420.000000;1.904589
3419.000000;1.807212
3418.000000;1.766284
3417.000000;1.768873
3416.000000;1.776225
3415.000000;1.732144
3414.000000;1.615088
3413.000000;1.537318
3412.000000;1.641536
3411.000000;2.076149
3410.000000;1.886977
3409.000000;1.630116
3408.000000;1.689147
3407.000000;1.846788
3406.000000;2.034364
3405.000000;2.537201
3404.000000;2.520777
3403.000000;2.082540
3402.000000;2.004823
3401.000000;1.947063
3400.000000;1.805391
3399.000000;1.699920
3398.000000;1.702717
3397.000000;2.359753
3396.000000;2.005557
3395.000000;1.658884
3394.000000;1.647899
3393.000000;1.774721
3392.000000;2.066451
3391.000000;2.546379
3390.000000;2.096574
3389.000000;1.827213
3388.000000;1.578835
3387.000000;1.423500
3386.000000;1.410775
3385.000000;1.559493
3384.000000;1.847386
3383.000000;1.968737
3382.000000;1.773450
3381.000000;1.653015
3380.000000;1.828262
3379.000000;2.062490
3378.000000;1.719518
3377.000000;1.599211
3376.000000;1.635836
3375.000000;1.763929
3374.000000;1.904604
3373.000000;2.005531
3372.000000;1.813586
3371.000000;1.560571
3370.000000;1.420587
3369.000000;1.361256
3368.000000;1.350860
3367.000000;1.396210
3366.000000;1.530877
3365.000000;1.949842
3364.000000;1.983654
3363.000000;1.604961
3362.000000;1.484260
3361.000000;1.466957
3360.000000;1.558062
3359.000000;1.834102
3358.000000;2.130685
3357.000000;1.800228
3356.000000;1.681246
3355.000000;1.696165
3354.000000;1.808730
3353.000000;1.786581
3352.000000;1.680083
3351.000000;1.645096
3350.000000;1.626356
3349.000000;1.599848
3348.000000;1.607888
3347.000000;1.834847
3346.000000;2.045099
3345.000000;1.698848
3344.000000;1.553297
3343.000000;1.564312
3342.000000;1.627061
3341.000000;1.691895
3340.000000;1.704298
3339.000000;1.757602
3338.000000;1.974393
3337.000000;2.596753
3336.000000;2.117582
3335.000000;2.088549
3334.000000;2.522778
3333.000000;2.347363
3332.000000;2.027086
3331.000000;1.869187
3330.000000;1.763254
3329.000000;1.764731
3328.000000;1.976435
3327.000000;2.306181
3326.000000;1.992635
3325.000000;1.779066
3324.000000;1.633662
3323.000000;1.580218
3322.000000;1.647547
3321.000000;2.027560
3320.000000;1.898593
3319.000000;1.603863
3318.000000;1.613508
3317.000000;1.860401
3316.000000;1.852121
3315.000000;1.609005
3314.000000;1.535841
3313.000000;1.570852
3312.000000;1.676522
3311.000000;1.793597
3310.000000;1.821002
3309.000000;1.745765
3308.000000;1.712740
3307.000000;1.858773
3306.000000;2.387059
3305.000000;2.269371
3304.000000;2.180584
3303.000000;2.613428
3302.000000;2.850653
3301.000000;2.572947
3300.000000;2.330711
3299.000000;1.996550
3298.000000;1.879096
3297.000000;1.802126
3296.000000;1.754186
3295.000000;1.792545
3294.000000;1.923298
3293.000000;2.466255
3292.000000;1.965926
3291.000000;1.615935
3290.000000;1.527794
3289.000000;1.477947
3288.000000;1.458018
3287.000000;1.499959
3286.000000;1.658723
3285.000000;2.029253
3284.000000;2.274967
3283.000000;2.002620
3282.000000;1.917948
3281.000000;1.931660
3280.000000;2.147730
3279.000000;2.218368
3278.000000;1.775886
3277.000000;1.662039
3276.000000;1.667015
3275.000000;1.719951
3274.000000;1.740095
3273.000000;1.697599
3272.000000;1.660388
3271.000000;1.749808
3270.000000;1.959038
3269.000000;2.080858
3268.000000;2.104463
3267.000000;1.786701
3266.000000;1.557100
3265.000000;1.493396
3264.000000;1.472949
3263.000000;1.496125
3262.000000;1.610521
3261.000000;1.839084
3260.000000;2.106753
3259.000000;2.284589
3258.000000;2.046428
3257.000000;1.866462
3256.000000;1.808728
3255.000000;1.751886
3254.000000;1.688859
3253.000000;1.696861
3252.000000;1.763213
3251.000000;1.854062
3250.000000;1.990256
3249.000000;2.401253
3248.000000;2.991640
3247.000000;2.138002
3246.000000;1.978809
3245.000000;1.870001
3244.000000;1.891818
3243.000000;1.944159
3242.000000;1.838788
3241.000000;1.719536
3240.000000;1.720063
3239.000000;1.854853
3238.000000;2.067492
3237.000000;1.934096
3236.000000;1.818355
3235.000000;1.862585
3234.000000;1.957450
3233.000000;2.065842
3232.000000;2.181867
3231.000000;2.335842
3230.000000;2.046939
3229.000000;1.734176
3228.000000;1.609052
3227.000000;1.649734
3226.000000;1.797345
3225.000000;1.860802
3224.000000;1.734296
3223.000000;1.620509
3222.000000;1.707207
3221.000000;2.013740
3220.000000;2.012819
3219.000000;2.036593
3218.000000;1.934712
3217.000000;1.600106
3216.000000;1.480268
3215.000000;1.483489
3214.000000;1.481225
3213.000000;1.381594
3212.000000;1.312455
3211.000000;1.273642
3210.000000;1.219691
3209.000000;1.168713
3208.000000;1.157960
3207.000000;1.198208
3206.000000;1.272199
3205.000000;1.396782
3204.000000;1.719884
3203.000000;2.082641
3202.000000;1.585298
3201.000000;1.496928
3200.000000;1.533192
3199.000000;1.540058
3198.000000;1.472568
3197.000000;1.436017
3196.000000;1.450282
3195.000000;1.452496
3194.000000;1.481335
3193.000000;1.584979
3192.000000;1.535404
3191.000000;1.395459
3190.000000;1.347485
3189.000000;1.333455
3188.000000;1.352243
3187.000000;1.458152
3186.000000;1.663324
3185.000000;2.057063
3184.000000;2.353099
3183.000000;1.922847
3182.000000;1.715534
3181.000000;1.614096
3180.000000;1.590768
3179.000000;1.679268
3178.000000;1.825190
3177.000000;1.766379
3176.000000;1.660330
3175.000000;1.612718
3174.000000;1.576174
3173.000000;1.557471
3172.000000;1.581247
3171.000000;1.700029
3170.000000;1.982125
3169.000000;2.359616
3168.000000;2.312566
3167.000000;2.347204
3166.000000;2.319386
3165.000000;1.824686
3164.000000;1.621267
3163.000000;1.549977
3162.000000;1.561643
3161.000000;1.608776
3160.000000;1.743375
3159.000000;2.067376
3158.000000;2.306325
3157.000000;2.092128
3156.000000;1.725092
3155.000000;1.600526
3154.000000;1.727097
3153.000000;2.239672
3152.000000;2.022204
3151.000000;1.847364
3150.000000;1.839037
3149.000000;1.833495
3148.000000;1.794532
3147.000000;1.741250
3146.000000;1.769179
3145.000000;1.927980
3144.000000;2.127912
3143.000000;1.978040
3142.000000;1.694737
3141.000000;1.566788
3140.000000;1.590514
3139.000000;1.760709
3138.000000;1.947625
3137.000000;1.951159
3136.000000;2.035567
3135.000000;2.191593
3134.000000;2.177862
3133.000000;2.418661
3132.000000;2.653279
3131.000000;2.078220
3130.000000;1.820131
3129.000000;1.731837
3128.000000;1.732988
3127.000000;1.787947
3126.000000;1.853872
3125.000000;1.849402
3124.000000;1.780857
3123.000000;1.743391
3122.000000;1.739325
3121.000000;1.710779
3120.000000;1.647287
3119.000000;1.583358
3118.000000;1.509053
3117.000000;1.424068
3116.000000;1.374569
3115.000000;1.390136
3114.000000;1.456375
3113.000000;1.487689
3112.000000;1.478017
3111.000000;1.509061
3110.000000;1.587335
3109.000000;1.705948
3108.000000;1.824487
3107.000000;1.919554
3106.000000;2.080757
3105.000000;2.745592
3104.000000;2.428178
3103.000000;2.060416
3102.000000;1.935933
3101.000000;1.807766
3100.000000;1.777926
3099.000000;1.829500
3098.000000;1.854859
3097.000000;1.864119
3096.000000;1.978517
3095.000000;2.323311
3094.000000;2.186396
3093.000000;1.856429
3092.000000;1.677526
3091.000000;1.615430
3090.000000;1.683968
3089.000000;1.957724
3088.000000;2.581025
3087.000000;2.608235
3086.000000;2.471293
3085.000000;2.168555
3084.000000;2.121622
3083.000000;2.077940
3082.000000;1.939082
3081.000000;1.838138
3080.000000;1.826611
3079.000000;1.913919
3078.000000;2.372335
3077.000000;2.515866
3076.000000;2.009310
3075.000000;1.859223
3074.000000;1.841994
3073.000000;1.922191
3072.000000;2.037640
3071.000000;1.971471
3070.000000;1.807520
3069.000000;1.686144
3068.000000;1.594537
3067.000000;1.523581
3066.000000;1.484648
3065.000000;1.483332
3064.000000;1.500420
3063.000000;1.509655
3062.000000;1.510067
3061.000000;1.525767
3060.000000;1.586465
3059.000000;1.700594
3058.000000;1.782274
3057.000000;1.754471
3056.000000;1.746355
3055.000000;1.833536
3054.000000;2.006119
3053.000000;2.061155
3052.000000;1.912902
3051.000000;1.763146
3050.000000;1.680512
3049.000000;1.696103
3048.000000;1.812813
3047.000000;1.894691
3046.000000;1.937059
3045.000000;2.107495
3044.000000;2.960830
3043.000000;2.137357
3042.000000;1.873888
3041.000000;1.762459
3040.000000;1.709369
3039.000000;1.698393
3038.000000;1.679240
3037.000000;1.655853
3036.000000;1.678578
3035.000000;1.736126
3034.000000;1.779064
3033.000000;1.793980
3032.000000;1.793649
3031.000000;1.755377
3030.000000;1.681116
3029.000000;1.626173
3028.000000;1.603847
3027.000000;1.564192
3026.000000;1.509713
3025.000000;1.483702
3024.000000;1.530112
3023.000000;1.686096
3022.000000;2.109341
3021.000000;1.944770
3020.000000;1.697289
3019.000000;1.659898
3018.000000;1.719807
3017.000000;1.896146
3016.000000;2.177483
3015.000000;2.216499
3014.000000;2.078647
3013.000000;1.954348
3012.000000;1.899376
3011.000000;1.987464
3010.000000;2.161014
3009.000000;2.056882
3008.000000;1.939532
3007.000000;1.958424
3006.000000;2.045657
3005.000000;2.137859
3004.000000;2.340175
3003.000000;2.466967
3002.000000;2.239683
3001.000000;2.115308
3000.000000;2.047980
2999.000000;2.010315
2998.000000;1.982150
2997.000000;1.901524
2996.000000;1.781889
2995.000000;1.711562
2994.000000;1.727208
2993.000000;1.834025
2992.000000;2.018041
2991.000000;2.241821
2990.000000;2.473798
2989.000000;2.772482
2988.000000;2.578929
2987.000000;2.354540
2986.000000;2.161164
2985.000000;2.102224
2984.000000;2.116675
2983.000000;2.114249
2982.000000;2.128830
2981.000000;1.880207
2980.000000;1.694172
2979.000000;1.674636
2978.000000;1.806452
2977.000000;1.962418
2976.000000;1.887087
2975.000000;1.791424
2974.000000;1.739643
2973.000000;1.651850
2972.000000;1.564093
2971.000000;1.542368
2970.000000;1.582248
2969.000000;1.601421
2968.000000;1.547143
2967.000000;1.491875
2966.000000;1.517191
2965.000000;1.664600
2964.000000;1.900493
2963.000000;1.948516
2962.000000;1.882305
2961.000000;1.866218
2960.000000;1.898108
2959.000000;1.927989
2958.000000;1.958117
2957.000000;2.134128
2956.000000;2.513560
2955.000000;1.986745
2954.000000;1.824000
2953.000000;1.784362
2952.000000;1.773816
2951.000000;1.745412
2950.000000;1.739329
2949.000000;1.748393
2948.000000;1.719425
2947.000000;1.676822
2946.000000;1.653179
2945.000000;1.653135
2944.000000;1.707466
2943.000000;1.827350
2942.000000;1.982399
2941.000000;2.106279
2940.000000;2.139010
2939.000000;2.124953
2938.000000;2.137337
2937.000000;2.191573
2936.000000;2.302879
2935.000000;2.484223
2934.000000;2.400318
2933.000000;2.091731
2932.000000;1.866102
2931.000000;1.756711
2930.000000;1.745238
2929.000000;1.755380
2928.000000;1.706422
2927.000000;1.645646
2926.000000;1.650174
2925.000000;1.737695
2924.000000;1.821754
2923.000000;1.730166
2922.000000;1.542845
2921.000000;1.433658
2920.000000;1.453226
2919.000000;1.594405
2918.000000;1.752015
2917.000000;1.819573
2916.000000;1.833777
2915.000000;1.880841
2914.000000;1.883512
2913.000000;1.705675
2912.000000;1.616967
2911.000000;1.697628
2910.000000;1.859730
2909.000000;1.745883
2908.000000;1.572260
2907.000000;1.465759
2906.000000;1.410472
2905.000000;1.395857
2904.000000;1.412369
2903.000000;1.454670
2902.000000;1.528704
2901.000000;1.610186
2900.000000;1.602457
2899.000000;1.564638
2898.000000;1.619367
2897.000000;1.794126
2896.000000;2.100786
2895.000000;2.277913
2894.000000;2.144028
2893.000000;2.107479
2892.000000;2.046711
2891.000000;1.881666
2890.000000;1.717182
2889.000000;1.615765
2888.000000;1.590158
2887.000000;1.640034
2886.000000;1.739360
2885.000000;1.833924
2884.000000;1.900289
2883.000000;1.978327
2882.000000;2.055442
2881.000000;2.068364
2880.000000;2.010483
2879.000000;1.998341
2878.000000;2.075617
2877.000000;2.150747
2876.000000;1.995902
2875.000000;1.753863
2874.000000;1.647604
2873.000000;1.658418
2872.000000;1.739877
2871.000000;1.784673
2870.000000;1.697700
2869.000000;1.556497
2868.000000;1.456180
2867.000000;1.435520
2866.000000;1.504662
2865.000000;1.666849
2864.000000;1.935448
2863.000000;2.318811
2862.000000;2.709412
2861.000000;2.520285
2860.000000;2.126532
2859.000000;1.913384
2858.000000;1.842380
2857.000000;1.847556
2856.000000;1.764175
2855.000000;1.647523
2854.000000;1.604089
2853.000000;1.624640
2852.000000;1.702778
2851.000000;1.848131
2850.000000;1.827737
2849.000000;1.668977
2848.000000;1.624561
2847.000000;1.664796
2846.000000;1.730748
2845.000000;1.752136
2844.000000;1.725746
2843.000000;1.718474
2842.000000;1.750418
2841.000000;1.769633
2840.000000;1.708435
2839.000000;1.632014
2838.000000;1.580277
2837.000000;1.531068
2836.000000;1.520543
2835.000000;1.608757
2834.000000;1.828643
2833.000000;2.141155
2832.000000;1.977337
2831.000000;1.758704
2830.000000;1.669144
2829.000000;1.649258
2828.000000;1.671170
2827.000000;1.692569
2826.000000;1.708119
2825.000000;1.721420
2824.000000;1.734051
2823.000000;1.767486
2822.000000;1.814281
2821.000000;1.804079
2820.000000;1.732690
2819.000000;1.681591
2818.000000;1.637320
2817.000000;1.563194
2816.000000;1.506083
2815.000000;1.507441
2814.000000;1.551774
2813.000000;1.635880
2812.000000;1.764391
2811.000000;2.142283
2810.000000;2.433126
2809.000000;2.016062
2808.000000;1.850800
2807.000000;1.652837
2806.000000;1.504500
2805.000000;1.497266
2804.000000;1.643839
2803.000000;1.878713
2802.000000;1.837947
2801.000000;1.620276
2800.000000;1.507261
2799.000000;1.551164
2798.000000;1.782797
2797.000000;2.309073
2796.000000;2.314748
2795.000000;2.020328
2794.000000;1.783537
2793.000000;1.660380
2792.000000;1.630110
2791.000000;1.602631
2790.000000;1.544650
2789.000000;1.518869
2788.000000;1.530147
2787.000000;1.577737
2786.000000;1.673899
2785.000000;1.944088
2784.000000;2.114207
2783.000000;1.773460
2782.000000;1.570190
2781.000000;1.463622
2780.000000;1.413790
2779.000000;1.402530
2778.000000;1.402136
2777.000000;1.373514
2776.000000;1.313050
2775.000000;1.258017
2774.000000;1.234859
2773.000000;1.251062
2772.000000;1.309824
2771.000000;1.417149
2770.000000;1.597024
2769.000000;1.949037
2768.000000;2.817266
2767.000000;2.198384
2766.000000;2.453227
2765.000000;2.019818
2764.000000;1.647776
2763.000000;1.505771
2762.000000;1.476310
2761.000000;1.503512
2760.000000;1.513280
2759.000000;1.508510
2758.000000;1.564254
2757.000000;1.710744
2756.000000;2.084285
2755.000000;2.351671
2754.000000;2.060304
2753.000000;2.134771
2752.000000;2.304556
2751.000000;1.905020
2750.000000;1.688145
2749.000000;1.617663
2748.000000;1.648514
2747.000000;1.819169
2746.000000;2.356028
2745.000000;1.864820
2744.000000;1.691369
2743.000000;1.736874
2742.000000;1.954088
2741.000000;2.427373
2740.000000;2.728814
2739.000000;2.102766
2738.000000;1.843091
2737.000000;1.719272
2736.000000;1.749733
2735.000000;1.948569
2734.000000;2.060151
2733.000000;1.891994
2732.000000;1.856889
2731.000000;1.946384
2730.000000;2.028928
2729.000000;1.822594
2728.000000;1.614668
2727.000000;1.554566
2726.000000;1.629504
2725.000000;1.940507
2724.000000;2.068349
2723.000000;1.831722
2722.000000;1.788855
2721.000000;1.853750
2720.000000;1.901430
2719.000000;1.876691
2718.000000;1.745382
2717.000000;1.561020
2716.000000;1.434761
2715.000000;1.388184
2714.000000;1.405189
2713.000000;1.461596
2712.000000;1.500032
2711.000000;1.450953
2710.000000;1.372496
2709.000000;1.348165
2708.000000;1.419016
2707.000000;1.640260
2706.000000;2.182997
2705.000000;2.066331
2704.000000;1.781651
2703.000000;1.799569
2702.000000;2.150904
2701.000000;2.360800
2700.000000;1.875678
2699.000000;1.743826
2698.000000;1.570921
2697.000000;1.420251
2696.000000;1.386205
2695.000000;1.480518
2694.000000;1.712534
2693.000000;2.002681
2692.000000;1.837110
2691.000000;1.669531
2690.000000;1.608767
2689.000000;1.601930
2688.000000;1.618498
2687.000000;1.654633
2686.000000;1.718328
2685.000000;1.833525
2684.000000;2.024898
2683.000000;2.065759
2682.000000;1.836217
2681.000000;1.639752
2680.000000;1.544912
2679.000000;1.573158
2678.000000;1.905805
2677.000000;1.985612
2676.000000;1.611569
2675.000000;1.507139
2674.000000;1.507485
2673.000000;1.604078
2672.000000;1.925810
2671.000000;1.911942
2670.000000;1.537079
2669.000000;1.410206
2668.000000;1.470183
2667.000000;1.726133
2666.000000;1.532675
2665.000000;1.351850
2664.000000;1.358593
2663.000000;1.525996
2662.000000;1.935126
2661.000000;1.941945
2660.000000;1.786896
2659.000000;2.059776
2658.000000;2.962868
2657.000000;2.383007
2656.000000;2.017155
2655.000000;1.628096
2654.000000;1.528816
2653.000000;1.553081
2652.000000;1.761918
2651.000000;2.064320
2650.000000;1.763413
2649.000000;1.525498
2648.000000;1.449748
2647.000000;1.438515
2646.000000;1.473506
2645.000000;1.506159
2644.000000;1.583967
2643.000000;1.738515
2642.000000;2.720969
2641.000000;1.815750
2640.000000;1.475440
2639.000000;1.365568
2638.000000;1.398131
2637.000000;1.641128
2636.000000;2.269412
2635.000000;2.027508
2634.000000;2.513220
2633.000000;1.930259
2632.000000;1.613738
2631.000000;1.468117
2630.000000;1.503200
2629.000000;1.893685
2628.000000;1.674060
2627.000000;1.251579
2626.000000;1.160445
2625.000000;1.181286
2624.000000;1.317983
2623.000000;1.522943
2622.000000;1.829162
2621.000000;2.120481
2620.000000;1.893902
2619.000000;1.681476
2618.000000;1.605734
2617.000000;1.732914
2616.000000;1.977528
2615.000000;1.744985
2614.000000;1.666004
2613.000000;2.187444
2612.000000;1.712792
2611.000000;1.358844
2610.000000;1.303594
2609.000000;1.498986
2608.000000;2.403377
2607.000000;1.686854
2606.000000;1.582204
2605.000000;1.736036
2604.000000;2.069346
2603.000000;1.744020
2602.000000;1.704700
2601.000000;1.818286
2600.000000;1.649675
2599.000000;1.516825
2598.000000;1.617476
2597.000000;1.936495
2596.000000;2.096934
2595.000000;1.972568
2594.000000;2.536397
2593.000000;2.035723
2592.000000;1.614178
2591.000000;1.503794
2590.000000;1.517406
2589.000000;1.566963
2588.000000;1.482944
2587.000000;1.461384
2586.000000;1.593151
2585.000000;1.694026
2584.000000;1.729723
2583.000000;2.048428
2582.000000;1.679680
2581.000000;1.434273
2580.000000;1.358019
2579.000000;1.386392
2578.000000;1.511205
2577.000000;1.867372
2576.000000;2.675677
2575.000000;1.999929
2574.000000;2.184199
2573.000000;2.393796
2572.000000;1.947759
2571.000000;1.745674
2570.000000;1.670692
2569.000000;1.683404
2568.000000;1.754120
2567.000000;1.848496
2566.000000;1.944580
2565.000000;2.113946
2564.000000;1.853499
2563.000000;1.589382
2562.000000;1.512253
2561.000000;1.549327
2560.000000;1.611072
2559.000000;1.589303
2558.000000;1.450306
2557.000000;1.327339
2556.000000;1.323911
2555.000000;1.474329
2554.000000;1.695655
2553.000000;1.522057
2552.000000;1.338692
2551.000000;1.268114
2550.000000;1.299183
2549.000000;1.383764
2548.000000;1.459778
2547.000000;1.573727
2546.000000;1.880399
2545.000000;2.059897
2544.000000;2.026588
2543.000000;2.130497
2542.000000;1.902131
2541.000000;1.811144
2540.000000;1.834505
2539.000000;1.884585
2538.000000;1.773059
2537.000000;1.754187
2536.000000;1.982735
2535.000000;2.279259
2534.000000;2.059120
2533.000000;1.829952
2532.000000;1.870343
2531.000000;2.100183
2530.000000;1.953854
2529.000000;1.682859
2528.000000;1.508760
2527.000000;1.483100
2526.000000;1.585790
2525.000000;1.692689
2524.000000;1.592297
2523.000000;1.407962
2522.000000;1.295061
2521.000000;1.287624
2520.000000;1.370653
2519.000000;1.497450
2518.000000;1.571022
2517.000000;1.508765
2516.000000;1.462013
2515.000000;1.557034
2514.000000;1.872473
2513.000000;1.937432
2512.000000;1.806443
2511.000000;1.902394
2510.000000;2.267576
2509.000000;2.268587
2508.000000;1.944512
2507.000000;1.811224
2506.000000;1.706451
2505.000000;1.554216
2504.000000;1.426475
2503.000000;1.390648
2502.000000;1.462632
2501.000000;1.661662
2500.000000;1.913113
2499.000000;1.612688
2498.000000;1.426895
2497.000000;1.421426
2496.000000;1.575319
2495.000000;1.812067
2494.000000;1.994853
2493.000000;1.883636
2492.000000;1.691686
2491.000000;1.639939
2490.000000;1.630202
2489.000000;1.606477
2488.000000;1.589686
2487.000000;1.625695
2486.000000;1.722196
2485.000000;1.867685
2484.000000;2.044996
2483.000000;2.249854
2482.000000;2.146040
2481.000000;1.929501
2480.000000;1.870366
2479.000000;1.952273
2478.000000;1.995095
2477.000000;1.981035
2476.000000;2.271951
2475.000000;2.285228
2474.000000;1.858850
2473.000000;1.863671
2472.000000;2.278829
2471.000000;2.198097
2470.000000;1.855922
2469.000000;1.757197
2468.000000;1.623674
2467.000000;1.539971
2466.000000;1.563229
2465.000000;1.656697
2464.000000;1.735164
2463.000000;1.790425
2462.000000;1.797202
2461.000000;1.729174
2460.000000;1.618148
2459.000000;1.564054
2458.000000;1.658196
2457.000000;1.865229
2456.000000;1.798624
2455.000000;1.653735
2454.000000;1.563181
2453.000000;1.492909
2452.000000;1.463849
2451.000000;1.502986
2450.000000;1.635966
2449.000000;1.829591
2448.000000;1.982386
2447.000000;2.088349
2446.000000;2.122487
2445.000000;2.115587
2444.000000;2.178630
2443.000000;2.106995
2442.000000;2.050163
2441.000000;1.831039
2440.000000;1.665509
2439.000000;1.682109
2438.000000;2.024103
2437.000000;2.425280
2436.000000;1.857415
2435.000000;1.683159
2434.000000;1.603589
2433.000000;1.622680
2432.000000;1.746432
2431.000000;2.005958
2430.000000;2.077581
2429.000000;2.170002
2428.000000;2.100127
2427.000000;1.720845
2426.000000;1.528050
2425.000000;1.476043
2424.000000;1.513847
2423.000000;1.573348
2422.000000;1.595633
2421.000000;1.599529
2420.000000;1.581289
2419.000000;1.512968
2418.000000;1.447408
2417.000000;1.447899
2416.000000;1.538928
2415.000000;1.754537
2414.000000;2.088910
2413.000000;2.095282
2412.000000;1.967749
2411.000000;1.920823
2410.000000;1.807032
2409.000000;1.735075
2408.000000;1.746200
2407.000000;1.757560
2406.000000;1.705828
2405.000000;1.619414
2404.000000;1.529086
2403.000000;1.468579
2402.000000;1.484322
2401.000000;1.616958
2400.000000;1.898213
2399.000000;1.978123
2398.000000;1.973494
2397.000000;2.001371
2396.000000;2.012242
2395.000000;2.453137
2394.000000;2.266290
2393.000000;1.975547
2392.000000;2.145641
2391.000000;2.448282
2390.000000;1.940557
2389.000000;1.959745
2388.000000;1.788607
2387.000000;1.489619
2386.000000;1.349907
2385.000000;1.309762
2384.000000;1.333481
2383.000000;1.384277
2382.000000;1.425144
2381.000000;1.439466
2380.000000;1.434645
2379.000000;1.486171
2378.000000;1.428597
2377.000000;1.177875
2376.000000;1.034815
2375.000000;1.050474
2374.000000;1.212503
2373.000000;1.551244
2372.000000;1.499958
2371.000000;1.280519
2370.000000;1.162933
2369.000000;1.101923
2368.000000;1.093079
2367.000000;1.596167
2366.000000;1.574177
2365.000000;1.605965
2364.000000;1.702423
2363.000000;1.642496
2362.000000;1.562351
2361.000000;1.611360
2360.000000;1.679428
2359.000000;1.673399
2358.000000;1.687314
2357.000000;1.714126
2356.000000;1.700154
2355.000000;1.577937
2354.000000;1.447840
2353.000000;1.427022
2352.000000;1.593732
2351.000000;1.604175
2350.000000;1.451743
2349.000000;1.480805
2348.000000;1.643213
2347.000000;1.652044
2346.000000;1.519786
2345.000000;1.445563
2344.000000;1.439335
2343.000000;1.501957
2342.000000;1.587785
2341.000000;1.579797
2340.000000;1.128822
2339.000000;1.426943
2338.000000;1.262315
2337.000000;0.945112
2336.000000;0.892748
2335.000000;1.007182
2334.000000;1.284853
2333.000000;1.720930
2332.000000;1.733063
2331.000000;1.293260
2330.000000;1.187111
2329.000000;1.265850
2328.000000;1.788730
2327.000000;1.736237
2326.000000;1.372090
2325.000000;1.420434
2324.000000;1.397295
2323.000000;1.416132
2322.000000;1.394814
2321.000000;1.335265
2320.000000;1.386778
2319.000000;1.468136
2318.000000;1.511301
2317.000000;1.405235
2316.000000;1.178709
2315.000000;1.026444
2314.000000;0.961949
2313.000000;0.975501
2312.000000;1.056453
2311.000000;1.169848
2310.000000;1.322052
2309.000000;1.686756
2308.000000;1.859387
2307.000000;1.398866
2306.000000;1.279008
2305.000000;1.233255
2304.000000;1.218045
2303.000000;1.184761
2302.000000;1.144254
2301.000000;1.131985
2300.000000;1.190083
2299.000000;1.312334
2298.000000;1.442038
2297.000000;1.410873
2296.000000;1.299123
2295.000000;1.258259
2294.000000;1.277363
2293.000000;1.286517
2292.000000;1.246406
2291.000000;1.220852
2290.000000;1.230536
2289.000000;1.263327
2288.000000;1.343298
2287.000000;1.493327
2286.000000;1.677954
2285.000000;1.747936
2284.000000;1.751035
2283.000000;1.646551
2282.000000;1.574224
2281.000000;1.606929
2280.000000;1.536435
2279.000000;1.419907
2278.000000;1.387312
2277.000000;1.408852
2276.000000;1.480302
2275.000000;1.643197
2274.000000;1.808685
2273.000000;1.740478
2272.000000;1.601513
2271.000000;1.473564
2270.000000;1.397443
2269.000000;1.414016
2268.000000;1.458203
2267.000000;1.454258
2266.000000;1.464177
2265.000000;1.520189
2264.000000;1.643935
2263.000000;1.993308
2262.000000;2.404780
2261.000000;1.850103
2260.000000;1.590640
2259.000000;1.415748
2258.000000;1.378934
2257.000000;1.543670
2256.000000;1.913648
2255.000000;1.653979
2254.000000;1.529424
2253.000000;1.534958
2252.000000;1.434759
2251.000000;1.264884
2250.000000;1.190399
2249.000000;1.221965
2248.000000;1.368958
2247.000000;1.653105
2246.000000;2.325823
2245.000000;2.520207
2244.000000;1.713685
2243.000000;1.366293
2242.000000;1.223630
2241.000000;1.247226
2240.000000;1.431598
2239.000000;1.776938
2238.000000;2.038018
2237.000000;1.728093
2236.000000;1.447416
2235.000000;1.318091
2234.000000;1.244283
2233.000000;1.208013
2232.000000;1.221756
2231.000000;1.223911
2230.000000;1.188041
2229.000000;1.167763
2228.000000;1.181543
2227.000000;1.240942
2226.000000;1.352238
2225.000000;1.425243
2224.000000;1.386623
2223.000000;1.365942
2222.000000;1.404917
2221.000000;1.483414
2220.000000;1.580746
2219.000000;1.690455
2218.000000;1.780294
2217.000000;1.800332
2216.000000;1.809852
2215.000000;1.702223
2214.000000;1.648765
2213.000000;1.839691
2212.000000;2.233325
2211.000000;2.326723
2210.000000;1.833454
2209.000000;1.640376
2208.000000;1.675425
2207.000000;1.750846
2206.000000;1.645143
2205.000000;1.519115
2204.000000;1.370784
2203.000000;1.221771
2202.000000;1.134271
2201.000000;1.124929
2200.000000;1.173285
2199.000000;1.234482
2198.000000;1.275198
2197.000000;1.303275
2196.000000;1.336336
2195.000000;1.376551
2194.000000;1.447682
2193.000000;1.603611
2192.000000;1.868479
2191.000000;1.787540
2190.000000;1.540566
2189.000000;1.436058
2188.000000;1.414699
2187.000000;1.437803
2186.000000;1.589321
2185.000000;1.668065
2184.000000;1.456055
2183.000000;1.377028
2182.000000;1.407602
2181.000000;1.473950
2180.000000;1.667107
2179.000000;1.909228
2178.000000;1.696773
2177.000000;1.799941
2176.000000;2.441373
2175.000000;1.966229
2174.000000;1.877620
2173.000000;1.933792
2172.000000;2.216202
2171.000000;2.193427
2170.000000;1.628572
2169.000000;1.441402
2168.000000;1.373730
2167.000000;1.383501
2166.000000;1.399688
2165.000000;1.414510
2164.000000;1.450037
2163.000000;1.539354
2162.000000;1.594866
2161.000000;1.425386
2160.000000;1.259556
2159.000000;1.195953
2158.000000;1.220812
2157.000000;1.333377
2156.000000;1.510273
2155.000000;1.551738
2154.000000;1.445085
2153.000000;1.381514
2152.000000;1.358804
2151.000000;1.336224
2150.000000;1.321803
2149.000000;1.356531
2148.000000;1.462748
2147.000000;1.488748
2146.000000;1.369533
2145.000000;1.343478
2144.000000;1.454048
2143.000000;1.612052
2142.000000;1.500017
2141.000000;1.320034
2140.000000;1.266960
2139.000000;1.330199
2138.000000;1.543968
2137.000000;1.893068
2136.000000;1.774483
2135.000000;1.694794
2134.000000;1.863827
2133.000000;1.866183
2132.000000;1.894920
2131.000000;2.377062
2130.000000;2.052352
2129.000000;1.899902
2128.000000;2.007355
2127.000000;2.438957
2126.000000;1.669224
2125.000000;1.387990
2124.000000;1.286855
2123.000000;1.285551
2122.000000;1.365107
2121.000000;1.501275
2120.000000;1.565070
2119.000000;1.614279
2118.000000;1.971090
2117.000000;2.121928
2116.000000;1.608214
2115.000000;1.503230
2114.000000;1.490327
2113.000000;1.518140
2112.000000;1.687326
2111.000000;2.067225
2110.000000;1.609429
2109.000000;1.414965
2108.000000;1.535273
2107.000000;1.599282
2106.000000;1.504435
2105.000000;1.875578
2104.000000;1.767027
2103.000000;1.373571
2102.000000;1.309321
2101.000000;1.428522
2100.000000;1.662242
2099.000000;1.761183
2098.000000;1.933531
2097.000000;1.867114
2096.000000;1.665573
2095.000000;1.698653
2094.000000;1.821583
2093.000000;1.816487
2092.000000;1.643056
2091.000000;1.486264
2090.000000;1.422205
2089.000000;1.438458
2088.000000;1.517080
2087.000000;1.655479
2086.000000;1.815421
2085.000000;1.848649
2084.000000;1.715664
2083.000000;1.659697
2082.000000;1.631349
2081.000000;2.139798
2080.000000;1.823551
2079.000000;1.316221
2078.000000;1.134758
2077.000000;1.084449
2076.000000;1.134828
2075.000000;1.240138
2074.000000;1.338343
2073.000000;1.381000
2072.000000;1.382751
2071.000000;1.350021
2070.000000;1.242378
2069.000000;1.139146
2068.000000;1.114307
2067.000000;1.172507
2066.000000;1.272018
2065.000000;1.306830
2064.000000;1.275934
2063.000000;1.285417
2062.000000;1.306542
2061.000000;1.321291
2060.000000;1.364354
2059.000000;1.272606
2058.000000;1.149312
2057.000000;1.139536
2056.000000;1.240619
2055.000000;1.437539
2054.000000;1.919713
2053.000000;2.192064
2052.000000;1.733559
2051.000000;1.542316
2050.000000;1.405900
2049.000000;1.385588
2048.000000;1.510131
2047.000000;2.459213
2046.000000;1.598494
2045.000000;1.343599
2044.000000;1.285041
2043.000000;1.322655
2042.000000;1.463300
2041.000000;1.657795
2040.000000;1.501083
2039.000000;1.335620
2038.000000;1.277871
2037.000000;1.268883
2036.000000;1.272805
2035.000000;1.296311
2034.000000;1.356394
2033.000000;1.456164
2032.000000;1.644286
2031.000000;1.751250
2030.000000;1.584806
2029.000000;1.521024
2028.000000;1.629333
2027.000000;1.940323
2026.000000;1.960959
2025.000000;1.861440
2024.000000;2.037022
2023.000000;1.775216
2022.000000;1.507226
2021.000000;1.404437
2020.000000;1.400845
2019.000000;1.428474
2018.000000;1.441876
2017.000000;1.489170
2016.000000;1.662368
2015.000000;2.200242
2014.000000;1.927758
2013.000000;1.623097
2012.000000;1.535282
2011.000000;1.526310
2010.000000;1.567539
2009.000000;1.606534
2008.000000;1.530409
2007.000000;1.365565
2006.000000;1.240818
2005.000000;1.190221
2004.000000;1.189895
2003.000000;1.252396
2002.000000;1.394863
2001.000000;1.920650
2000.000000;2.112886
1999.000000;1.751387
1998.000000;1.813869
1997.000000;1.929096
1996.000000;2.018464
1995.000000;2.097039
1994.000000;2.185984
1993.000000;2.457567
1992.000000;2.075853
1991.000000;1.795304
1990.000000;1.682846
1989.000000;1.704171
1988.000000;1.861693
1987.000000;2.086624
1986.000000;2.114688
1985.000000;1.929212
1984.000000;1.775132
1983.000000;1.810575
1982.000000;1.797221
1981.000000;1.595314
1980.000000;1.526143
1979.000000;1.614194
1978.000000;1.618117
1977.000000;1.429835
1976.000000;1.303009
1975.000000;1.252436
1974.000000;1.253093
1973.000000;1.253527
1972.000000;1.264744
1971.000000;1.359400
1970.000000;1.714499
1969.000000;2.007598
1968.000000;1.576465
1967.000000;1.398210
1966.000000;1.340215
1965.000000;1.337180
1964.000000;1.283370
1963.000000;1.198737
1962.000000;1.168859
1961.000000;1.194499
1960.000000;1.269162
1959.000000;1.397514
1958.000000;1.531320
1957.000000;1.554455
1956.000000;1.432227
1955.000000;1.311323
1954.000000;1.288756
1953.000000;1.342365
1952.000000;1.397164
1951.000000;1.376743
1950.000000;1.322214
1949.000000;1.292410
1948.000000;1.337033
1947.000000;1.445837
1946.000000;1.915850
1945.000000;1.926319
1944.000000;1.557916
1943.000000;1.479031
1942.000000;1.462950
1941.000000;1.498811
1940.000000;1.474667
1939.000000;1.383369
1938.000000;1.378713
1937.000000;1.456110
1936.000000;1.538702
1935.000000;1.617468
1934.000000;1.790157
1933.000000;2.097607
1932.000000;1.800528
1931.000000;1.486845
1930.000000;1.298719
1929.000000;1.236508
1928.000000;1.329169
1927.000000;1.649547
1926.000000;1.646876
1925.000000;1.407789
1924.000000;1.448981
1923.000000;1.659992
1922.000000;2.054097
1921.000000;1.884390
1920.000000;1.792105
1919.000000;1.979670
1918.000000;2.058283
1917.000000;2.041903
1916.000000;1.986248
1915.000000;1.908481
1914.000000;1.570922
1913.000000;1.339495
1912.000000;1.289363
1911.000000;1.383439
1910.000000;1.518494
1909.000000;1.577539
1908.000000;1.526983
1907.000000;1.443463
1906.000000;1.481678
1905.000000;1.605379
1904.000000;1.602837
1903.000000;1.606010
1902.000000;1.552484
1901.000000;1.388280
1900.000000;1.337638
1899.000000;1.428931
1898.000000;1.633760
1897.000000;2.109417
1896.000000;2.435683
1895.000000;1.929283
1894.000000;1.879128
1893.000000;1.803286
1892.000000;1.566140
1891.000000;1.462545
1890.000000;1.518324
1889.000000;1.728564
1888.000000;1.899298
1887.000000;1.647059
1886.000000;1.561941
1885.000000;1.654400
1884.000000;1.976044
1883.000000;2.125472
1882.000000;1.544750
1881.000000;1.355821
1880.000000;1.317836
1879.000000;1.391049
1878.000000;1.407517
1877.000000;1.296121
1876.000000;1.283946
1875.000000;1.564239
1874.000000;1.773590
1873.000000;1.415215
1872.000000;1.453111
1871.000000;1.405977
1870.000000;1.237099
1869.000000;1.131160
1868.000000;1.083896
1867.000000;1.078571
1866.000000;1.122296
1865.000000;1.192800
1864.000000;1.237096
1863.000000;1.280623
1862.000000;1.378948
1861.000000;1.513829
1860.000000;1.453421
1859.000000;1.344160
1858.000000;1.344682
1857.000000;1.428526
1856.000000;1.518474
1855.000000;1.567875
1854.000000;1.639021
1853.000000;1.677874
1852.000000;1.656398
1851.000000;1.773457
1850.000000;1.865226
1849.000000;1.737955
1848.000000;1.732917
1847.000000;1.835553
1846.000000;1.894359
1845.000000;1.752674
1844.000000;1.603511
1843.000000;1.501058
1842.000000;1.449740
1841.000000;1.451968
1840.000000;1.463003
1839.000000;1.420925
1838.000000;1.325773
1837.000000;1.245245
1836.000000;1.230601
1835.000000;1.271130
1834.000000;1.320388
1833.000000;1.389423
1832.000000;1.531898
1831.000000;1.693570
1830.000000;1.545255
1829.000000;1.299641
1828.000000;1.125391
1827.000000;1.061096
1826.000000;1.096810
1825.000000;1.193079
1824.000000;1.296714
1823.000000;1.315290
1822.000000;1.270021
1821.000000;1.226695
1820.000000;1.129172
1819.000000;1.027676
1818.000000;0.989964
1817.000000;1.022759
1816.000000;1.132585
1815.000000;1.360148
1814.000000;1.596196
1813.000000;1.557871
1812.000000;2.167232
1811.000000;1.892938
1810.000000;1.468020
1809.000000;1.399059
1808.000000;1.289981
1807.000000;1.115656
1806.000000;0.981511
1805.000000;0.961980
1804.000000;1.057117
1803.000000;1.195765
1802.000000;1.277779
1801.000000;1.334770
1800.000000;1.393169
1799.000000;1.366974
1798.000000;1.293556
1797.000000;1.235651
1796.000000;1.214397
1795.000000;1.244837
1794.000000;1.321390
1793.000000;1.423840
1792.000000;1.510063
1791.000000;1.611425
1790.000000;1.774457
1789.000000;1.512767
1788.000000;1.285728
1787.000000;1.268352
1786.000000;1.386442
1785.000000;1.341995
1784.000000;1.132316
1783.000000;1.011929
1782.000000;1.019583
1781.000000;1.145506
1780.000000;1.340364
1779.000000;1.402525
1778.000000;1.283068
1777.000000;1.150444
1776.000000;1.042338
1775.000000;0.993351
1774.000000;0.978407
1773.000000;0.915639
1772.000000;0.824668
1771.000000;0.814990
1770.000000;1.022748
1769.000000;1.453538
1768.000000;1.470428
1767.000000;1.364339
1766.000000;1.768354
1765.000000;1.997268
1764.000000;1.239055
1763.000000;1.149627
1762.000000;1.124022
1761.000000;1.143185
1760.000000;1.170946
1759.000000;1.297062
1758.000000;1.535011
1757.000000;1.821202
1756.000000;1.927457
1755.000000;1.678241
1754.000000;1.462579
1753.000000;1.397937
1752.000000;1.347637
1751.000000;1.233906
1750.000000;1.124555
1749.000000;1.096625
1748.000000;1.142437
1747.000000;1.161596
1746.000000;1.154432
1745.000000;1.139419
1744.000000;1.110329
1743.000000;1.062198
1742.000000;0.990686
1741.000000;0.934920
1740.000000;0.960190
1739.000000;1.076204
1738.000000;1.412349
1737.000000;1.952988
1736.000000;1.582556
1735.000000;1.509726
1734.000000;1.578845
1733.000000;1.682500
1732.000000;1.743023
1731.000000;1.640435
1730.000000;1.408123
1729.000000;1.203764
1728.000000;1.082129
1727.000000;1.060534
1726.000000;1.143987
1725.000000;1.301372
1724.000000;1.441307
1723.000000;1.499653
1722.000000;1.575443
1721.000000;1.917152
1720.000000;1.291795
1719.000000;1.085873
1718.000000;1.086011
1717.000000;1.158608
1716.000000;1.189948
1715.000000;1.224624
1714.000000;1.404236
1713.000000;1.707726
1712.000000;1.869000
1711.000000;1.360452
1710.000000;1.044793
1709.000000;0.916950
1708.000000;0.862718
1707.000000;0.879143
1706.000000;0.982290
1705.000000;1.176239
1704.000000;1.334748
1703.000000;1.236136
1702.000000;1.068726
1701.000000;0.955245
1700.000000;0.910459
1699.000000;0.992976
1698.000000;1.184262
1697.000000;1.437069
1696.000000;1.733166
1695.000000;2.016570
1694.000000;2.083864
1693.000000;1.772822
1692.000000;1.448493
1691.000000;1.394620
1690.000000;1.339482
1689.000000;1.218561
1688.000000;1.193375
1687.000000;1.355095
1686.000000;1.576732
1685.000000;1.408933
1684.000000;1.112217
1683.000000;0.938249
1682.000000;1.011036
1681.000000;1.275424
1680.000000;1.301406
1679.000000;1.281241
1678.000000;1.412292
1677.000000;1.950487
1676.000000;1.972270
1675.000000;1.399523
1674.000000;1.167753
1673.000000;1.072561
1672.000000;1.093112
1671.000000;1.192432
1670.000000;1.749218
1669.000000;1.144671
1668.000000;0.866412
1667.000000;0.825979
1666.000000;0.917558
1665.000000;1.081805
1664.000000;1.262628
1663.000000;1.428520
1662.000000;1.688618
1661.000000;2.260298
1660.000000;2.072802
1659.000000;1.991268
1658.000000;1.828834
1657.000000;1.429882
1656.000000;1.348646
1655.000000;1.439433
1654.000000;1.340727
1653.000000;1.074954
1652.000000;0.876647
1651.000000;0.780148
1650.000000;0.766915
1649.000000;0.871238
1648.000000;1.018353
1647.000000;1.014531
1646.000000;0.947919
1645.000000;0.942804
1644.000000;0.970321
1643.000000;1.005889
1642.000000;1.064008
1641.000000;1.135800
1640.000000;1.178495
1639.000000;1.072893
1638.000000;0.934853
1637.000000;0.882701
1636.000000;0.881411
1635.000000;0.877861
1634.000000;0.879555
1633.000000;0.981227
1632.000000;1.312422
1631.000000;1.902796
1630.000000;1.580481
1629.000000;1.373643
1628.000000;1.477687
1627.000000;1.742367
1626.000000;1.429160
1625.000000;1.264863
1624.000000;1.471752
1623.000000;1.772136
1622.000000;1.386211
1621.000000;1.199380
1620.000000;1.194100
1619.000000;1.277516
1618.000000;1.362871
1617.000000;1.346119
1616.000000;1.248030
1615.000000;1.156122
1614.000000;1.137849
1613.000000;1.164880
1612.000000;1.139016
1611.000000;1.069312
1610.000000;1.047620
1609.000000;1.152238
1608.000000;1.415139
1607.000000;1.628728
1606.000000;1.610964
1605.000000;1.514170
1604.000000;1.343234
1603.000000;1.216558
1602.000000;1.192945
1601.000000;1.240859
1600.000000;1.692610
1599.000000;1.762086
1598.000000;1.246019
1597.000000;1.169198
1596.000000;1.482096
1595.000000;1.641939
1594.000000;1.221651
1593.000000;1.091372
1592.000000;1.106272
1591.000000;1.238140
1590.000000;1.595152
1589.000000;1.404231
1588.000000;1.166872
1587.000000;1.094344
1586.000000;1.142057
1585.000000;1.364235
1584.000000;1.720677
1583.000000;1.325448
1582.000000;1.174996
1581.000000;1.120385
1580.000000;1.091469
1579.000000;1.100321
1578.000000;1.168333
1577.000000;1.262457
1576.000000;1.339531
1575.000000;1.545807
1574.000000;1.731424
1573.000000;1.302757
1572.000000;1.137507
1571.000000;1.155320
1570.000000;1.216546
1569.000000;1.097178
1568.000000;0.974001
1567.000000;0.993121
1566.000000;1.138304
1565.000000;1.221755
1564.000000;0.998228
1563.000000;0.854969
1562.000000;0.856996
1561.000000;0.916099
1560.000000;0.917741
1559.000000;0.921063
1558.000000;1.062133
1557.000000;1.445672
1556.000000;1.450824
1555.000000;1.325755
1554.000000;1.273986
1553.000000;1.298229
1552.000000;1.394463
1551.000000;1.545037
1550.000000;1.684572
1549.000000;1.533867
1548.000000;1.357644
1547.000000;1.356989
1546.000000;1.392098
1545.000000;1.363436
1544.000000;1.356201
1543.000000;1.427072
1542.000000;1.896143
1541.000000;1.720155
1540.000000;1.432264
1539.000000;1.492529
1538.000000;1.647186
1537.000000;1.552931
1536.000000;1.470815
1535.000000;1.833290
1534.000000;1.429676
1533.000000;1.082675
1532.000000;1.014112
1531.000000;1.091939
1530.000000;1.078476
1529.000000;1.048526
1528.000000;1.135407
1527.000000;1.287012
1526.000000;1.508872
1525.000000;1.865623
1524.000000;1.313036
1523.000000;1.060970
1522.000000;1.082315
1521.000000;1.185216
1520.000000;1.263773
1519.000000;1.239390
1518.000000;1.136347
1517.000000;1.074506
1516.000000;1.066349
1515.000000;1.046571
1514.000000;1.007837
1513.000000;0.978932
1512.000000;0.972171
1511.000000;0.995889
1510.000000;1.054010
1509.000000;1.112579
1508.000000;1.166527
1507.000000;1.192653
1506.000000;1.173039
1505.000000;1.186107
1504.000000;1.176014
1503.000000;1.201027
1502.000000;1.373150
1501.000000;1.397619
1500.000000;1.149980
1499.000000;1.067631
1498.000000;1.225692
1497.000000;1.535763
1496.000000;1.339005
1495.000000;1.171656
1494.000000;1.177351
1493.000000;1.183331
1492.000000;1.062827
1491.000000;0.963051
1490.000000;0.944158
1489.000000;1.000519
1488.000000;1.153762
1487.000000;1.383593
1486.000000;1.775293
1485.000000;1.360090
1484.000000;1.212664
1483.000000;1.385301
1482.000000;1.935567
1481.000000;1.260101
1480.000000;1.070296
1479.000000;1.102983
1478.000000;1.369867
1477.000000;1.824287
1476.000000;1.743928
1475.000000;2.094966
1474.000000;1.506247
1473.000000;1.287596
1472.000000;1.158617
1471.000000;1.068601
1470.000000;1.082481
1469.000000;1.382410
1468.000000;1.584079
1467.000000;1.320995
1466.000000;1.308595
1465.000000;1.880856
1464.000000;1.656021
1463.000000;1.190125
1462.000000;1.147644
1461.000000;1.160812
1460.000000;1.094694
1459.000000;1.021790
1458.000000;1.061580
1457.000000;1.129436
1456.000000;1.157560
1455.000000;1.182047
1454.000000;1.260547
1453.000000;1.221045
1452.000000;1.100955
1451.000000;1.087441
1450.000000;1.223871
1449.000000;1.493942
1448.000000;1.389921
1447.000000;1.238296
1446.000000;1.125298
1445.000000;1.005978
1444.000000;0.971291
1443.000000;1.019748
1442.000000;1.099899
1441.000000;1.176012
1440.000000;1.259669
1439.000000;1.322203
1438.000000;1.249037
1437.000000;1.094555
1436.000000;0.971233
1435.000000;0.918445
1434.000000;0.923990
1433.000000;0.942113
1432.000000;0.966219
1431.000000;1.035436
1430.000000;1.101768
1429.000000;1.045494
1428.000000;1.021033
1427.000000;1.058473
1426.000000;1.041389
1425.000000;0.981326
1424.000000;0.926625
1423.000000;0.895433
1422.000000;0.948209
1421.000000;1.158085
1420.000000;1.562624
1419.000000;2.218334
1418.000000;1.857342
1417.000000;1.325315
1416.000000;1.198290
1415.000000;1.450472
1414.000000;1.815221
1413.000000;1.350453
1412.000000;1.241120
1411.000000;1.267480
1410.000000;1.366630
1409.000000;1.473435
1408.000000;1.573612
1407.000000;1.567013
1406.000000;1.649917
1405.000000;1.587070
1404.000000;1.179760
1403.000000;1.018059
1402.000000;1.085222
1401.000000;1.726300
1400.000000;1.332388
1399.000000;1.070193
1398.000000;1.013678
1397.000000;1.017324
1396.000000;1.016057
1395.000000;0.999675
1394.000000;0.984925
1393.000000;1.030084
1392.000000;1.214187
1391.000000;1.593866
1390.000000;1.718305
1389.000000;1.337053
1388.000000;1.122350
1387.000000;1.031582
1386.000000;0.992800
1385.000000;0.980705
1384.000000;0.999682
1383.000000;1.057192
1382.000000;1.169304
1381.000000;1.347123
1380.000000;1.496087
1379.000000;1.492599
1378.000000;2.648693
1377.000000;1.567490
1376.000000;1.244892
1375.000000;1.264173
1374.000000;1.485213
1373.000000;1.817606
1372.000000;1.606862
1371.000000;1.572725
1370.000000;1.185460
1369.000000;0.949337
1368.000000;0.862270
1367.000000;0.900262
1366.000000;1.094917
1365.000000;1.508074
1364.000000;1.540703
1363.000000;1.316714
1362.000000;1.273544
1361.000000;1.255769
1360.000000;1.243226
1359.000000;1.218799
1358.000000;1.195189
1357.000000;1.167004
1356.000000;1.150950
1355.000000;1.101944
1354.000000;1.019744
1353.000000;0.988312
1352.000000;1.039665
1351.000000;1.086953
1350.000000;0.994020
1349.000000;0.890890
1348.000000;0.876396
1347.000000;0.958045
1346.000000;1.125351
1345.000000;1.383702
1344.000000;1.757691
1343.000000;1.777511
1342.000000;1.428215
1341.000000;1.220244
1340.000000;1.153361
1339.000000;1.182950
1338.000000;1.314263
1337.000000;1.702942
1336.000000;1.665632
1335.000000;1.296361
1334.000000;1.289154
1333.000000;1.688748
1332.000000;1.665850
1331.000000;1.125850
1330.000000;0.937383
1329.000000;0.858462
1328.000000;0.905471
1327.000000;1.206084
1326.000000;1.467810
1325.000000;1.056047
1324.000000;0.927358
1323.000000;1.001936
1322.000000;1.195068
1321.000000;1.191281
1320.000000;1.153712
1319.000000;1.199125
1318.000000;1.135212
1317.000000;1.062553
1316.000000;1.060557
1315.000000;1.099987
1314.000000;1.139490
1313.000000;1.124377
1312.000000;1.047577
1311.000000;0.993256
1310.000000;1.000120
1309.000000;1.023021
1308.000000;1.024343
1307.000000;1.070538
1306.000000;1.243710
1305.000000;1.487542
1304.000000;1.489923
1303.000000;1.364577
1302.000000;1.251795
1301.000000;1.175844
1300.000000;1.164073
1299.000000;1.199248
1298.000000;1.259401
1297.000000;1.338383
1296.000000;1.267203
1295.000000;1.086814
1294.000000;0.993953
1293.000000;0.986817
1292.000000;0.998340
1291.000000;0.989001
1290.000000;1.004251
1289.000000;1.104177
1288.000000;1.250602
1287.000000;1.305670
1286.000000;1.271931
1285.000000;1.153973
1284.000000;1.083836
1283.000000;1.071407
1282.000000;1.045517
1281.000000;1.040489
1280.000000;1.196896
1279.000000;1.652687
1278.000000;1.508451
1277.000000;1.222710
1276.000000;1.891361
1275.000000;1.552729
1274.000000;1.022531
1273.000000;0.926655
1272.000000;0.979027
1271.000000;1.201413
1270.000000;1.409743
1269.000000;1.427619
1268.000000;1.479919
1267.000000;1.635324
1266.000000;1.942982
1265.000000;1.641498
1264.000000;1.478243
1263.000000;1.663737
1262.000000;1.554833
1261.000000;1.178912
1260.000000;1.063818
1259.000000;1.028080
1258.000000;1.010779
1257.000000;1.015473
1256.000000;1.079618
1255.000000;1.124153
1254.000000;1.070442
1253.000000;1.027262
1252.000000;1.011350
1251.000000;1.016328
1250.000000;1.049430
1249.000000;1.138734
1248.000000;1.179079
1247.000000;1.020039
1246.000000;0.855093
1245.000000;0.744476
1244.000000;0.668740
1243.000000;0.623690
1242.000000;0.617837
1241.000000;0.665816
1240.000000;0.767241
1239.000000;0.869311
1238.000000;0.923025
1237.000000;0.970368
1236.000000;1.033867
1235.000000;1.183525
1234.000000;1.368040
1233.000000;1.120687
1232.000000;0.975370
1231.000000;0.972299
1230.000000;1.074176
1229.000000;1.156940
1228.000000;1.139060
1227.000000;1.210054
1226.000000;1.366840
1225.000000;1.580438
1224.000000;1.404608
1223.000000;1.023098
1222.000000;0.891880
1221.000000;0.959804
1220.000000;1.272198
1219.000000;1.075741
1218.000000;0.842594
1217.000000;0.814789
1216.000000;0.901031
1215.000000;1.080433
1214.000000;1.174186
1213.000000;1.078741
1212.000000;0.953203
1211.000000;0.922793
1210.000000;1.021600
1209.000000;1.229632
1208.000000;1.273542
1207.000000;1.112678
1206.000000;1.004255
1205.000000;0.942084
1204.000000;0.905913
1203.000000;0.873074
1202.000000;0.833556
1201.000000;0.797562
1200.000000;0.796863
