Criado como novo conjunto de dados;"2706_e01_daniel.spp","75606.0 Secs"
cm-1;Abs
10000.000000;0.846330
9999.000000;0.846253
9998.000000;0.846159
9997.000000;0.845845
9996.000000;0.845319
9995.000000;0.844921
9994.000000;0.844846
9993.000000;0.844856
9992.000000;0.844640
9991.000000;0.844318
9990.000000;0.844241
9989.000000;0.844435
9988.000000;0.844538
9987.000000;0.844284
9986.000000;0.843778
9985.000000;0.843286
9984.000000;0.842999
9983.000000;0.843003
9982.000000;0.843214
9981.000000;0.843291
9980.000000;0.842839
9979.000000;0.841849
9978.000000;0.840832
9977.000000;0.840417
9976.000000;0.840840
9975.000000;0.841816
9974.000000;0.842807
9973.000000;0.843420
9972.000000;0.843656
9971.000000;0.843805
9970.000000;0.844085
9969.000000;0.844377
9968.000000;0.844395
9967.000000;0.844012
9966.000000;0.843377
9965.000000;0.842763
9964.000000;0.842385
9963.000000;0.842257
9962.000000;0.842161
9961.000000;0.841849
9960.000000;0.841356
9959.000000;0.840977
9958.000000;0.840871
9957.000000;0.840897
9956.000000;0.840941
9955.000000;0.841131
9954.000000;0.841469
9953.000000;0.841526
9952.000000;0.840881
9951.000000;0.839759
9950.000000;0.838831
9949.000000;0.838451
9948.000000;0.838399
9947.000000;0.838364
9946.000000;0.838284
9945.000000;0.838176
9944.000000;0.837984
9943.000000;0.837747
9942.000000;0.837647
9941.000000;0.837752
9940.000000;0.837902
9939.000000;0.837962
9938.000000;0.837997
9937.000000;0.838078
9936.000000;0.838121
9935.000000;0.838070
9934.000000;0.838042
9933.000000;0.838110
9932.000000;0.838051
9931.000000;0.837519
9930.000000;0.836493
9929.000000;0.835445
9928.000000;0.834991
9927.000000;0.835355
9926.000000;0.836147
9925.000000;0.836702
9924.000000;0.836710
9923.000000;0.836442
9922.000000;0.836322
9921.000000;0.836418
9920.000000;0.836469
9919.000000;0.836287
9918.000000;0.835910
9917.000000;0.835446
9916.000000;0.835000
9915.000000;0.834746
9914.000000;0.834858
9913.000000;0.835316
9912.000000;0.835937
9911.000000;0.836583
9910.000000;0.837163
9909.000000;0.837451
9908.000000;0.837172
9907.000000;0.836344
9906.000000;0.835354
9905.000000;0.834606
9904.000000;0.834208
9903.000000;0.834023
9902.000000;0.833865
9901.000000;0.833632
9900.000000;0.833398
9899.000000;0.833429
9898.000000;0.833933
9897.000000;0.834708
9896.000000;0.835175
9895.000000;0.834888
9894.000000;0.833974
9893.000000;0.832991
9892.000000;0.832427
9891.000000;0.832312
9890.000000;0.832277
9889.000000;0.831996
9888.000000;0.831609
9887.000000;0.831598
9886.000000;0.832146
9885.000000;0.832802
9884.000000;0.832963
9883.000000;0.832577
9882.000000;0.832102
9881.000000;0.831842
9880.000000;0.831664
9879.000000;0.831368
9878.000000;0.830985
9877.000000;0.830655
9876.000000;0.830451
9875.000000;0.830417
9874.000000;0.830538
9873.000000;0.830600
9872.000000;0.830332
9871.000000;0.829810
9870.000000;0.829426
9869.000000;0.829348
9868.000000;0.829293
9867.000000;0.829015
9866.000000;0.828761
9865.000000;0.828950
9864.000000;0.829602
9863.000000;0.830355
9862.000000;0.830906
9861.000000;0.831156
9860.000000;0.831000
9859.000000;0.830328
9858.000000;0.829291
9857.000000;0.828340
9856.000000;0.827888
9855.000000;0.828001
9854.000000;0.828416
9853.000000;0.828745
9852.000000;0.828701
9851.000000;0.828281
9850.000000;0.827819
9849.000000;0.827740
9848.000000;0.828161
9847.000000;0.828737
9846.000000;0.828935
9845.000000;0.828478
9844.000000;0.827527
9843.000000;0.826532
9842.000000;0.825946
9841.000000;0.825987
9840.000000;0.826514
9839.000000;0.827099
9838.000000;0.827291
9837.000000;0.826961
9836.000000;0.826419
9835.000000;0.826127
9834.000000;0.826267
9833.000000;0.826592
9832.000000;0.826686
9831.000000;0.826313
9830.000000;0.825574
9829.000000;0.824825
9828.000000;0.824456
9827.000000;0.824609
9826.000000;0.825026
9825.000000;0.825255
9824.000000;0.825104
9823.000000;0.824823
9822.000000;0.824789
9821.000000;0.825121
9820.000000;0.825660
9819.000000;0.826182
9818.000000;0.826516
9817.000000;0.826551
9816.000000;0.826301
9815.000000;0.825901
9814.000000;0.825435
9813.000000;0.824858
9812.000000;0.824208
9811.000000;0.823765
9810.000000;0.823813
9809.000000;0.824273
9808.000000;0.824758
9807.000000;0.824969
9806.000000;0.824881
9805.000000;0.824588
9804.000000;0.824173
9803.000000;0.823769
9802.000000;0.823506
9801.000000;0.823342
9800.000000;0.823080
9799.000000;0.822631
9798.000000;0.822176
9797.000000;0.821998
9796.000000;0.822211
9795.000000;0.822662
9794.000000;0.823036
9793.000000;0.823097
9792.000000;0.822906
9791.000000;0.822786
9790.000000;0.822970
9789.000000;0.823338
9788.000000;0.823561
9787.000000;0.823436
9786.000000;0.822957
9785.000000;0.822211
9784.000000;0.821399
9783.000000;0.820877
9782.000000;0.820897
9781.000000;0.821296
9780.000000;0.821625
9779.000000;0.821627
9778.000000;0.821454
9777.000000;0.821369
9776.000000;0.821446
9775.000000;0.821616
9774.000000;0.821819
9773.000000;0.821989
9772.000000;0.821995
9771.000000;0.821692
9770.000000;0.821012
9769.000000;0.820001
9768.000000;0.818869
9767.000000;0.817998
9766.000000;0.817753
9765.000000;0.818198
9764.000000;0.819063
9763.000000;0.819993
9762.000000;0.820771
9761.000000;0.821327
9760.000000;0.821665
9759.000000;0.821812
9758.000000;0.821755
9757.000000;0.821398
9756.000000;0.820674
9755.000000;0.819719
9754.000000;0.818827
9753.000000;0.818202
9752.000000;0.817844
9751.000000;0.817651
9750.000000;0.817570
9749.000000;0.817627
9748.000000;0.817891
9747.000000;0.818380
9746.000000;0.818959
9745.000000;0.819384
9744.000000;0.819512
9743.000000;0.819398
9742.000000;0.819085
9741.000000;0.818457
9740.000000;0.817491
9739.000000;0.816538
9738.000000;0.816067
9737.000000;0.816149
9736.000000;0.816419
9735.000000;0.816550
9734.000000;0.816527
9733.000000;0.816438
9732.000000;0.816305
9731.000000;0.816208
9730.000000;0.816301
9729.000000;0.816555
9728.000000;0.816675
9727.000000;0.816477
9726.000000;0.816150
9725.000000;0.815994
9724.000000;0.816044
9723.000000;0.816109
9722.000000;0.816096
9721.000000;0.816067
9720.000000;0.816064
9719.000000;0.816027
9718.000000;0.815894
9717.000000;0.815640
9716.000000;0.815263
9715.000000;0.814808
9714.000000;0.814409
9713.000000;0.814215
9712.000000;0.814265
9711.000000;0.814474
9710.000000;0.814704
9709.000000;0.814804
9708.000000;0.814673
9707.000000;0.814361
9706.000000;0.814045
9705.000000;0.813830
9704.000000;0.813609
9703.000000;0.813234
9702.000000;0.812760
9701.000000;0.812445
9700.000000;0.812509
9699.000000;0.812973
9698.000000;0.813689
9697.000000;0.814390
9696.000000;0.814752
9695.000000;0.814568
9694.000000;0.813972
9693.000000;0.813406
9692.000000;0.813241
9691.000000;0.813445
9690.000000;0.813670
9689.000000;0.813649
9688.000000;0.813397
9687.000000;0.813067
9686.000000;0.812742
9685.000000;0.812478
9684.000000;0.812388
9683.000000;0.812517
9682.000000;0.812659
9681.000000;0.812492
9680.000000;0.811976
9679.000000;0.811482
9678.000000;0.811413
9677.000000;0.811780
9676.000000;0.812213
9675.000000;0.812319
9674.000000;0.811968
9673.000000;0.811324
9672.000000;0.810678
9671.000000;0.810219
9670.000000;0.809887
9669.000000;0.809499
9668.000000;0.809041
9667.000000;0.808740
9666.000000;0.808787
9665.000000;0.809071
9664.000000;0.809282
9663.000000;0.809198
9662.000000;0.808805
9661.000000;0.808244
9660.000000;0.807763
9659.000000;0.807637
9658.000000;0.807987
9657.000000;0.808657
9656.000000;0.809332
9655.000000;0.809761
9654.000000;0.809839
9653.000000;0.809582
9652.000000;0.809138
9651.000000;0.808736
9650.000000;0.808486
9649.000000;0.808278
9648.000000;0.807969
9647.000000;0.807603
9646.000000;0.807349
9645.000000;0.807309
9644.000000;0.807473
9643.000000;0.807766
9642.000000;0.808005
9641.000000;0.807945
9640.000000;0.807554
9639.000000;0.807163
9638.000000;0.807151
9637.000000;0.807534
9636.000000;0.808019
9635.000000;0.808384
9634.000000;0.808598
9633.000000;0.808628
9632.000000;0.808385
9631.000000;0.807907
9630.000000;0.807408
9629.000000;0.807073
9628.000000;0.806938
9627.000000;0.806963
9626.000000;0.807081
9625.000000;0.807150
9624.000000;0.807032
9623.000000;0.806759
9622.000000;0.806536
9621.000000;0.806501
9620.000000;0.806577
9619.000000;0.806565
9618.000000;0.806306
9617.000000;0.805785
9616.000000;0.805194
9615.000000;0.804842
9614.000000;0.804892
9613.000000;0.805179
9612.000000;0.805392
9611.000000;0.805385
9610.000000;0.805210
9609.000000;0.804925
9608.000000;0.804568
9607.000000;0.804265
9606.000000;0.804189
9605.000000;0.804380
9604.000000;0.804742
9603.000000;0.805138
9602.000000;0.805382
9601.000000;0.805221
9600.000000;0.804601
9599.000000;0.803875
9598.000000;0.803514
9597.000000;0.803612
9596.000000;0.803894
9595.000000;0.804132
9594.000000;0.804291
9593.000000;0.804286
9592.000000;0.803981
9591.000000;0.803510
9590.000000;0.803257
9589.000000;0.803358
9588.000000;0.803507
9587.000000;0.803402
9586.000000;0.803130
9585.000000;0.802909
9584.000000;0.802744
9583.000000;0.802556
9582.000000;0.802432
9581.000000;0.802449
9580.000000;0.802428
9579.000000;0.802132
9578.000000;0.801640
9577.000000;0.801249
9576.000000;0.801116
9575.000000;0.801223
9574.000000;0.801577
9573.000000;0.802156
9572.000000;0.802686
9571.000000;0.802795
9570.000000;0.802448
9569.000000;0.801977
9568.000000;0.801618
9567.000000;0.801250
9566.000000;0.800719
9565.000000;0.800209
9564.000000;0.800086
9563.000000;0.800465
9562.000000;0.801080
9561.000000;0.801553
9560.000000;0.801688
9559.000000;0.801539
9558.000000;0.801299
9557.000000;0.801170
9556.000000;0.801245
9555.000000;0.801465
9554.000000;0.801672
9553.000000;0.801733
9552.000000;0.801625
9551.000000;0.801415
9550.000000;0.801177
9549.000000;0.800933
9548.000000;0.800677
9547.000000;0.800440
9546.000000;0.800279
9545.000000;0.800185
9544.000000;0.800036
9543.000000;0.799733
9542.000000;0.799392
9541.000000;0.799321
9540.000000;0.799720
9539.000000;0.800405
9538.000000;0.800918
9537.000000;0.800945
9536.000000;0.800589
9535.000000;0.800179
9534.000000;0.799885
9533.000000;0.799620
9532.000000;0.799263
9531.000000;0.798834
9530.000000;0.798408
9529.000000;0.797981
9528.000000;0.797545
9527.000000;0.797204
9526.000000;0.797081
9525.000000;0.797120
9524.000000;0.797102
9523.000000;0.796913
9522.000000;0.796701
9521.000000;0.796705
9520.000000;0.796961
9519.000000;0.797226
9518.000000;0.797191
9517.000000;0.796744
9516.000000;0.796033
9515.000000;0.795324
9514.000000;0.794865
9513.000000;0.794806
9512.000000;0.795125
9511.000000;0.795590
9510.000000;0.795882
9509.000000;0.795891
9508.000000;0.795805
9507.000000;0.795822
9506.000000;0.795865
9505.000000;0.795731
9504.000000;0.795441
9503.000000;0.795213
9502.000000;0.795125
9501.000000;0.795052
9500.000000;0.794980
9499.000000;0.795105
9498.000000;0.795464
9497.000000;0.795724
9496.000000;0.795542
9495.000000;0.794976
9494.000000;0.794317
9493.000000;0.793703
9492.000000;0.793163
9491.000000;0.792885
9490.000000;0.793100
9489.000000;0.793672
9488.000000;0.794120
9487.000000;0.794134
9486.000000;0.793863
9485.000000;0.793623
9484.000000;0.793497
9483.000000;0.793350
9482.000000;0.793098
9481.000000;0.792841
9480.000000;0.792774
9479.000000;0.793009
9478.000000;0.793428
9477.000000;0.793720
9476.000000;0.793644
9475.000000;0.793254
9474.000000;0.792790
9473.000000;0.792387
9472.000000;0.792023
9471.000000;0.791742
9470.000000;0.791722
9469.000000;0.792080
9468.000000;0.792712
9467.000000;0.793383
9466.000000;0.793868
9465.000000;0.793983
9464.000000;0.793637
9463.000000;0.792944
9462.000000;0.792180
9461.000000;0.791551
9460.000000;0.791067
9459.000000;0.790689
9458.000000;0.790459
9457.000000;0.790421
9456.000000;0.790493
9455.000000;0.790553
9454.000000;0.790604
9453.000000;0.790750
9452.000000;0.791007
9451.000000;0.791223
9450.000000;0.791218
9449.000000;0.790965
9448.000000;0.790613
9447.000000;0.790345
9446.000000;0.790222
9445.000000;0.790151
9444.000000;0.790015
9443.000000;0.789813
9442.000000;0.789664
9441.000000;0.789675
9440.000000;0.789836
9439.000000;0.790039
9438.000000;0.790174
9437.000000;0.790199
9436.000000;0.790135
9435.000000;0.790037
9434.000000;0.789945
9433.000000;0.789859
9432.000000;0.789737
9431.000000;0.789526
9430.000000;0.789214
9429.000000;0.788877
9428.000000;0.788653
9427.000000;0.788581
9426.000000;0.788496
9425.000000;0.788154
9424.000000;0.787514
9423.000000;0.786833
9422.000000;0.786437
9421.000000;0.786455
9420.000000;0.786778
9419.000000;0.787184
9418.000000;0.787437
9417.000000;0.787379
9416.000000;0.787049
9415.000000;0.786695
9414.000000;0.786571
9413.000000;0.786733
9412.000000;0.787034
9411.000000;0.787271
9410.000000;0.787289
9409.000000;0.787058
9408.000000;0.786732
9407.000000;0.786550
9406.000000;0.786581
9405.000000;0.786633
9404.000000;0.786518
9403.000000;0.786289
9402.000000;0.786097
9401.000000;0.785929
9400.000000;0.785690
9399.000000;0.785476
9398.000000;0.785503
9397.000000;0.785752
9396.000000;0.785896
9395.000000;0.785684
9394.000000;0.785240
9393.000000;0.784865
9392.000000;0.784676
9391.000000;0.784557
9390.000000;0.784378
9389.000000;0.784129
9388.000000;0.783879
9387.000000;0.783695
9386.000000;0.783624
9385.000000;0.783688
9384.000000;0.783864
9383.000000;0.784067
9382.000000;0.784178
9381.000000;0.784123
9380.000000;0.783961
9379.000000;0.783864
9378.000000;0.783950
9377.000000;0.784145
9376.000000;0.784252
9375.000000;0.784142
9374.000000;0.783846
9373.000000;0.783487
9372.000000;0.783180
9371.000000;0.782979
9370.000000;0.782869
9369.000000;0.782801
9368.000000;0.782771
9367.000000;0.782829
9366.000000;0.782980
9365.000000;0.783126
9364.000000;0.783175
9363.000000;0.783160
9362.000000;0.783148
9361.000000;0.783077
9360.000000;0.782802
9359.000000;0.782305
9358.000000;0.781781
9357.000000;0.781494
9356.000000;0.781587
9355.000000;0.781993
9354.000000;0.782441
9353.000000;0.782594
9352.000000;0.782321
9351.000000;0.781821
9350.000000;0.781401
9349.000000;0.781148
9348.000000;0.780929
9347.000000;0.780691
9346.000000;0.780579
9345.000000;0.780711
9344.000000;0.780978
9343.000000;0.781136
9342.000000;0.781042
9341.000000;0.780738
9340.000000;0.780397
9339.000000;0.780218
9338.000000;0.780263
9337.000000;0.780335
9336.000000;0.780140
9335.000000;0.779636
9334.000000;0.779128
9333.000000;0.778914
9332.000000;0.778941
9331.000000;0.778948
9330.000000;0.778871
9329.000000;0.778923
9328.000000;0.779242
9327.000000;0.779609
9326.000000;0.779632
9325.000000;0.779168
9324.000000;0.778495
9323.000000;0.778072
9322.000000;0.778159
9321.000000;0.778647
9320.000000;0.779199
9319.000000;0.779531
9318.000000;0.779598
9317.000000;0.779521
9316.000000;0.779366
9315.000000;0.779054
9314.000000;0.778493
9313.000000;0.777791
9312.000000;0.777270
9311.000000;0.777207
9310.000000;0.777584
9309.000000;0.778106
9308.000000;0.778461
9307.000000;0.778547
9306.000000;0.778469
9305.000000;0.778360
9304.000000;0.778238
9303.000000;0.778011
9302.000000;0.777607
9301.000000;0.777113
9300.000000;0.776746
9299.000000;0.776644
9298.000000;0.776711
9297.000000;0.776716
9296.000000;0.776550
9295.000000;0.776322
9294.000000;0.776212
9293.000000;0.776294
9292.000000;0.776511
9291.000000;0.776732
9290.000000;0.776815
9289.000000;0.776690
9288.000000;0.776448
9287.000000;0.776293
9286.000000;0.776335
9285.000000;0.776473
9284.000000;0.776518
9283.000000;0.776380
9282.000000;0.776098
9281.000000;0.775779
9280.000000;0.775564
9279.000000;0.775580
9278.000000;0.775812
9277.000000;0.776035
9276.000000;0.775994
9275.000000;0.775660
9274.000000;0.775242
9273.000000;0.774955
9272.000000;0.774815
9271.000000;0.774676
9270.000000;0.774419
9269.000000;0.774092
9268.000000;0.773881
9267.000000;0.773934
9266.000000;0.774207
9265.000000;0.774481
9264.000000;0.774576
9263.000000;0.774506
9262.000000;0.774408
9261.000000;0.774364
9260.000000;0.774340
9259.000000;0.774270
9258.000000;0.774116
9257.000000;0.773857
9256.000000;0.773480
9255.000000;0.773013
9254.000000;0.772535
9253.000000;0.772126
9252.000000;0.771816
9251.000000;0.771584
9250.000000;0.771378
9249.000000;0.771145
9248.000000;0.770881
9247.000000;0.770669
9246.000000;0.770649
9245.000000;0.770912
9244.000000;0.771396
9243.000000;0.771899
9242.000000;0.772236
9241.000000;0.772370
9240.000000;0.772361
9239.000000;0.772219
9238.000000;0.771878
9237.000000;0.771361
9236.000000;0.770866
9235.000000;0.770581
9234.000000;0.770481
9233.000000;0.770384
9232.000000;0.770209
9231.000000;0.770089
9230.000000;0.770203
9229.000000;0.770571
9228.000000;0.770978
9227.000000;0.771113
9226.000000;0.770814
9225.000000;0.770271
9224.000000;0.769906
9223.000000;0.769946
9222.000000;0.770169
9221.000000;0.770181
9220.000000;0.769882
9219.000000;0.769508
9218.000000;0.769264
9217.000000;0.769132
9216.000000;0.769055
9215.000000;0.769088
9214.000000;0.769306
9213.000000;0.769696
9212.000000;0.770167
9211.000000;0.770522
9210.000000;0.770424
9209.000000;0.769638
9208.000000;0.768426
9207.000000;0.767470
9206.000000;0.767256
9205.000000;0.767628
9204.000000;0.768050
9203.000000;0.768161
9202.000000;0.767959
9201.000000;0.767616
9200.000000;0.767325
9199.000000;0.767246
9198.000000;0.767397
9197.000000;0.767595
9196.000000;0.767637
9195.000000;0.767516
9194.000000;0.767363
9193.000000;0.767248
9192.000000;0.767134
9191.000000;0.766989
9190.000000;0.766834
9189.000000;0.766702
9188.000000;0.766608
9187.000000;0.766537
9186.000000;0.766441
9185.000000;0.766294
9184.000000;0.766190
9183.000000;0.766254
9182.000000;0.766434
9181.000000;0.766505
9180.000000;0.766353
9179.000000;0.766135
9178.000000;0.766059
9177.000000;0.766134
9176.000000;0.766223
9175.000000;0.766231
9174.000000;0.766114
9173.000000;0.765858
9172.000000;0.765560
9171.000000;0.765396
9170.000000;0.765383
9169.000000;0.765284
9168.000000;0.764916
9167.000000;0.764441
9166.000000;0.764170
9165.000000;0.764184
9164.000000;0.764342
9163.000000;0.764535
9162.000000;0.764740
9161.000000;0.764861
9160.000000;0.764787
9159.000000;0.764561
9158.000000;0.764329
9157.000000;0.764116
9156.000000;0.763859
9155.000000;0.763623
9154.000000;0.763589
9153.000000;0.763779
9152.000000;0.763996
9151.000000;0.764066
9150.000000;0.763998
9149.000000;0.763862
9148.000000;0.763660
9147.000000;0.763401
9146.000000;0.763163
9145.000000;0.763014
9144.000000;0.762937
9143.000000;0.762865
9142.000000;0.762728
9141.000000;0.762448
9140.000000;0.762003
9139.000000;0.761524
9138.000000;0.761246
9137.000000;0.761314
9136.000000;0.761660
9135.000000;0.762072
9134.000000;0.762339
9133.000000;0.762354
9132.000000;0.762161
9131.000000;0.761894
9130.000000;0.761658
9129.000000;0.761463
9128.000000;0.761304
9127.000000;0.761211
9126.000000;0.761186
9125.000000;0.761162
9124.000000;0.761101
9123.000000;0.761052
9122.000000;0.761030
9121.000000;0.760950
9120.000000;0.760782
9119.000000;0.760660
9118.000000;0.760692
9117.000000;0.760756
9116.000000;0.760687
9115.000000;0.760575
9114.000000;0.760658
9113.000000;0.760956
9112.000000;0.761211
9111.000000;0.761223
9110.000000;0.761057
9109.000000;0.760882
9108.000000;0.760773
9107.000000;0.760719
9106.000000;0.760675
9105.000000;0.760522
9104.000000;0.760146
9103.000000;0.759612
9102.000000;0.759153
9101.000000;0.758926
9100.000000;0.758879
9099.000000;0.758886
9098.000000;0.758886
9097.000000;0.758852
9096.000000;0.758734
9095.000000;0.758534
9094.000000;0.758363
9093.000000;0.758332
9092.000000;0.758440
9091.000000;0.758604
9090.000000;0.758761
9089.000000;0.758877
9088.000000;0.758925
9087.000000;0.758900
9086.000000;0.758820
9085.000000;0.758704
9084.000000;0.758563
9083.000000;0.758400
9082.000000;0.758169
9081.000000;0.757782
9080.000000;0.757233
9079.000000;0.756692
9078.000000;0.756384
9077.000000;0.756360
9076.000000;0.756456
9075.000000;0.756488
9074.000000;0.756398
9073.000000;0.756239
9072.000000;0.756122
9071.000000;0.756169
9070.000000;0.756404
9069.000000;0.756650
9068.000000;0.756656
9067.000000;0.756378
9066.000000;0.756042
9065.000000;0.755896
9064.000000;0.755960
9063.000000;0.756068
9062.000000;0.756069
9061.000000;0.755950
9060.000000;0.755805
9059.000000;0.755728
9058.000000;0.755726
9057.000000;0.755704
9056.000000;0.755594
9055.000000;0.755457
9054.000000;0.755400
9053.000000;0.755424
9052.000000;0.755437
9051.000000;0.755394
9050.000000;0.755314
9049.000000;0.755173
9048.000000;0.754912
9047.000000;0.754595
9046.000000;0.754426
9045.000000;0.754517
9044.000000;0.754732
9043.000000;0.754839
9042.000000;0.754751
9041.000000;0.754561
9040.000000;0.754378
9039.000000;0.754221
9038.000000;0.754054
9037.000000;0.753878
9036.000000;0.753758
9035.000000;0.753753
9034.000000;0.753809
9033.000000;0.753768
9032.000000;0.753544
9031.000000;0.753264
9030.000000;0.753130
9029.000000;0.753157
9028.000000;0.753149
9027.000000;0.752967
9026.000000;0.752691
9025.000000;0.752483
9024.000000;0.752411
9023.000000;0.752463
9022.000000;0.752625
9021.000000;0.752812
9020.000000;0.752835
9019.000000;0.752586
9018.000000;0.752224
9017.000000;0.752037
9016.000000;0.752096
9015.000000;0.752195
9014.000000;0.752142
9013.000000;0.751993
9012.000000;0.751895
9011.000000;0.751831
9010.000000;0.751649
9009.000000;0.751338
9008.000000;0.751123
9007.000000;0.751226
9006.000000;0.751611
9005.000000;0.752018
9004.000000;0.752200
9003.000000;0.752054
9002.000000;0.751616
9001.000000;0.751041
9000.000000;0.750587
8999.000000;0.750471
8998.000000;0.750659
8997.000000;0.750853
8996.000000;0.750773
8995.000000;0.750420
8994.000000;0.750044
8993.000000;0.749896
8992.000000;0.750051
8991.000000;0.750402
8990.000000;0.750729
8989.000000;0.750814
8988.000000;0.750610
8987.000000;0.750295
8986.000000;0.750085
8985.000000;0.749989
8984.000000;0.749823
8983.000000;0.749476
8982.000000;0.749095
8981.000000;0.748927
8980.000000;0.749039
8979.000000;0.749245
8978.000000;0.749317
8977.000000;0.749239
8976.000000;0.749189
8975.000000;0.749294
8974.000000;0.749433
8973.000000;0.749342
8972.000000;0.748909
8971.000000;0.748304
8970.000000;0.747812
8969.000000;0.747598
8968.000000;0.747637
8967.000000;0.747822
8966.000000;0.748040
8965.000000;0.748190
8964.000000;0.748208
8963.000000;0.748088
8962.000000;0.747875
8961.000000;0.747645
8960.000000;0.747472
8959.000000;0.747389
8958.000000;0.747353
8957.000000;0.747290
8956.000000;0.747202
8955.000000;0.747165
8954.000000;0.747197
8953.000000;0.747194
8952.000000;0.747073
8951.000000;0.746891
8950.000000;0.746748
8949.000000;0.746617
8948.000000;0.746394
8947.000000;0.746094
8946.000000;0.745891
8945.000000;0.745912
8944.000000;0.746064
8943.000000;0.746104
8942.000000;0.745872
8941.000000;0.745439
8940.000000;0.745049
8939.000000;0.744919
8938.000000;0.745046
8937.000000;0.745218
8936.000000;0.745237
8935.000000;0.745113
8934.000000;0.745032
8933.000000;0.745123
8932.000000;0.745323
8931.000000;0.745451
8930.000000;0.745390
8929.000000;0.745185
8928.000000;0.744983
8927.000000;0.744893
8926.000000;0.744883
8925.000000;0.744840
8924.000000;0.744720
8923.000000;0.744624
8922.000000;0.744659
8921.000000;0.744779
8920.000000;0.744822
8919.000000;0.744715
8918.000000;0.744579
8917.000000;0.744577
8916.000000;0.744698
8915.000000;0.744776
8914.000000;0.744705
8913.000000;0.744571
8912.000000;0.744470
8911.000000;0.744295
8910.000000;0.743833
8909.000000;0.743111
8908.000000;0.742492
8907.000000;0.742312
8906.000000;0.742512
8905.000000;0.742759
8904.000000;0.742864
8903.000000;0.742908
8902.000000;0.742989
8901.000000;0.743063
8900.000000;0.743082
8899.000000;0.743104
8898.000000;0.743155
8897.000000;0.743120
8896.000000;0.742895
8895.000000;0.742562
8894.000000;0.742289
8893.000000;0.742115
8892.000000;0.741971
8891.000000;0.741839
8890.000000;0.741777
8889.000000;0.741798
8888.000000;0.741850
8887.000000;0.741912
8886.000000;0.742023
8885.000000;0.742181
8884.000000;0.742280
8883.000000;0.742167
8882.000000;0.741775
8881.000000;0.741201
8880.000000;0.740683
8879.000000;0.740428
8878.000000;0.740423
8877.000000;0.740464
8876.000000;0.740385
8875.000000;0.740235
8874.000000;0.740169
8873.000000;0.740234
8872.000000;0.740343
8871.000000;0.740417
8870.000000;0.740460
8869.000000;0.740492
8868.000000;0.740468
8867.000000;0.740308
8866.000000;0.740022
8865.000000;0.739766
8864.000000;0.739746
8863.000000;0.739998
8862.000000;0.740307
8861.000000;0.740409
8860.000000;0.740266
8859.000000;0.740041
8858.000000;0.739813
8857.000000;0.739487
8856.000000;0.739015
8855.000000;0.738553
8854.000000;0.738301
8853.000000;0.738293
8852.000000;0.738450
8851.000000;0.738709
8850.000000;0.738996
8849.000000;0.739163
8848.000000;0.739116
8847.000000;0.738950
8846.000000;0.738820
8845.000000;0.738749
8844.000000;0.738674
8843.000000;0.738626
8842.000000;0.738677
8841.000000;0.738745
8840.000000;0.738617
8839.000000;0.738222
8838.000000;0.737763
8837.000000;0.737508
8836.000000;0.737535
8835.000000;0.737697
8834.000000;0.737757
8833.000000;0.737558
8832.000000;0.737151
8831.000000;0.736784
8830.000000;0.736697
8829.000000;0.736905
8828.000000;0.737208
8827.000000;0.737407
8826.000000;0.737461
8825.000000;0.737431
8824.000000;0.737375
8823.000000;0.737321
8822.000000;0.737294
8821.000000;0.737304
8820.000000;0.737335
8819.000000;0.737346
8818.000000;0.737286
8817.000000;0.737149
8816.000000;0.737001
8815.000000;0.736925
8814.000000;0.736912
8813.000000;0.736868
8812.000000;0.736789
8811.000000;0.736813
8810.000000;0.737013
8809.000000;0.737209
8808.000000;0.737139
8807.000000;0.736790
8806.000000;0.736411
8805.000000;0.736194
8804.000000;0.736080
8803.000000;0.735911
8802.000000;0.735647
8801.000000;0.735369
8800.000000;0.735170
8799.000000;0.735111
8798.000000;0.735213
8797.000000;0.735405
8796.000000;0.735539
8795.000000;0.735520
8794.000000;0.735415
8793.000000;0.735364
8792.000000;0.735412
8791.000000;0.735484
8790.000000;0.735503
8789.000000;0.735465
8788.000000;0.735388
8787.000000;0.735243
8786.000000;0.734975
8785.000000;0.734592
8784.000000;0.734206
8783.000000;0.733974
8782.000000;0.733979
8781.000000;0.734146
8780.000000;0.734284
8779.000000;0.734248
8778.000000;0.734065
8777.000000;0.733911
8776.000000;0.733920
8775.000000;0.734043
8774.000000;0.734104
8773.000000;0.733990
8772.000000;0.733753
8771.000000;0.733510
8770.000000;0.733317
8769.000000;0.733174
8768.000000;0.733110
8767.000000;0.733167
8766.000000;0.733297
8765.000000;0.733376
8764.000000;0.733332
8763.000000;0.733233
8762.000000;0.733206
8761.000000;0.733303
8760.000000;0.733454
8759.000000;0.733545
8758.000000;0.733521
8757.000000;0.733429
8756.000000;0.733338
8755.000000;0.733220
8754.000000;0.732969
8753.000000;0.732583
8752.000000;0.732249
8751.000000;0.732165
8750.000000;0.732310
8749.000000;0.732495
8748.000000;0.732591
8747.000000;0.732610
8746.000000;0.732594
8745.000000;0.732557
8744.000000;0.732537
8743.000000;0.732574
8742.000000;0.732593
8741.000000;0.732472
8740.000000;0.732238
8739.000000;0.732071
8738.000000;0.732056
8737.000000;0.732071
8736.000000;0.731998
8735.000000;0.731907
8734.000000;0.731935
8733.000000;0.732085
8732.000000;0.732239
8731.000000;0.732300
8730.000000;0.732226
8729.000000;0.731995
8728.000000;0.731658
8727.000000;0.731377
8726.000000;0.731305
8725.000000;0.731450
8724.000000;0.731685
8723.000000;0.731841
8722.000000;0.731790
8721.000000;0.731537
8720.000000;0.731288
8719.000000;0.731296
8718.000000;0.731562
8717.000000;0.731796
8716.000000;0.731755
8715.000000;0.731521
8714.000000;0.731305
8713.000000;0.731135
8712.000000;0.730893
8711.000000;0.730607
8710.000000;0.730490
8709.000000;0.730676
8708.000000;0.731044
8707.000000;0.731346
8706.000000;0.731420
8705.000000;0.731261
8704.000000;0.730979
8703.000000;0.730712
8702.000000;0.730531
8701.000000;0.730431
8700.000000;0.730421
8699.000000;0.730565
8698.000000;0.730861
8697.000000;0.731152
8696.000000;0.731238
8695.000000;0.731066
8694.000000;0.730727
8693.000000;0.730314
8692.000000;0.729885
8691.000000;0.729538
8690.000000;0.729397
8689.000000;0.729475
8688.000000;0.729631
8687.000000;0.729684
8686.000000;0.729568
8685.000000;0.729352
8684.000000;0.729157
8683.000000;0.729032
8682.000000;0.728905
8681.000000;0.728685
8680.000000;0.728419
8679.000000;0.728278
8678.000000;0.728350
8677.000000;0.728520
8676.000000;0.728593
8675.000000;0.728497
8674.000000;0.728310
8673.000000;0.728157
8672.000000;0.728123
8671.000000;0.728207
8670.000000;0.728302
8669.000000;0.728258
8668.000000;0.728025
8667.000000;0.727698
8666.000000;0.727386
8665.000000;0.727106
8664.000000;0.726852
8663.000000;0.726674
8662.000000;0.726625
8661.000000;0.726676
8660.000000;0.726773
8659.000000;0.726904
8658.000000;0.727048
8657.000000;0.727121
8656.000000;0.727068
8655.000000;0.726933
8654.000000;0.726780
8653.000000;0.726592
8652.000000;0.726351
8651.000000;0.726147
8650.000000;0.726096
8649.000000;0.726192
8648.000000;0.726310
8647.000000;0.726323
8646.000000;0.726168
8645.000000;0.725876
8644.000000;0.725603
8643.000000;0.725531
8642.000000;0.725636
8641.000000;0.725650
8640.000000;0.725374
8639.000000;0.724950
8638.000000;0.724690
8637.000000;0.724701
8636.000000;0.724824
8635.000000;0.724891
8634.000000;0.724855
8633.000000;0.724709
8632.000000;0.724447
8631.000000;0.724149
8630.000000;0.723958
8629.000000;0.723919
8628.000000;0.723927
8627.000000;0.723873
8626.000000;0.723747
8625.000000;0.723583
8624.000000;0.723398
8623.000000;0.723215
8622.000000;0.723083
8621.000000;0.723040
8620.000000;0.723070
8619.000000;0.723112
8618.000000;0.723072
8617.000000;0.722880
8616.000000;0.722578
8615.000000;0.722292
8614.000000;0.722084
8613.000000;0.721890
8612.000000;0.721662
8611.000000;0.721486
8610.000000;0.721471
8609.000000;0.721572
8608.000000;0.721650
8607.000000;0.721635
8606.000000;0.721538
8605.000000;0.721355
8604.000000;0.721087
8603.000000;0.720813
8602.000000;0.720607
8601.000000;0.720413
8600.000000;0.720134
8599.000000;0.719817
8598.000000;0.719617
8597.000000;0.719575
8596.000000;0.719590
8595.000000;0.719591
8594.000000;0.719593
8593.000000;0.719560
8592.000000;0.719382
8591.000000;0.719055
8590.000000;0.718761
8589.000000;0.718687
8588.000000;0.718814
8587.000000;0.718948
8586.000000;0.718900
8585.000000;0.718637
8584.000000;0.718306
8583.000000;0.718116
8582.000000;0.718149
8581.000000;0.718258
8580.000000;0.718210
8579.000000;0.717924
8578.000000;0.717530
8577.000000;0.717216
8576.000000;0.717089
8575.000000;0.717136
8574.000000;0.717237
8573.000000;0.717226
8572.000000;0.717026
8571.000000;0.716715
8570.000000;0.716403
8569.000000;0.716096
8568.000000;0.715780
8567.000000;0.715562
8566.000000;0.715567
8565.000000;0.715705
8564.000000;0.715737
8563.000000;0.715592
8562.000000;0.715448
8561.000000;0.715453
8560.000000;0.715511
8559.000000;0.715432
8558.000000;0.715172
8557.000000;0.714833
8556.000000;0.714515
8555.000000;0.714260
8554.000000;0.714082
8553.000000;0.713961
8552.000000;0.713838
8551.000000;0.713686
8550.000000;0.713546
8549.000000;0.713467
8548.000000;0.713447
8547.000000;0.713444
8546.000000;0.713412
8545.000000;0.713306
8544.000000;0.713111
8543.000000;0.712894
8542.000000;0.712738
8541.000000;0.712634
8540.000000;0.712496
8539.000000;0.712302
8538.000000;0.712119
8537.000000;0.711974
8536.000000;0.711801
8535.000000;0.711571
8534.000000;0.711381
8533.000000;0.711315
8532.000000;0.711309
8531.000000;0.711231
8530.000000;0.711049
8529.000000;0.710833
8528.000000;0.710647
8527.000000;0.710520
8526.000000;0.710473
8525.000000;0.710489
8524.000000;0.710472
8523.000000;0.710343
8522.000000;0.710150
8521.000000;0.710012
8520.000000;0.709949
8519.000000;0.709839
8518.000000;0.709585
8517.000000;0.709240
8516.000000;0.708947
8515.000000;0.708795
8514.000000;0.708762
8513.000000;0.708774
8512.000000;0.708772
8511.000000;0.708742
8510.000000;0.708708
8509.000000;0.708711
8508.000000;0.708769
8507.000000;0.708840
8506.000000;0.708846
8505.000000;0.708738
8504.000000;0.708546
8503.000000;0.708361
8502.000000;0.708254
8501.000000;0.708207
8500.000000;0.708133
8499.000000;0.707955
8498.000000;0.707685
8497.000000;0.707418
8496.000000;0.707233
8495.000000;0.707113
8494.000000;0.706975
8493.000000;0.706792
8492.000000;0.706637
8491.000000;0.706572
8490.000000;0.706558
8489.000000;0.706510
8488.000000;0.706428
8487.000000;0.706370
8486.000000;0.706326
8485.000000;0.706197
8484.000000;0.705935
8483.000000;0.705623
8482.000000;0.705363
8481.000000;0.705167
8480.000000;0.705003
8479.000000;0.704881
8478.000000;0.704834
8477.000000;0.704853
8476.000000;0.704893
8475.000000;0.704914
8474.000000;0.704869
8473.000000;0.704716
8472.000000;0.704482
8471.000000;0.704284
8470.000000;0.704202
8469.000000;0.704173
8468.000000;0.704076
8467.000000;0.703892
8466.000000;0.703705
8465.000000;0.703564
8464.000000;0.703427
8463.000000;0.703247
8462.000000;0.703036
8461.000000;0.702838
8460.000000;0.702685
8459.000000;0.702583
8458.000000;0.702522
8457.000000;0.702480
8456.000000;0.702433
8455.000000;0.702353
8454.000000;0.702198
8453.000000;0.701945
8452.000000;0.701651
8451.000000;0.701416
8450.000000;0.701275
8449.000000;0.701165
8448.000000;0.701056
8447.000000;0.701020
8446.000000;0.701111
8445.000000;0.701241
8444.000000;0.701259
8443.000000;0.701122
8442.000000;0.700894
8441.000000;0.700632
8440.000000;0.700348
8439.000000;0.700081
8438.000000;0.699884
8437.000000;0.699763
8436.000000;0.699678
8435.000000;0.699613
8434.000000;0.699564
8433.000000;0.699501
8432.000000;0.699391
8431.000000;0.699276
8430.000000;0.699215
8429.000000;0.699188
8428.000000;0.699122
8427.000000;0.699001
8426.000000;0.698872
8425.000000;0.698754
8424.000000;0.698631
8423.000000;0.698526
8422.000000;0.698479
8421.000000;0.698440
8420.000000;0.698298
8419.000000;0.698039
8418.000000;0.697793
8417.000000;0.697671
8416.000000;0.697646
8415.000000;0.697613
8414.000000;0.697510
8413.000000;0.697339
8412.000000;0.697137
8411.000000;0.696978
8410.000000;0.696939
8409.000000;0.697006
8408.000000;0.697063
8407.000000;0.697013
8406.000000;0.696872
8405.000000;0.696712
8404.000000;0.696560
8403.000000;0.696384
8402.000000;0.696155
8401.000000;0.695889
8400.000000;0.695643
8399.000000;0.695491
8398.000000;0.695459
8397.000000;0.695492
8396.000000;0.695506
8395.000000;0.695477
8394.000000;0.695433
8393.000000;0.695363
8392.000000;0.695212
8391.000000;0.694985
8390.000000;0.694769
8389.000000;0.694606
8388.000000;0.694414
8387.000000;0.694122
8386.000000;0.693821
8385.000000;0.693704
8384.000000;0.693843
8383.000000;0.694097
8382.000000;0.694253
8381.000000;0.694207
8380.000000;0.694013
8379.000000;0.693798
8378.000000;0.693644
8377.000000;0.693529
8376.000000;0.693368
8375.000000;0.693137
8374.000000;0.692937
8373.000000;0.692916
8372.000000;0.693090
8371.000000;0.693283
8370.000000;0.693284
8369.000000;0.693051
8368.000000;0.692737
8367.000000;0.692501
8366.000000;0.692347
8365.000000;0.692181
8364.000000;0.691969
8363.000000;0.691788
8362.000000;0.691714
8361.000000;0.691719
8360.000000;0.691723
8359.000000;0.691678
8358.000000;0.691581
8357.000000;0.691428
8356.000000;0.691215
8355.000000;0.690991
8354.000000;0.690850
8353.000000;0.690852
8352.000000;0.690976
8351.000000;0.691135
8350.000000;0.691230
8349.000000;0.691194
8348.000000;0.691027
8347.000000;0.690778
8346.000000;0.690491
8345.000000;0.690176
8344.000000;0.689846
8343.000000;0.689570
8342.000000;0.689435
8341.000000;0.689451
8340.000000;0.689521
8339.000000;0.689524
8338.000000;0.689422
8337.000000;0.689287
8336.000000;0.689214
8335.000000;0.689211
8334.000000;0.689181
8333.000000;0.689002
8332.000000;0.688652
8331.000000;0.688235
8330.000000;0.687894
8329.000000;0.687720
8328.000000;0.687717
8327.000000;0.687828
8326.000000;0.687960
8325.000000;0.688027
8324.000000;0.687993
8323.000000;0.687871
8322.000000;0.687684
8321.000000;0.687454
8320.000000;0.687237
8319.000000;0.687113
8318.000000;0.687083
8317.000000;0.687035
8316.000000;0.686851
8315.000000;0.686558
8314.000000;0.686303
8313.000000;0.686188
8312.000000;0.686185
8311.000000;0.686199
8310.000000;0.686160
8309.000000;0.686053
8308.000000;0.685904
8307.000000;0.685780
8306.000000;0.685754
8305.000000;0.685824
8304.000000;0.685885
8303.000000;0.685825
8302.000000;0.685640
8301.000000;0.685431
8300.000000;0.685295
8299.000000;0.685237
8298.000000;0.685200
8297.000000;0.685141
8296.000000;0.685046
8295.000000;0.684907
8294.000000;0.684713
8293.000000;0.684486
8292.000000;0.684290
8291.000000;0.684178
8290.000000;0.684138
8289.000000;0.684118
8288.000000;0.684080
8287.000000;0.684019
8286.000000;0.683946
8285.000000;0.683889
8284.000000;0.683890
8283.000000;0.683961
8282.000000;0.684043
8281.000000;0.684037
8280.000000;0.683901
8279.000000;0.683680
8278.000000;0.683432
8277.000000;0.683169
8276.000000;0.682867
8275.000000;0.682532
8274.000000;0.682216
8273.000000;0.682001
8272.000000;0.681935
8271.000000;0.681981
8270.000000;0.682021
8269.000000;0.681966
8268.000000;0.681847
8267.000000;0.681756
8266.000000;0.681716
8265.000000;0.681665
8264.000000;0.681589
8263.000000;0.681568
8262.000000;0.681662
8261.000000;0.681793
8260.000000;0.681822
8259.000000;0.681709
8258.000000;0.681553
8257.000000;0.681459
8256.000000;0.681419
8255.000000;0.681325
8254.000000;0.681082
8253.000000;0.680712
8252.000000;0.680330
8251.000000;0.680054
8250.000000;0.679914
8249.000000;0.679879
8248.000000;0.679918
8247.000000;0.680008
8246.000000;0.680090
8245.000000;0.680089
8244.000000;0.680000
8243.000000;0.679904
8242.000000;0.679882
8241.000000;0.679925
8240.000000;0.679951
8239.000000;0.679869
8238.000000;0.679649
8237.000000;0.679348
8236.000000;0.679076
8235.000000;0.678908
8234.000000;0.678820
8233.000000;0.678749
8232.000000;0.678683
8231.000000;0.678646
8230.000000;0.678602
8229.000000;0.678476
8228.000000;0.678267
8227.000000;0.678077
8226.000000;0.677976
8225.000000;0.677935
8224.000000;0.677905
8223.000000;0.677883
8222.000000;0.677863
8221.000000;0.677796
8220.000000;0.677672
8219.000000;0.677576
8218.000000;0.677580
8217.000000;0.677638
8216.000000;0.677640
8215.000000;0.677553
8214.000000;0.677424
8213.000000;0.677296
8212.000000;0.677158
8211.000000;0.676987
8210.000000;0.676766
8209.000000;0.676500
8208.000000;0.676232
8207.000000;0.676021
8206.000000;0.675876
8205.000000;0.675743
8204.000000;0.675601
8203.000000;0.675506
8202.000000;0.675502
8201.000000;0.675535
8200.000000;0.675526
8199.000000;0.675470
8198.000000;0.675413
8197.000000;0.675358
8196.000000;0.675269
8195.000000;0.675163
8194.000000;0.675107
8193.000000;0.675119
8192.000000;0.675128
8191.000000;0.675049
8190.000000;0.674857
8189.000000;0.674609
8188.000000;0.674407
8187.000000;0.674324
8186.000000;0.674329
8185.000000;0.674306
8184.000000;0.674170
8183.000000;0.673959
8182.000000;0.673774
8181.000000;0.673665
8180.000000;0.673615
8179.000000;0.673595
8178.000000;0.673580
8177.000000;0.673526
8176.000000;0.673395
8175.000000;0.673202
8174.000000;0.672990
8173.000000;0.672800
8172.000000;0.672675
8171.000000;0.672671
8170.000000;0.672794
8169.000000;0.672942
8168.000000;0.672990
8167.000000;0.672919
8166.000000;0.672804
8165.000000;0.672693
8164.000000;0.672563
8163.000000;0.672386
8162.000000;0.672191
8161.000000;0.672034
8160.000000;0.671947
8159.000000;0.671927
8158.000000;0.671933
8157.000000;0.671908
8156.000000;0.671815
8155.000000;0.671663
8154.000000;0.671476
8153.000000;0.671252
8152.000000;0.671003
8151.000000;0.670797
8150.000000;0.670703
8149.000000;0.670709
8148.000000;0.670731
8147.000000;0.670713
8146.000000;0.670661
8145.000000;0.670598
8144.000000;0.670544
8143.000000;0.670527
8142.000000;0.670554
8141.000000;0.670555
8140.000000;0.670421
8139.000000;0.670132
8138.000000;0.669790
8137.000000;0.669518
8136.000000;0.669349
8135.000000;0.669245
8134.000000;0.669173
8133.000000;0.669127
8132.000000;0.669099
8131.000000;0.669078
8130.000000;0.669063
8129.000000;0.669055
8128.000000;0.669040
8127.000000;0.668986
8126.000000;0.668860
8125.000000;0.668644
8124.000000;0.668365
8123.000000;0.668101
8122.000000;0.667938
8121.000000;0.667908
8120.000000;0.667954
8119.000000;0.667990
8118.000000;0.667978
8117.000000;0.667926
8116.000000;0.667836
8115.000000;0.667698
8114.000000;0.667542
8113.000000;0.667460
8112.000000;0.667503
8111.000000;0.667594
8110.000000;0.667586
8109.000000;0.667436
8108.000000;0.667256
8107.000000;0.667157
8106.000000;0.667108
8105.000000;0.667005
8104.000000;0.666852
8103.000000;0.666756
8102.000000;0.666756
8101.000000;0.666757
8100.000000;0.666669
8099.000000;0.666528
8098.000000;0.666425
8097.000000;0.666370
8096.000000;0.666305
8095.000000;0.666204
8094.000000;0.666103
8093.000000;0.666052
8092.000000;0.666072
8091.000000;0.666148
8090.000000;0.666216
8089.000000;0.666186
8088.000000;0.666020
8087.000000;0.665780
8086.000000;0.665566
8085.000000;0.665413
8084.000000;0.665285
8083.000000;0.665154
8082.000000;0.665038
8081.000000;0.664958
8080.000000;0.664920
8079.000000;0.664917
8078.000000;0.664924
8077.000000;0.664886
8076.000000;0.664756
8075.000000;0.664542
8074.000000;0.664314
8073.000000;0.664140
8072.000000;0.664048
8071.000000;0.664039
8070.000000;0.664085
8069.000000;0.664125
8068.000000;0.664082
8067.000000;0.663936
8066.000000;0.663763
8065.000000;0.663674
8064.000000;0.663702
8063.000000;0.663760
8062.000000;0.663723
8061.000000;0.663543
8060.000000;0.663278
8059.000000;0.663027
8058.000000;0.662856
8057.000000;0.662788
8056.000000;0.662803
8055.000000;0.662822
8054.000000;0.662732
8053.000000;0.662498
8052.000000;0.662247
8051.000000;0.662146
8050.000000;0.662211
8049.000000;0.662269
8048.000000;0.662153
8047.000000;0.661883
8046.000000;0.661634
8045.000000;0.661563
8044.000000;0.661679
8043.000000;0.661848
8042.000000;0.661899
8041.000000;0.661768
8040.000000;0.661554
8039.000000;0.661399
8038.000000;0.661336
8037.000000;0.661290
8036.000000;0.661222
8035.000000;0.661179
8034.000000;0.661183
8033.000000;0.661161
8032.000000;0.661043
8031.000000;0.660863
8030.000000;0.660699
8029.000000;0.660571
8028.000000;0.660450
8027.000000;0.660348
8026.000000;0.660297
8025.000000;0.660292
8024.000000;0.660295
8023.000000;0.660299
8022.000000;0.660321
8021.000000;0.660342
8020.000000;0.660311
8019.000000;0.660196
8018.000000;0.660013
8017.000000;0.659792
8016.000000;0.659571
8015.000000;0.659396
8014.000000;0.659299
8013.000000;0.659272
8012.000000;0.659281
8011.000000;0.659307
8010.000000;0.659326
8009.000000;0.659294
8008.000000;0.659192
8007.000000;0.659077
8006.000000;0.659039
8005.000000;0.659096
8004.000000;0.659161
8003.000000;0.659111
8002.000000;0.658888
8001.000000;0.658548
8000.000000;0.658252
7999.000000;0.658163
7998.000000;0.658294
7997.000000;0.658478
7996.000000;0.658515
7995.000000;0.658355
7994.000000;0.658094
7993.000000;0.657843
7992.000000;0.657650
7991.000000;0.657529
7990.000000;0.657487
7989.000000;0.657485
7988.000000;0.657443
7987.000000;0.657328
7986.000000;0.657204
7985.000000;0.657154
7984.000000;0.657169
7983.000000;0.657152
7982.000000;0.657024
7981.000000;0.656812
7980.000000;0.656634
7979.000000;0.656573
7978.000000;0.656593
7977.000000;0.656571
7976.000000;0.656436
7975.000000;0.656256
7974.000000;0.656168
7973.000000;0.656231
7972.000000;0.656376
7971.000000;0.656483
7970.000000;0.656486
7969.000000;0.656398
7968.000000;0.656270
7967.000000;0.656142
7966.000000;0.656036
7965.000000;0.655961
7964.000000;0.655914
7963.000000;0.655868
7962.000000;0.655775
7961.000000;0.655601
7960.000000;0.655377
7959.000000;0.655187
7958.000000;0.655105
7957.000000;0.655114
7956.000000;0.655112
7955.000000;0.655010
7954.000000;0.654815
7953.000000;0.654623
7952.000000;0.654527
7951.000000;0.654539
7950.000000;0.654588
7949.000000;0.654603
7948.000000;0.654559
7947.000000;0.654465
7946.000000;0.654347
7945.000000;0.654252
7944.000000;0.654231
7943.000000;0.654272
7942.000000;0.654291
7941.000000;0.654217
7940.000000;0.654074
7939.000000;0.653927
7938.000000;0.653788
7937.000000;0.653610
7936.000000;0.653383
7935.000000;0.653164
7934.000000;0.653012
7933.000000;0.652944
7932.000000;0.652944
7931.000000;0.652983
7930.000000;0.653016
7929.000000;0.653014
7928.000000;0.652996
7927.000000;0.652989
7926.000000;0.652957
7925.000000;0.652846
7924.000000;0.652694
7923.000000;0.652606
7922.000000;0.652627
7921.000000;0.652689
7920.000000;0.652716
7919.000000;0.652694
7918.000000;0.652613
7917.000000;0.652435
7916.000000;0.652175
7915.000000;0.651930
7914.000000;0.651768
7913.000000;0.651651
7912.000000;0.651525
7911.000000;0.651413
7910.000000;0.651346
7909.000000;0.651282
7908.000000;0.651169
7907.000000;0.651053
7906.000000;0.651014
7905.000000;0.651032
7904.000000;0.651005
7903.000000;0.650898
7902.000000;0.650767
7901.000000;0.650669
7900.000000;0.650605
7899.000000;0.650570
7898.000000;0.650555
7897.000000;0.650503
7896.000000;0.650346
7895.000000;0.650116
7894.000000;0.649947
7893.000000;0.649934
7892.000000;0.650024
7891.000000;0.650094
7890.000000;0.650074
7889.000000;0.649978
7888.000000;0.649846
7887.000000;0.649717
7886.000000;0.649621
7885.000000;0.649571
7884.000000;0.649545
7883.000000;0.649510
7882.000000;0.649446
7881.000000;0.649362
7880.000000;0.649271
7879.000000;0.649192
7878.000000;0.649136
7877.000000;0.649085
7876.000000;0.648996
7875.000000;0.648851
7874.000000;0.648690
7873.000000;0.648586
7872.000000;0.648574
7871.000000;0.648612
7870.000000;0.648626
7869.000000;0.648577
7868.000000;0.648477
7867.000000;0.648353
7866.000000;0.648212
7865.000000;0.648053
7864.000000;0.647909
7863.000000;0.647830
7862.000000;0.647828
7861.000000;0.647855
7860.000000;0.647849
7859.000000;0.647785
7858.000000;0.647687
7857.000000;0.647605
7856.000000;0.647581
7855.000000;0.647607
7854.000000;0.647616
7853.000000;0.647537
7852.000000;0.647362
7851.000000;0.647165
7850.000000;0.647033
7849.000000;0.646991
7848.000000;0.646993
7847.000000;0.646963
7846.000000;0.646840
7845.000000;0.646617
7844.000000;0.646357
7843.000000;0.646149
7842.000000;0.646041
7841.000000;0.646024
7840.000000;0.646090
7839.000000;0.646254
7838.000000;0.646495
7837.000000;0.646709
7836.000000;0.646763
7835.000000;0.646617
7834.000000;0.646368
7833.000000;0.646154
7832.000000;0.646036
7831.000000;0.645967
7830.000000;0.645868
7829.000000;0.645721
7828.000000;0.645575
7827.000000;0.645464
7826.000000;0.645367
7825.000000;0.645260
7824.000000;0.645171
7823.000000;0.645140
7822.000000;0.645142
7821.000000;0.645107
7820.000000;0.644995
7819.000000;0.644836
7818.000000;0.644677
7817.000000;0.644544
7816.000000;0.644450
7815.000000;0.644400
7814.000000;0.644364
7813.000000;0.644290
7812.000000;0.644162
7811.000000;0.644013
7810.000000;0.643876
7809.000000;0.643761
7808.000000;0.643693
7807.000000;0.643710
7806.000000;0.643784
7805.000000;0.643809
7804.000000;0.643697
7803.000000;0.643496
7802.000000;0.643343
7801.000000;0.643324
7800.000000;0.643400
7799.000000;0.643468
7798.000000;0.643454
7797.000000;0.643351
7796.000000;0.643189
7795.000000;0.642998
7794.000000;0.642811
7793.000000;0.642676
7792.000000;0.642617
7791.000000;0.642593
7790.000000;0.642513
7789.000000;0.642350
7788.000000;0.642190
7787.000000;0.642131
7786.000000;0.642159
7785.000000;0.642181
7784.000000;0.642155
7783.000000;0.642113
7782.000000;0.642074
7781.000000;0.642002
7780.000000;0.641893
7779.000000;0.641803
7778.000000;0.641770
7777.000000;0.641755
7776.000000;0.641704
7775.000000;0.641608
7774.000000;0.641489
7773.000000;0.641359
7772.000000;0.641243
7771.000000;0.641190
7770.000000;0.641216
7769.000000;0.641273
7768.000000;0.641292
7767.000000;0.641242
7766.000000;0.641125
7765.000000;0.640960
7764.000000;0.640795
7763.000000;0.640694
7762.000000;0.640676
7761.000000;0.640697
7760.000000;0.640705
7759.000000;0.640690
7758.000000;0.640651
7757.000000;0.640559
7756.000000;0.640397
7755.000000;0.640190
7754.000000;0.639990
7753.000000;0.639841
7752.000000;0.639768
7751.000000;0.639759
7750.000000;0.639731
7749.000000;0.639590
7748.000000;0.639360
7747.000000;0.639187
7746.000000;0.639175
7745.000000;0.639261
7744.000000;0.639295
7743.000000;0.639209
7742.000000;0.639053
7741.000000;0.638907
7740.000000;0.638816
7739.000000;0.638780
7738.000000;0.638768
7737.000000;0.638741
7736.000000;0.638699
7735.000000;0.638683
7734.000000;0.638695
7733.000000;0.638672
7732.000000;0.638561
7731.000000;0.638399
7730.000000;0.638249
7729.000000;0.638104
7728.000000;0.637922
7727.000000;0.637727
7726.000000;0.637606
7725.000000;0.637602
7724.000000;0.637651
7723.000000;0.637658
7722.000000;0.637589
7721.000000;0.637493
7720.000000;0.637447
7719.000000;0.637474
7718.000000;0.637507
7717.000000;0.637450
7716.000000;0.637287
7715.000000;0.637112
7714.000000;0.637024
7713.000000;0.637006
7712.000000;0.636957
7711.000000;0.636810
7710.000000;0.636594
7709.000000;0.636387
7708.000000;0.636242
7707.000000;0.636159
7706.000000;0.636089
7705.000000;0.635980
7704.000000;0.635837
7703.000000;0.635728
7702.000000;0.635716
7701.000000;0.635796
7700.000000;0.635902
7699.000000;0.635956
7698.000000;0.635911
7697.000000;0.635773
7696.000000;0.635604
7695.000000;0.635480
7694.000000;0.635413
7693.000000;0.635348
7692.000000;0.635248
7691.000000;0.635149
7690.000000;0.635097
7689.000000;0.635068
7688.000000;0.635003
7687.000000;0.634890
7686.000000;0.634773
7685.000000;0.634697
7684.000000;0.634663
7683.000000;0.634638
7682.000000;0.634578
7681.000000;0.634469
7680.000000;0.634358
7679.000000;0.634312
7678.000000;0.634325
7677.000000;0.634308
7676.000000;0.634205
7675.000000;0.634071
7674.000000;0.633990
7673.000000;0.633960
7672.000000;0.633921
7671.000000;0.633851
7670.000000;0.633771
7669.000000;0.633665
7668.000000;0.633491
7667.000000;0.633262
7666.000000;0.633069
7665.000000;0.632983
7664.000000;0.632986
7663.000000;0.632988
7662.000000;0.632910
7661.000000;0.632747
7660.000000;0.632577
7659.000000;0.632514
7658.000000;0.632608
7657.000000;0.632795
7656.000000;0.632967
7655.000000;0.633053
7654.000000;0.633031
7653.000000;0.632875
7652.000000;0.632588
7651.000000;0.632264
7650.000000;0.632055
7649.000000;0.632041
7648.000000;0.632157
7647.000000;0.632273
7646.000000;0.632309
7645.000000;0.632261
7644.000000;0.632163
7643.000000;0.632058
7642.000000;0.631995
7641.000000;0.632014
7640.000000;0.632098
7639.000000;0.632158
7638.000000;0.632098
7637.000000;0.631908
7636.000000;0.631686
7635.000000;0.631534
7634.000000;0.631455
7633.000000;0.631363
7632.000000;0.631196
7631.000000;0.630975
7630.000000;0.630764
7629.000000;0.630602
7628.000000;0.630514
7627.000000;0.630515
7626.000000;0.630576
7625.000000;0.630631
7624.000000;0.630628
7623.000000;0.630579
7622.000000;0.630507
7621.000000;0.630396
7620.000000;0.630234
7619.000000;0.630073
7618.000000;0.629994
7617.000000;0.630010
7616.000000;0.630041
7615.000000;0.629994
7614.000000;0.629843
7613.000000;0.629642
7612.000000;0.629481
7611.000000;0.629430
7610.000000;0.629496
7609.000000;0.629620
7608.000000;0.629732
7607.000000;0.629798
7606.000000;0.629809
7605.000000;0.629769
7604.000000;0.629690
7603.000000;0.629604
7602.000000;0.629519
7601.000000;0.629401
7600.000000;0.629211
7599.000000;0.628964
7598.000000;0.628737
7597.000000;0.628626
7596.000000;0.628694
7595.000000;0.628914
7594.000000;0.629149
7593.000000;0.629224
7592.000000;0.629083
7591.000000;0.628840
7590.000000;0.628647
7589.000000;0.628549
7588.000000;0.628488
7587.000000;0.628421
7586.000000;0.628368
7585.000000;0.628343
7584.000000;0.628314
7583.000000;0.628240
7582.000000;0.628115
7581.000000;0.627965
7580.000000;0.627838
7579.000000;0.627776
7578.000000;0.627782
7577.000000;0.627805
7576.000000;0.627775
7575.000000;0.627680
7574.000000;0.627573
7573.000000;0.627510
7572.000000;0.627507
7571.000000;0.627532
7570.000000;0.627540
7569.000000;0.627500
7568.000000;0.627419
7567.000000;0.627334
7566.000000;0.627273
7565.000000;0.627232
7564.000000;0.627190
7563.000000;0.627136
7562.000000;0.627073
7561.000000;0.626990
7560.000000;0.626880
7559.000000;0.626753
7558.000000;0.626635
7557.000000;0.626551
7556.000000;0.626517
7555.000000;0.626544
7554.000000;0.626616
7553.000000;0.626690
7552.000000;0.626722
7551.000000;0.626701
7550.000000;0.626641
7549.000000;0.626562
7548.000000;0.626481
7547.000000;0.626423
7546.000000;0.626395
7545.000000;0.626380
7544.000000;0.626351
7543.000000;0.626293
7542.000000;0.626213
7541.000000;0.626129
7540.000000;0.626078
7539.000000;0.626087
7538.000000;0.626137
7537.000000;0.626160
7536.000000;0.626104
7535.000000;0.625986
7534.000000;0.625868
7533.000000;0.625790
7532.000000;0.625747
7531.000000;0.625709
7530.000000;0.625650
7529.000000;0.625578
7528.000000;0.625534
7527.000000;0.625557
7526.000000;0.625624
7525.000000;0.625662
7524.000000;0.625630
7523.000000;0.625561
7522.000000;0.625508
7521.000000;0.625474
7520.000000;0.625433
7519.000000;0.625373
7518.000000;0.625296
7517.000000;0.625198
7516.000000;0.625092
7515.000000;0.625034
7514.000000;0.625076
7513.000000;0.625180
7512.000000;0.625226
7511.000000;0.625121
7510.000000;0.624897
7509.000000;0.624682
7508.000000;0.624583
7507.000000;0.624590
7506.000000;0.624601
7505.000000;0.624549
7504.000000;0.624479
7503.000000;0.624480
7502.000000;0.624544
7501.000000;0.624583
7500.000000;0.624551
7499.000000;0.624506
7498.000000;0.624510
7497.000000;0.624538
7496.000000;0.624511
7495.000000;0.624404
7494.000000;0.624249
7493.000000;0.624087
7492.000000;0.623948
7491.000000;0.623875
7490.000000;0.623899
7489.000000;0.624007
7488.000000;0.624136
7487.000000;0.624221
7486.000000;0.624218
7485.000000;0.624129
7484.000000;0.624015
7483.000000;0.623965
7482.000000;0.624010
7481.000000;0.624080
7480.000000;0.624087
7479.000000;0.624021
7478.000000;0.623952
7477.000000;0.623931
7476.000000;0.623951
7475.000000;0.623970
7474.000000;0.623954
7473.000000;0.623883
7472.000000;0.623759
7471.000000;0.623626
7470.000000;0.623539
7469.000000;0.623519
7468.000000;0.623533
7467.000000;0.623544
7466.000000;0.623552
7465.000000;0.623584
7464.000000;0.623651
7463.000000;0.623733
7462.000000;0.623793
7461.000000;0.623809
7460.000000;0.623789
7459.000000;0.623752
7458.000000;0.623710
7457.000000;0.623660
7456.000000;0.623591
7455.000000;0.623481
7454.000000;0.623321
7453.000000;0.623153
7452.000000;0.623076
7451.000000;0.623160
7450.000000;0.623359
7449.000000;0.623550
7448.000000;0.623644
7447.000000;0.623643
7446.000000;0.623590
7445.000000;0.623509
7444.000000;0.623418
7443.000000;0.623337
7442.000000;0.623284
7441.000000;0.623260
7440.000000;0.623261
7439.000000;0.623285
7438.000000;0.623316
7437.000000;0.623346
7436.000000;0.623386
7435.000000;0.623447
7434.000000;0.623502
7433.000000;0.623525
7432.000000;0.623544
7431.000000;0.623596
7430.000000;0.623642
7429.000000;0.623597
7428.000000;0.623461
7427.000000;0.623339
7426.000000;0.623309
7425.000000;0.623336
7424.000000;0.623366
7423.000000;0.623405
7422.000000;0.623470
7421.000000;0.623513
7420.000000;0.623479
7419.000000;0.623394
7418.000000;0.623340
7417.000000;0.623348
7416.000000;0.623390
7415.000000;0.623432
7414.000000;0.623465
7413.000000;0.623478
7412.000000;0.623461
7411.000000;0.623422
7410.000000;0.623384
7409.000000;0.623371
7408.000000;0.623410
7407.000000;0.623512
7406.000000;0.623624
7405.000000;0.623665
7404.000000;0.623619
7403.000000;0.623563
7402.000000;0.623556
7401.000000;0.623556
7400.000000;0.623489
7399.000000;0.623358
7398.000000;0.623231
7397.000000;0.623170
7396.000000;0.623201
7395.000000;0.623323
7394.000000;0.623490
7393.000000;0.623622
7392.000000;0.623674
7391.000000;0.623675
7390.000000;0.623656
7389.000000;0.623605
7388.000000;0.623541
7387.000000;0.623547
7386.000000;0.623681
7385.000000;0.623870
7384.000000;0.623977
7383.000000;0.623950
7382.000000;0.623849
7381.000000;0.623761
7380.000000;0.623729
7379.000000;0.623759
7378.000000;0.623808
7377.000000;0.623789
7376.000000;0.623656
7375.000000;0.623474
7374.000000;0.623376
7373.000000;0.623427
7372.000000;0.623592
7371.000000;0.623803
7370.000000;0.623997
7369.000000;0.624115
7368.000000;0.624137
7367.000000;0.624122
7366.000000;0.624152
7365.000000;0.624232
7364.000000;0.624289
7363.000000;0.624276
7362.000000;0.624236
7361.000000;0.624240
7360.000000;0.624308
7359.000000;0.624394
7358.000000;0.624428
7357.000000;0.624378
7356.000000;0.624291
7355.000000;0.624265
7354.000000;0.624360
7353.000000;0.624533
7352.000000;0.624711
7351.000000;0.624866
7350.000000;0.625001
7349.000000;0.625092
7348.000000;0.625100
7347.000000;0.625039
7346.000000;0.624968
7345.000000;0.624932
7344.000000;0.624943
7343.000000;0.625000
7342.000000;0.625071
7341.000000;0.625082
7340.000000;0.624995
7339.000000;0.624874
7338.000000;0.624831
7337.000000;0.624887
7336.000000;0.624959
7335.000000;0.624993
7334.000000;0.625036
7333.000000;0.625160
7332.000000;0.625350
7331.000000;0.625529
7330.000000;0.625653
7329.000000;0.625743
7328.000000;0.625823
7327.000000;0.625873
7326.000000;0.625843
7325.000000;0.625729
7324.000000;0.625607
7323.000000;0.625588
7322.000000;0.625709
7321.000000;0.625903
7320.000000;0.626074
7319.000000;0.626185
7318.000000;0.626258
7317.000000;0.626323
7316.000000;0.626405
7315.000000;0.626519
7314.000000;0.626665
7313.000000;0.626822
7312.000000;0.626985
7311.000000;0.627182
7310.000000;0.627412
7309.000000;0.627598
7308.000000;0.627655
7307.000000;0.627597
7306.000000;0.627546
7305.000000;0.627600
7304.000000;0.627746
7303.000000;0.627902
7302.000000;0.628004
7301.000000;0.628040
7300.000000;0.628039
7299.000000;0.628045
7298.000000;0.628092
7297.000000;0.628187
7296.000000;0.628313
7295.000000;0.628443
7294.000000;0.628557
7293.000000;0.628645
7292.000000;0.628715
7291.000000;0.628775
7290.000000;0.628824
7289.000000;0.628867
7288.000000;0.628945
7287.000000;0.629129
7286.000000;0.629427
7285.000000;0.629750
7284.000000;0.629989
7283.000000;0.630126
7282.000000;0.630222
7281.000000;0.630333
7280.000000;0.630464
7279.000000;0.630609
7278.000000;0.630759
7277.000000;0.630881
7276.000000;0.630926
7275.000000;0.630891
7274.000000;0.630847
7273.000000;0.630887
7272.000000;0.631069
7271.000000;0.631388
7270.000000;0.631780
7269.000000;0.632166
7268.000000;0.632507
7267.000000;0.632819
7266.000000;0.633128
7265.000000;0.633409
7264.000000;0.633621
7263.000000;0.633774
7262.000000;0.633937
7261.000000;0.634168
7260.000000;0.634480
7259.000000;0.634862
7258.000000;0.635286
7257.000000;0.635693
7256.000000;0.636031
7255.000000;0.636302
7254.000000;0.636541
7253.000000;0.636752
7252.000000;0.636904
7251.000000;0.637015
7250.000000;0.637178
7249.000000;0.637471
7248.000000;0.637869
7247.000000;0.638264
7246.000000;0.638575
7245.000000;0.638814
7244.000000;0.639060
7243.000000;0.639382
7242.000000;0.639784
7241.000000;0.640213
7240.000000;0.640627
7239.000000;0.641031
7238.000000;0.641430
7237.000000;0.641793
7236.000000;0.642074
7235.000000;0.642256
7234.000000;0.642373
7233.000000;0.642490
7232.000000;0.642686
7231.000000;0.643017
7230.000000;0.643473
7229.000000;0.643966
7228.000000;0.644384
7227.000000;0.644672
7226.000000;0.644857
7225.000000;0.645039
7224.000000;0.645334
7223.000000;0.645789
7222.000000;0.646334
7221.000000;0.646822
7220.000000;0.647164
7219.000000;0.647427
7218.000000;0.647757
7217.000000;0.648223
7216.000000;0.648759
7215.000000;0.649242
7214.000000;0.649597
7213.000000;0.649842
7212.000000;0.650086
7211.000000;0.650449
7210.000000;0.650955
7209.000000;0.651506
7208.000000;0.651976
7207.000000;0.652337
7206.000000;0.652651
7205.000000;0.652999
7204.000000;0.653440
7203.000000;0.654021
7202.000000;0.654745
7201.000000;0.655509
7200.000000;0.656179
7199.000000;0.656708
7198.000000;0.657163
7197.000000;0.657609
7196.000000;0.658044
7195.000000;0.658458
7194.000000;0.658887
7193.000000;0.659368
7192.000000;0.659883
7191.000000;0.660379
7190.000000;0.660821
7189.000000;0.661207
7188.000000;0.661575
7187.000000;0.662004
7186.000000;0.662578
7185.000000;0.663294
7184.000000;0.664020
7183.000000;0.664594
7182.000000;0.664966
7181.000000;0.665229
7180.000000;0.665532
7179.000000;0.665943
7178.000000;0.666414
7177.000000;0.666864
7176.000000;0.667270
7175.000000;0.667684
7174.000000;0.668188
7173.000000;0.668833
7172.000000;0.669621
7171.000000;0.670496
7170.000000;0.671360
7169.000000;0.672125
7168.000000;0.672793
7167.000000;0.673439
7166.000000;0.674099
7165.000000;0.674718
7164.000000;0.675255
7163.000000;0.675755
7162.000000;0.676273
7161.000000;0.676778
7160.000000;0.677230
7159.000000;0.677697
7158.000000;0.678299
7157.000000;0.679024
7156.000000;0.679741
7155.000000;0.680371
7154.000000;0.680968
7153.000000;0.681596
7152.000000;0.682253
7151.000000;0.682943
7150.000000;0.683729
7149.000000;0.684632
7148.000000;0.685520
7147.000000;0.686183
7146.000000;0.686523
7145.000000;0.686650
7144.000000;0.686787
7143.000000;0.687089
7142.000000;0.687558
7141.000000;0.688093
7140.000000;0.688615
7139.000000;0.689111
7138.000000;0.689580
7137.000000;0.689967
7136.000000;0.690215
7135.000000;0.690370
7134.000000;0.690595
7133.000000;0.691038
7132.000000;0.691696
7131.000000;0.692444
7130.000000;0.693151
7129.000000;0.693765
7128.000000;0.694266
7127.000000;0.694623
7126.000000;0.694851
7125.000000;0.695081
7124.000000;0.695462
7123.000000;0.695972
7122.000000;0.696400
7121.000000;0.696596
7120.000000;0.696664
7119.000000;0.696813
7118.000000;0.697062
7117.000000;0.697246
7116.000000;0.697320
7115.000000;0.697483
7114.000000;0.697917
7113.000000;0.698495
7112.000000;0.698871
7111.000000;0.698822
7110.000000;0.698456
7109.000000;0.698067
7108.000000;0.697811
7107.000000;0.697513
7106.000000;0.696868
7105.000000;0.695902
7104.000000;0.695089
7103.000000;0.694846
7102.000000;0.694982
7101.000000;0.694876
7100.000000;0.694221
7099.000000;0.693346
7098.000000;0.692742
7097.000000;0.692476
7096.000000;0.692258
7095.000000;0.691894
7094.000000;0.691395
7093.000000;0.690751
7092.000000;0.689885
7091.000000;0.688909
7090.000000;0.688189
7089.000000;0.687985
7088.000000;0.688107
7087.000000;0.688071
7086.000000;0.687587
7085.000000;0.686779
7084.000000;0.685890
7083.000000;0.684924
7082.000000;0.683765
7081.000000;0.682518
7080.000000;0.681428
7079.000000;0.680430
7078.000000;0.679104
7077.000000;0.677275
7076.000000;0.675391
7075.000000;0.673995
7074.000000;0.673006
7073.000000;0.671856
7072.000000;0.670276
7071.000000;0.668584
7070.000000;0.667186
7069.000000;0.666137
7068.000000;0.665289
7067.000000;0.664543
7066.000000;0.663824
7065.000000;0.663014
7064.000000;0.662063
7063.000000;0.660977
7062.000000;0.659653
7061.000000;0.657930
7060.000000;0.655886
7059.000000;0.653870
7058.000000;0.652132
7057.000000;0.650563
7056.000000;0.648879
7055.000000;0.646890
7054.000000;0.644578
7053.000000;0.642093
7052.000000;0.639753
7051.000000;0.637822
7050.000000;0.636192
7049.000000;0.634490
7048.000000;0.632575
7047.000000;0.630730
7046.000000;0.629253
7045.000000;0.628060
7044.000000;0.626839
7043.000000;0.625437
7042.000000;0.623961
7041.000000;0.622600
7040.000000;0.621408
7039.000000;0.620136
7038.000000;0.618260
7037.000000;0.615412
7036.000000;0.611837
7035.000000;0.608246
7034.000000;0.605187
7033.000000;0.602683
7032.000000;0.600397
7031.000000;0.597934
7030.000000;0.595053
7029.000000;0.591949
7028.000000;0.589298
7027.000000;0.587636
7026.000000;0.586597
7025.000000;0.585123
7024.000000;0.582588
7023.000000;0.579361
7022.000000;0.576225
7021.000000;0.573648
7020.000000;0.571739
7019.000000;0.570398
7018.000000;0.569150
7017.000000;0.567252
7016.000000;0.564356
7015.000000;0.560882
7014.000000;0.557538
7013.000000;0.554746
7012.000000;0.552644
7011.000000;0.551167
7010.000000;0.549786
7009.000000;0.547599
7008.000000;0.544195
7007.000000;0.540236
7006.000000;0.536845
7005.000000;0.534616
7004.000000;0.533359
7003.000000;0.532375
7002.000000;0.530694
7001.000000;0.527562
7000.000000;0.523259
6999.000000;0.519077
6998.000000;0.515994
6997.000000;0.513638
6996.000000;0.511034
6995.000000;0.508038
6994.000000;0.505364
6993.000000;0.503333
6992.000000;0.501295
6991.000000;0.498367
6990.000000;0.494312
6989.000000;0.489707
6988.000000;0.485596
6987.000000;0.482924
6986.000000;0.481849
6985.000000;0.481439
6984.000000;0.480311
6983.000000;0.477670
6982.000000;0.473693
6981.000000;0.469168
6980.000000;0.465034
6979.000000;0.461928
6978.000000;0.459696
6977.000000;0.457498
6976.000000;0.454793
6975.000000;0.451983
6974.000000;0.449668
6973.000000;0.447633
6972.000000;0.445216
6971.000000;0.442392
6970.000000;0.439724
6969.000000;0.437330
6968.000000;0.434755
6967.000000;0.431915
6966.000000;0.429332
6965.000000;0.427201
6964.000000;0.424948
6963.000000;0.422040
6962.000000;0.418691
6961.000000;0.415432
6960.000000;0.412450
6959.000000;0.409663
6958.000000;0.407042
6957.000000;0.404594
6956.000000;0.402287
6955.000000;0.400142
6954.000000;0.398161
6953.000000;0.396149
6952.000000;0.393971
6951.000000;0.391965
6950.000000;0.390580
6949.000000;0.389550
6948.000000;0.387954
6947.000000;0.385285
6946.000000;0.381935
6945.000000;0.378467
6944.000000;0.374973
6943.000000;0.371485
6942.000000;0.368504
6941.000000;0.366553
6940.000000;0.365394
6939.000000;0.364083
6938.000000;0.361839
6937.000000;0.358756
6936.000000;0.355727
6935.000000;0.353660
6934.000000;0.352611
6933.000000;0.351672
6932.000000;0.349907
6931.000000;0.347347
6930.000000;0.344732
6929.000000;0.342393
6928.000000;0.339929
6927.000000;0.337028
6926.000000;0.334044
6925.000000;0.331575
6924.000000;0.329892
6923.000000;0.328873
6922.000000;0.328120
6921.000000;0.327042
6920.000000;0.325235
6919.000000;0.322853
6918.000000;0.320297
6917.000000;0.317657
6916.000000;0.314928
6915.000000;0.312637
6914.000000;0.311472
6913.000000;0.311164
6912.000000;0.310478
6911.000000;0.308676
6910.000000;0.306345
6909.000000;0.304405
6908.000000;0.302882
6907.000000;0.301238
6906.000000;0.299387
6905.000000;0.297742
6904.000000;0.296461
6903.000000;0.295283
6902.000000;0.294067
6901.000000;0.293024
6900.000000;0.292292
6899.000000;0.291528
6898.000000;0.290022
6897.000000;0.287227
6896.000000;0.283326
6895.000000;0.279326
6894.000000;0.276446
6893.000000;0.275216
6892.000000;0.275174
6891.000000;0.275376
6890.000000;0.275059
6889.000000;0.273944
6888.000000;0.272324
6887.000000;0.270902
6886.000000;0.270256
6885.000000;0.270300
6884.000000;0.270404
6883.000000;0.270029
6882.000000;0.269054
6881.000000;0.267599
6880.000000;0.265821
6879.000000;0.263850
6878.000000;0.261724
6877.000000;0.259542
6876.000000;0.257843
6875.000000;0.257439
6874.000000;0.258404
6873.000000;0.259572
6872.000000;0.259648
6871.000000;0.258593
6870.000000;0.257216
6869.000000;0.255724
6868.000000;0.253711
6867.000000;0.251525
6866.000000;0.250453
6865.000000;0.251089
6864.000000;0.252397
6863.000000;0.252952
6862.000000;0.252481
6861.000000;0.251672
6860.000000;0.251043
6859.000000;0.250570
6858.000000;0.250080
6857.000000;0.249482
6856.000000;0.248761
6855.000000;0.248014
6854.000000;0.247320
6853.000000;0.246519
6852.000000;0.245451
6851.000000;0.244424
6850.000000;0.243967
6849.000000;0.244014
6848.000000;0.243875
6847.000000;0.243228
6846.000000;0.242527
6845.000000;0.242107
6844.000000;0.241537
6843.000000;0.240330
6842.000000;0.238895
6841.000000;0.238297
6840.000000;0.239195
6839.000000;0.241273
6838.000000;0.243475
6837.000000;0.244603
6836.000000;0.244105
6835.000000;0.242607
6834.000000;0.241368
6833.000000;0.241026
6832.000000;0.241180
6831.000000;0.241266
6830.000000;0.241349
6829.000000;0.241766
6828.000000;0.242472
6827.000000;0.243166
6826.000000;0.243719
6825.000000;0.244090
6824.000000;0.244110
6823.000000;0.243709
6822.000000;0.243163
6821.000000;0.242842
6820.000000;0.242889
6819.000000;0.243321
6818.000000;0.244154
6817.000000;0.245185
6816.000000;0.245947
6815.000000;0.246187
6814.000000;0.246151
6813.000000;0.246170
6812.000000;0.246191
6811.000000;0.246005
6810.000000;0.245727
6809.000000;0.245755
6808.000000;0.246311
6807.000000;0.247211
6806.000000;0.248010
6805.000000;0.248321
6804.000000;0.248177
6803.000000;0.248114
6802.000000;0.248625
6801.000000;0.249529
6800.000000;0.250215
6799.000000;0.250562
6798.000000;0.251102
6797.000000;0.252102
6796.000000;0.253023
6795.000000;0.253293
6794.000000;0.253165
6793.000000;0.253363
6792.000000;0.254184
6791.000000;0.255413
6790.000000;0.256924
6789.000000;0.258781
6788.000000;0.260749
6787.000000;0.262177
6786.000000;0.262590
6785.000000;0.262215
6784.000000;0.261810
6783.000000;0.262019
6782.000000;0.262855
6781.000000;0.263736
6780.000000;0.264060
6779.000000;0.263782
6778.000000;0.263379
6777.000000;0.263288
6776.000000;0.263617
6775.000000;0.264360
6774.000000;0.265516
6773.000000;0.266819
6772.000000;0.267717
6771.000000;0.267935
6770.000000;0.267862
6769.000000;0.268111
6768.000000;0.268849
6767.000000;0.269833
6766.000000;0.270903
6765.000000;0.272069
6764.000000;0.273194
6763.000000;0.273990
6762.000000;0.274392
6761.000000;0.274680
6760.000000;0.275181
6759.000000;0.276015
6758.000000;0.277098
6757.000000;0.278187
6756.000000;0.278924
6755.000000;0.279117
6754.000000;0.279071
6753.000000;0.279438
6752.000000;0.280569
6751.000000;0.282107
6750.000000;0.283337
6749.000000;0.283857
6748.000000;0.283859
6747.000000;0.283839
6746.000000;0.284146
6745.000000;0.284785
6744.000000;0.285558
6743.000000;0.286336
6742.000000;0.287160
6741.000000;0.288062
6740.000000;0.288904
6739.000000;0.289501
6738.000000;0.289898
6737.000000;0.290383
6736.000000;0.291162
6735.000000;0.292109
6734.000000;0.292930
6733.000000;0.293492
6732.000000;0.293910
6731.000000;0.294373
6730.000000;0.294981
6729.000000;0.295749
6728.000000;0.296637
6727.000000;0.297542
6726.000000;0.298344
6725.000000;0.299024
6724.000000;0.299658
6723.000000;0.300285
6722.000000;0.300827
6721.000000;0.301215
6720.000000;0.301514
6719.000000;0.301857
6718.000000;0.302296
6717.000000;0.302827
6716.000000;0.303491
6715.000000;0.304351
6714.000000;0.305379
6713.000000;0.306458
6712.000000;0.307503
6711.000000;0.308477
6710.000000;0.309348
6709.000000;0.310125
6708.000000;0.310919
6707.000000;0.311816
6706.000000;0.312646
6705.000000;0.313114
6704.000000;0.313169
6703.000000;0.313067
6702.000000;0.313032
6701.000000;0.313076
6700.000000;0.313256
6699.000000;0.313836
6698.000000;0.314951
6697.000000;0.316260
6696.000000;0.317208
6695.000000;0.317624
6694.000000;0.317875
6693.000000;0.318405
6692.000000;0.319300
6691.000000;0.320334
6690.000000;0.321260
6689.000000;0.321988
6688.000000;0.322568
6687.000000;0.323082
6686.000000;0.323553
6685.000000;0.323968
6684.000000;0.324386
6683.000000;0.324944
6682.000000;0.325691
6681.000000;0.326496
6680.000000;0.327195
6679.000000;0.327797
6678.000000;0.328424
6677.000000;0.329109
6676.000000;0.329788
6675.000000;0.330445
6674.000000;0.331123
6673.000000;0.331796
6672.000000;0.332358
6671.000000;0.332792
6670.000000;0.333238
6669.000000;0.333845
6668.000000;0.334593
6667.000000;0.335324
6666.000000;0.335909
6665.000000;0.336365
6664.000000;0.336816
6663.000000;0.337358
6662.000000;0.337950
6661.000000;0.338482
6660.000000;0.338939
6659.000000;0.339431
6658.000000;0.340021
6657.000000;0.340624
6656.000000;0.341155
6655.000000;0.341706
6654.000000;0.342452
6653.000000;0.343400
6652.000000;0.344372
6651.000000;0.345223
6650.000000;0.345978
6649.000000;0.346713
6648.000000;0.347413
6647.000000;0.347994
6646.000000;0.348425
6645.000000;0.348771
6644.000000;0.349144
6643.000000;0.349619
6642.000000;0.350190
6641.000000;0.350782
6640.000000;0.351303
6639.000000;0.351697
6638.000000;0.351969
6637.000000;0.352205
6636.000000;0.352555
6635.000000;0.353132
6634.000000;0.353878
6633.000000;0.354581
6632.000000;0.355101
6631.000000;0.355518
6630.000000;0.356028
6629.000000;0.356721
6628.000000;0.357516
6627.000000;0.358262
6626.000000;0.358853
6625.000000;0.359263
6624.000000;0.359544
6623.000000;0.359778
6622.000000;0.360006
6621.000000;0.360248
6620.000000;0.360589
6619.000000;0.361165
6618.000000;0.361992
6617.000000;0.362887
6616.000000;0.363646
6615.000000;0.364235
6614.000000;0.364740
6613.000000;0.365199
6612.000000;0.365602
6611.000000;0.366023
6610.000000;0.366589
6609.000000;0.367320
6608.000000;0.368094
6607.000000;0.368791
6606.000000;0.369370
6605.000000;0.369811
6604.000000;0.370086
6603.000000;0.370242
6602.000000;0.370435
6601.000000;0.370798
6600.000000;0.371315
6599.000000;0.371846
6598.000000;0.372259
6597.000000;0.372531
6596.000000;0.372749
6595.000000;0.373037
6594.000000;0.373450
6593.000000;0.373957
6592.000000;0.374516
6591.000000;0.375147
6590.000000;0.375863
6589.000000;0.376577
6588.000000;0.377157
6587.000000;0.377560
6586.000000;0.377883
6585.000000;0.378249
6584.000000;0.378704
6583.000000;0.379219
6582.000000;0.379739
6581.000000;0.380222
6580.000000;0.380657
6579.000000;0.381070
6578.000000;0.381495
6577.000000;0.381947
6576.000000;0.382425
6575.000000;0.382939
6574.000000;0.383488
6573.000000;0.384039
6572.000000;0.384546
6571.000000;0.384992
6570.000000;0.385388
6569.000000;0.385757
6568.000000;0.386131
6567.000000;0.386538
6566.000000;0.386959
6565.000000;0.387345
6564.000000;0.387699
6563.000000;0.388104
6562.000000;0.388599
6561.000000;0.389110
6560.000000;0.389556
6559.000000;0.389977
6558.000000;0.390467
6557.000000;0.391013
6556.000000;0.391500
6555.000000;0.391878
6554.000000;0.392216
6553.000000;0.392589
6552.000000;0.392997
6551.000000;0.393417
6550.000000;0.393864
6549.000000;0.394342
6548.000000;0.394802
6547.000000;0.395186
6546.000000;0.395497
6545.000000;0.395795
6544.000000;0.396137
6543.000000;0.396535
6542.000000;0.396948
6541.000000;0.397330
6540.000000;0.397691
6539.000000;0.398106
6538.000000;0.398612
6537.000000;0.399130
6536.000000;0.399548
6535.000000;0.399880
6534.000000;0.400251
6533.000000;0.400731
6532.000000;0.401231
6531.000000;0.401624
6530.000000;0.401902
6529.000000;0.402181
6528.000000;0.402552
6527.000000;0.402992
6526.000000;0.403406
6525.000000;0.403738
6524.000000;0.404013
6523.000000;0.404285
6522.000000;0.404562
6521.000000;0.404824
6520.000000;0.405101
6519.000000;0.405477
6518.000000;0.405973
6517.000000;0.406487
6516.000000;0.406908
6515.000000;0.407262
6514.000000;0.407657
6513.000000;0.408109
6512.000000;0.408516
6511.000000;0.408810
6510.000000;0.409056
6509.000000;0.409366
6508.000000;0.409757
6507.000000;0.410153
6506.000000;0.410483
6505.000000;0.410750
6504.000000;0.411031
6503.000000;0.411409
6502.000000;0.411896
6501.000000;0.412393
6500.000000;0.412761
6499.000000;0.412970
6498.000000;0.413129
6497.000000;0.413371
6496.000000;0.413723
6495.000000;0.414109
6494.000000;0.414456
6493.000000;0.414754
6492.000000;0.415048
6491.000000;0.415383
6490.000000;0.415763
6489.000000;0.416149
6488.000000;0.416506
6487.000000;0.416850
6486.000000;0.417212
6485.000000;0.417574
6484.000000;0.417879
6483.000000;0.418111
6482.000000;0.418313
6481.000000;0.418518
6480.000000;0.418709
6479.000000;0.418881
6478.000000;0.419099
6477.000000;0.419433
6476.000000;0.419881
6475.000000;0.420367
6474.000000;0.420819
6473.000000;0.421185
6472.000000;0.421434
6471.000000;0.421580
6470.000000;0.421714
6469.000000;0.421939
6468.000000;0.422268
6467.000000;0.422613
6466.000000;0.422897
6465.000000;0.423135
6464.000000;0.423380
6463.000000;0.423649
6462.000000;0.423931
6461.000000;0.424248
6460.000000;0.424629
6459.000000;0.425043
6458.000000;0.425400
6457.000000;0.425655
6456.000000;0.425863
6455.000000;0.426111
6454.000000;0.426415
6453.000000;0.426727
6452.000000;0.427016
6451.000000;0.427298
6450.000000;0.427595
6449.000000;0.427886
6448.000000;0.428144
6447.000000;0.428361
6446.000000;0.428550
6445.000000;0.428716
6444.000000;0.428874
6443.000000;0.429061
6442.000000;0.429311
6441.000000;0.429616
6440.000000;0.429940
6439.000000;0.430263
6438.000000;0.430587
6437.000000;0.430901
6436.000000;0.431172
6435.000000;0.431368
6434.000000;0.431504
6433.000000;0.431627
6432.000000;0.431789
6431.000000;0.432008
6430.000000;0.432270
6429.000000;0.432560
6428.000000;0.432877
6427.000000;0.433223
6426.000000;0.433569
6425.000000;0.433873
6424.000000;0.434111
6423.000000;0.434299
6422.000000;0.434454
6421.000000;0.434584
6420.000000;0.434701
6419.000000;0.434852
6418.000000;0.435074
6417.000000;0.435351
6416.000000;0.435630
6415.000000;0.435881
6414.000000;0.436112
6413.000000;0.436324
6412.000000;0.436489
6411.000000;0.436593
6410.000000;0.436693
6409.000000;0.436876
6408.000000;0.437171
6407.000000;0.437502
6406.000000;0.437771
6405.000000;0.437952
6404.000000;0.438102
6403.000000;0.438271
6402.000000;0.438454
6401.000000;0.438635
6400.000000;0.438847
6399.000000;0.439133
6398.000000;0.439472
6397.000000;0.439773
6396.000000;0.439975
6395.000000;0.440102
6394.000000;0.440219
6393.000000;0.440352
6392.000000;0.440475
6391.000000;0.440568
6390.000000;0.440653
6389.000000;0.440783
6388.000000;0.440984
6387.000000;0.441226
6386.000000;0.441443
6385.000000;0.441607
6384.000000;0.441766
6383.000000;0.441974
6382.000000;0.442214
6381.000000;0.442413
6380.000000;0.442545
6379.000000;0.442667
6378.000000;0.442825
6377.000000;0.442995
6376.000000;0.443146
6375.000000;0.443318
6374.000000;0.443575
6373.000000;0.443888
6372.000000;0.444147
6371.000000;0.444289
6370.000000;0.444368
6369.000000;0.444478
6368.000000;0.444640
6367.000000;0.444806
6366.000000;0.444934
6365.000000;0.445043
6364.000000;0.445162
6363.000000;0.445283
6362.000000;0.445370
6361.000000;0.445418
6360.000000;0.445472
6359.000000;0.445584
6358.000000;0.445758
6357.000000;0.445958
6356.000000;0.446149
6355.000000;0.446317
6354.000000;0.446461
6353.000000;0.446585
6352.000000;0.446710
6351.000000;0.446860
6350.000000;0.447034
6349.000000;0.447208
6348.000000;0.447361
6347.000000;0.447493
6346.000000;0.447597
6345.000000;0.447660
6344.000000;0.447695
6343.000000;0.447743
6342.000000;0.447819
6341.000000;0.447897
6340.000000;0.447960
6339.000000;0.448046
6338.000000;0.448193
6337.000000;0.448379
6336.000000;0.448546
6335.000000;0.448674
6334.000000;0.448791
6333.000000;0.448914
6332.000000;0.449022
6331.000000;0.449092
6330.000000;0.449123
6329.000000;0.449130
6328.000000;0.449133
6327.000000;0.449163
6326.000000;0.449246
6325.000000;0.449379
6324.000000;0.449533
6323.000000;0.449701
6322.000000;0.449906
6321.000000;0.450142
6320.000000;0.450356
6319.000000;0.450481
6318.000000;0.450506
6317.000000;0.450485
6316.000000;0.450490
6315.000000;0.450571
6314.000000;0.450733
6313.000000;0.450932
6312.000000;0.451095
6311.000000;0.451159
6310.000000;0.451127
6309.000000;0.451071
6308.000000;0.451077
6307.000000;0.451177
6306.000000;0.451337
6305.000000;0.451498
6304.000000;0.451630
6303.000000;0.451743
6302.000000;0.451853
6301.000000;0.451951
6300.000000;0.452013
6299.000000;0.452012
6298.000000;0.451949
6297.000000;0.451858
6296.000000;0.451799
6295.000000;0.451825
6294.000000;0.451955
6293.000000;0.452153
6292.000000;0.452341
6291.000000;0.452438
6290.000000;0.452426
6289.000000;0.452376
6288.000000;0.452387
6287.000000;0.452491
6286.000000;0.452631
6285.000000;0.452744
6284.000000;0.452838
6283.000000;0.452946
6282.000000;0.453048
6281.000000;0.453093
6280.000000;0.453089
6279.000000;0.453108
6278.000000;0.453194
6277.000000;0.453314
6276.000000;0.453419
6275.000000;0.453495
6274.000000;0.453550
6273.000000;0.453576
6272.000000;0.453577
6271.000000;0.453592
6270.000000;0.453658
6269.000000;0.453755
6268.000000;0.453832
6267.000000;0.453864
6266.000000;0.453865
6265.000000;0.453861
6264.000000;0.453877
6263.000000;0.453932
6262.000000;0.454023
6261.000000;0.454113
6260.000000;0.454170
6259.000000;0.454199
6258.000000;0.454220
6257.000000;0.454235
6256.000000;0.454233
6255.000000;0.454220
6254.000000;0.454213
6253.000000;0.454212
6252.000000;0.454205
6251.000000;0.454211
6250.000000;0.454273
6249.000000;0.454403
6248.000000;0.454553
6247.000000;0.454655
6246.000000;0.454687
6245.000000;0.454676
6244.000000;0.454661
6243.000000;0.454646
6242.000000;0.454615
6241.000000;0.454568
6240.000000;0.454537
6239.000000;0.454559
6238.000000;0.454633
6237.000000;0.454720
6236.000000;0.454793
6235.000000;0.454854
6234.000000;0.454917
6233.000000;0.454977
6232.000000;0.455029
6231.000000;0.455074
6230.000000;0.455102
6229.000000;0.455098
6228.000000;0.455065
6227.000000;0.455040
6226.000000;0.455050
6225.000000;0.455075
6224.000000;0.455070
6223.000000;0.455022
6222.000000;0.454958
6221.000000;0.454926
6220.000000;0.454954
6219.000000;0.455039
6218.000000;0.455137
6217.000000;0.455186
6216.000000;0.455161
6215.000000;0.455096
6214.000000;0.455038
6213.000000;0.454999
6212.000000;0.454973
6211.000000;0.454976
6210.000000;0.455033
6209.000000;0.455132
6208.000000;0.455230
6207.000000;0.455299
6206.000000;0.455344
6205.000000;0.455376
6204.000000;0.455396
6203.000000;0.455402
6202.000000;0.455397
6201.000000;0.455383
6200.000000;0.455364
6199.000000;0.455362
6198.000000;0.455399
6197.000000;0.455465
6196.000000;0.455524
6195.000000;0.455554
6194.000000;0.455558
6193.000000;0.455540
6192.000000;0.455504
6191.000000;0.455457
6190.000000;0.455419
6189.000000;0.455387
6188.000000;0.455337
6187.000000;0.455259
6186.000000;0.455182
6185.000000;0.455158
6184.000000;0.455206
6183.000000;0.455298
6182.000000;0.455376
6181.000000;0.455399
6180.000000;0.455364
6179.000000;0.455303
6178.000000;0.455251
6177.000000;0.455215
6176.000000;0.455193
6175.000000;0.455191
6174.000000;0.455218
6173.000000;0.455257
6172.000000;0.455274
6171.000000;0.455263
6170.000000;0.455251
6169.000000;0.455258
6168.000000;0.455263
6167.000000;0.455238
6166.000000;0.455194
6165.000000;0.455168
6164.000000;0.455183
6163.000000;0.455219
6162.000000;0.455229
6161.000000;0.455183
6160.000000;0.455086
6159.000000;0.454982
6158.000000;0.454918
6157.000000;0.454905
6156.000000;0.454918
6155.000000;0.454936
6154.000000;0.454956
6153.000000;0.454989
6152.000000;0.455031
6151.000000;0.455070
6150.000000;0.455106
6149.000000;0.455144
6148.000000;0.455169
6147.000000;0.455152
6146.000000;0.455088
6145.000000;0.455015
6144.000000;0.454983
6143.000000;0.454993
6142.000000;0.454997
6141.000000;0.454948
6140.000000;0.454858
6139.000000;0.454784
6138.000000;0.454767
6137.000000;0.454794
6136.000000;0.454818
6135.000000;0.454806
6134.000000;0.454761
6133.000000;0.454706
6132.000000;0.454671
6131.000000;0.454675
6130.000000;0.454716
6129.000000;0.454768
6128.000000;0.454801
6127.000000;0.454812
6126.000000;0.454819
6125.000000;0.454831
6124.000000;0.454831
6123.000000;0.454792
6122.000000;0.454718
6121.000000;0.454640
6120.000000;0.454593
6119.000000;0.454588
6118.000000;0.454603
6117.000000;0.454611
6116.000000;0.454597
6115.000000;0.454561
6114.000000;0.454513
6113.000000;0.454461
6112.000000;0.454410
6111.000000;0.454367
6110.000000;0.454342
6109.000000;0.454333
6108.000000;0.454324
6107.000000;0.454298
6106.000000;0.454246
6105.000000;0.454187
6104.000000;0.454150
6103.000000;0.454153
6102.000000;0.454184
6101.000000;0.454221
6100.000000;0.454254
6099.000000;0.454277
6098.000000;0.454286
6097.000000;0.454270
6096.000000;0.454231
6095.000000;0.454189
6094.000000;0.454163
6093.000000;0.454159
6092.000000;0.454172
6091.000000;0.454196
6090.000000;0.454223
6089.000000;0.454243
6088.000000;0.454251
6087.000000;0.454257
6086.000000;0.454277
6085.000000;0.454309
6084.000000;0.454325
6083.000000;0.454293
6082.000000;0.454210
6081.000000;0.454111
6080.000000;0.454043
6079.000000;0.454021
6078.000000;0.454027
6077.000000;0.454028
6076.000000;0.454016
6075.000000;0.453994
6074.000000;0.453974
6073.000000;0.453969
6072.000000;0.453992
6071.000000;0.454030
6070.000000;0.454041
6069.000000;0.453989
6068.000000;0.453890
6067.000000;0.453792
6066.000000;0.453718
6065.000000;0.453655
6064.000000;0.453599
6063.000000;0.453577
6062.000000;0.453609
6061.000000;0.453675
6060.000000;0.453736
6059.000000;0.453773
6058.000000;0.453788
6057.000000;0.453772
6056.000000;0.453713
6055.000000;0.453630
6054.000000;0.453569
6053.000000;0.453562
6052.000000;0.453585
6051.000000;0.453587
6050.000000;0.453554
6049.000000;0.453528
6048.000000;0.453562
6047.000000;0.453653
6046.000000;0.453736
6045.000000;0.453758
6044.000000;0.453730
6043.000000;0.453701
6042.000000;0.453692
6041.000000;0.453681
6040.000000;0.453655
6039.000000;0.453628
6038.000000;0.453616
6037.000000;0.453602
6036.000000;0.453554
6035.000000;0.453471
6034.000000;0.453399
6033.000000;0.453387
6032.000000;0.453445
6031.000000;0.453530
6030.000000;0.453575
6029.000000;0.453552
6028.000000;0.453503
6027.000000;0.453487
6026.000000;0.453516
6025.000000;0.453537
6024.000000;0.453501
6023.000000;0.453412
6022.000000;0.453313
6021.000000;0.453242
6020.000000;0.453219
6019.000000;0.453255
6018.000000;0.453338
6017.000000;0.453423
6016.000000;0.453466
6015.000000;0.453467
6014.000000;0.453465
6013.000000;0.453493
6012.000000;0.453547
6011.000000;0.453606
6010.000000;0.453652
6009.000000;0.453677
6008.000000;0.453689
6007.000000;0.453698
6006.000000;0.453700
6005.000000;0.453672
6004.000000;0.453594
6003.000000;0.453479
6002.000000;0.453363
6001.000000;0.453279
6000.000000;0.453235
5999.000000;0.453226
5998.000000;0.453236
5997.000000;0.453256
5996.000000;0.453280
5995.000000;0.453308
5994.000000;0.453339
5993.000000;0.453364
5992.000000;0.453373
5991.000000;0.453366
5990.000000;0.453347
5989.000000;0.453314
5988.000000;0.453262
5987.000000;0.453206
5986.000000;0.453173
5985.000000;0.453184
5984.000000;0.453232
5983.000000;0.453284
5982.000000;0.453309
5981.000000;0.453311
5980.000000;0.453327
5979.000000;0.453386
5978.000000;0.453470
5977.000000;0.453528
5976.000000;0.453537
5975.000000;0.453526
5974.000000;0.453537
5973.000000;0.453582
5972.000000;0.453633
5971.000000;0.453670
5970.000000;0.453695
5969.000000;0.453713
5968.000000;0.453717
5967.000000;0.453694
5966.000000;0.453638
5965.000000;0.453570
5964.000000;0.453522
5963.000000;0.453517
5962.000000;0.453550
5961.000000;0.453596
5960.000000;0.453640
5959.000000;0.453677
5958.000000;0.453688
5957.000000;0.453649
5956.000000;0.453570
5955.000000;0.453496
5954.000000;0.453466
5953.000000;0.453473
5952.000000;0.453484
5951.000000;0.453492
5950.000000;0.453512
5949.000000;0.453547
5948.000000;0.453576
5947.000000;0.453591
5946.000000;0.453612
5945.000000;0.453672
5944.000000;0.453773
5943.000000;0.453879
5942.000000;0.453941
5941.000000;0.453938
5940.000000;0.453900
5939.000000;0.453882
5938.000000;0.453922
5937.000000;0.454014
5936.000000;0.454123
5935.000000;0.454211
5934.000000;0.454265
5933.000000;0.454291
5932.000000;0.454316
5931.000000;0.454355
5930.000000;0.454394
5929.000000;0.454401
5928.000000;0.454373
5927.000000;0.454351
5926.000000;0.454368
5925.000000;0.454411
5924.000000;0.454438
5923.000000;0.454437
5922.000000;0.454424
5921.000000;0.454409
5920.000000;0.454382
5919.000000;0.454336
5918.000000;0.454286
5917.000000;0.454254
5916.000000;0.454252
5915.000000;0.454273
5914.000000;0.454300
5913.000000;0.454316
5912.000000;0.454316
5911.000000;0.454315
5910.000000;0.454326
5909.000000;0.454339
5908.000000;0.454330
5907.000000;0.454296
5906.000000;0.454264
5905.000000;0.454264
5904.000000;0.454298
5903.000000;0.454343
5902.000000;0.454378
5901.000000;0.454395
5900.000000;0.454394
5899.000000;0.454379
5898.000000;0.454359
5897.000000;0.454348
5896.000000;0.454368
5895.000000;0.454423
5894.000000;0.454492
5893.000000;0.454527
5892.000000;0.454497
5891.000000;0.454414
5890.000000;0.454327
5889.000000;0.454272
5888.000000;0.454256
5887.000000;0.454267
5886.000000;0.454289
5885.000000;0.454301
5884.000000;0.454284
5883.000000;0.454239
5882.000000;0.454199
5881.000000;0.454216
5880.000000;0.454314
5879.000000;0.454466
5878.000000;0.454603
5877.000000;0.454669
5876.000000;0.454662
5875.000000;0.454631
5874.000000;0.454630
5873.000000;0.454669
5872.000000;0.454714
5871.000000;0.454735
5870.000000;0.454727
5869.000000;0.454706
5868.000000;0.454679
5867.000000;0.454637
5866.000000;0.454573
5865.000000;0.454503
5864.000000;0.454466
5863.000000;0.454485
5862.000000;0.454549
5861.000000;0.454615
5860.000000;0.454639
5859.000000;0.454609
5858.000000;0.454549
5857.000000;0.454500
5856.000000;0.454486
5855.000000;0.454503
5854.000000;0.454532
5853.000000;0.454574
5852.000000;0.454646
5851.000000;0.454747
5850.000000;0.454835
5849.000000;0.454866
5848.000000;0.454848
5847.000000;0.454831
5846.000000;0.454841
5845.000000;0.454857
5844.000000;0.454852
5843.000000;0.454842
5842.000000;0.454864
5841.000000;0.454930
5840.000000;0.455008
5839.000000;0.455059
5838.000000;0.455064
5837.000000;0.455034
5836.000000;0.455002
5835.000000;0.454991
5834.000000;0.454994
5833.000000;0.454990
5832.000000;0.454967
5831.000000;0.454938
5830.000000;0.454917
5829.000000;0.454908
5828.000000;0.454920
5827.000000;0.454975
5826.000000;0.455068
5825.000000;0.455150
5824.000000;0.455161
5823.000000;0.455109
5822.000000;0.455071
5821.000000;0.455116
5820.000000;0.455239
5819.000000;0.455366
5818.000000;0.455437
5817.000000;0.455451
5816.000000;0.455442
5815.000000;0.455433
5814.000000;0.455420
5813.000000;0.455397
5812.000000;0.455381
5811.000000;0.455388
5810.000000;0.455406
5809.000000;0.455415
5808.000000;0.455423
5807.000000;0.455472
5806.000000;0.455574
5805.000000;0.455683
5804.000000;0.455733
5803.000000;0.455703
5802.000000;0.455629
5801.000000;0.455561
5800.000000;0.455528
5799.000000;0.455531
5798.000000;0.455559
5797.000000;0.455597
5796.000000;0.455635
5795.000000;0.455669
5794.000000;0.455688
5793.000000;0.455675
5792.000000;0.455636
5791.000000;0.455609
5790.000000;0.455631
5789.000000;0.455700
5788.000000;0.455780
5787.000000;0.455841
5786.000000;0.455879
5785.000000;0.455901
5784.000000;0.455908
5783.000000;0.455904
5782.000000;0.455898
5781.000000;0.455891
5780.000000;0.455880
5779.000000;0.455870
5778.000000;0.455871
5777.000000;0.455879
5776.000000;0.455874
5775.000000;0.455849
5774.000000;0.455831
5773.000000;0.455852
5772.000000;0.455894
5771.000000;0.455905
5770.000000;0.455858
5769.000000;0.455789
5768.000000;0.455762
5767.000000;0.455793
5766.000000;0.455844
5765.000000;0.455873
5764.000000;0.455880
5763.000000;0.455885
5762.000000;0.455892
5761.000000;0.455878
5760.000000;0.455828
5759.000000;0.455754
5758.000000;0.455687
5757.000000;0.455651
5756.000000;0.455652
5755.000000;0.455671
5754.000000;0.455680
5753.000000;0.455668
5752.000000;0.455645
5751.000000;0.455632
5750.000000;0.455635
5749.000000;0.455654
5748.000000;0.455680
5747.000000;0.455698
5746.000000;0.455676
5745.000000;0.455604
5744.000000;0.455519
5743.000000;0.455475
5742.000000;0.455485
5741.000000;0.455513
5740.000000;0.455524
5739.000000;0.455514
5738.000000;0.455493
5737.000000;0.455466
5736.000000;0.455445
5735.000000;0.455458
5734.000000;0.455511
5733.000000;0.455573
5732.000000;0.455608
5731.000000;0.455614
5730.000000;0.455602
5729.000000;0.455573
5728.000000;0.455526
5727.000000;0.455485
5726.000000;0.455473
5725.000000;0.455475
5724.000000;0.455452
5723.000000;0.455402
5722.000000;0.455365
5721.000000;0.455362
5720.000000;0.455359
5719.000000;0.455313
5718.000000;0.455220
5717.000000;0.455116
5716.000000;0.455040
5715.000000;0.455009
5714.000000;0.455029
5713.000000;0.455085
5712.000000;0.455131
5711.000000;0.455121
5710.000000;0.455053
5709.000000;0.454975
5708.000000;0.454938
5707.000000;0.454938
5706.000000;0.454924
5705.000000;0.454858
5704.000000;0.454771
5703.000000;0.454737
5702.000000;0.454791
5701.000000;0.454890
5700.000000;0.454973
5699.000000;0.455018
5698.000000;0.455049
5697.000000;0.455079
5696.000000;0.455083
5695.000000;0.455039
5694.000000;0.454968
5693.000000;0.454928
5692.000000;0.454944
5691.000000;0.454979
5690.000000;0.454968
5689.000000;0.454893
5688.000000;0.454796
5687.000000;0.454732
5686.000000;0.454713
5685.000000;0.454713
5684.000000;0.454714
5683.000000;0.454718
5682.000000;0.454728
5681.000000;0.454730
5680.000000;0.454715
5679.000000;0.454695
5678.000000;0.454689
5677.000000;0.454701
5676.000000;0.454710
5675.000000;0.454694
5674.000000;0.454650
5673.000000;0.454596
5672.000000;0.454563
5671.000000;0.454569
5670.000000;0.454604
5669.000000;0.454643
5668.000000;0.454689
5667.000000;0.454773
5666.000000;0.454897
5665.000000;0.455006
5664.000000;0.455027
5663.000000;0.454952
5662.000000;0.454857
5661.000000;0.454831
5660.000000;0.454889
5659.000000;0.454977
5658.000000;0.455039
5657.000000;0.455072
5656.000000;0.455109
5655.000000;0.455164
5654.000000;0.455217
5653.000000;0.455248
5652.000000;0.455274
5651.000000;0.455321
5650.000000;0.455385
5649.000000;0.455436
5648.000000;0.455464
5647.000000;0.455498
5646.000000;0.455563
5645.000000;0.455634
5644.000000;0.455674
5643.000000;0.455690
5642.000000;0.455736
5641.000000;0.455848
5640.000000;0.456008
5639.000000;0.456168
5638.000000;0.456303
5637.000000;0.456414
5636.000000;0.456507
5635.000000;0.456569
5634.000000;0.456591
5633.000000;0.456593
5632.000000;0.456618
5631.000000;0.456702
5630.000000;0.456831
5629.000000;0.456953
5628.000000;0.457035
5627.000000;0.457095
5626.000000;0.457179
5625.000000;0.457299
5624.000000;0.457420
5623.000000;0.457499
5622.000000;0.457539
5621.000000;0.457592
5620.000000;0.457704
5619.000000;0.457870
5618.000000;0.458049
5617.000000;0.458212
5616.000000;0.458361
5615.000000;0.458505
5614.000000;0.458629
5613.000000;0.458716
5612.000000;0.458777
5611.000000;0.458847
5610.000000;0.458948
5609.000000;0.459083
5608.000000;0.459247
5607.000000;0.459431
5606.000000;0.459608
5605.000000;0.459749
5604.000000;0.459847
5603.000000;0.459933
5602.000000;0.460038
5601.000000;0.460172
5600.000000;0.460326
5599.000000;0.460489
5598.000000;0.460650
5597.000000;0.460804
5596.000000;0.460952
5595.000000;0.461099
5594.000000;0.461240
5593.000000;0.461364
5592.000000;0.461473
5591.000000;0.461589
5590.000000;0.461724
5589.000000;0.461869
5588.000000;0.461997
5587.000000;0.462092
5586.000000;0.462156
5585.000000;0.462224
5584.000000;0.462336
5583.000000;0.462501
5582.000000;0.462682
5581.000000;0.462835
5580.000000;0.462968
5579.000000;0.463126
5578.000000;0.463327
5577.000000;0.463538
5576.000000;0.463729
5575.000000;0.463903
5574.000000;0.464058
5573.000000;0.464169
5572.000000;0.464224
5571.000000;0.464263
5570.000000;0.464336
5569.000000;0.464454
5568.000000;0.464590
5567.000000;0.464725
5566.000000;0.464855
5565.000000;0.464975
5564.000000;0.465083
5563.000000;0.465192
5562.000000;0.465314
5561.000000;0.465435
5560.000000;0.465542
5559.000000;0.465658
5558.000000;0.465825
5557.000000;0.466047
5556.000000;0.466286
5555.000000;0.466502
5554.000000;0.466672
5553.000000;0.466781
5552.000000;0.466830
5551.000000;0.466860
5550.000000;0.466929
5549.000000;0.467045
5548.000000;0.467140
5547.000000;0.467170
5546.000000;0.467181
5545.000000;0.467270
5544.000000;0.467458
5543.000000;0.467660
5542.000000;0.467783
5541.000000;0.467829
5540.000000;0.467868
5539.000000;0.467949
5538.000000;0.468056
5537.000000;0.468158
5536.000000;0.468248
5535.000000;0.468327
5534.000000;0.468382
5533.000000;0.468408
5532.000000;0.468438
5531.000000;0.468513
5530.000000;0.468637
5529.000000;0.468777
5528.000000;0.468904
5527.000000;0.469024
5526.000000;0.469153
5525.000000;0.469289
5524.000000;0.469424
5523.000000;0.469549
5522.000000;0.469656
5521.000000;0.469733
5520.000000;0.469785
5519.000000;0.469837
5518.000000;0.469911
5517.000000;0.470018
5516.000000;0.470154
5515.000000;0.470304
5514.000000;0.470441
5513.000000;0.470543
5512.000000;0.470616
5511.000000;0.470700
5510.000000;0.470826
5509.000000;0.470995
5508.000000;0.471174
5507.000000;0.471314
5506.000000;0.471370
5505.000000;0.471334
5504.000000;0.471253
5503.000000;0.471212
5502.000000;0.471265
5501.000000;0.471404
5500.000000;0.471577
5499.000000;0.471744
5498.000000;0.471892
5497.000000;0.472038
5496.000000;0.472201
5495.000000;0.472376
5494.000000;0.472527
5493.000000;0.472609
5492.000000;0.472626
5491.000000;0.472629
5490.000000;0.472660
5489.000000;0.472705
5488.000000;0.472722
5487.000000;0.472715
5486.000000;0.472752
5485.000000;0.472916
5484.000000;0.473231
5483.000000;0.473618
5482.000000;0.473944
5481.000000;0.474128
5480.000000;0.474204
5479.000000;0.474262
5478.000000;0.474347
5477.000000;0.474425
5476.000000;0.474446
5475.000000;0.474409
5474.000000;0.474358
5473.000000;0.474340
5472.000000;0.474362
5471.000000;0.474417
5470.000000;0.474514
5469.000000;0.474682
5468.000000;0.474922
5467.000000;0.475188
5466.000000;0.475418
5465.000000;0.475582
5464.000000;0.475706
5463.000000;0.475830
5462.000000;0.475949
5461.000000;0.476017
5460.000000;0.476024
5459.000000;0.476033
5458.000000;0.476112
5457.000000;0.476260
5456.000000;0.476425
5455.000000;0.476599
5454.000000;0.476819
5453.000000;0.477085
5452.000000;0.477347
5451.000000;0.477582
5450.000000;0.477834
5449.000000;0.478121
5448.000000;0.478373
5447.000000;0.478511
5446.000000;0.478562
5445.000000;0.478644
5444.000000;0.478834
5443.000000;0.479074
5442.000000;0.479234
5441.000000;0.479249
5440.000000;0.479203
5439.000000;0.479257
5438.000000;0.479480
5437.000000;0.479755
5436.000000;0.479913
5435.000000;0.479927
5434.000000;0.479944
5433.000000;0.480116
5432.000000;0.480427
5431.000000;0.480742
5430.000000;0.480960
5429.000000;0.481068
5428.000000;0.481120
5427.000000;0.481183
5426.000000;0.481301
5425.000000;0.481473
5424.000000;0.481672
5423.000000;0.481884
5422.000000;0.482130
5421.000000;0.482447
5420.000000;0.482846
5419.000000;0.483301
5418.000000;0.483756
5417.000000;0.484151
5416.000000;0.484460
5415.000000;0.484705
5414.000000;0.484937
5413.000000;0.485170
5412.000000;0.485372
5411.000000;0.485513
5410.000000;0.485623
5409.000000;0.485772
5408.000000;0.486014
5407.000000;0.486343
5406.000000;0.486712
5405.000000;0.487087
5404.000000;0.487484
5403.000000;0.487941
5402.000000;0.488464
5401.000000;0.489004
5400.000000;0.489515
5399.000000;0.490006
5398.000000;0.490504
5397.000000;0.490997
5396.000000;0.491440
5395.000000;0.491814
5394.000000;0.492128
5393.000000;0.492396
5392.000000;0.492651
5391.000000;0.492963
5390.000000;0.493405
5389.000000;0.493966
5388.000000;0.494550
5387.000000;0.495085
5386.000000;0.495600
5385.000000;0.496173
5384.000000;0.496833
5383.000000;0.497531
5382.000000;0.498203
5381.000000;0.498824
5380.000000;0.499409
5379.000000;0.499988
5378.000000;0.500597
5377.000000;0.501243
5376.000000;0.501896
5375.000000;0.502535
5374.000000;0.503180
5373.000000;0.503860
5372.000000;0.504558
5371.000000;0.505244
5370.000000;0.505931
5369.000000;0.506693
5368.000000;0.507589
5367.000000;0.508601
5366.000000;0.509644
5365.000000;0.510649
5364.000000;0.511621
5363.000000;0.512622
5362.000000;0.513693
5361.000000;0.514797
5360.000000;0.515881
5359.000000;0.516981
5358.000000;0.518198
5357.000000;0.519539
5356.000000;0.520877
5355.000000;0.522102
5354.000000;0.523274
5353.000000;0.524533
5352.000000;0.525895
5351.000000;0.527210
5350.000000;0.528378
5349.000000;0.529513
5348.000000;0.530804
5347.000000;0.532262
5346.000000;0.533723
5345.000000;0.535112
5344.000000;0.536592
5343.000000;0.538339
5342.000000;0.540196
5341.000000;0.541770
5340.000000;0.542901
5339.000000;0.543938
5338.000000;0.545428
5337.000000;0.547529
5336.000000;0.549855
5335.000000;0.551926
5334.000000;0.553570
5333.000000;0.554887
5332.000000;0.556046
5331.000000;0.557198
5330.000000;0.558437
5329.000000;0.559704
5328.000000;0.560791
5327.000000;0.561498
5326.000000;0.561822
5325.000000;0.561938
5324.000000;0.562017
5323.000000;0.562085
5322.000000;0.562050
5321.000000;0.561833
5320.000000;0.561457
5319.000000;0.560890
5318.000000;0.559775
5317.000000;0.557589
5316.000000;0.554279
5315.000000;0.550447
5314.000000;0.546535
5313.000000;0.542119
5312.000000;0.536575
5311.000000;0.530066
5310.000000;0.522966
5309.000000;0.514422
5308.000000;0.502628
5307.000000;0.486981
5306.000000;0.469049
5305.000000;0.450849
5304.000000;0.433233
5303.000000;0.416285
5302.000000;0.400202
5301.000000;0.385619
5300.000000;0.373804
5299.000000;0.366585
5298.000000;0.366077
5297.000000;0.374373
5296.000000;0.392042
5295.000000;0.417915
5294.000000;0.452031
5293.000000;0.494632
5292.000000;0.541580
5291.000000;0.586659
5290.000000;0.627471
5289.000000;0.663415
5288.000000;0.692185
5287.000000;0.714264
5286.000000;0.735176
5285.000000;0.757628
5284.000000;0.777220
5283.000000;0.791552
5282.000000;0.806285
5281.000000;0.825532
5280.000000;0.844080
5279.000000;0.855419
5278.000000;0.861308
5277.000000;0.866944
5276.000000;0.873214
5275.000000;0.879960
5274.000000;0.889994
5273.000000;0.903630
5272.000000;0.915626
5271.000000;0.923599
5270.000000;0.932619
5269.000000;0.945873
5268.000000;0.958741
5267.000000;0.967102
5266.000000;0.973131
5265.000000;0.977297
5264.000000;0.974621
5263.000000;0.965345
5262.000000;0.959125
5261.000000;0.962172
5260.000000;0.968531
5259.000000;0.969962
5258.000000;0.967338
5257.000000;0.964989
5256.000000;0.961993
5255.000000;0.957016
5254.000000;0.954737
5253.000000;0.959840
5252.000000;0.970123
5251.000000;0.981091
5250.000000;0.991949
5249.000000;1.001403
5248.000000;1.004028
5247.000000;0.997801
5246.000000;0.989199
5245.000000;0.983886
5244.000000;0.979770
5243.000000;0.974756
5242.000000;0.972038
5241.000000;0.972724
5240.000000;0.971756
5239.000000;0.966856
5238.000000;0.964226
5237.000000;0.968989
5236.000000;0.976590
5235.000000;0.979940
5234.000000;0.980249
5233.000000;0.982846
5232.000000;0.987792
5231.000000;0.991381
5230.000000;0.992206
5229.000000;0.991958
5228.000000;0.991966
5227.000000;0.992964
5226.000000;0.996451
5225.000000;1.001083
5224.000000;1.003083
5223.000000;1.002510
5222.000000;1.002636
5221.000000;1.002572
5220.000000;0.996912
5219.000000;0.985871
5218.000000;0.977789
5217.000000;0.977431
5216.000000;0.978397
5215.000000;0.974406
5214.000000;0.971293
5213.000000;0.976939
5212.000000;0.988575
5211.000000;0.996987
5210.000000;0.999410
5209.000000;1.001542
5208.000000;1.007302
5207.000000;1.013784
5206.000000;1.015784
5205.000000;1.011705
5204.000000;1.004565
5203.000000;0.998782
5202.000000;0.996134
5201.000000;0.994857
5200.000000;0.994082
5199.000000;0.996267
5198.000000;1.002493
5197.000000;1.007243
5196.000000;1.003458
5195.000000;0.993579
5194.000000;0.986585
5193.000000;0.985180
5192.000000;0.984019
5191.000000;0.981324
5190.000000;0.983087
5189.000000;0.991577
5188.000000;0.998906
5187.000000;0.997557
5186.000000;0.992702
5185.000000;0.993909
5184.000000;1.000079
5183.000000;1.002893
5182.000000;0.999615
5181.000000;0.994637
5180.000000;0.991567
5179.000000;0.990516
5178.000000;0.990757
5177.000000;0.990778
5176.000000;0.988749
5175.000000;0.986082
5174.000000;0.986233
5173.000000;0.987911
5172.000000;0.985309
5171.000000;0.978209
5170.000000;0.974047
5169.000000;0.977023
5168.000000;0.982560
5167.000000;0.985522
5166.000000;0.988362
5165.000000;0.995530
5164.000000;1.004548
5163.000000;1.008811
5162.000000;1.006808
5161.000000;1.002900
5160.000000;1.000980
5159.000000;1.001911
5158.000000;1.004434
5157.000000;1.004975
5156.000000;0.999790
5155.000000;0.990677
5154.000000;0.983885
5153.000000;0.981031
5152.000000;0.977464
5151.000000;0.971347
5150.000000;0.967440
5149.000000;0.969182
5148.000000;0.973476
5147.000000;0.976591
5146.000000;0.980061
5145.000000;0.985921
5144.000000;0.991365
5143.000000;0.993710
5142.000000;0.995438
5141.000000;0.998592
5140.000000;0.999115
5139.000000;0.992906
5138.000000;0.983982
5137.000000;0.979375
5136.000000;0.979494
5135.000000;0.979968
5134.000000;0.979918
5133.000000;0.981900
5132.000000;0.985593
5131.000000;0.988137
5130.000000;0.990060
5129.000000;0.995378
5128.000000;1.005251
5127.000000;1.015560
5126.000000;1.021449
5125.000000;1.021580
5124.000000;1.017635
5123.000000;1.012283
5122.000000;1.007409
5121.000000;1.002023
5120.000000;0.993343
5119.000000;0.982536
5118.000000;0.976427
5117.000000;0.979965
5116.000000;0.989078
5115.000000;0.993981
5114.000000;0.990129
5113.000000;0.982578
5112.000000;0.978565
5111.000000;0.980046
5110.000000;0.983487
5109.000000;0.984891
5108.000000;0.984276
5107.000000;0.984198
5106.000000;0.985142
5105.000000;0.984030
5104.000000;0.978155
5103.000000;0.970072
5102.000000;0.965130
5101.000000;0.964295
5100.000000;0.963319
5099.000000;0.959912
5098.000000;0.957775
5097.000000;0.960850
5096.000000;0.967077
5095.000000;0.970786
5094.000000;0.969887
5093.000000;0.967863
5092.000000;0.968674
5091.000000;0.972916
5090.000000;0.979055
5089.000000;0.985895
5088.000000;0.993906
5087.000000;1.003218
5086.000000;1.009188
5085.000000;1.004384
5084.000000;0.988893
5083.000000;0.973439
5082.000000;0.967870
5081.000000;0.970784
5080.000000;0.973510
5079.000000;0.972547
5078.000000;0.972555
5077.000000;0.976608
5076.000000;0.980628
5075.000000;0.979993
5074.000000;0.976413
5073.000000;0.974351
5072.000000;0.975114
5071.000000;0.977748
5070.000000;0.981310
5069.000000;0.982993
5068.000000;0.978330
5067.000000;0.967311
5066.000000;0.956624
5065.000000;0.952016
5064.000000;0.951198
5063.000000;0.947229
5062.000000;0.938069
5061.000000;0.929445
5060.000000;0.927796
5059.000000;0.933278
5058.000000;0.939851
5057.000000;0.941872
5056.000000;0.941202
5055.000000;0.945690
5054.000000;0.959361
5053.000000;0.975460
5052.000000;0.982365
5051.000000;0.977994
5050.000000;0.970741
5049.000000;0.965967
5048.000000;0.961107
5047.000000;0.954677
5046.000000;0.951441
5045.000000;0.953997
5044.000000;0.956079
5043.000000;0.950010
5042.000000;0.937385
5041.000000;0.925105
5040.000000;0.915638
5039.000000;0.907443
5038.000000;0.900185
5037.000000;0.895938
5036.000000;0.896712
5035.000000;0.901940
5034.000000;0.908690
5033.000000;0.914139
5032.000000;0.917597
5031.000000;0.919872
5030.000000;0.920603
5029.000000;0.917584
5028.000000;0.910618
5027.000000;0.903749
5026.000000;0.900452
5025.000000;0.898674
5024.000000;0.893744
5023.000000;0.885962
5022.000000;0.880959
5021.000000;0.881470
5020.000000;0.883336
5019.000000;0.881235
5018.000000;0.875090
5017.000000;0.868149
5016.000000;0.861696
5015.000000;0.854878
5014.000000;0.848032
5013.000000;0.843500
5012.000000;0.843077
5011.000000;0.845339
5010.000000;0.845539
5009.000000;0.838924
5008.000000;0.825793
5007.000000;0.812526
5006.000000;0.805402
5005.000000;0.804182
5004.000000;0.803380
5003.000000;0.799395
5002.000000;0.793781
5001.000000;0.789066
5000.000000;0.785328
4999.000000;0.782480
4998.000000;0.781932
4997.000000;0.783132
4996.000000;0.781760
4995.000000;0.774871
4994.000000;0.765357
4993.000000;0.758028
4992.000000;0.753559
4991.000000;0.748933
4990.000000;0.742484
4989.000000;0.735754
4988.000000;0.730691
4987.000000;0.727376
4986.000000;0.724625
4985.000000;0.721150
4984.000000;0.715899
4983.000000;0.708466
4982.000000;0.699251
4981.000000;0.688888
4980.000000;0.678054
4979.000000;0.668111
4978.000000;0.660722
4977.000000;0.655999
4976.000000;0.652026
4975.000000;0.647044
4974.000000;0.641544
4973.000000;0.637266
4972.000000;0.634697
4971.000000;0.632680
4970.000000;0.629986
4969.000000;0.626249
4968.000000;0.621563
4967.000000;0.615865
4966.000000;0.608802
4965.000000;0.600288
4964.000000;0.591311
4963.000000;0.583328
4962.000000;0.576068
4961.000000;0.566767
4960.000000;0.553161
4959.000000;0.537085
4958.000000;0.523115
4957.000000;0.513717
4956.000000;0.507698
4955.000000;0.503076
4954.000000;0.499408
4953.000000;0.496600
4952.000000;0.493108
4951.000000;0.486870
4950.000000;0.477665
4949.000000;0.467602
4948.000000;0.459319
4947.000000;0.453750
4946.000000;0.449206
4945.000000;0.442941
4944.000000;0.434418
4943.000000;0.426242
4942.000000;0.420845
4941.000000;0.416927
4940.000000;0.410773
4939.000000;0.401208
4938.000000;0.390821
4937.000000;0.381889
4936.000000;0.373608
4935.000000;0.364413
4934.000000;0.355024
4933.000000;0.347154
4932.000000;0.340614
4931.000000;0.333713
4930.000000;0.326032
4929.000000;0.318874
4928.000000;0.312733
4927.000000;0.306082
4926.000000;0.296910
4925.000000;0.284898
4924.000000;0.272207
4923.000000;0.261945
4922.000000;0.255463
4921.000000;0.251224
4920.000000;0.246743
4919.000000;0.241235
4918.000000;0.235474
4917.000000;0.229579
4916.000000;0.222367
4915.000000;0.213107
4914.000000;0.202574
4913.000000;0.191872
4912.000000;0.181388
4911.000000;0.171644
4910.000000;0.163891
4909.000000;0.158464
4908.000000;0.153417
4907.000000;0.146304
4906.000000;0.137090
4905.000000;0.127896
4904.000000;0.120142
4903.000000;0.113241
4902.000000;0.105984
4901.000000;0.098126
4900.000000;0.090091
4899.000000;0.081932
4898.000000;0.073502
4897.000000;0.065452
4896.000000;0.059072
4895.000000;0.054768
4894.000000;0.051093
4893.000000;0.045770
4892.000000;0.037782
4891.000000;0.028388
4890.000000;0.019932
4889.000000;0.013791
4888.000000;0.009564
4887.000000;0.005947
4886.000000;0.002075
4885.000000;-0.001932
4884.000000;-0.005518
4883.000000;-0.008593
4882.000000;-0.011710
4881.000000;-0.015284
4880.000000;-0.018965
4879.000000;-0.022300
4878.000000;-0.025702
4877.000000;-0.030042
4876.000000;-0.035211
4875.000000;-0.039793
4874.000000;-0.042546
4873.000000;-0.043705
4872.000000;-0.044559
4871.000000;-0.046045
4870.000000;-0.048041
4869.000000;-0.049771
4868.000000;-0.050604
4867.000000;-0.050551
4866.000000;-0.050113
4865.000000;-0.049733
4864.000000;-0.049613
4863.000000;-0.049919
4862.000000;-0.050691
4861.000000;-0.051367
4860.000000;-0.050960
4859.000000;-0.049264
4858.000000;-0.047420
4857.000000;-0.046614
4856.000000;-0.046481
4855.000000;-0.045557
4854.000000;-0.043201
4853.000000;-0.040283
4852.000000;-0.037790
4851.000000;-0.035498
4850.000000;-0.032537
4849.000000;-0.028864
4848.000000;-0.025556
4847.000000;-0.023450
4846.000000;-0.022022
4845.000000;-0.020101
4844.000000;-0.017458
4843.000000;-0.014969
4842.000000;-0.013056
4841.000000;-0.010807
4840.000000;-0.007264
4839.000000;-0.002909
4838.000000;0.001034
4837.000000;0.004379
4836.000000;0.007944
4835.000000;0.011913
4834.000000;0.015441
4833.000000;0.018105
4832.000000;0.020655
4831.000000;0.023805
4830.000000;0.027212
4829.000000;0.030263
4828.000000;0.033058
4827.000000;0.035956
4826.000000;0.038752
4825.000000;0.041036
4824.000000;0.042909
4823.000000;0.044747
4822.000000;0.046713
4821.000000;0.049034
4820.000000;0.052269
4819.000000;0.056639
4818.000000;0.061455
4817.000000;0.065840
4816.000000;0.069730
4815.000000;0.073582
4814.000000;0.077455
4813.000000;0.081018
4812.000000;0.084206
4811.000000;0.087254
4810.000000;0.090167
4809.000000;0.092826
4808.000000;0.095500
4807.000000;0.098637
4806.000000;0.102147
4805.000000;0.105446
4804.000000;0.108248
4803.000000;0.110805
4802.000000;0.113281
4801.000000;0.115462
4800.000000;0.117334
4799.000000;0.119441
4798.000000;0.122230
4797.000000;0.125285
4796.000000;0.127699
4795.000000;0.129234
4794.000000;0.130775
4793.000000;0.133366
4792.000000;0.136962
4791.000000;0.140435
4790.000000;0.142907
4789.000000;0.144746
4788.000000;0.146931
4787.000000;0.149711
4786.000000;0.152417
4785.000000;0.154629
4784.000000;0.156911
4783.000000;0.159983
4782.000000;0.163607
4781.000000;0.166837
4780.000000;0.169271
4779.000000;0.171540
4778.000000;0.174419
4777.000000;0.177800
4776.000000;0.180767
4775.000000;0.182619
4774.000000;0.183657
4773.000000;0.184900
4772.000000;0.187056
4771.000000;0.189834
4770.000000;0.192338
4769.000000;0.194018
4768.000000;0.195058
4767.000000;0.195895
4766.000000;0.196748
4765.000000;0.197721
4764.000000;0.199047
4763.000000;0.200895
4762.000000;0.203099
4761.000000;0.205374
4760.000000;0.207723
4759.000000;0.210347
4758.000000;0.213172
4757.000000;0.215735
4756.000000;0.217663
4755.000000;0.219111
4754.000000;0.220592
4753.000000;0.222428
4752.000000;0.224474
4751.000000;0.226397
4750.000000;0.228119
4749.000000;0.229843
4748.000000;0.231669
4747.000000;0.233396
4746.000000;0.234835
4745.000000;0.236114
4744.000000;0.237449
4743.000000;0.238811
4742.000000;0.240126
4741.000000;0.241670
4740.000000;0.243786
4739.000000;0.246231
4738.000000;0.248266
4737.000000;0.249588
4736.000000;0.250739
4735.000000;0.252328
4734.000000;0.254266
4733.000000;0.256067
4732.000000;0.257605
4731.000000;0.259133
4730.000000;0.260775
4729.000000;0.262403
4728.000000;0.263950
4727.000000;0.265492
4726.000000;0.267022
4725.000000;0.268396
4724.000000;0.269485
4723.000000;0.270235
4722.000000;0.270655
4721.000000;0.270954
4720.000000;0.271535
4719.000000;0.272618
4718.000000;0.273932
4717.000000;0.275050
4716.000000;0.275977
4715.000000;0.277119
4714.000000;0.278726
4713.000000;0.280635
4712.000000;0.282556
4711.000000;0.284327
4710.000000;0.285814
4709.000000;0.286873
4708.000000;0.287567
4707.000000;0.288288
4706.000000;0.289465
4705.000000;0.291144
4704.000000;0.292914
4703.000000;0.294256
4702.000000;0.295023
4701.000000;0.295604
4700.000000;0.296528
4699.000000;0.297870
4698.000000;0.299188
4697.000000;0.300117
4696.000000;0.300836
4695.000000;0.301744
4694.000000;0.302886
4693.000000;0.303984
4692.000000;0.304950
4691.000000;0.306019
4690.000000;0.307315
4689.000000;0.308593
4688.000000;0.309567
4687.000000;0.310290
4686.000000;0.311068
4685.000000;0.312077
4684.000000;0.313174
4683.000000;0.314055
4682.000000;0.314546
4681.000000;0.314801
4680.000000;0.315175
4679.000000;0.315877
4678.000000;0.316784
4677.000000;0.317684
4676.000000;0.318592
4675.000000;0.319664
4674.000000;0.320879
4673.000000;0.322022
4672.000000;0.323003
4671.000000;0.323989
4670.000000;0.325145
4669.000000;0.326396
4668.000000;0.327527
4667.000000;0.328434
4666.000000;0.329188
4665.000000;0.329929
4664.000000;0.330741
4663.000000;0.331569
4662.000000;0.332249
4661.000000;0.332664
4660.000000;0.332888
4659.000000;0.333118
4658.000000;0.333506
4657.000000;0.334091
4656.000000;0.334831
4655.000000;0.335609
4654.000000;0.336259
4653.000000;0.336728
4652.000000;0.337190
4651.000000;0.337872
4650.000000;0.338790
4649.000000;0.339757
4648.000000;0.340624
4647.000000;0.341389
4646.000000;0.342102
4645.000000;0.342791
4644.000000;0.343484
4643.000000;0.344182
4642.000000;0.344814
4641.000000;0.345341
4640.000000;0.345889
4639.000000;0.346617
4638.000000;0.347484
4637.000000;0.348271
4636.000000;0.348861
4635.000000;0.349337
4634.000000;0.349825
4633.000000;0.350385
4632.000000;0.351070
4631.000000;0.351902
4630.000000;0.352762
4629.000000;0.353445
4628.000000;0.353888
4627.000000;0.354195
4626.000000;0.354438
4625.000000;0.354589
4624.000000;0.354730
4623.000000;0.355108
4622.000000;0.355843
4621.000000;0.356693
4620.000000;0.357282
4619.000000;0.357499
4618.000000;0.357583
4617.000000;0.357840
4616.000000;0.358373
4615.000000;0.359065
4614.000000;0.359741
4613.000000;0.360322
4612.000000;0.360844
4611.000000;0.361350
4610.000000;0.361828
4609.000000;0.362278
4608.000000;0.362777
4607.000000;0.363365
4606.000000;0.363929
4605.000000;0.364322
4604.000000;0.364594
4603.000000;0.364960
4602.000000;0.365513
4601.000000;0.366110
4600.000000;0.366570
4599.000000;0.366857
4598.000000;0.367052
4597.000000;0.367251
4596.000000;0.367553
4595.000000;0.368027
4594.000000;0.368626
4593.000000;0.369214
4592.000000;0.369695
4591.000000;0.370048
4590.000000;0.370243
4589.000000;0.370263
4588.000000;0.370242
4587.000000;0.370410
4586.000000;0.370818
4585.000000;0.371252
4584.000000;0.371521
4583.000000;0.371710
4582.000000;0.372031
4581.000000;0.372519
4580.000000;0.373016
4579.000000;0.373401
4578.000000;0.373722
4577.000000;0.374095
4576.000000;0.374566
4575.000000;0.375078
4574.000000;0.375521
4573.000000;0.375843
4572.000000;0.376105
4571.000000;0.376380
4570.000000;0.376592
4569.000000;0.376568
4568.000000;0.376299
4567.000000;0.376045
4566.000000;0.376080
4565.000000;0.376408
4564.000000;0.376806
4563.000000;0.377119
4562.000000;0.377413
4561.000000;0.377847
4560.000000;0.378463
4559.000000;0.379139
4558.000000;0.379688
4557.000000;0.380007
4556.000000;0.380116
4555.000000;0.380082
4554.000000;0.379939
4553.000000;0.379738
4552.000000;0.379613
4551.000000;0.379702
4550.000000;0.379967
4549.000000;0.380184
4548.000000;0.380155
4547.000000;0.379896
4546.000000;0.379573
4545.000000;0.379348
4544.000000;0.379323
4543.000000;0.379560
4542.000000;0.380065
4541.000000;0.380773
4540.000000;0.381569
4539.000000;0.382312
4538.000000;0.382836
4537.000000;0.383032
4536.000000;0.382969
4535.000000;0.382878
4534.000000;0.382943
4533.000000;0.383125
4532.000000;0.383235
4531.000000;0.383176
4530.000000;0.383044
4529.000000;0.382991
4528.000000;0.383030
4527.000000;0.383017
4526.000000;0.382853
4525.000000;0.382650
4524.000000;0.382606
4523.000000;0.382715
4522.000000;0.382726
4521.000000;0.382513
4520.000000;0.382344
4519.000000;0.382607
4518.000000;0.383306
4517.000000;0.384033
4516.000000;0.384463
4515.000000;0.384660
4514.000000;0.384813
4513.000000;0.384911
4512.000000;0.384847
4511.000000;0.384729
4510.000000;0.384814
4509.000000;0.385160
4508.000000;0.385537
4507.000000;0.385733
4506.000000;0.385802
4505.000000;0.385911
4504.000000;0.386076
4503.000000;0.386162
4502.000000;0.386119
4501.000000;0.386042
4500.000000;0.385973
4499.000000;0.385815
4498.000000;0.385575
4497.000000;0.385571
4496.000000;0.386121
4495.000000;0.387016
4494.000000;0.387581
4493.000000;0.387404
4492.000000;0.386807
4491.000000;0.386393
4490.000000;0.386316
4489.000000;0.386279
4488.000000;0.386132
4487.000000;0.386089
4486.000000;0.386315
4485.000000;0.386628
4484.000000;0.386773
4483.000000;0.386773
4482.000000;0.386804
4481.000000;0.386892
4480.000000;0.386913
4479.000000;0.386822
4478.000000;0.386708
4477.000000;0.386664
4476.000000;0.386691
4475.000000;0.386734
4474.000000;0.386742
4473.000000;0.386721
4472.000000;0.386763
4471.000000;0.386950
4470.000000;0.387231
4469.000000;0.387493
4468.000000;0.387755
4467.000000;0.388124
4466.000000;0.388507
4465.000000;0.388559
4464.000000;0.388092
4463.000000;0.387402
4462.000000;0.386997
4461.000000;0.387045
4460.000000;0.387260
4459.000000;0.387312
4458.000000;0.387178
4457.000000;0.387044
4456.000000;0.387022
4455.000000;0.387084
4454.000000;0.387188
4453.000000;0.387352
4452.000000;0.387576
4451.000000;0.387786
4450.000000;0.387908
4449.000000;0.388008
4448.000000;0.388234
4447.000000;0.388598
4446.000000;0.388873
4445.000000;0.388846
4444.000000;0.388607
4443.000000;0.388471
4442.000000;0.388582
4441.000000;0.388736
4440.000000;0.388658
4439.000000;0.388339
4438.000000;0.387976
4437.000000;0.387694
4436.000000;0.387450
4435.000000;0.387223
4434.000000;0.387143
4433.000000;0.387368
4432.000000;0.387854
4431.000000;0.388319
4430.000000;0.388467
4429.000000;0.388224
4428.000000;0.387740
4427.000000;0.387205
4426.000000;0.386765
4425.000000;0.386578
4424.000000;0.386750
4423.000000;0.387134
4422.000000;0.387324
4421.000000;0.387046
4420.000000;0.386494
4419.000000;0.386120
4418.000000;0.386148
4417.000000;0.386432
4416.000000;0.386738
4415.000000;0.386952
4414.000000;0.386986
4413.000000;0.386702
4412.000000;0.386038
4411.000000;0.385149
4410.000000;0.384344
4409.000000;0.383917
4408.000000;0.383980
4407.000000;0.384342
4406.000000;0.384630
4405.000000;0.384658
4404.000000;0.384647
4403.000000;0.384889
4402.000000;0.385257
4401.000000;0.385280
4400.000000;0.384725
4399.000000;0.383878
4398.000000;0.383143
4397.000000;0.382578
4396.000000;0.381935
4395.000000;0.381004
4394.000000;0.379812
4393.000000;0.378607
4392.000000;0.377732
4391.000000;0.377384
4390.000000;0.377410
4389.000000;0.377431
4388.000000;0.377215
4387.000000;0.376791
4386.000000;0.376211
4385.000000;0.375457
4384.000000;0.374659
4383.000000;0.374110
4382.000000;0.373861
4381.000000;0.373525
4380.000000;0.372742
4379.000000;0.371687
4378.000000;0.370851
4377.000000;0.370370
4376.000000;0.369858
4375.000000;0.368880
4374.000000;0.367379
4373.000000;0.365585
4372.000000;0.363718
4371.000000;0.361935
4370.000000;0.360393
4369.000000;0.359166
4368.000000;0.358124
4367.000000;0.357091
4366.000000;0.356185
4365.000000;0.355791
4364.000000;0.356003
4363.000000;0.356241
4362.000000;0.355733
4361.000000;0.354416
4360.000000;0.353008
4359.000000;0.352072
4358.000000;0.351379
4357.000000;0.350462
4356.000000;0.349450
4355.000000;0.348856
4354.000000;0.348706
4353.000000;0.348379
4352.000000;0.347349
4351.000000;0.345722
4350.000000;0.343966
4349.000000;0.342484
4348.000000;0.341469
4347.000000;0.340790
4346.000000;0.339910
4345.000000;0.338309
4344.000000;0.336147
4343.000000;0.334198
4342.000000;0.332956
4341.000000;0.332102
4340.000000;0.331022
4339.000000;0.329528
4338.000000;0.327832
4337.000000;0.326103
4336.000000;0.324419
4335.000000;0.322995
4334.000000;0.322034
4333.000000;0.321295
4332.000000;0.320101
4331.000000;0.317999
4330.000000;0.315392
4329.000000;0.313342
4328.000000;0.312628
4327.000000;0.312993
4326.000000;0.313409
4325.000000;0.313071
4324.000000;0.311930
4323.000000;0.310303
4322.000000;0.308427
4321.000000;0.306668
4320.000000;0.305679
4319.000000;0.305767
4318.000000;0.306248
4317.000000;0.305917
4316.000000;0.304159
4315.000000;0.301316
4314.000000;0.298100
4313.000000;0.295179
4312.000000;0.293135
4311.000000;0.292092
4310.000000;0.291292
4309.000000;0.289649
4308.000000;0.286992
4307.000000;0.284315
4306.000000;0.282685
4305.000000;0.282366
4304.000000;0.283002
4303.000000;0.283978
4302.000000;0.284337
4301.000000;0.283065
4300.000000;0.280157
4299.000000;0.277172
4298.000000;0.276125
4297.000000;0.277656
4296.000000;0.280354
4295.000000;0.281977
4294.000000;0.281511
4293.000000;0.280143
4292.000000;0.280040
4291.000000;0.282016
4290.000000;0.284715
4289.000000;0.286359
4288.000000;0.286799
4287.000000;0.287235
4286.000000;0.288195
4285.000000;0.288853
4284.000000;0.288450
4283.000000;0.287352
4282.000000;0.286398
4281.000000;0.286058
4280.000000;0.286506
4279.000000;0.287758
4278.000000;0.289469
4277.000000;0.291353
4276.000000;0.294036
4275.000000;0.298690
4274.000000;0.305476
4273.000000;0.313133
4272.000000;0.320629
4271.000000;0.328217
4270.000000;0.336078
4269.000000;0.343068
4268.000000;0.347957
4267.000000;0.351167
4266.000000;0.354115
4265.000000;0.357507
4264.000000;0.361730
4263.000000;0.368246
4262.000000;0.378431
4261.000000;0.390531
4260.000000;0.399643
4259.000000;0.402487
4258.000000;0.401409
4257.000000;0.402090
4256.000000;0.408016
4255.000000;0.418169
4254.000000;0.429302
4253.000000;0.439296
4252.000000;0.447972
4251.000000;0.455384
4250.000000;0.461287
4249.000000;0.466604
4248.000000;0.474422
4247.000000;0.487836
4246.000000;0.506575
4245.000000;0.526270
4244.000000;0.541603
4243.000000;0.550860
4242.000000;0.556999
4241.000000;0.564047
4240.000000;0.573195
4239.000000;0.582223
4238.000000;0.588370
4237.000000;0.591917
4236.000000;0.596277
4235.000000;0.604057
4234.000000;0.614063
4233.000000;0.623328
4232.000000;0.631415
4231.000000;0.641009
4230.000000;0.653899
4229.000000;0.667990
4228.000000;0.680131
4227.000000;0.690514
4226.000000;0.701646
4225.000000;0.715232
4224.000000;0.731450
4223.000000;0.749097
4222.000000;0.765504
4221.000000;0.777451
4220.000000;0.783508
4219.000000;0.785382
4218.000000;0.786754
4217.000000;0.791204
4216.000000;0.800145
4215.000000;0.810657
4214.000000;0.816320
4213.000000;0.814327
4212.000000;0.811645
4211.000000;0.819250
4210.000000;0.840071
4209.000000;0.864999
4208.000000;0.882610
4207.000000;0.892401
4206.000000;0.903355
4205.000000;0.921355
4204.000000;0.943861
4203.000000;0.965183
4202.000000;0.982205
4201.000000;0.993776
4200.000000;0.998811
4199.000000;0.998714
4198.000000;0.999009
4197.000000;1.005112
4196.000000;1.017877
4195.000000;1.033868
4194.000000;1.047445
4193.000000;1.055752
4192.000000;1.064371
4191.000000;1.080913
4190.000000;1.105574
4189.000000;1.131895
4188.000000;1.153780
4187.000000;1.170462
4186.000000;1.182360
4185.000000;1.185688
4184.000000;1.179724
4183.000000;1.173368
4182.000000;1.174796
4181.000000;1.183349
4180.000000;1.193601
4179.000000;1.201555
4178.000000;1.204556
4177.000000;1.198904
4176.000000;1.185262
4175.000000;1.174202
4174.000000;1.178658
4173.000000;1.202492
4172.000000;1.236708
4171.000000;1.265970
4170.000000;1.282830
4169.000000;1.293607
4168.000000;1.308322
4167.000000;1.331348
4166.000000;1.361333
4165.000000;1.394013
4164.000000;1.424390
4163.000000;1.449161
4162.000000;1.467466
4161.000000;1.479239
4160.000000;1.485604
4159.000000;1.490956
4158.000000;1.499113
4157.000000;1.504781
4156.000000;1.498481
4155.000000;1.481725
4154.000000;1.462199
4153.000000;1.450364
4152.000000;1.456747
4151.000000;1.477608
4150.000000;1.492471
4149.000000;1.479759
4148.000000;1.443409
4147.000000;1.411928
4146.000000;1.406685
4145.000000;1.426394
4144.000000;1.455202
4143.000000;1.477095
4142.000000;1.487715
4141.000000;1.500834
4140.000000;1.534372
4139.000000;1.590135
4138.000000;1.649342
4137.000000;1.686529
4136.000000;1.693244
4135.000000;1.685344
4134.000000;1.680322
4133.000000;1.681710
4132.000000;1.690238
4131.000000;1.713447
4130.000000;1.759716
4129.000000;1.822480
4128.000000;1.865700
4127.000000;1.862467
4126.000000;1.827842
4125.000000;1.770546
4124.000000;1.709389
4123.000000;1.676738
4122.000000;1.678401
4121.000000;1.685850
4120.000000;1.664775
4119.000000;1.622644
4118.000000;1.591097
4117.000000;1.584304
4116.000000;1.591579
4115.000000;1.594003
4114.000000;1.597838
4113.000000;1.631155
4112.000000;1.703936
4111.000000;1.785192
4110.000000;1.821186
4109.000000;1.815185
4108.000000;1.828544
4107.000000;1.886759
4106.000000;1.959012
4105.000000;1.947982
4104.000000;1.880225
4103.000000;1.892398
4102.000000;2.009314
4101.000000;2.156605
4100.000000;2.285856
4099.000000;2.456668
4098.000000;2.333285
4097.000000;2.104136
4096.000000;1.988507
4095.000000;1.960152
4094.000000;1.989472
4093.000000;2.006222
4092.000000;1.991326
4091.000000;1.980790
4090.000000;1.969439
4089.000000;1.939594
4088.000000;1.895701
4087.000000;1.847864
4086.000000;1.802317
4085.000000;1.761779
4084.000000;1.723277
4083.000000;1.688905
4082.000000;1.670238
4081.000000;1.673892
4080.000000;1.692494
4079.000000;1.714608
4078.000000;1.742018
4077.000000;1.786447
4076.000000;1.850777
4075.000000;1.913321
4074.000000;1.940129
4073.000000;1.951867
4072.000000;2.008964
4071.000000;2.112291
4070.000000;2.217266
4069.000000;2.309550
4068.000000;2.375352
4067.000000;2.377322
4066.000000;2.189777
4065.000000;2.025173
4064.000000;1.985296
4063.000000;2.061057
4062.000000;2.184757
4061.000000;2.124957
4060.000000;1.961181
4059.000000;1.892553
4058.000000;1.960626
4057.000000;2.181825
4056.000000;2.467521
4055.000000;2.718428
4054.000000;3.034189
4053.000000;2.800389
4052.000000;3.005191
4051.000000;2.937485
4050.000000;2.371802
4049.000000;2.146793
4048.000000;2.070961
4047.000000;2.094786
4046.000000;2.118435
4045.000000;2.085665
4044.000000;2.032157
4043.000000;1.999505
4042.000000;1.981729
4041.000000;1.898863
4040.000000;1.791295
4039.000000;1.736993
4038.000000;1.728330
4037.000000;1.738723
4036.000000;1.774332
4035.000000;1.845539
4034.000000;1.934336
4033.000000;2.013892
4032.000000;2.081444
4031.000000;2.139543
4030.000000;2.197504
4029.000000;2.280409
4028.000000;2.531410
4027.000000;3.031906
4026.000000;2.671069
4025.000000;2.409171
4024.000000;2.288218
4023.000000;2.253063
4022.000000;2.379440
4021.000000;2.726716
4020.000000;3.335622
4019.000000;2.843001
4018.000000;2.482306
4017.000000;2.368819
4016.000000;2.370435
4015.000000;2.468605
4014.000000;2.595769
4013.000000;2.779499
4012.000000;3.315422
4011.000000;3.006815
4010.000000;2.881638
4009.000000;2.910305
4008.000000;2.679802
4007.000000;2.637024
4006.000000;2.728128
4005.000000;2.587247
4004.000000;2.508986
4003.000000;2.542908
4002.000000;2.539864
4001.000000;2.413398
4000.000000;2.181224
3999.000000;2.034283
3998.000000;1.999821
3997.000000;2.043621
3996.000000;2.089591
3995.000000;2.069092
3994.000000;2.038507
3993.000000;2.047381
3992.000000;2.070727
3991.000000;2.073231
3990.000000;2.056728
3989.000000;2.052826
3988.000000;2.114929
3987.000000;2.252820
3986.000000;2.340418
3985.000000;2.324869
3984.000000;2.267047
3983.000000;2.213055
3982.000000;2.210764
3981.000000;2.266939
3980.000000;2.352440
3979.000000;2.568469
3978.000000;2.966961
3977.000000;2.578848
3976.000000;2.420893
3975.000000;2.518484
3974.000000;2.572660
3973.000000;2.345559
3972.000000;2.118321
3971.000000;2.008223
3970.000000;1.980044
3969.000000;1.969008
3968.000000;1.927862
3967.000000;1.878182
3966.000000;1.856686
3965.000000;1.870663
3964.000000;1.905916
3963.000000;1.968483
3962.000000;2.033193
3961.000000;2.063156
3960.000000;2.138102
3959.000000;2.156980
3958.000000;2.059421
3957.000000;2.043112
3956.000000;2.093004
3955.000000;2.148355
3954.000000;2.191251
3953.000000;2.190195
3952.000000;2.203112
3951.000000;2.223384
3950.000000;2.191773
3949.000000;2.147052
3948.000000;2.146774
3947.000000;2.165531
3946.000000;2.118670
3945.000000;2.030568
3944.000000;1.962376
3943.000000;1.957879
3942.000000;2.015906
3941.000000;2.075440
3940.000000;2.119541
3939.000000;2.217208
3938.000000;2.518047
3937.000000;2.577930
3936.000000;2.250629
3935.000000;2.142995
3934.000000;2.187800
3933.000000;2.405171
3932.000000;2.818775
3931.000000;2.536863
3930.000000;2.308599
3929.000000;2.228478
3928.000000;2.184404
3927.000000;2.156073
3926.000000;2.145636
3925.000000;2.229109
3924.000000;2.411672
3923.000000;2.470329
3922.000000;2.292043
3921.000000;2.173098
3920.000000;2.209291
3919.000000;2.192507
3918.000000;2.026148
3917.000000;1.946903
3916.000000;1.961463
3915.000000;1.992550
3914.000000;2.021174
3913.000000;2.075947
3912.000000;2.155788
3911.000000;2.213019
3910.000000;2.181546
3909.000000;2.091551
3908.000000;2.030448
3907.000000;2.006799
3906.000000;1.997087
3905.000000;1.996316
3904.000000;2.001341
3903.000000;2.013567
3902.000000;2.036340
3901.000000;2.080221
3900.000000;2.163825
3899.000000;2.389911
3898.000000;2.880747
3897.000000;2.786272
3896.000000;2.494456
3895.000000;2.294387
3894.000000;2.146825
3893.000000;2.077311
3892.000000;2.082403
3891.000000;2.267348
3890.000000;2.652798
3889.000000;2.526389
3888.000000;2.330514
3887.000000;2.291229
3886.000000;2.282498
3885.000000;2.363277
3884.000000;2.524748
3883.000000;2.634494
3882.000000;2.534386
3881.000000;2.505989
3880.000000;2.646086
3879.000000;2.548898
3878.000000;2.384832
3877.000000;2.292614
3876.000000;2.164701
3875.000000;2.059558
3874.000000;2.060622
3873.000000;2.238676
3872.000000;2.496888
3871.000000;2.405447
3870.000000;2.421716
3869.000000;2.729058
3868.000000;2.860686
3867.000000;2.526053
3866.000000;2.394852
3865.000000;2.323767
3864.000000;2.225626
3863.000000;2.140564
3862.000000;2.064518
3861.000000;2.019276
3860.000000;2.009677
3859.000000;2.049852
3858.000000;2.137582
3857.000000;2.282572
3856.000000;2.453800
3855.000000;2.615970
3854.000000;2.559151
3853.000000;2.452740
3852.000000;2.424420
3851.000000;2.557546
3850.000000;3.176908
3849.000000;2.781585
3848.000000;2.357622
3847.000000;2.187985
3846.000000;2.133497
3845.000000;2.196712
3844.000000;2.303967
3843.000000;2.333084
3842.000000;2.244034
3841.000000;2.247839
3840.000000;2.417672
3839.000000;2.411340
3838.000000;2.315616
3837.000000;2.346422
3836.000000;2.363068
3835.000000;2.298743
3834.000000;2.206839
3833.000000;2.115279
3832.000000;2.029262
3831.000000;2.030631
3830.000000;2.175437
3829.000000;2.439185
3828.000000;2.539513
3827.000000;2.500498
3826.000000;2.619276
3825.000000;2.737038
3824.000000;2.775345
3823.000000;2.730553
3822.000000;2.500535
3821.000000;2.244085
3820.000000;2.060978
3819.000000;1.978399
3818.000000;1.988963
3817.000000;2.038443
3816.000000;2.074016
3815.000000;2.132518
3814.000000;2.242463
3813.000000;2.537362
3812.000000;2.657890
3811.000000;2.225283
3810.000000;2.063820
3809.000000;2.046639
3808.000000;2.074405
3807.000000;2.127252
3806.000000;2.134344
3805.000000;2.092588
3804.000000;2.063979
3803.000000;2.081785
3802.000000;2.138404
3801.000000;2.178779
3800.000000;2.104417
3799.000000;1.986770
3798.000000;1.921699
3797.000000;1.934837
3796.000000;2.032783
3795.000000;2.216526
3794.000000;2.418480
3793.000000;2.553025
3792.000000;2.637128
3791.000000;2.502053
3790.000000;2.376120
3789.000000;2.366787
3788.000000;2.314706
3787.000000;2.177423
3786.000000;2.041158
3785.000000;1.990360
3784.000000;2.086082
3783.000000;2.315327
3782.000000;2.402592
3781.000000;2.248180
3780.000000;2.103210
3779.000000;2.002904
3778.000000;1.968223
3777.000000;2.011759
3776.000000;2.073534
3775.000000;2.086616
3774.000000;2.094839
3773.000000;2.101458
3772.000000;2.115842
3771.000000;2.198849
3770.000000;2.331411
3769.000000;2.421905
3768.000000;2.356651
3767.000000;2.219827
3766.000000;2.143869
3765.000000;2.226623
3764.000000;2.397602
3763.000000;2.413789
3762.000000;2.459018
3761.000000;2.496893
3760.000000;2.385164
3759.000000;2.251862
3758.000000;2.076540
3757.000000;1.918450
3756.000000;1.836837
3755.000000;1.816000
3754.000000;1.817042
3753.000000;1.862376
3752.000000;1.974481
3751.000000;2.130179
3750.000000;2.259777
3749.000000;2.265217
3748.000000;2.380461
3747.000000;2.552358
3746.000000;2.578169
3745.000000;2.527220
3744.000000;2.388486
3743.000000;2.288718
3742.000000;2.326985
3741.000000;2.522802
3740.000000;2.523161
3739.000000;2.502591
3738.000000;2.598736
3737.000000;2.610303
3736.000000;2.541708
3735.000000;2.444739
3734.000000;2.440240
3733.000000;2.501883
3732.000000;2.421452
3731.000000;2.294554
3730.000000;2.276903
3729.000000;2.359227
3728.000000;2.478759
3727.000000;2.597867
3726.000000;2.719585
3725.000000;2.592082
3724.000000;2.356431
3723.000000;2.204186
3722.000000;2.102555
3721.000000;2.042968
3720.000000;2.019149
3719.000000;2.027988
3718.000000;2.042984
3717.000000;2.015958
3716.000000;1.986433
3715.000000;2.000417
3714.000000;2.036682
3713.000000;2.073218
3712.000000;2.106419
3711.000000;2.125821
3710.000000;2.123074
3709.000000;2.090905
3708.000000;2.063188
3707.000000;2.116599
3706.000000;2.316607
3705.000000;2.588035
3704.000000;2.549729
3703.000000;2.318822
3702.000000;2.151354
3701.000000;2.108787
3700.000000;2.176585
3699.000000;2.225095
3698.000000;2.132806
3697.000000;1.990958
3696.000000;1.911869
3695.000000;1.923712
3694.000000;1.996471
3693.000000;2.078690
3692.000000;2.160581
3691.000000;2.237153
3690.000000;2.278141
3689.000000;2.280478
3688.000000;2.289236
3687.000000;2.258994
3686.000000;2.232442
3685.000000;2.203246
3684.000000;2.406428
3683.000000;3.098857
3682.000000;2.412516
3681.000000;2.169262
3680.000000;2.030794
3679.000000;1.912738
3678.000000;1.920784
3677.000000;1.945272
3676.000000;1.967966
3675.000000;1.983102
3674.000000;2.027290
3673.000000;2.239781
3672.000000;2.455793
3671.000000;2.209372
3670.000000;2.235810
3669.000000;2.477611
3668.000000;2.204023
3667.000000;2.044698
3666.000000;2.116126
3665.000000;2.217698
3664.000000;2.216363
3663.000000;2.153675
3662.000000;2.129724
3661.000000;2.137479
3660.000000;2.133094
3659.000000;2.152303
3658.000000;2.259692
3657.000000;2.411061
3656.000000;2.485170
3655.000000;2.341679
3654.000000;2.194697
3653.000000;2.241359
3652.000000;2.390885
3651.000000;2.482858
3650.000000;2.423281
3649.000000;2.314302
3648.000000;2.232756
3647.000000;2.291072
3646.000000;2.759028
3645.000000;2.750416
3644.000000;2.365772
3643.000000;2.228570
3642.000000;2.050388
3641.000000;1.959876
3640.000000;1.983024
3639.000000;2.110267
3638.000000;2.318475
3637.000000;2.438360
3636.000000;2.382762
3635.000000;2.246485
3634.000000;2.256526
3633.000000;2.435623
3632.000000;2.371647
3631.000000;2.186441
3630.000000;2.112053
3629.000000;2.112603
3628.000000;2.159027
3627.000000;2.251134
3626.000000;2.383813
3625.000000;2.805795
3624.000000;2.936298
3623.000000;2.453653
3622.000000;2.420749
3621.000000;2.422106
3620.000000;2.356858
3619.000000;2.330580
3618.000000;2.369680
3617.000000;2.609907
3616.000000;2.997465
3615.000000;2.491260
3614.000000;2.205969
3613.000000;2.203491
3612.000000;2.338415
3611.000000;2.503142
3610.000000;2.487474
3609.000000;2.347586
3608.000000;2.254059
3607.000000;2.313757
3606.000000;2.458236
3605.000000;2.430231
3604.000000;2.313351
3603.000000;2.236271
3602.000000;2.222927
3601.000000;2.354800
3600.000000;2.524442
3599.000000;2.389450
3598.000000;2.300840
3597.000000;2.378193
3596.000000;2.447199
3595.000000;2.389291
3594.000000;2.306246
3593.000000;2.220499
3592.000000;2.194115
3591.000000;2.168112
3590.000000;2.089061
3589.000000;2.062798
3588.000000;2.056403
3587.000000;2.042637
3586.000000;2.047263
3585.000000;2.134170
3584.000000;2.269453
3583.000000;2.206650
3582.000000;2.120423
3581.000000;2.176108
3580.000000;2.304047
3579.000000;2.226372
3578.000000;2.038958
3577.000000;1.968630
3576.000000;1.986364
3575.000000;2.001517
3574.000000;2.063828
3573.000000;2.114138
3572.000000;2.035266
3571.000000;2.037315
3570.000000;2.119551
3569.000000;2.194707
3568.000000;2.250904
3567.000000;2.191965
3566.000000;2.003595
3565.000000;1.837841
3564.000000;1.744151
3563.000000;1.703914
3562.000000;1.699335
3561.000000;1.726557
3560.000000;1.804719
3559.000000;1.914167
3558.000000;1.967695
3557.000000;2.009267
3556.000000;2.080241
3555.000000;2.108132
3554.000000;2.114161
3553.000000;2.052403
3552.000000;1.933202
3551.000000;1.865237
3550.000000;1.875120
3549.000000;1.956058
3548.000000;2.100300
3547.000000;2.264195
3546.000000;2.362759
3545.000000;2.519103
3544.000000;2.428442
3543.000000;2.178634
3542.000000;2.139273
3541.000000;2.184796
3540.000000;2.217491
3539.000000;2.248624
3538.000000;2.504976
3537.000000;2.639271
3536.000000;2.279338
3535.000000;2.143322
3534.000000;2.070337
3533.000000;2.012184
3532.000000;1.999228
3531.000000;2.057465
3530.000000;2.258753
3529.000000;2.333900
3528.000000;2.108777
3527.000000;1.987549
3526.000000;2.003907
3525.000000;2.122356
3524.000000;2.161414
3523.000000;2.080881
3522.000000;2.086130
3521.000000;2.174914
3520.000000;2.325286
3519.000000;2.492412
3518.000000;2.352010
3517.000000;2.121901
3516.000000;2.015348
3515.000000;2.056568
3514.000000;2.294561
3513.000000;2.312305
3512.000000;2.095128
3511.000000;2.079239
3510.000000;2.204108
3509.000000;2.391864
3508.000000;2.602800
3507.000000;2.690871
3506.000000;2.595593
3505.000000;2.476869
3504.000000;2.583051
3503.000000;2.904945
3502.000000;2.304212
3501.000000;1.990723
3500.000000;1.853052
3499.000000;1.761842
3498.000000;1.732498
3497.000000;1.773800
3496.000000;1.862037
3495.000000;1.898930
3494.000000;1.845389
3493.000000;1.824720
3492.000000;1.937558
3491.000000;2.284981
3490.000000;2.657911
3489.000000;2.463962
3488.000000;2.390064
3487.000000;2.101093
3486.000000;1.829446
3485.000000;1.694595
3484.000000;1.657612
3483.000000;1.674734
3482.000000;1.701664
3481.000000;1.792713
3480.000000;1.992379
3479.000000;2.174219
3478.000000;2.105204
3477.000000;2.024086
3476.000000;2.111402
3475.000000;2.145730
3474.000000;2.084798
3473.000000;1.879706
3472.000000;1.685786
3471.000000;1.662476
3470.000000;1.791844
3469.000000;2.067349
3468.000000;2.381268
3467.000000;2.152985
3466.000000;1.882907
3465.000000;1.748224
3464.000000;1.721660
3463.000000;1.765286
3462.000000;1.801912
3461.000000;1.843633
3460.000000;2.000826
3459.000000;2.308791
3458.000000;2.230200
3457.000000;1.940497
3456.000000;1.850210
3455.000000;1.877378
3454.000000;1.867146
3453.000000;1.818312
3452.000000;1.852247
3451.000000;2.097008
3450.000000;2.553409
3449.000000;2.158245
3448.000000;1.857780
3447.000000;1.689238
3446.000000;1.629623
3445.000000;1.711034
3444.000000;1.908443
3443.000000;2.027829
3442.000000;1.965760
3441.000000;1.968050
3440.000000;2.035608
3439.000000;2.035354
3438.000000;1.956027
3437.000000;1.953017
3436.000000;2.028191
3435.000000;1.993091
3434.000000;1.815215
3433.000000;1.668078
3432.000000;1.647350
3431.000000;1.757703
3430.000000;1.962245
3429.000000;2.091103
3428.000000;1.845230
3427.000000;1.678235
3426.000000;1.717883
3425.000000;1.828187
3424.000000;1.880817
3423.000000;1.797864
3422.000000;1.635103
3421.000000;1.558934
3420.000000;1.609117
3419.000000;1.720649
3418.000000;1.682838
3417.000000;1.544212
3416.000000;1.442366
3415.000000;1.395670
3414.000000;1.415228
3413.000000;1.497967
3412.000000;1.624721
3411.000000;1.769533
3410.000000;1.870234
3409.000000;1.851903
3408.000000;1.824185
3407.000000;1.882271
3406.000000;1.940505
3405.000000;1.947587
3404.000000;1.956959
3403.000000;1.907160
3402.000000;1.842044
3401.000000;1.861188
3400.000000;2.016267
3399.000000;2.506036
3398.000000;2.665124
3397.000000;2.129027
3396.000000;1.895964
3395.000000;1.800226
3394.000000;1.724901
3393.000000;1.696254
3392.000000;1.848616
3391.000000;2.166163
3390.000000;1.965234
3389.000000;1.858813
3388.000000;1.832589
3387.000000;1.758323
3386.000000;1.753953
3385.000000;1.903989
3384.000000;2.201283
3383.000000;2.294769
3382.000000;2.055854
3381.000000;1.847307
3380.000000;1.764625
3379.000000;1.802662
3378.000000;1.887195
3377.000000;1.909663
3376.000000;1.855973
3375.000000;1.805851
3374.000000;1.759200
3373.000000;1.732242
3372.000000;1.806886
3371.000000;2.018797
3370.000000;2.361753
3369.000000;2.386269
3368.000000;2.057315
3367.000000;1.921043
3366.000000;1.906814
3365.000000;1.785915
3364.000000;1.707628
3363.000000;1.704574
3362.000000;1.613220
3361.000000;1.538425
3360.000000;1.572932
3359.000000;1.697637
3358.000000;1.859604
3357.000000;1.981222
3356.000000;2.033766
3355.000000;2.049030
3354.000000;1.995874
3353.000000;1.933678
3352.000000;1.954132
3351.000000;2.173462
3350.000000;2.411068
3349.000000;1.990097
3348.000000;1.757849
3347.000000;1.763777
3346.000000;2.068744
3345.000000;2.387980
3344.000000;2.234975
3343.000000;2.095847
3342.000000;1.961733
3341.000000;1.957661
3340.000000;1.816899
3339.000000;1.649782
3338.000000;1.590471
3337.000000;1.629549
3336.000000;1.850476
3335.000000;2.237117
3334.000000;1.748313
3333.000000;1.583402
3332.000000;1.593387
3331.000000;1.738821
3330.000000;1.957681
3329.000000;2.056259
3328.000000;2.014631
3327.000000;1.943801
3326.000000;1.902994
3325.000000;1.926444
3324.000000;2.029767
3323.000000;2.246539
3322.000000;2.167841
3321.000000;2.053588
3320.000000;2.096553
3319.000000;2.081991
3318.000000;2.016027
3317.000000;1.897995
3316.000000;1.864787
3315.000000;1.983109
3314.000000;2.300092
3313.000000;2.564618
3312.000000;2.572332
3311.000000;2.338122
3310.000000;2.073135
3309.000000;1.932114
3308.000000;1.863777
3307.000000;1.924023
3306.000000;2.275086
3305.000000;2.936390
3304.000000;2.344698
3303.000000;2.243264
3302.000000;1.965315
3301.000000;1.825622
3300.000000;1.820912
3299.000000;1.754903
3298.000000;1.638951
3297.000000;1.621908
3296.000000;2.039856
3295.000000;2.198774
3294.000000;1.725264
3293.000000;1.722812
3292.000000;1.879218
3291.000000;2.052456
3290.000000;1.876098
3289.000000;1.767329
3288.000000;1.842487
3287.000000;2.139388
3286.000000;1.903459
3285.000000;1.664115
3284.000000;1.604637
3283.000000;1.650484
3282.000000;1.720302
3281.000000;1.723736
3280.000000;1.725138
3279.000000;1.751313
3278.000000;1.725014
3277.000000;1.618984
3276.000000;1.567805
3275.000000;1.612670
3274.000000;1.667137
3273.000000;1.701396
3272.000000;1.983587
3271.000000;2.069455
3270.000000;1.727013
3269.000000;1.663166
3268.000000;1.617658
3267.000000;1.605816
3266.000000;1.698340
3265.000000;1.786946
3264.000000;1.749757
3263.000000;1.666050
3262.000000;1.531790
3261.000000;1.411717
3260.000000;1.364122
3259.000000;1.422476
3258.000000;1.612111
3257.000000;1.948896
3256.000000;2.469275
3255.000000;2.193062
3254.000000;1.883788
3253.000000;1.744835
3252.000000;1.707020
3251.000000;1.762797
3250.000000;1.887119
3249.000000;1.950205
3248.000000;1.978733
3247.000000;1.840863
3246.000000;1.696240
3245.000000;1.923072
3244.000000;2.275811
3243.000000;1.856304
3242.000000;1.762168
3241.000000;1.752401
3240.000000;1.664535
3239.000000;1.514112
3238.000000;1.417895
3237.000000;1.394562
3236.000000;1.456507
3235.000000;1.598248
3234.000000;2.059752
3233.000000;1.843330
3232.000000;1.521345
3231.000000;1.450099
3230.000000;1.539596
3229.000000;1.806714
3228.000000;2.036213
3227.000000;1.816192
3226.000000;1.694047
3225.000000;1.628436
3224.000000;1.576372
3223.000000;1.524156
3222.000000;1.491546
3221.000000;1.497651
3220.000000;1.561573
3219.000000;1.688464
3218.000000;1.877987
3217.000000;2.048569
3216.000000;2.549075
3215.000000;2.516616
3214.000000;2.024525
3213.000000;1.922088
3212.000000;1.846334
3211.000000;1.862014
3210.000000;2.336790
3209.000000;2.370605
3208.000000;2.050666
3207.000000;2.151149
3206.000000;2.466431
3205.000000;2.923801
3204.000000;2.321493
3203.000000;2.118295
3202.000000;2.111924
3201.000000;2.178880
3200.000000;2.217312
3199.000000;2.191471
3198.000000;2.077116
3197.000000;1.945415
3196.000000;1.835656
3195.000000;1.831911
3194.000000;2.123320
3193.000000;2.182946
3192.000000;1.764349
3191.000000;1.707429
3190.000000;1.735958
3189.000000;1.847961
3188.000000;1.997689
3187.000000;2.542846
3186.000000;2.754472
3185.000000;2.310287
3184.000000;2.335513
3183.000000;2.365830
3182.000000;2.325695
3181.000000;2.123486
3180.000000;1.982364
3179.000000;1.947640
3178.000000;1.969271
3177.000000;1.956245
3176.000000;1.920948
3175.000000;1.895978
3174.000000;1.847130
3173.000000;1.788938
3172.000000;1.758782
3171.000000;1.751995
3170.000000;1.743181
3169.000000;1.733654
3168.000000;1.732930
3167.000000;1.733965
3166.000000;1.736004
3165.000000;1.754095
3164.000000;1.754231
3163.000000;1.673469
3162.000000;1.591354
3161.000000;1.588145
3160.000000;1.663213
3159.000000;1.781047
3158.000000;1.911877
3157.000000;2.040375
3156.000000;2.091350
3155.000000;2.022868
3154.000000;1.929424
3153.000000;1.906515
3152.000000;1.846681
3151.000000;1.726098
3150.000000;1.698973
3149.000000;1.807522
3148.000000;2.048585
3147.000000;2.225398
3146.000000;2.081147
3145.000000;1.989429
3144.000000;1.944526
3143.000000;1.860377
3142.000000;1.765798
3141.000000;1.745197
3140.000000;1.876073
3139.000000;2.044903
3138.000000;1.924696
3137.000000;1.896870
3136.000000;1.922996
3135.000000;1.848873
3134.000000;1.811357
3133.000000;1.873773
3132.000000;2.027581
3131.000000;2.208392
3130.000000;2.221464
3129.000000;2.172491
3128.000000;2.212567
3127.000000;2.154753
3126.000000;2.034571
3125.000000;2.036180
3124.000000;2.112419
3123.000000;2.136282
3122.000000;2.184504
3121.000000;2.192890
3120.000000;2.160954
3119.000000;2.333505
3118.000000;3.198943
3117.000000;2.255487
3116.000000;2.052097
3115.000000;1.964980
3114.000000;1.948748
3113.000000;2.001049
3112.000000;2.190252
3111.000000;2.326427
3110.000000;2.156409
3109.000000;2.050486
3108.000000;2.370189
3107.000000;2.531753
3106.000000;2.063946
3105.000000;2.027736
3104.000000;2.174055
3103.000000;2.472194
3102.000000;2.429655
3101.000000;2.204916
3100.000000;2.074312
3099.000000;1.972956
3098.000000;1.856387
3097.000000;1.746630
3096.000000;1.692548
3095.000000;1.705150
3094.000000;1.748698
3093.000000;1.756872
3092.000000;1.736310
3091.000000;1.768087
3090.000000;1.890691
3089.000000;2.051145
3088.000000;2.048818
3087.000000;1.919247
3086.000000;1.844791
3085.000000;1.829820
3084.000000;1.860881
3083.000000;1.876809
3082.000000;1.810679
3081.000000;1.751870
3080.000000;1.741166
3079.000000;1.743310
3078.000000;1.731791
3077.000000;1.695923
3076.000000;1.647907
3075.000000;1.607974
3074.000000;1.592183
3073.000000;1.611244
3072.000000;1.665371
3071.000000;1.733969
3070.000000;1.787450
3069.000000;1.841205
3068.000000;1.939825
3067.000000;2.064417
3066.000000;2.101804
3065.000000;2.127230
3064.000000;2.261855
3063.000000;2.333384
3062.000000;2.127309
3061.000000;2.053356
3060.000000;2.121771
3059.000000;2.238939
3058.000000;2.262029
3057.000000;2.255929
3056.000000;2.158460
3055.000000;1.949872
3054.000000;1.873003
3053.000000;1.940895
3052.000000;2.115135
3051.000000;2.386039
3050.000000;2.489522
3049.000000;2.844107
3048.000000;2.687130
3047.000000;2.215142
3046.000000;2.113845
3045.000000;2.163132
3044.000000;2.229216
3043.000000;2.247020
3042.000000;2.176697
3041.000000;2.217849
3040.000000;2.283670
3039.000000;2.097900
3038.000000;1.940485
3037.000000;1.775640
3036.000000;1.667665
3035.000000;1.668830
3034.000000;1.794739
3033.000000;1.964278
3032.000000;1.922803
3031.000000;1.873285
3030.000000;1.999233
3029.000000;2.145265
3028.000000;2.046505
3027.000000;1.903970
3026.000000;1.793405
3025.000000;1.740425
3024.000000;1.765369
3023.000000;1.847701
3022.000000;1.967548
3021.000000;2.186830
3020.000000;2.252029
3019.000000;2.063506
3018.000000;2.103059
3017.000000;2.443421
3016.000000;2.038090
3015.000000;1.797949
3014.000000;1.722710
3013.000000;1.704464
3012.000000;1.695624
3011.000000;1.699932
3010.000000;1.788929
3009.000000;2.085093
3008.000000;2.760824
3007.000000;2.555114
3006.000000;2.370514
3005.000000;2.151240
3004.000000;1.998113
3003.000000;1.919203
3002.000000;1.851155
3001.000000;1.794767
3000.000000;1.758250
2999.000000;1.755963
2998.000000;1.805381
2997.000000;1.899672
2996.000000;1.991035
2995.000000;2.005196
2994.000000;1.883036
2993.000000;1.716323
2992.000000;1.618136
2991.000000;1.632070
2990.000000;1.774273
2989.000000;2.008252
2988.000000;2.180515
2987.000000;2.176331
2986.000000;2.089957
2985.000000;2.050041
2984.000000;2.044315
2983.000000;2.085441
2982.000000;2.156419
2981.000000;2.248272
2980.000000;2.260281
2979.000000;2.070703
2978.000000;2.005254
2977.000000;2.115561
2976.000000;2.120933
2975.000000;1.955417
2974.000000;1.876284
2973.000000;1.854972
2972.000000;1.841229
2971.000000;1.812655
2970.000000;1.804747
2969.000000;1.867492
2968.000000;1.974085
2967.000000;2.002664
2966.000000;1.929506
2965.000000;1.851261
2964.000000;1.848763
2963.000000;1.947864
2962.000000;2.158390
2961.000000;2.534822
2960.000000;2.720026
2959.000000;2.424861
2958.000000;2.260439
2957.000000;2.177377
2956.000000;2.093085
2955.000000;2.138753
2954.000000;2.314360
2953.000000;2.315243
2952.000000;2.491173
2951.000000;2.745055
2950.000000;2.310219
2949.000000;2.171665
2948.000000;2.142377
2947.000000;2.114371
2946.000000;2.006146
2945.000000;1.930742
2944.000000;1.929126
2943.000000;1.881785
2942.000000;1.789355
2941.000000;1.762667
2940.000000;1.822668
2939.000000;1.898094
2938.000000;1.960103
2937.000000;2.033006
2936.000000;1.991858
2935.000000;1.849694
2934.000000;1.735761
2933.000000;1.666875
2932.000000;1.646709
2931.000000;1.679645
2930.000000;1.750413
2929.000000;1.821584
2928.000000;1.889510
2927.000000;2.011422
2926.000000;2.164690
2925.000000;2.209228
2924.000000;2.224944
2923.000000;2.588100
2922.000000;2.529255
2921.000000;2.035580
2920.000000;1.935007
2919.000000;2.044254
2918.000000;2.564227
2917.000000;2.702839
2916.000000;2.420071
2915.000000;2.418015
2914.000000;2.230987
2913.000000;2.181146
2912.000000;2.240907
2911.000000;2.429896
2910.000000;2.927620
2909.000000;2.258833
2908.000000;2.073746
2907.000000;2.127706
2906.000000;2.021973
2905.000000;1.891219
2904.000000;1.804089
2903.000000;1.782938
2902.000000;1.868785
2901.000000;1.957263
2900.000000;1.964294
2899.000000;1.973725
2898.000000;1.954271
2897.000000;1.921768
2896.000000;2.014394
2895.000000;2.455736
2894.000000;2.504352
2893.000000;2.349483
2892.000000;2.506292
2891.000000;2.144373
2890.000000;1.998628
2889.000000;2.150101
2888.000000;2.415625
2887.000000;2.083923
2886.000000;1.814313
2885.000000;1.731007
2884.000000;1.749770
2883.000000;1.823186
2882.000000;1.821953
2881.000000;1.779605
2880.000000;1.800527
2879.000000;1.888101
2878.000000;2.036062
2877.000000;2.208922
2876.000000;2.282488
2875.000000;2.190788
2874.000000;2.018969
2873.000000;1.930715
2872.000000;1.960801
2871.000000;2.132275
2870.000000;2.433351
2869.000000;2.581188
2868.000000;2.607014
2867.000000;2.435871
2866.000000;2.117590
2865.000000;1.949121
2864.000000;1.920190
2863.000000;1.949536
2862.000000;1.898678
2861.000000;1.795250
2860.000000;1.757509
2859.000000;1.815488
2858.000000;1.881569
2857.000000;1.834585
2856.000000;1.780896
2855.000000;1.778568
2854.000000;1.785424
2853.000000;1.784136
2852.000000;1.790360
2851.000000;1.834537
2850.000000;1.893402
2849.000000;1.858410
2848.000000;1.776759
2847.000000;1.774379
2846.000000;1.879260
2845.000000;1.940659
2844.000000;1.864356
2843.000000;1.881291
2842.000000;1.890681
2841.000000;1.729738
2840.000000;1.621726
2839.000000;1.631240
2838.000000;1.729427
2837.000000;1.883481
2836.000000;2.070570
2835.000000;2.388193
2834.000000;2.791416
2833.000000;2.581676
2832.000000;2.259075
2831.000000;2.077618
2830.000000;2.063330
2829.000000;2.018214
2828.000000;1.882216
2827.000000;1.824964
2826.000000;1.889420
2825.000000;2.007482
2824.000000;2.246072
2823.000000;2.676087
2822.000000;2.116897
2821.000000;1.809200
2820.000000;1.716691
2819.000000;1.738977
2818.000000;1.820617
2817.000000;1.851607
2816.000000;1.815492
2815.000000;1.785120
2814.000000;1.817255
2813.000000;1.890379
2812.000000;1.968880
2811.000000;2.043541
2810.000000;2.083003
2809.000000;2.017182
2808.000000;1.860020
2807.000000;1.807363
2806.000000;1.881011
2805.000000;2.079330
2804.000000;2.708863
2803.000000;2.331721
2802.000000;1.900165
2801.000000;1.797463
2800.000000;1.879972
2799.000000;2.289972
2798.000000;2.628001
2797.000000;2.109290
2796.000000;1.877213
2795.000000;1.817815
2794.000000;1.893410
2793.000000;1.928324
2792.000000;1.881028
2791.000000;1.965572
2790.000000;2.420847
2789.000000;2.436739
2788.000000;2.001745
2787.000000;1.995654
2786.000000;2.142694
2785.000000;2.514044
2784.000000;2.283041
2783.000000;1.981993
2782.000000;1.942197
2781.000000;1.869024
2780.000000;1.872573
2779.000000;2.048324
2778.000000;2.401086
2777.000000;2.560702
2776.000000;2.271872
2775.000000;2.234863
2774.000000;2.363048
2773.000000;2.152641
2772.000000;1.875404
2771.000000;1.682999
2770.000000;1.568292
2769.000000;1.534383
2768.000000;1.559763
2767.000000;1.623734
2766.000000;1.754300
2765.000000;2.008486
2764.000000;2.081482
2763.000000;1.866747
2762.000000;1.745426
2761.000000;1.701792
2760.000000;1.707520
2759.000000;1.712709
2758.000000;1.692876
2757.000000;1.680060
2756.000000;1.704071
2755.000000;1.755431
2754.000000;1.775571
2753.000000;1.708459
2752.000000;1.687674
2751.000000;1.755439
2750.000000;1.979381
2749.000000;2.700989
2748.000000;2.231832
2747.000000;1.949521
2746.000000;1.950638
2745.000000;2.133036
2744.000000;2.487931
2743.000000;2.139467
2742.000000;2.064769
2741.000000;2.203407
2740.000000;2.130657
2739.000000;1.950943
2738.000000;1.861990
2737.000000;1.847759
2736.000000;1.834808
2735.000000;1.825775
2734.000000;1.860198
2733.000000;2.107221
2732.000000;2.584444
2731.000000;2.235719
2730.000000;1.955377
2729.000000;1.816958
2728.000000;1.689194
2727.000000;1.649207
2726.000000;1.703714
2725.000000;1.902966
2724.000000;2.280229
2723.000000;2.087706
2722.000000;1.832697
2721.000000;1.750173
2720.000000;1.726830
2719.000000;1.743067
2718.000000;1.771986
2717.000000;1.827085
2716.000000;1.856855
2715.000000;1.819346
2714.000000;1.799851
2713.000000;1.893755
2712.000000;2.105999
2711.000000;2.238790
2710.000000;2.248352
2709.000000;2.320383
2708.000000;2.290103
2707.000000;2.113273
2706.000000;2.060722
2705.000000;2.176680
2704.000000;2.195161
2703.000000;2.069831
2702.000000;2.045223
2701.000000;2.048829
2700.000000;1.934802
2699.000000;1.768605
2698.000000;1.675658
2697.000000;1.702083
2696.000000;1.840488
2695.000000;1.965633
2694.000000;1.923264
2693.000000;1.831594
2692.000000;1.880504
2691.000000;2.121760
2690.000000;2.126071
2689.000000;1.923838
2688.000000;1.801736
2687.000000;1.695121
2686.000000;1.643024
2685.000000;1.713562
2684.000000;1.894339
2683.000000;1.984325
2682.000000;1.944592
2681.000000;2.237920
2680.000000;2.580195
2679.000000;2.145989
2678.000000;2.377281
2677.000000;2.072412
2676.000000;1.654108
2675.000000;1.560645
2674.000000;1.608522
2673.000000;1.727823
2672.000000;1.757333
2671.000000;1.657634
2670.000000;1.593433
2669.000000;1.591109
2668.000000;1.749394
2667.000000;2.237206
2666.000000;2.104758
2665.000000;2.011620
2664.000000;2.432861
2663.000000;2.170646
2662.000000;1.818886
2661.000000;1.681755
2660.000000;1.679821
2659.000000;1.740093
2658.000000;1.670921
2657.000000;1.532856
2656.000000;1.478372
2655.000000;1.516088
2654.000000;1.613258
2653.000000;1.818246
2652.000000;2.355105
2651.000000;2.705264
2650.000000;1.992858
2649.000000;1.740119
2648.000000;1.668807
2647.000000;1.805674
2646.000000;2.301959
2645.000000;2.095039
2644.000000;1.801154
2643.000000;1.741301
2642.000000;1.681190
2641.000000;1.619558
2640.000000;1.582114
2639.000000;1.551141
2638.000000;1.438492
2637.000000;1.265052
2636.000000;1.168880
2635.000000;1.165722
2634.000000;1.348291
2633.000000;1.874563
2632.000000;1.727187
2631.000000;1.440997
2630.000000;1.337143
2629.000000;1.229821
2628.000000;1.206240
2627.000000;1.260032
2626.000000;1.449972
2625.000000;1.814512
2624.000000;1.638063
2623.000000;1.411235
2622.000000;1.406171
2621.000000;1.424945
2620.000000;1.423673
2619.000000;1.434877
2618.000000;1.499770
2617.000000;1.588450
2616.000000;1.603664
2615.000000;1.521392
2614.000000;1.371106
2613.000000;1.230530
2612.000000;1.159739
2611.000000;1.170901
2610.000000;1.233320
2609.000000;1.290404
2608.000000;1.303062
2607.000000;1.320297
2606.000000;1.413057
2605.000000;1.643028
2604.000000;2.039927
2603.000000;2.250915
2602.000000;2.114794
2601.000000;1.915898
2600.000000;1.733895
2599.000000;1.631920
2598.000000;1.596483
2597.000000;1.677302
2596.000000;1.728680
2595.000000;1.533440
2594.000000;1.396510
2593.000000;1.423215
2592.000000;1.553040
2591.000000;1.586568
2590.000000;1.558712
2589.000000;1.651254
2588.000000;1.825976
2587.000000;1.963983
2586.000000;1.847283
2585.000000;1.744143
2584.000000;1.813656
2583.000000;2.015953
2582.000000;2.054559
2581.000000;1.745182
2580.000000;1.528163
2579.000000;1.414239
2578.000000;1.381012
2577.000000;1.454521
2576.000000;1.661478
2575.000000;1.934689
2574.000000;1.971665
2573.000000;1.839110
2572.000000;1.962539
2571.000000;2.363825
2570.000000;2.041937
2569.000000;1.785959
2568.000000;1.617995
2567.000000;1.465083
2566.000000;1.409905
2565.000000;1.441196
2564.000000;1.541773
2563.000000;1.641593
2562.000000;1.674299
2561.000000;1.668788
2560.000000;1.692859
2559.000000;1.810140
2558.000000;2.032021
2557.000000;2.401050
2556.000000;2.318603
2555.000000;1.958978
2554.000000;1.825497
2553.000000;2.057895
2552.000000;2.542821
2551.000000;2.038085
2550.000000;1.797440
2549.000000;1.667853
2548.000000;1.689996
2547.000000;1.824341
2546.000000;2.025763
2545.000000;2.270218
2544.000000;1.823114
2543.000000;1.517667
2542.000000;1.414876
2541.000000;1.414897
2540.000000;1.480175
2539.000000;1.582598
2538.000000;1.669887
2537.000000;1.724176
2536.000000;1.787823
2535.000000;1.710867
2534.000000;1.530077
2533.000000;1.417951
2532.000000;1.387609
2531.000000;1.437494
2530.000000;1.562347
2529.000000;1.665230
2528.000000;1.598543
2527.000000;1.462194
2526.000000;1.392261
2525.000000;1.417099
2524.000000;1.510002
2523.000000;1.621571
2522.000000;1.737174
2521.000000;1.956792
2520.000000;1.989614
2519.000000;1.714278
2518.000000;1.592713
2517.000000;1.560420
2516.000000;1.556292
2515.000000;1.578463
2514.000000;1.641720
2513.000000;1.742417
2512.000000;1.804565
2511.000000;1.797280
2510.000000;1.760125
2509.000000;1.697698
2508.000000;1.639181
2507.000000;1.601191
2506.000000;1.620482
2505.000000;1.680076
2504.000000;1.853421
2503.000000;2.329089
2502.000000;2.043697
2501.000000;1.756753
2500.000000;1.701805
2499.000000;1.684310
2498.000000;1.706455
2497.000000;1.787873
2496.000000;1.802429
2495.000000;1.733815
2494.000000;1.714188
2493.000000;1.797900
2492.000000;2.132741
2491.000000;2.253125
2490.000000;1.986892
2489.000000;1.840481
2488.000000;1.647556
2487.000000;1.556809
2486.000000;1.599011
2485.000000;1.708190
2484.000000;1.740868
2483.000000;1.626111
2482.000000;1.504815
2481.000000;1.451745
2480.000000;1.489064
2479.000000;1.611034
2478.000000;1.846649
2477.000000;2.092233
2476.000000;1.910821
2475.000000;1.704709
2474.000000;1.537651
2473.000000;1.401687
2472.000000;1.340349
2471.000000;1.365367
2470.000000;1.480571
2469.000000;1.653531
2468.000000;1.810116
2467.000000;1.876739
2466.000000;1.789679
2465.000000;1.629062
2464.000000;1.513141
2463.000000;1.444183
2462.000000;1.397642
2461.000000;1.374453
2460.000000;1.406983
2459.000000;1.532866
2458.000000;1.704470
2457.000000;1.764734
2456.000000;1.715259
2455.000000;1.753038
2454.000000;1.911494
2453.000000;1.779962
2452.000000;1.572205
2451.000000;1.476305
2450.000000;1.435681
2449.000000;1.443415
2448.000000;1.506856
2447.000000;1.629820
2446.000000;1.728287
2445.000000;1.721910
2444.000000;1.735980
2443.000000;1.792316
2442.000000;1.828771
2441.000000;1.848529
2440.000000;2.076849
2439.000000;2.321757
2438.000000;1.837045
2437.000000;1.636364
2436.000000;1.636898
2435.000000;1.767830
2434.000000;2.007276
2433.000000;2.260742
2432.000000;2.533119
2431.000000;2.377000
2430.000000;2.025711
2429.000000;1.862748
2428.000000;1.848719
2427.000000;1.854655
2426.000000;1.813827
2425.000000;1.747878
2424.000000;1.703782
2423.000000;1.732276
2422.000000;2.011041
2421.000000;2.576753
2420.000000;1.964930
2419.000000;1.808391
2418.000000;1.786174
2417.000000;1.743837
2416.000000;1.690587
2415.000000;1.650568
2414.000000;1.633985
2413.000000;1.614553
2412.000000;1.624021
2411.000000;1.668157
2410.000000;1.828217
2409.000000;1.968134
2408.000000;1.724728
2407.000000;1.551729
2406.000000;1.506756
2405.000000;1.493457
2404.000000;1.492118
2403.000000;1.467004
2402.000000;1.427222
2401.000000;1.441732
2400.000000;1.599529
2399.000000;1.859286
2398.000000;1.724928
2397.000000;1.629349
2396.000000;1.729632
2395.000000;1.883033
2394.000000;1.912235
2393.000000;1.930572
2392.000000;2.016559
2391.000000;1.969427
2390.000000;1.878493
2389.000000;1.886868
2388.000000;1.991786
2387.000000;2.133359
2386.000000;2.185141
2385.000000;2.044112
2384.000000;1.883367
2383.000000;1.811749
2382.000000;1.840557
2381.000000;1.954118
2380.000000;2.073732
2379.000000;2.128096
2378.000000;2.178741
2377.000000;2.238422
2376.000000;2.262920
2375.000000;2.291798
2374.000000;2.248699
2373.000000;2.201698
2372.000000;2.331940
2371.000000;2.439469
2370.000000;2.289611
2369.000000;2.287188
2368.000000;2.492175
2367.000000;2.889503
2366.000000;3.157847
2365.000000;3.106463
2364.000000;2.842316
2363.000000;2.541403
2362.000000;2.407733
2361.000000;2.379148
2360.000000;2.366563
2359.000000;2.315060
2358.000000;2.280494
2357.000000;2.350128
2356.000000;2.530674
2355.000000;2.731088
2354.000000;2.737506
2353.000000;2.619436
2352.000000;2.488296
2351.000000;2.527118
2350.000000;3.328912
2349.000000;3.091824
2348.000000;2.805646
2347.000000;2.772177
2346.000000;2.612485
2345.000000;2.412591
2344.000000;2.284384
2343.000000;2.288715
2342.000000;2.506674
2341.000000;3.090171
2340.000000;2.844139
2339.000000;2.741648
2338.000000;2.902681
2337.000000;2.868100
2336.000000;2.737340
2335.000000;2.580063
2334.000000;2.450396
2333.000000;2.413177
2332.000000;2.475758
2331.000000;2.363164
2330.000000;2.139559
2329.000000;2.049906
2328.000000;2.123159
2327.000000;2.253118
2326.000000;2.244397
2325.000000;2.251289
2324.000000;2.436259
2323.000000;2.945534
2322.000000;2.529072
2321.000000;2.270758
2320.000000;2.347434
2319.000000;2.382216
2318.000000;2.281590
2317.000000;2.333507
2316.000000;2.295024
2315.000000;2.061602
2314.000000;1.975232
2313.000000;2.084388
2312.000000;2.481166
2311.000000;2.500287
2310.000000;2.418032
2309.000000;2.616811
2308.000000;2.429561
2307.000000;2.213567
2306.000000;2.061517
2305.000000;1.961101
2304.000000;1.942564
2303.000000;1.926452
2302.000000;1.851398
2301.000000;1.770459
2300.000000;1.720015
2299.000000;1.706081
2298.000000;1.759332
2297.000000;1.959027
2296.000000;2.029880
2295.000000;1.747894
2294.000000;1.556769
2293.000000;1.477333
2292.000000;1.561587
2291.000000;1.869849
2290.000000;1.943166
2289.000000;2.549299
2288.000000;1.726371
2287.000000;1.385404
2286.000000;1.264304
2285.000000;1.209345
2284.000000;1.204317
2283.000000;1.279391
2282.000000;1.425787
2281.000000;1.688437
2280.000000;2.006033
2279.000000;1.550349
2278.000000;1.372706
2277.000000;1.413632
2276.000000;1.602152
2275.000000;2.145238
2274.000000;2.564839
2273.000000;2.551485
2272.000000;2.003192
2271.000000;1.479980
2270.000000;1.316103
2269.000000;1.298854
2268.000000;1.417904
2267.000000;1.660385
2266.000000;1.797251
2265.000000;1.654798
2264.000000;1.537249
2263.000000;1.513368
2262.000000;1.533234
2261.000000;1.496889
2260.000000;1.484828
2259.000000;1.573612
2258.000000;1.619666
2257.000000;1.534243
2256.000000;1.492571
2255.000000;1.530565
2254.000000;1.651038
2253.000000;1.691679
2252.000000;1.521897
2251.000000;1.424113
2250.000000;1.466700
2249.000000;1.641483
2248.000000;2.096984
2247.000000;2.196017
2246.000000;1.701176
2245.000000;1.454354
2244.000000;1.304295
2243.000000;1.266689
2242.000000;1.317003
2241.000000;1.429972
2240.000000;1.540345
2239.000000;1.613686
2238.000000;1.697938
2237.000000;1.750816
2236.000000;1.717330
2235.000000;1.836247
2234.000000;1.861672
2233.000000;1.496901
2232.000000;1.386336
2231.000000;1.453508
2230.000000;1.637462
2229.000000;1.817882
2228.000000;1.760063
2227.000000;1.578996
2226.000000;1.447197
2225.000000;1.410342
2224.000000;1.447458
2223.000000;1.754833
2222.000000;1.937111
2221.000000;1.444317
2220.000000;1.307209
2219.000000;1.309447
2218.000000;1.423357
2217.000000;1.595937
2216.000000;1.691861
2215.000000;1.599244
2214.000000;1.552732
2213.000000;1.645896
2212.000000;2.193510
2211.000000;2.017883
2210.000000;1.676032
2209.000000;1.536679
2208.000000;1.410755
2207.000000;1.322704
2206.000000;1.303136
2205.000000;1.351362
2204.000000;1.428254
2203.000000;1.472781
2202.000000;1.479373
2201.000000;1.481128
2200.000000;1.487594
2199.000000;1.523726
2198.000000;1.642134
2197.000000;1.869262
2196.000000;2.227000
2195.000000;2.368433
2194.000000;1.941402
2193.000000;1.658634
2192.000000;1.497643
2191.000000;1.381668
2190.000000;1.270696
2189.000000;1.193909
2188.000000;1.179773
2187.000000;1.207345
2186.000000;1.237008
2185.000000;1.261060
2184.000000;1.297358
2183.000000;1.364040
2182.000000;1.434860
2181.000000;1.469185
2180.000000;1.531517
2179.000000;1.817299
2178.000000;1.794459
2177.000000;1.428604
2176.000000;1.334877
2175.000000;1.338218
2174.000000;1.374151
2173.000000;1.430018
2172.000000;1.526624
2171.000000;1.712937
2170.000000;1.998348
2169.000000;2.047290
2168.000000;2.123746
2167.000000;2.082466
2166.000000;1.778721
2165.000000;1.718395
2164.000000;1.824522
2163.000000;2.518624
2162.000000;2.500281
2161.000000;2.174386
2160.000000;2.290986
2159.000000;2.615215
2158.000000;2.292882
2157.000000;1.716922
2156.000000;1.445660
2155.000000;1.329486
2154.000000;1.317970
2153.000000;1.359415
2152.000000;1.395887
2151.000000;1.406609
2150.000000;1.380700
2149.000000;1.348462
2148.000000;1.347985
2147.000000;1.384755
2146.000000;1.450467
2145.000000;1.538220
2144.000000;1.660084
2143.000000;1.740354
2142.000000;1.758719
2141.000000;1.871836
2140.000000;1.929145
2139.000000;1.737357
2138.000000;1.559884
2137.000000;1.490263
2136.000000;1.507790
2135.000000;1.568914
2134.000000;1.656707
2133.000000;1.882149
2132.000000;2.249671
2131.000000;1.691392
2130.000000;1.470732
2129.000000;1.465733
2128.000000;1.557991
2127.000000;1.645961
2126.000000;1.653518
2125.000000;1.565528
2124.000000;1.463656
2123.000000;1.411343
2122.000000;1.396677
2121.000000;1.400796
2120.000000;1.418095
2119.000000;1.440037
2118.000000;1.466542
2117.000000;1.531239
2116.000000;1.745356
2115.000000;2.260114
2114.000000;1.987068
2113.000000;1.689780
2112.000000;1.639964
2111.000000;1.594439
2110.000000;1.538459
2109.000000;1.531950
2108.000000;1.651889
2107.000000;1.969410
2106.000000;2.179813
2105.000000;2.026777
2104.000000;1.848354
2103.000000;1.719581
2102.000000;1.642034
2101.000000;1.624822
2100.000000;1.654172
2099.000000;1.625506
2098.000000;1.511488
2097.000000;1.433178
2096.000000;1.459049
2095.000000;1.568684
2094.000000;1.675222
2093.000000;1.830280
2092.000000;2.188029
2091.000000;2.095226
2090.000000;1.877968
2089.000000;1.926931
2088.000000;1.951604
2087.000000;1.813548
2086.000000;1.664899
2085.000000;1.582486
2084.000000;1.560535
2083.000000;1.603566
2082.000000;1.727614
2081.000000;1.947679
2080.000000;2.087095
2079.000000;1.933356
2078.000000;1.750429
2077.000000;1.613787
2076.000000;1.534561
2075.000000;1.501791
2074.000000;1.522666
2073.000000;1.541322
2072.000000;1.485703
2071.000000;1.525444
2070.000000;1.730212
2069.000000;1.740785
2068.000000;1.552654
2067.000000;1.400871
2066.000000;1.326226
2065.000000;1.347536
2064.000000;1.443473
2063.000000;1.605124
2062.000000;1.742532
2061.000000;1.669674
2060.000000;1.524255
2059.000000;1.467214
2058.000000;1.522936
2057.000000;1.623060
2056.000000;1.682434
2055.000000;1.746492
2054.000000;1.835373
2053.000000;1.831895
2052.000000;1.723393
2051.000000;1.660637
2050.000000;1.680002
2049.000000;1.682463
2048.000000;1.582251
2047.000000;1.500732
2046.000000;1.537308
2045.000000;1.828326
2044.000000;2.046249
2043.000000;1.514176
2042.000000;1.349517
2041.000000;1.275164
2040.000000;1.240619
2039.000000;1.242822
2038.000000;1.303900
2037.000000;1.404151
2036.000000;1.457862
2035.000000;1.428327
2034.000000;1.405820
2033.000000;1.432362
2032.000000;1.417997
2031.000000;1.364277
2030.000000;1.386221
2029.000000;1.515851
2028.000000;1.728861
2027.000000;1.944215
2026.000000;2.463940
2025.000000;2.187584
2024.000000;1.805295
2023.000000;1.646466
2022.000000;1.575634
2021.000000;1.519356
2020.000000;1.466946
2019.000000;1.476142
2018.000000;1.531634
2017.000000;1.586956
2016.000000;1.607195
2015.000000;1.643176
2014.000000;1.730785
2013.000000;1.801980
2012.000000;1.691873
2011.000000;1.450258
2010.000000;1.303859
2009.000000;1.262833
2008.000000;1.310928
2007.000000;1.450487
2006.000000;1.499146
2005.000000;1.333982
2004.000000;1.216830
2003.000000;1.186295
2002.000000;1.225184
2001.000000;1.340822
2000.000000;1.600273
1999.000000;2.200632
1998.000000;1.869637
1997.000000;1.736412
1996.000000;1.925157
1995.000000;1.933389
1994.000000;1.685575
1993.000000;1.480678
1992.000000;1.354939
1991.000000;1.281047
1990.000000;1.260513
1989.000000;1.311485
1988.000000;1.445113
1987.000000;1.645355
1986.000000;1.880243
1985.000000;2.088490
1984.000000;2.152068
1983.000000;2.512321
1982.000000;2.433031
1981.000000;1.982748
1980.000000;1.929209
1979.000000;1.591079
1978.000000;1.335256
1977.000000;1.265727
1976.000000;1.315347
1975.000000;1.413113
1974.000000;1.455433
1973.000000;1.458604
1972.000000;1.523625
1971.000000;1.644171
1970.000000;1.629233
1969.000000;1.556872
1968.000000;1.538737
1967.000000;1.554693
1966.000000;1.685431
1965.000000;2.045444
1964.000000;1.782351
1963.000000;1.569550
1962.000000;1.510433
1961.000000;1.550861
1960.000000;1.767613
1959.000000;2.300493
1958.000000;2.024603
1957.000000;1.639264
1956.000000;1.522484
1955.000000;1.545239
1954.000000;1.578452
1953.000000;1.540301
1952.000000;1.541204
1951.000000;1.614020
1950.000000;1.797336
1949.000000;2.186920
1948.000000;2.502207
1947.000000;2.249635
1946.000000;1.840653
1945.000000;1.641107
1944.000000;1.642834
1943.000000;1.615408
1942.000000;1.450156
1941.000000;1.339859
1940.000000;1.314748
1939.000000;1.326803
1938.000000;1.335270
1937.000000;1.333887
1936.000000;1.346850
1935.000000;1.387549
1934.000000;1.447970
1933.000000;1.549415
1932.000000;1.704856
1931.000000;1.636766
1930.000000;1.470999
1929.000000;1.559613
1928.000000;1.537066
1927.000000;1.261477
1926.000000;1.196575
1925.000000;1.300758
1924.000000;1.493771
1923.000000;1.555651
1922.000000;1.464908
1921.000000;1.407734
1920.000000;1.412333
1919.000000;1.431655
1918.000000;1.469975
1917.000000;1.756695
1916.000000;1.677400
1915.000000;1.378792
1914.000000;1.360857
1913.000000;1.515273
1912.000000;1.631145
1911.000000;1.679901
1910.000000;1.764185
1909.000000;1.722680
1908.000000;1.609232
1907.000000;1.527502
1906.000000;1.497881
1905.000000;1.606360
1904.000000;1.969842
1903.000000;1.900607
1902.000000;1.505790
1901.000000;1.341982
1900.000000;1.322943
1899.000000;1.435792
1898.000000;1.530831
1897.000000;1.544098
1896.000000;1.582342
1895.000000;1.609698
1894.000000;1.561535
1893.000000;1.501145
1892.000000;1.553994
1891.000000;1.746463
1890.000000;1.806690
1889.000000;1.671222
1888.000000;1.560424
1887.000000;1.475676
1886.000000;1.448968
1885.000000;1.512598
1884.000000;1.587827
1883.000000;1.698907
1882.000000;2.011245
1881.000000;1.816514
1880.000000;1.609648
1879.000000;1.738711
1878.000000;2.181490
1877.000000;1.921762
1876.000000;1.549855
1875.000000;1.337181
1874.000000;1.230656
1873.000000;1.263721
1872.000000;1.450194
1871.000000;1.658223
1870.000000;1.631815
1869.000000;1.595711
1868.000000;1.619918
1867.000000;1.672604
1866.000000;1.973542
1865.000000;1.777378
1864.000000;1.437629
1863.000000;1.368044
1862.000000;1.512504
1861.000000;1.915124
1860.000000;1.972808
1859.000000;2.123088
1858.000000;2.137060
1857.000000;1.500973
1856.000000;1.217366
1855.000000;1.118664
1854.000000;1.157647
1853.000000;1.386079
1852.000000;1.679599
1851.000000;1.478147
1850.000000;1.438658
1849.000000;1.556916
1848.000000;1.618994
1847.000000;1.646587
1846.000000;1.785967
1845.000000;1.727171
1844.000000;1.477354
1843.000000;1.367619
1842.000000;1.384136
1841.000000;1.656826
1840.000000;1.958711
1839.000000;1.761973
1838.000000;1.796357
1837.000000;2.070632
1836.000000;2.730681
1835.000000;2.342446
1834.000000;1.937165
1833.000000;1.911897
1832.000000;1.979210
1831.000000;1.842239
1830.000000;1.699896
1829.000000;1.698732
1828.000000;1.719987
1827.000000;1.552353
1826.000000;1.428822
1825.000000;1.480694
1824.000000;1.542776
1823.000000;1.395346
1822.000000;1.298589
1821.000000;1.337954
1820.000000;1.465902
1819.000000;1.689098
1818.000000;2.064328
1817.000000;2.024418
1816.000000;1.677685
1815.000000;1.465786
1814.000000;1.344480
1813.000000;1.338687
1812.000000;1.432185
1811.000000;1.656280
1810.000000;2.181798
1809.000000;1.720190
1808.000000;1.397233
1807.000000;1.361793
1806.000000;1.525035
1805.000000;2.039891
1804.000000;2.353076
1803.000000;1.952181
1802.000000;1.711045
1801.000000;1.669734
1800.000000;1.986334
1799.000000;2.039440
1798.000000;1.542766
1797.000000;1.448952
1796.000000;1.533527
1795.000000;1.641767
1794.000000;1.982925
1793.000000;2.253390
1792.000000;1.631237
1791.000000;1.461887
1790.000000;1.441370
1789.000000;1.386952
1788.000000;1.263320
1787.000000;1.164744
1786.000000;1.187495
1785.000000;1.300233
1784.000000;1.366902
1783.000000;1.373029
1782.000000;1.424660
1781.000000;1.520584
1780.000000;1.525561
1779.000000;1.463794
1778.000000;1.430235
1777.000000;1.377818
1776.000000;1.308441
1775.000000;1.272819
1774.000000;1.305861
1773.000000;1.387434
1772.000000;1.472812
1771.000000;1.618900
1770.000000;1.817161
1769.000000;1.719932
1768.000000;1.592732
1767.000000;1.547065
1766.000000;1.511199
1765.000000;1.510176
1764.000000;1.578951
1763.000000;1.674934
1762.000000;1.758310
1761.000000;1.832823
1760.000000;1.627651
1759.000000;1.404237
1758.000000;1.342442
1757.000000;1.414221
1756.000000;1.508942
1755.000000;1.418732
1754.000000;1.318730
1753.000000;1.298379
1752.000000;1.413035
1751.000000;1.723675
1750.000000;1.677358
1749.000000;1.471550
1748.000000;1.441612
1747.000000;1.464060
1746.000000;1.487977
1745.000000;1.569259
1744.000000;1.717698
1743.000000;1.846608
1742.000000;1.794764
1741.000000;1.574318
1740.000000;1.397374
1739.000000;1.324456
1738.000000;1.323020
1737.000000;1.349367
1736.000000;1.390217
1735.000000;1.405733
1734.000000;1.353487
1733.000000;1.309917
1732.000000;1.334169
1731.000000;1.412958
1730.000000;1.504932
1729.000000;1.495263
1728.000000;1.371662
1727.000000;1.314804
1726.000000;1.405620
1725.000000;1.514109
1724.000000;1.480078
1723.000000;1.481565
1722.000000;1.554456
1721.000000;1.653057
1720.000000;1.720149
1719.000000;1.604560
1718.000000;1.419246
1717.000000;1.324025
1716.000000;1.315158
1715.000000;1.270029
1714.000000;1.196673
1713.000000;1.196683
1712.000000;1.245306
1711.000000;1.263102
1710.000000;1.244389
1709.000000;1.225136
1708.000000;1.215694
1707.000000;1.235941
1706.000000;1.319080
1705.000000;1.471115
1704.000000;1.734002
1703.000000;1.811027
1702.000000;1.577996
1701.000000;1.446630
1700.000000;1.391455
1699.000000;1.342338
1698.000000;1.212730
1697.000000;1.091828
1696.000000;1.110486
1695.000000;1.329098
1694.000000;1.644382
1693.000000;1.569323
1692.000000;1.388090
1691.000000;1.299105
1690.000000;1.296459
1689.000000;1.348618
1688.000000;1.327464
1687.000000;1.236104
1686.000000;1.198942
1685.000000;1.214132
1684.000000;1.300550
1683.000000;1.437968
1682.000000;1.342142
1681.000000;1.184511
1680.000000;1.153258
1679.000000;1.200701
1678.000000;1.305905
1677.000000;1.418781
1676.000000;1.389631
1675.000000;1.317676
1674.000000;1.336604
1673.000000;1.416750
1672.000000;1.462043
1671.000000;1.411597
1670.000000;1.311553
1669.000000;1.266449
1668.000000;1.345968
1667.000000;1.629005
1666.000000;1.968101
1665.000000;1.904697
1664.000000;1.884757
1663.000000;1.706910
1662.000000;1.498540
1661.000000;1.459936
1660.000000;1.597140
1659.000000;1.777129
1658.000000;1.692932
1657.000000;1.511046
1656.000000;1.473714
1655.000000;1.630675
1654.000000;1.751086
1653.000000;1.787210
1652.000000;1.899560
1651.000000;1.799131
1650.000000;1.608534
1649.000000;1.516449
1648.000000;1.545740
1647.000000;1.693593
1646.000000;1.860860
1645.000000;1.802744
1644.000000;1.650625
1643.000000;1.659453
1642.000000;1.806375
1641.000000;1.829208
1640.000000;1.671135
1639.000000;1.555422
1638.000000;1.561004
1637.000000;1.648026
1636.000000;1.838215
1635.000000;2.047332
1634.000000;1.785542
1633.000000;1.550807
1632.000000;1.485742
1631.000000;1.544433
1630.000000;1.691844
1629.000000;1.765103
1628.000000;1.550228
1627.000000;1.321196
1626.000000;1.242104
1625.000000;1.264485
1624.000000;1.274740
1623.000000;1.216901
1622.000000;1.180071
1621.000000;1.207122
1620.000000;1.262270
1619.000000;1.326384
1618.000000;1.407678
1617.000000;1.553465
1616.000000;1.638464
1615.000000;1.490060
1614.000000;1.344484
1613.000000;1.254301
1612.000000;1.191989
1611.000000;1.160827
1610.000000;1.150657
1609.000000;1.152834
1608.000000;1.194544
1607.000000;1.312088
1606.000000;1.706344
1605.000000;2.357399
1604.000000;1.886713
1603.000000;1.782222
1602.000000;1.599586
1601.000000;1.391321
1600.000000;1.287402
1599.000000;1.268272
1598.000000;1.259016
1597.000000;1.234538
1596.000000;1.257203
1595.000000;1.405036
1594.000000;1.597183
1593.000000;1.591678
1592.000000;1.563205
1591.000000;1.716359
1590.000000;2.274804
1589.000000;1.762781
1588.000000;1.400258
1587.000000;1.290060
1586.000000;1.242418
1585.000000;1.224098
1584.000000;1.206088
1583.000000;1.235684
1582.000000;1.322231
1581.000000;1.405155
1580.000000;1.417482
1579.000000;1.419990
1578.000000;1.529950
1577.000000;1.717568
1576.000000;1.665636
1575.000000;1.466224
1574.000000;1.281849
1573.000000;1.132044
1572.000000;1.067324
1571.000000;1.076605
1570.000000;1.154935
1569.000000;1.327680
1568.000000;1.665088
1567.000000;2.366029
1566.000000;2.548093
1565.000000;2.093643
1564.000000;1.696517
1563.000000;1.483774
1562.000000;1.453191
1561.000000;1.501183
1560.000000;1.567304
1559.000000;1.605076
1558.000000;1.875169
1557.000000;2.065743
1556.000000;1.541985
1555.000000;1.317107
1554.000000;1.224020
1553.000000;1.235314
1552.000000;1.321271
1551.000000;1.342343
1550.000000;1.326187
1549.000000;1.329253
1548.000000;1.347991
1547.000000;1.378425
1546.000000;1.431518
1545.000000;1.441252
1544.000000;1.459873
1543.000000;1.558790
1542.000000;1.707142
1541.000000;1.676114
1540.000000;1.775627
1539.000000;2.151237
1538.000000;1.948678
1537.000000;1.797756
1536.000000;1.549244
1535.000000;1.312663
1534.000000;1.169222
1533.000000;1.104428
1532.000000;1.177687
1531.000000;1.354666
1530.000000;1.410971
1529.000000;1.425169
1528.000000;1.612349
1527.000000;1.627943
1526.000000;1.533266
1525.000000;1.618901
1524.000000;1.622598
1523.000000;1.417916
1522.000000;1.210288
1521.000000;1.135473
1520.000000;1.229441
1519.000000;1.419809
1518.000000;1.489167
1517.000000;1.385034
1516.000000;1.330452
1515.000000;1.366853
1514.000000;1.535977
1513.000000;1.914844
1512.000000;1.844384
1511.000000;1.636605
1510.000000;1.648694
1509.000000;1.636827
1508.000000;1.557400
1507.000000;1.571499
1506.000000;1.787635
1505.000000;1.832078
1504.000000;1.502554
1503.000000;1.346630
1502.000000;1.452255
1501.000000;1.698681
1500.000000;1.809113
1499.000000;1.748827
1498.000000;1.440571
1497.000000;1.312357
1496.000000;1.334370
1495.000000;1.352606
1494.000000;1.403565
1493.000000;1.481816
1492.000000;1.593800
1491.000000;1.914198
1490.000000;2.120702
1489.000000;1.754635
1488.000000;1.526025
1487.000000;1.316595
1486.000000;1.155948
1485.000000;1.071033
1484.000000;1.045108
1483.000000;1.070107
1482.000000;1.115333
1481.000000;1.117858
1480.000000;1.086464
1479.000000;1.086457
1478.000000;1.159697
1477.000000;1.289651
1476.000000;1.510732
1475.000000;1.966423
1474.000000;1.696948
1473.000000;1.365119
1472.000000;1.349668
1471.000000;1.532595
1470.000000;1.891005
1469.000000;2.014958
1468.000000;1.637987
1467.000000;1.336507
1466.000000;1.167131
1465.000000;1.088407
1464.000000;1.072935
1463.000000;1.118425
1462.000000;1.215622
1461.000000;1.322435
1460.000000;1.294061
1459.000000;1.134792
1458.000000;0.906543
1457.000000;0.797384
1456.000000;0.859901
1455.000000;1.106282
1454.000000;1.707435
1453.000000;1.443233
1452.000000;1.106491
1451.000000;1.027067
1450.000000;1.040649
1449.000000;1.087932
1448.000000;1.027002
1447.000000;0.912988
1446.000000;0.871474
1445.000000;0.933061
1444.000000;1.098311
1443.000000;1.506772
1442.000000;1.679185
1441.000000;1.263663
1440.000000;1.103193
1439.000000;1.002239
1438.000000;0.929274
1437.000000;0.885867
1436.000000;0.895518
1435.000000;0.954979
1434.000000;1.002949
1433.000000;1.056077
1432.000000;1.186294
1431.000000;1.419291
1430.000000;1.415996
1429.000000;1.270013
1428.000000;1.257712
1427.000000;1.321893
1426.000000;1.345298
1425.000000;1.283832
1424.000000;1.223292
1423.000000;1.212946
1422.000000;1.266133
1421.000000;1.332808
1420.000000;1.330964
1419.000000;1.345314
1418.000000;1.432936
1417.000000;1.619421
1416.000000;1.781468
1415.000000;1.538081
1414.000000;1.355601
1413.000000;1.288865
1412.000000;1.311949
1411.000000;1.376357
1410.000000;1.484614
1409.000000;2.033403
1408.000000;1.960472
1407.000000;1.548736
1406.000000;1.674962
1405.000000;2.191574
1404.000000;1.653971
1403.000000;1.436319
1402.000000;1.433850
1401.000000;1.587705
1400.000000;2.271947
1399.000000;1.621791
1398.000000;1.331328
1397.000000;1.390166
1396.000000;1.763565
1395.000000;1.679034
1394.000000;1.273190
1393.000000;1.113091
1392.000000;1.029857
1391.000000;1.032959
1390.000000;1.148019
1389.000000;1.335281
1388.000000;1.489522
1387.000000;1.309559
1386.000000;1.050950
1385.000000;0.920474
1384.000000;0.898577
1383.000000;0.967251
1382.000000;1.174460
1381.000000;1.722367
1380.000000;1.367622
1379.000000;1.094319
1378.000000;1.141899
1377.000000;1.370835
1376.000000;1.835183
1375.000000;1.694974
1374.000000;1.745754
1373.000000;1.901876
1372.000000;1.613958
1371.000000;1.389292
1370.000000;1.189262
1369.000000;1.093107
1368.000000;1.095326
1367.000000;1.068345
1366.000000;0.962748
1365.000000;0.919432
1364.000000;1.000952
1363.000000;1.466019
1362.000000;1.975176
1361.000000;1.302136
1360.000000;1.279770
1359.000000;1.327767
1358.000000;1.465941
1357.000000;1.494319
1356.000000;1.307033
1355.000000;1.137512
1354.000000;1.034331
1353.000000;1.027783
1352.000000;1.168355
1351.000000;1.633206
1350.000000;1.380093
1349.000000;1.053610
1348.000000;0.948905
1347.000000;0.943058
1346.000000;1.021207
1345.000000;1.133436
1344.000000;1.186892
1343.000000;1.084453
1342.000000;0.976565
1341.000000;0.963827
1340.000000;0.990428
1339.000000;1.010418
1338.000000;1.107177
1337.000000;1.268849
1336.000000;1.385892
1335.000000;1.432816
1334.000000;1.317808
1333.000000;1.133163
1332.000000;1.013273
1331.000000;1.000814
1330.000000;1.097693
1329.000000;1.217445
1328.000000;1.185539
1327.000000;1.138606
1326.000000;1.222140
1325.000000;1.262581
1324.000000;1.158414
1323.000000;1.101534
1322.000000;1.138421
1321.000000;1.230191
1320.000000;1.257424
1319.000000;1.188341
1318.000000;1.156597
1317.000000;1.268977
1316.000000;1.206048
1315.000000;0.881369
1314.000000;0.726760
1313.000000;0.723667
1312.000000;0.841282
1311.000000;1.050815
1310.000000;1.248139
1309.000000;1.290120
1308.000000;1.261949
1307.000000;1.196400
1306.000000;1.073904
1305.000000;0.993294
1304.000000;1.074975
1303.000000;1.309661
1302.000000;1.212487
1301.000000;1.028356
1300.000000;0.930742
1299.000000;0.876426
1298.000000;0.941071
1297.000000;1.217250
1296.000000;1.418554
1295.000000;1.153279
1294.000000;1.064702
1293.000000;1.135324
1292.000000;1.211453
1291.000000;1.166381
1290.000000;1.168326
1289.000000;1.347252
1288.000000;1.586009
1287.000000;1.469930
1286.000000;1.329142
1285.000000;1.250727
1284.000000;1.175489
1283.000000;1.120845
1282.000000;1.159486
1281.000000;1.256906
1280.000000;1.267137
1279.000000;1.259391
1278.000000;1.346062
1277.000000;1.491067
1276.000000;1.548478
1275.000000;1.465140
1274.000000;1.605289
1273.000000;1.719189
1272.000000;1.254415
1271.000000;1.050991
1270.000000;1.052357
1269.000000;1.162733
1268.000000;1.295873
1267.000000;1.388830
1266.000000;1.444181
1265.000000;1.440549
1264.000000;1.381725
1263.000000;1.255281
1262.000000;1.134328
1261.000000;1.109500
1260.000000;1.177775
1259.000000;1.220383
1258.000000;1.233286
1257.000000;1.355773
1256.000000;1.544991
1255.000000;1.657917
1254.000000;2.059053
1253.000000;1.902654
1252.000000;1.540519
1251.000000;1.638141
1250.000000;1.547239
1249.000000;1.255572
1248.000000;1.041559
1247.000000;0.908373
1246.000000;0.862163
1245.000000;0.912777
1244.000000;1.065013
1243.000000;1.286547
1242.000000;1.519540
1241.000000;1.741881
1240.000000;1.616894
1239.000000;1.486224
1238.000000;1.517885
1237.000000;1.452269
1236.000000;1.261702
1235.000000;1.188935
1234.000000;1.180758
1233.000000;1.087082
1232.000000;0.991980
1231.000000;0.977038
1230.000000;1.001037
1229.000000;1.043027
1228.000000;1.127272
1227.000000;1.438721
1226.000000;1.737464
1225.000000;1.357105
1224.000000;1.278107
1223.000000;1.339899
1222.000000;1.480685
1221.000000;1.575513
1220.000000;1.504303
1219.000000;1.373164
1218.000000;1.259406
1217.000000;1.175559
1216.000000;1.131147
1215.000000;1.184997
1214.000000;1.441314
1213.000000;1.850011
1212.000000;1.503135
1211.000000;1.433905
1210.000000;1.535146
1209.000000;1.623329
1208.000000;1.611716
1207.000000;1.577441
1206.000000;1.496246
1205.000000;1.337873
1204.000000;1.202228
1203.000000;1.230015
1202.000000;1.550018
1201.000000;1.553849
1200.000000;1.619165
