Criado como novo conjunto de dados;"2706_e01_daniel.spp","12962.6 Secs"
cm-1;Abs
10000.000000;0.805932
9999.000000;0.805438
9998.000000;0.805214
9997.000000;0.805327
9996.000000;0.805649
9995.000000;0.805925
9994.000000;0.805832
9993.000000;0.805273
9992.000000;0.804461
9991.000000;0.803744
9990.000000;0.803315
9989.000000;0.803203
9988.000000;0.803404
9987.000000;0.803837
9986.000000;0.804170
9985.000000;0.803958
9984.000000;0.803140
9983.000000;0.802232
9982.000000;0.801814
9981.000000;0.801902
9980.000000;0.802091
9979.000000;0.802216
9978.000000;0.802520
9977.000000;0.803092
9976.000000;0.803519
9975.000000;0.803361
9974.000000;0.802735
9973.000000;0.802128
9972.000000;0.801817
9971.000000;0.801792
9970.000000;0.802079
9969.000000;0.802738
9968.000000;0.803516
9967.000000;0.803875
9966.000000;0.803512
9965.000000;0.802635
9964.000000;0.801681
9963.000000;0.800971
9962.000000;0.800674
9961.000000;0.800823
9960.000000;0.801189
9959.000000;0.801369
9958.000000;0.801214
9957.000000;0.801027
9956.000000;0.801177
9955.000000;0.801630
9954.000000;0.802025
9953.000000;0.802117
9952.000000;0.801964
9951.000000;0.801730
9950.000000;0.801475
9949.000000;0.801158
9948.000000;0.800728
9947.000000;0.800215
9946.000000;0.799820
9945.000000;0.799846
9944.000000;0.800397
9943.000000;0.801109
9942.000000;0.801366
9941.000000;0.800892
9940.000000;0.800054
9939.000000;0.799448
9938.000000;0.799252
9937.000000;0.799141
9936.000000;0.798811
9935.000000;0.798387
9934.000000;0.798192
9933.000000;0.798292
9932.000000;0.798471
9931.000000;0.798554
9930.000000;0.798519
9929.000000;0.798350
9928.000000;0.798029
9927.000000;0.797686
9926.000000;0.797490
9925.000000;0.797332
9924.000000;0.796928
9923.000000;0.796354
9922.000000;0.796146
9921.000000;0.796655
9920.000000;0.797560
9919.000000;0.798279
9918.000000;0.798646
9917.000000;0.798842
9916.000000;0.798867
9915.000000;0.798529
9914.000000;0.797903
9913.000000;0.797386
9912.000000;0.797225
9911.000000;0.797317
9910.000000;0.797509
9909.000000;0.797762
9908.000000;0.797948
9907.000000;0.797842
9906.000000;0.797488
9905.000000;0.797284
9904.000000;0.797487
9903.000000;0.797824
9902.000000;0.797814
9901.000000;0.797319
9900.000000;0.796534
9899.000000;0.795603
9898.000000;0.794537
9897.000000;0.793522
9896.000000;0.793031
9895.000000;0.793434
9894.000000;0.794537
9893.000000;0.795619
9892.000000;0.796016
9891.000000;0.795664
9890.000000;0.795063
9889.000000;0.794710
9888.000000;0.794678
9887.000000;0.794743
9886.000000;0.794773
9885.000000;0.794841
9884.000000;0.795019
9883.000000;0.795205
9882.000000;0.795192
9881.000000;0.794855
9880.000000;0.794307
9879.000000;0.793897
9878.000000;0.793955
9877.000000;0.794428
9876.000000;0.794880
9875.000000;0.794950
9874.000000;0.794717
9873.000000;0.794469
9872.000000;0.794286
9871.000000;0.794084
9870.000000;0.793948
9869.000000;0.794074
9868.000000;0.794381
9867.000000;0.794474
9866.000000;0.794123
9865.000000;0.793552
9864.000000;0.793151
9863.000000;0.793113
9862.000000;0.793429
9861.000000;0.794018
9860.000000;0.794651
9859.000000;0.794964
9858.000000;0.794736
9857.000000;0.794124
9856.000000;0.793511
9855.000000;0.793167
9854.000000;0.793125
9853.000000;0.793270
9852.000000;0.793448
9851.000000;0.793532
9850.000000;0.793494
9849.000000;0.793386
9848.000000;0.793221
9847.000000;0.792939
9846.000000;0.792519
9845.000000;0.792068
9844.000000;0.791740
9843.000000;0.791584
9842.000000;0.791489
9841.000000;0.791265
9840.000000;0.790806
9839.000000;0.790256
9838.000000;0.789966
9837.000000;0.790177
9836.000000;0.790755
9835.000000;0.791342
9834.000000;0.791715
9833.000000;0.791864
9832.000000;0.791781
9831.000000;0.791412
9830.000000;0.790844
9829.000000;0.790304
9828.000000;0.789875
9827.000000;0.789413
9826.000000;0.788878
9825.000000;0.788559
9824.000000;0.788798
9823.000000;0.789550
9822.000000;0.790378
9821.000000;0.790825
9820.000000;0.790707
9819.000000;0.790135
9818.000000;0.789439
9817.000000;0.789037
9816.000000;0.789198
9815.000000;0.789821
9814.000000;0.790483
9813.000000;0.790771
9812.000000;0.790560
9811.000000;0.790026
9810.000000;0.789457
9809.000000;0.789051
9808.000000;0.788833
9807.000000;0.788717
9806.000000;0.788633
9805.000000;0.788593
9804.000000;0.788623
9803.000000;0.788704
9802.000000;0.788794
9801.000000;0.788885
9800.000000;0.788998
9799.000000;0.789146
9798.000000;0.789325
9797.000000;0.789485
9796.000000;0.789473
9795.000000;0.789102
9794.000000;0.788380
9793.000000;0.787619
9792.000000;0.787175
9791.000000;0.787041
9790.000000;0.786849
9789.000000;0.786371
9788.000000;0.785875
9787.000000;0.785799
9786.000000;0.786182
9785.000000;0.786679
9784.000000;0.787109
9783.000000;0.787668
9782.000000;0.788419
9781.000000;0.788875
9780.000000;0.788449
9779.000000;0.787222
9778.000000;0.785950
9777.000000;0.785283
9776.000000;0.785273
9775.000000;0.785637
9774.000000;0.786164
9773.000000;0.786696
9772.000000;0.786997
9771.000000;0.786910
9770.000000;0.786568
9769.000000;0.786257
9768.000000;0.786130
9767.000000;0.786142
9766.000000;0.786184
9765.000000;0.786169
9764.000000;0.786070
9763.000000;0.785974
9762.000000;0.785989
9761.000000;0.786021
9760.000000;0.785793
9759.000000;0.785252
9758.000000;0.784795
9757.000000;0.784849
9756.000000;0.785305
9755.000000;0.785596
9754.000000;0.785379
9753.000000;0.784924
9752.000000;0.784741
9751.000000;0.784948
9750.000000;0.785145
9749.000000;0.784868
9748.000000;0.784087
9747.000000;0.783198
9746.000000;0.782615
9745.000000;0.782469
9744.000000;0.782703
9743.000000;0.783264
9742.000000;0.784022
9741.000000;0.784646
9740.000000;0.784827
9739.000000;0.784648
9738.000000;0.784455
9737.000000;0.784349
9736.000000;0.784071
9735.000000;0.783486
9734.000000;0.782875
9733.000000;0.782576
9732.000000;0.782582
9731.000000;0.782725
9730.000000;0.782983
9729.000000;0.783362
9728.000000;0.783631
9727.000000;0.783508
9726.000000;0.783024
9725.000000;0.782464
9724.000000;0.782019
9723.000000;0.781757
9722.000000;0.781822
9721.000000;0.782356
9720.000000;0.783207
9719.000000;0.783963
9718.000000;0.784310
9717.000000;0.784198
9716.000000;0.783691
9715.000000;0.782885
9714.000000;0.781994
9713.000000;0.781336
9712.000000;0.781127
9711.000000;0.781364
9710.000000;0.781871
9709.000000;0.782378
9708.000000;0.782651
9707.000000;0.782650
9706.000000;0.782527
9705.000000;0.782356
9704.000000;0.782011
9703.000000;0.781440
9702.000000;0.780892
9701.000000;0.780644
9700.000000;0.780604
9699.000000;0.780462
9698.000000;0.780158
9697.000000;0.779924
9696.000000;0.779906
9695.000000;0.780019
9694.000000;0.780183
9693.000000;0.780436
9692.000000;0.780757
9691.000000;0.781002
9690.000000;0.781087
9689.000000;0.781050
9688.000000;0.780892
9687.000000;0.780572
9686.000000;0.780197
9685.000000;0.780025
9684.000000;0.780156
9683.000000;0.780404
9682.000000;0.780548
9681.000000;0.780579
9680.000000;0.780593
9679.000000;0.780576
9678.000000;0.780397
9677.000000;0.779983
9676.000000;0.779441
9675.000000;0.779037
9674.000000;0.779016
9673.000000;0.779353
9672.000000;0.779718
9671.000000;0.779759
9670.000000;0.779416
9669.000000;0.778876
9668.000000;0.778326
9667.000000;0.777890
9666.000000;0.777695
9665.000000;0.777787
9664.000000;0.778019
9663.000000;0.778202
9662.000000;0.778329
9661.000000;0.778461
9660.000000;0.778458
9659.000000;0.778110
9658.000000;0.777556
9657.000000;0.777274
9656.000000;0.777518
9655.000000;0.777983
9654.000000;0.778155
9653.000000;0.777870
9652.000000;0.777401
9651.000000;0.777113
9650.000000;0.777142
9649.000000;0.777333
9648.000000;0.777402
9647.000000;0.777203
9646.000000;0.776870
9645.000000;0.776669
9644.000000;0.776720
9643.000000;0.776928
9642.000000;0.777124
9641.000000;0.777177
9640.000000;0.777026
9639.000000;0.776768
9638.000000;0.776651
9637.000000;0.776817
9636.000000;0.777066
9635.000000;0.777090
9634.000000;0.776881
9633.000000;0.776699
9632.000000;0.776643
9631.000000;0.776527
9630.000000;0.776244
9629.000000;0.775955
9628.000000;0.775802
9627.000000;0.775679
9626.000000;0.775455
9625.000000;0.775225
9624.000000;0.775121
9623.000000;0.775057
9622.000000;0.774896
9621.000000;0.774782
9620.000000;0.775047
9619.000000;0.775762
9618.000000;0.776562
9617.000000;0.776975
9616.000000;0.776846
9615.000000;0.776403
9614.000000;0.776008
9613.000000;0.775898
9612.000000;0.776095
9611.000000;0.776441
9610.000000;0.776665
9609.000000;0.776476
9608.000000;0.775758
9607.000000;0.774750
9606.000000;0.773934
9605.000000;0.773615
9604.000000;0.773618
9603.000000;0.773548
9602.000000;0.773317
9601.000000;0.773272
9600.000000;0.773718
9599.000000;0.774454
9598.000000;0.774880
9597.000000;0.774564
9596.000000;0.773651
9595.000000;0.772756
9594.000000;0.772462
9593.000000;0.772849
9592.000000;0.773481
9591.000000;0.773830
9590.000000;0.773722
9589.000000;0.773344
9588.000000;0.772926
9587.000000;0.772546
9586.000000;0.772215
9585.000000;0.771976
9584.000000;0.771846
9583.000000;0.771790
9582.000000;0.771814
9581.000000;0.772010
9580.000000;0.772432
9579.000000;0.772956
9578.000000;0.773349
9577.000000;0.773464
9576.000000;0.773367
9575.000000;0.773260
9574.000000;0.773293
9573.000000;0.773428
9572.000000;0.773516
9571.000000;0.773507
9570.000000;0.773527
9569.000000;0.773687
9568.000000;0.773894
9567.000000;0.773925
9566.000000;0.773664
9565.000000;0.773176
9564.000000;0.772594
9563.000000;0.772043
9562.000000;0.771625
9561.000000;0.771363
9560.000000;0.771162
9559.000000;0.770931
9558.000000;0.770706
9557.000000;0.770576
9556.000000;0.770511
9555.000000;0.770386
9554.000000;0.770189
9553.000000;0.770068
9552.000000;0.770177
9551.000000;0.770552
9550.000000;0.771124
9549.000000;0.771716
9548.000000;0.772047
9547.000000;0.771882
9546.000000;0.771281
9545.000000;0.770605
9544.000000;0.770228
9543.000000;0.770259
9542.000000;0.770547
9541.000000;0.770858
9540.000000;0.771027
9539.000000;0.771040
9538.000000;0.771012
9537.000000;0.771063
9536.000000;0.771156
9535.000000;0.771091
9534.000000;0.770712
9533.000000;0.770106
9532.000000;0.769587
9531.000000;0.769445
9530.000000;0.769684
9529.000000;0.769984
9528.000000;0.769983
9527.000000;0.769623
9526.000000;0.769179
9525.000000;0.768941
9524.000000;0.768938
9523.000000;0.769005
9522.000000;0.769011
9521.000000;0.768934
9520.000000;0.768794
9519.000000;0.768631
9518.000000;0.768509
9517.000000;0.768482
9516.000000;0.768540
9515.000000;0.768633
9514.000000;0.768698
9513.000000;0.768661
9512.000000;0.768501
9511.000000;0.768347
9510.000000;0.768363
9509.000000;0.768470
9508.000000;0.768350
9507.000000;0.767835
9506.000000;0.767174
9505.000000;0.766759
9504.000000;0.766726
9503.000000;0.766953
9502.000000;0.767308
9501.000000;0.767691
9500.000000;0.767939
9499.000000;0.767951
9498.000000;0.767859
9497.000000;0.767868
9496.000000;0.767961
9495.000000;0.767956
9494.000000;0.767828
9493.000000;0.767740
9492.000000;0.767758
9491.000000;0.767774
9490.000000;0.767709
9489.000000;0.767599
9488.000000;0.767419
9487.000000;0.767081
9486.000000;0.766677
9485.000000;0.766487
9484.000000;0.766634
9483.000000;0.766883
9482.000000;0.766918
9481.000000;0.766703
9480.000000;0.766448
9479.000000;0.766324
9478.000000;0.766352
9477.000000;0.766463
9476.000000;0.766550
9475.000000;0.766504
9474.000000;0.766297
9473.000000;0.766026
9472.000000;0.765829
9471.000000;0.765799
9470.000000;0.765967
9469.000000;0.766292
9468.000000;0.766641
9467.000000;0.766850
9466.000000;0.766854
9465.000000;0.766696
9464.000000;0.766392
9463.000000;0.765916
9462.000000;0.765359
9461.000000;0.764982
9460.000000;0.765018
9459.000000;0.765434
9458.000000;0.765944
9457.000000;0.766218
9456.000000;0.766046
9455.000000;0.765421
9454.000000;0.764571
9453.000000;0.763858
9452.000000;0.763547
9451.000000;0.763638
9450.000000;0.763947
9449.000000;0.764314
9448.000000;0.764693
9447.000000;0.765080
9446.000000;0.765426
9445.000000;0.765642
9444.000000;0.765649
9443.000000;0.765411
9442.000000;0.764983
9441.000000;0.764547
9440.000000;0.764312
9439.000000;0.764286
9438.000000;0.764187
9437.000000;0.763720
9436.000000;0.763003
9435.000000;0.762564
9434.000000;0.762813
9433.000000;0.763574
9432.000000;0.764264
9431.000000;0.764501
9430.000000;0.764366
9429.000000;0.764102
9428.000000;0.763775
9427.000000;0.763342
9426.000000;0.762879
9425.000000;0.762559
9424.000000;0.762433
9423.000000;0.762355
9422.000000;0.762142
9421.000000;0.761779
9420.000000;0.761471
9419.000000;0.761467
9418.000000;0.761770
9417.000000;0.762061
9416.000000;0.762034
9415.000000;0.761780
9414.000000;0.761678
9413.000000;0.761897
9412.000000;0.762191
9411.000000;0.762264
9410.000000;0.762121
9409.000000;0.761951
9408.000000;0.761823
9407.000000;0.761664
9406.000000;0.761446
9405.000000;0.761228
9404.000000;0.761078
9403.000000;0.761045
9402.000000;0.761145
9401.000000;0.761265
9400.000000;0.761190
9399.000000;0.760837
9398.000000;0.760382
9397.000000;0.760069
9396.000000;0.759967
9395.000000;0.759993
9394.000000;0.760056
9393.000000;0.760095
9392.000000;0.760097
9391.000000;0.760175
9390.000000;0.760476
9389.000000;0.760915
9388.000000;0.761147
9387.000000;0.760974
9386.000000;0.760638
9385.000000;0.760523
9384.000000;0.760688
9383.000000;0.760854
9382.000000;0.760773
9381.000000;0.760430
9380.000000;0.759990
9379.000000;0.759711
9378.000000;0.759810
9377.000000;0.760214
9376.000000;0.760514
9375.000000;0.760367
9374.000000;0.759879
9373.000000;0.759438
9372.000000;0.759253
9371.000000;0.759242
9370.000000;0.759276
9369.000000;0.759294
9368.000000;0.759233
9367.000000;0.759067
9366.000000;0.758912
9365.000000;0.758899
9364.000000;0.758978
9363.000000;0.759007
9362.000000;0.758976
9361.000000;0.758962
9360.000000;0.758915
9359.000000;0.758713
9358.000000;0.758410
9357.000000;0.758190
9356.000000;0.758091
9355.000000;0.757980
9354.000000;0.757820
9353.000000;0.757737
9352.000000;0.757793
9351.000000;0.757889
9350.000000;0.757945
9349.000000;0.758002
9348.000000;0.758098
9347.000000;0.758184
9346.000000;0.758226
9345.000000;0.758246
9344.000000;0.758248
9343.000000;0.758194
9342.000000;0.758079
9341.000000;0.757947
9340.000000;0.757857
9339.000000;0.757883
9338.000000;0.758077
9337.000000;0.758298
9336.000000;0.758218
9335.000000;0.757672
9334.000000;0.756950
9333.000000;0.756522
9332.000000;0.756540
9331.000000;0.756791
9330.000000;0.757057
9329.000000;0.757262
9328.000000;0.757293
9327.000000;0.756995
9326.000000;0.756433
9325.000000;0.755917
9324.000000;0.755672
9323.000000;0.755657
9322.000000;0.755757
9321.000000;0.755940
9320.000000;0.756164
9319.000000;0.756312
9318.000000;0.756316
9317.000000;0.756206
9316.000000;0.755987
9315.000000;0.755614
9314.000000;0.755162
9313.000000;0.754866
9312.000000;0.754929
9311.000000;0.755351
9310.000000;0.755965
9309.000000;0.756494
9308.000000;0.756644
9307.000000;0.756339
9306.000000;0.755892
9305.000000;0.755726
9304.000000;0.755863
9303.000000;0.755905
9302.000000;0.755590
9301.000000;0.755140
9300.000000;0.754944
9299.000000;0.755075
9298.000000;0.755289
9297.000000;0.755338
9296.000000;0.755168
9295.000000;0.754885
9294.000000;0.754661
9293.000000;0.754608
9292.000000;0.754651
9291.000000;0.754604
9290.000000;0.754392
9289.000000;0.754123
9288.000000;0.753912
9287.000000;0.753769
9286.000000;0.753713
9285.000000;0.753849
9284.000000;0.754192
9283.000000;0.754516
9282.000000;0.754528
9281.000000;0.754168
9280.000000;0.753675
9279.000000;0.753363
9278.000000;0.753338
9277.000000;0.753416
9276.000000;0.753305
9275.000000;0.752936
9274.000000;0.752575
9273.000000;0.752542
9272.000000;0.752831
9271.000000;0.753145
9270.000000;0.753245
9269.000000;0.753151
9268.000000;0.752994
9267.000000;0.752870
9266.000000;0.752861
9265.000000;0.753015
9264.000000;0.753207
9263.000000;0.753189
9262.000000;0.752867
9261.000000;0.752435
9260.000000;0.752157
9259.000000;0.752117
9258.000000;0.752253
9257.000000;0.752479
9256.000000;0.752688
9255.000000;0.752716
9254.000000;0.752474
9253.000000;0.752065
9252.000000;0.751694
9251.000000;0.751487
9250.000000;0.751424
9249.000000;0.751433
9248.000000;0.751466
9247.000000;0.751516
9246.000000;0.751564
9245.000000;0.751527
9244.000000;0.751328
9243.000000;0.751048
9242.000000;0.750965
9241.000000;0.751283
9240.000000;0.751872
9239.000000;0.752377
9238.000000;0.752594
9237.000000;0.752599
9236.000000;0.752526
9235.000000;0.752386
9234.000000;0.752125
9233.000000;0.751711
9232.000000;0.751112
9231.000000;0.750360
9230.000000;0.749665
9229.000000;0.749331
9228.000000;0.749446
9227.000000;0.749791
9226.000000;0.750105
9225.000000;0.750318
9224.000000;0.750458
9223.000000;0.750496
9222.000000;0.750432
9221.000000;0.750402
9220.000000;0.750520
9219.000000;0.750664
9218.000000;0.750570
9217.000000;0.750152
9216.000000;0.749630
9215.000000;0.749317
9214.000000;0.749334
9213.000000;0.749547
9212.000000;0.749717
9211.000000;0.749719
9210.000000;0.749604
9209.000000;0.749461
9208.000000;0.749281
9207.000000;0.749025
9206.000000;0.748779
9205.000000;0.748705
9204.000000;0.748833
9203.000000;0.749033
9202.000000;0.749191
9201.000000;0.749303
9200.000000;0.749314
9199.000000;0.749082
9198.000000;0.748593
9197.000000;0.748121
9196.000000;0.747974
9195.000000;0.748136
9194.000000;0.748311
9193.000000;0.748320
9192.000000;0.748300
9191.000000;0.748455
9190.000000;0.748727
9189.000000;0.748820
9188.000000;0.748552
9187.000000;0.748078
9186.000000;0.747721
9185.000000;0.747643
9184.000000;0.747738
9183.000000;0.747824
9182.000000;0.747808
9181.000000;0.747668
9180.000000;0.747397
9179.000000;0.747073
9178.000000;0.746878
9177.000000;0.746926
9176.000000;0.747108
9175.000000;0.747238
9174.000000;0.747293
9173.000000;0.747379
9172.000000;0.747491
9171.000000;0.747460
9170.000000;0.747170
9169.000000;0.746727
9168.000000;0.746364
9167.000000;0.746246
9166.000000;0.746365
9165.000000;0.746528
9164.000000;0.746473
9163.000000;0.746112
9162.000000;0.745660
9161.000000;0.745420
9160.000000;0.745448
9159.000000;0.745557
9158.000000;0.745621
9157.000000;0.745693
9156.000000;0.745820
9155.000000;0.745916
9154.000000;0.745897
9153.000000;0.745806
9152.000000;0.745698
9151.000000;0.745543
9150.000000;0.745346
9149.000000;0.745231
9148.000000;0.745286
9147.000000;0.745408
9146.000000;0.745422
9145.000000;0.745314
9144.000000;0.745188
9143.000000;0.745074
9142.000000;0.744906
9141.000000;0.744691
9140.000000;0.744568
9139.000000;0.744642
9138.000000;0.744844
9137.000000;0.745027
9136.000000;0.745127
9135.000000;0.745181
9134.000000;0.745216
9133.000000;0.745177
9132.000000;0.744977
9131.000000;0.744579
9130.000000;0.744024
9129.000000;0.743446
9128.000000;0.743075
9127.000000;0.743143
9126.000000;0.743668
9125.000000;0.744331
9124.000000;0.744681
9123.000000;0.744558
9122.000000;0.744239
9121.000000;0.744123
9120.000000;0.744330
9119.000000;0.744671
9118.000000;0.744904
9117.000000;0.744930
9116.000000;0.744794
9115.000000;0.744624
9114.000000;0.744556
9113.000000;0.744588
9112.000000;0.744518
9111.000000;0.744120
9110.000000;0.743428
9109.000000;0.742765
9108.000000;0.742464
9107.000000;0.742595
9106.000000;0.742954
9105.000000;0.743250
9104.000000;0.743313
9103.000000;0.743171
9102.000000;0.742972
9101.000000;0.742832
9100.000000;0.742757
9099.000000;0.742721
9098.000000;0.742732
9097.000000;0.742759
9096.000000;0.742691
9095.000000;0.742471
9094.000000;0.742238
9093.000000;0.742221
9092.000000;0.742475
9091.000000;0.742816
9090.000000;0.743010
9089.000000;0.742986
9088.000000;0.742852
9087.000000;0.742772
9086.000000;0.742819
9085.000000;0.742892
9084.000000;0.742792
9083.000000;0.742434
9082.000000;0.741950
9081.000000;0.741551
9080.000000;0.741333
9079.000000;0.741268
9078.000000;0.741318
9077.000000;0.741442
9076.000000;0.741548
9075.000000;0.741545
9074.000000;0.741458
9073.000000;0.741387
9072.000000;0.741379
9071.000000;0.741384
9070.000000;0.741329
9069.000000;0.741155
9068.000000;0.740848
9067.000000;0.740512
9066.000000;0.740362
9065.000000;0.740515
9064.000000;0.740798
9063.000000;0.740889
9062.000000;0.740677
9061.000000;0.740361
9060.000000;0.740179
9059.000000;0.740158
9058.000000;0.740146
9057.000000;0.740034
9056.000000;0.739856
9055.000000;0.739743
9054.000000;0.739792
9053.000000;0.739987
9052.000000;0.740222
9051.000000;0.740393
9050.000000;0.740435
9049.000000;0.740280
9048.000000;0.739871
9047.000000;0.739290
9046.000000;0.738776
9045.000000;0.738519
9044.000000;0.738485
9043.000000;0.738521
9042.000000;0.738548
9041.000000;0.738586
9040.000000;0.738636
9039.000000;0.738693
9038.000000;0.738812
9037.000000;0.739025
9036.000000;0.739239
9035.000000;0.739330
9034.000000;0.739346
9033.000000;0.739441
9032.000000;0.739607
9031.000000;0.739613
9030.000000;0.739289
9029.000000;0.738781
9028.000000;0.738446
9027.000000;0.738526
9026.000000;0.738931
9025.000000;0.739330
9024.000000;0.739450
9023.000000;0.739311
9022.000000;0.739134
9021.000000;0.739026
9020.000000;0.738864
9019.000000;0.738525
9018.000000;0.738093
9017.000000;0.737751
9016.000000;0.737564
9015.000000;0.737496
9014.000000;0.737543
9013.000000;0.737703
9012.000000;0.737865
9011.000000;0.737906
9010.000000;0.737847
9009.000000;0.737789
9008.000000;0.737738
9007.000000;0.737652
9006.000000;0.737605
9005.000000;0.737717
9004.000000;0.737945
9003.000000;0.738093
9002.000000;0.738048
9001.000000;0.737872
9000.000000;0.737658
8999.000000;0.737428
8998.000000;0.737199
8997.000000;0.737006
8996.000000;0.736859
8995.000000;0.736752
8994.000000;0.736701
8993.000000;0.736695
8992.000000;0.736665
8991.000000;0.736600
8990.000000;0.736608
8989.000000;0.736725
8988.000000;0.736776
8987.000000;0.736627
8986.000000;0.736481
8985.000000;0.736662
8984.000000;0.737126
8983.000000;0.737452
8982.000000;0.737364
8981.000000;0.737020
8980.000000;0.736709
8979.000000;0.736504
8978.000000;0.736330
8977.000000;0.736169
8976.000000;0.736056
8975.000000;0.735983
8974.000000;0.735925
8973.000000;0.735878
8972.000000;0.735810
8971.000000;0.735687
8970.000000;0.735574
8969.000000;0.735574
8968.000000;0.735623
8967.000000;0.735511
8966.000000;0.735174
8965.000000;0.734830
8964.000000;0.734719
8963.000000;0.734852
8962.000000;0.735102
8961.000000;0.735382
8960.000000;0.735599
8959.000000;0.735587
8958.000000;0.735255
8957.000000;0.734745
8956.000000;0.734317
8955.000000;0.734102
8954.000000;0.734067
8953.000000;0.734135
8952.000000;0.734240
8951.000000;0.734312
8950.000000;0.734343
8949.000000;0.734419
8948.000000;0.734617
8947.000000;0.734861
8946.000000;0.734984
8945.000000;0.734918
8944.000000;0.734764
8943.000000;0.734669
8942.000000;0.734682
8941.000000;0.734733
8940.000000;0.734715
8939.000000;0.734577
8938.000000;0.734357
8937.000000;0.734126
8936.000000;0.733928
8935.000000;0.733767
8934.000000;0.733633
8933.000000;0.733486
8932.000000;0.733275
8931.000000;0.733033
8930.000000;0.732909
8929.000000;0.733018
8928.000000;0.733259
8927.000000;0.733383
8926.000000;0.733251
8925.000000;0.732956
8924.000000;0.732690
8923.000000;0.732579
8922.000000;0.732638
8921.000000;0.732794
8920.000000;0.732920
8919.000000;0.732935
8918.000000;0.732888
8917.000000;0.732887
8916.000000;0.732939
8915.000000;0.732932
8914.000000;0.732791
8913.000000;0.732569
8912.000000;0.732366
8911.000000;0.732228
8910.000000;0.732140
8909.000000;0.732071
8908.000000;0.732028
8907.000000;0.732074
8906.000000;0.732280
8905.000000;0.732587
8904.000000;0.732790
8903.000000;0.732758
8902.000000;0.732619
8901.000000;0.732609
8900.000000;0.732749
8899.000000;0.732828
8898.000000;0.732697
8897.000000;0.732417
8896.000000;0.732120
8895.000000;0.731863
8894.000000;0.731662
8893.000000;0.731532
8892.000000;0.731438
8891.000000;0.731315
8890.000000;0.731181
8889.000000;0.731121
8888.000000;0.731131
8887.000000;0.731108
8886.000000;0.731022
8885.000000;0.730987
8884.000000;0.731080
8883.000000;0.731234
8882.000000;0.731341
8881.000000;0.731363
8880.000000;0.731270
8879.000000;0.730996
8878.000000;0.730565
8877.000000;0.730162
8876.000000;0.729979
8875.000000;0.730043
8874.000000;0.730238
8873.000000;0.730444
8872.000000;0.730562
8871.000000;0.730495
8870.000000;0.730218
8869.000000;0.729853
8868.000000;0.729600
8867.000000;0.729597
8866.000000;0.729829
8865.000000;0.730130
8864.000000;0.730288
8863.000000;0.730224
8862.000000;0.730087
8861.000000;0.730104
8860.000000;0.730308
8859.000000;0.730508
8858.000000;0.730537
8857.000000;0.730415
8856.000000;0.730226
8855.000000;0.729970
8854.000000;0.729644
8853.000000;0.729355
8852.000000;0.729254
8851.000000;0.729356
8850.000000;0.729522
8849.000000;0.729589
8848.000000;0.729485
8847.000000;0.729266
8846.000000;0.729087
8845.000000;0.729092
8844.000000;0.729275
8843.000000;0.729481
8842.000000;0.729575
8841.000000;0.729561
8840.000000;0.729506
8839.000000;0.729407
8838.000000;0.729220
8837.000000;0.728967
8836.000000;0.728753
8835.000000;0.728670
8834.000000;0.728720
8833.000000;0.728819
8832.000000;0.728877
8831.000000;0.728869
8830.000000;0.728842
8829.000000;0.728832
8828.000000;0.728801
8827.000000;0.728727
8826.000000;0.728696
8825.000000;0.728824
8824.000000;0.729065
8823.000000;0.729215
8822.000000;0.729139
8821.000000;0.728907
8820.000000;0.728669
8819.000000;0.728498
8818.000000;0.728400
8817.000000;0.728397
8816.000000;0.728494
8815.000000;0.728617
8814.000000;0.728654
8813.000000;0.728562
8812.000000;0.728384
8811.000000;0.728183
8810.000000;0.728000
8809.000000;0.727857
8808.000000;0.727772
8807.000000;0.727763
8806.000000;0.727832
8805.000000;0.727934
8804.000000;0.727987
8803.000000;0.727942
8802.000000;0.727847
8801.000000;0.727782
8800.000000;0.727747
8799.000000;0.727673
8798.000000;0.727535
8797.000000;0.727386
8796.000000;0.727291
8795.000000;0.727273
8794.000000;0.727320
8793.000000;0.727367
8792.000000;0.727303
8791.000000;0.727115
8790.000000;0.726998
8789.000000;0.727180
8788.000000;0.727594
8787.000000;0.727872
8786.000000;0.727744
8785.000000;0.727353
8784.000000;0.727063
8783.000000;0.727033
8782.000000;0.727112
8781.000000;0.727099
8780.000000;0.726999
8779.000000;0.726962
8778.000000;0.727074
8777.000000;0.727232
8776.000000;0.727248
8775.000000;0.727052
8774.000000;0.726778
8773.000000;0.726654
8772.000000;0.726792
8771.000000;0.727113
8770.000000;0.727433
8769.000000;0.727593
8768.000000;0.727526
8767.000000;0.727287
8766.000000;0.727026
8765.000000;0.726879
8764.000000;0.726859
8763.000000;0.726880
8762.000000;0.726870
8761.000000;0.726823
8760.000000;0.726751
8759.000000;0.726669
8758.000000;0.726617
8757.000000;0.726638
8756.000000;0.726704
8755.000000;0.726710
8754.000000;0.726589
8753.000000;0.726369
8752.000000;0.726137
8751.000000;0.725978
8750.000000;0.725951
8749.000000;0.726055
8748.000000;0.726188
8747.000000;0.726215
8746.000000;0.726100
8745.000000;0.725926
8744.000000;0.725775
8743.000000;0.725664
8742.000000;0.725587
8741.000000;0.725578
8740.000000;0.725666
8739.000000;0.725821
8738.000000;0.725960
8737.000000;0.726005
8736.000000;0.725914
8735.000000;0.725724
8734.000000;0.725545
8733.000000;0.725474
8732.000000;0.725512
8731.000000;0.725610
8730.000000;0.725777
8729.000000;0.726056
8728.000000;0.726389
8727.000000;0.726613
8726.000000;0.726617
8725.000000;0.726461
8724.000000;0.726278
8723.000000;0.726140
8722.000000;0.726030
8721.000000;0.725907
8720.000000;0.725736
8719.000000;0.725490
8718.000000;0.725168
8717.000000;0.724801
8716.000000;0.724456
8715.000000;0.724252
8714.000000;0.724330
8713.000000;0.724731
8712.000000;0.725293
8711.000000;0.725733
8710.000000;0.725872
8709.000000;0.725745
8708.000000;0.725494
8707.000000;0.725218
8706.000000;0.724950
8705.000000;0.724725
8704.000000;0.724597
8703.000000;0.724610
8702.000000;0.724746
8701.000000;0.724912
8700.000000;0.724991
8699.000000;0.724947
8698.000000;0.724864
8697.000000;0.724851
8696.000000;0.724920
8695.000000;0.725010
8694.000000;0.725085
8693.000000;0.725160
8692.000000;0.725232
8691.000000;0.725246
8690.000000;0.725165
8689.000000;0.725002
8688.000000;0.724788
8687.000000;0.724544
8686.000000;0.724309
8685.000000;0.724158
8684.000000;0.724151
8683.000000;0.724286
8682.000000;0.724493
8681.000000;0.724655
8680.000000;0.724665
8679.000000;0.724502
8678.000000;0.724233
8677.000000;0.723934
8676.000000;0.723631
8675.000000;0.723343
8674.000000;0.723132
8673.000000;0.723047
8672.000000;0.723058
8671.000000;0.723104
8670.000000;0.723179
8669.000000;0.723313
8668.000000;0.723483
8667.000000;0.723623
8666.000000;0.723687
8665.000000;0.723668
8664.000000;0.723588
8663.000000;0.723531
8662.000000;0.723624
8661.000000;0.723886
8660.000000;0.724139
8659.000000;0.724157
8658.000000;0.723901
8657.000000;0.723511
8656.000000;0.723128
8655.000000;0.722814
8654.000000;0.722607
8653.000000;0.722517
8652.000000;0.722477
8651.000000;0.722403
8650.000000;0.722322
8649.000000;0.722327
8648.000000;0.722393
8647.000000;0.722376
8646.000000;0.722235
8645.000000;0.722123
8644.000000;0.722191
8643.000000;0.722384
8642.000000;0.722505
8641.000000;0.722441
8640.000000;0.722247
8639.000000;0.722027
8638.000000;0.721809
8637.000000;0.721557
8636.000000;0.721275
8635.000000;0.721063
8634.000000;0.721019
8633.000000;0.721098
8632.000000;0.721140
8631.000000;0.721051
8630.000000;0.720904
8629.000000;0.720818
8628.000000;0.720802
8627.000000;0.720782
8626.000000;0.720699
8625.000000;0.720514
8624.000000;0.720197
8623.000000;0.719799
8622.000000;0.719490
8621.000000;0.719390
8620.000000;0.719420
8619.000000;0.719407
8618.000000;0.719313
8617.000000;0.719235
8616.000000;0.719223
8615.000000;0.719226
8614.000000;0.719205
8613.000000;0.719188
8612.000000;0.719204
8611.000000;0.719265
8610.000000;0.719400
8609.000000;0.719592
8608.000000;0.719694
8607.000000;0.719533
8606.000000;0.719099
8605.000000;0.718542
8604.000000;0.718009
8603.000000;0.717595
8602.000000;0.717401
8601.000000;0.717472
8600.000000;0.717671
8599.000000;0.717768
8598.000000;0.717694
8597.000000;0.717572
8596.000000;0.717486
8595.000000;0.717375
8594.000000;0.717191
8593.000000;0.717023
8592.000000;0.716965
8591.000000;0.716998
8590.000000;0.717038
8589.000000;0.717014
8588.000000;0.716855
8587.000000;0.716514
8586.000000;0.716088
8585.000000;0.715781
8584.000000;0.715699
8583.000000;0.715752
8582.000000;0.715821
8581.000000;0.715893
8580.000000;0.715962
8579.000000;0.715929
8578.000000;0.715713
8577.000000;0.715407
8576.000000;0.715179
8575.000000;0.715065
8574.000000;0.714944
8573.000000;0.714715
8572.000000;0.714433
8571.000000;0.714255
8570.000000;0.714296
8569.000000;0.714502
8568.000000;0.714685
8567.000000;0.714689
8566.000000;0.714539
8565.000000;0.714383
8564.000000;0.714316
8563.000000;0.714322
8562.000000;0.714336
8561.000000;0.714298
8560.000000;0.714136
8559.000000;0.713822
8558.000000;0.713472
8557.000000;0.713269
8556.000000;0.713273
8555.000000;0.713360
8554.000000;0.713396
8553.000000;0.713360
8552.000000;0.713272
8551.000000;0.713120
8550.000000;0.712916
8549.000000;0.712728
8548.000000;0.712592
8547.000000;0.712451
8546.000000;0.712251
8545.000000;0.712026
8544.000000;0.711823
8543.000000;0.711612
8542.000000;0.711349
8541.000000;0.711080
8540.000000;0.710903
8539.000000;0.710875
8538.000000;0.710997
8537.000000;0.711252
8536.000000;0.711579
8535.000000;0.711845
8534.000000;0.711904
8533.000000;0.711691
8532.000000;0.711264
8531.000000;0.710764
8530.000000;0.710362
8529.000000;0.710169
8528.000000;0.710166
8527.000000;0.710223
8526.000000;0.710226
8525.000000;0.710152
8524.000000;0.710025
8523.000000;0.709856
8522.000000;0.709668
8521.000000;0.709521
8520.000000;0.709479
8519.000000;0.709543
8518.000000;0.709645
8517.000000;0.709683
8516.000000;0.709587
8515.000000;0.709402
8514.000000;0.709280
8513.000000;0.709318
8512.000000;0.709412
8511.000000;0.709358
8510.000000;0.709112
8509.000000;0.708870
8508.000000;0.708837
8507.000000;0.709009
8506.000000;0.709221
8505.000000;0.709331
8504.000000;0.709311
8503.000000;0.709183
8502.000000;0.708960
8501.000000;0.708644
8500.000000;0.708256
8499.000000;0.707859
8498.000000;0.707540
8497.000000;0.707358
8496.000000;0.707290
8495.000000;0.707273
8494.000000;0.707263
8493.000000;0.707225
8492.000000;0.707103
8491.000000;0.706872
8490.000000;0.706592
8489.000000;0.706351
8488.000000;0.706152
8487.000000;0.705953
8486.000000;0.705788
8485.000000;0.705749
8484.000000;0.705833
8483.000000;0.705914
8482.000000;0.705905
8481.000000;0.705836
8480.000000;0.705750
8479.000000;0.705631
8478.000000;0.705489
8477.000000;0.705422
8476.000000;0.705489
8475.000000;0.705600
8474.000000;0.705614
8473.000000;0.705508
8472.000000;0.705360
8471.000000;0.705219
8470.000000;0.705085
8469.000000;0.704983
8468.000000;0.704958
8467.000000;0.704993
8466.000000;0.704989
8465.000000;0.704873
8464.000000;0.704673
8463.000000;0.704478
8462.000000;0.704334
8461.000000;0.704202
8460.000000;0.704022
8459.000000;0.703791
8458.000000;0.703582
8457.000000;0.703457
8456.000000;0.703389
8455.000000;0.703296
8454.000000;0.703127
8453.000000;0.702904
8452.000000;0.702681
8451.000000;0.702509
8450.000000;0.702425
8449.000000;0.702441
8448.000000;0.702533
8447.000000;0.702668
8446.000000;0.702824
8445.000000;0.702969
8444.000000;0.703046
8443.000000;0.703033
8442.000000;0.702978
8441.000000;0.702918
8440.000000;0.702792
8439.000000;0.702503
8438.000000;0.702069
8437.000000;0.701652
8436.000000;0.701409
8435.000000;0.701387
8434.000000;0.701512
8433.000000;0.701655
8432.000000;0.701685
8431.000000;0.701570
8430.000000;0.701411
8429.000000;0.701331
8428.000000;0.701344
8427.000000;0.701371
8426.000000;0.701359
8425.000000;0.701300
8424.000000;0.701162
8423.000000;0.700921
8422.000000;0.700657
8421.000000;0.700500
8420.000000;0.700462
8419.000000;0.700428
8418.000000;0.700333
8417.000000;0.700240
8416.000000;0.700192
8415.000000;0.700101
8414.000000;0.699871
8413.000000;0.699560
8412.000000;0.699337
8411.000000;0.699317
8410.000000;0.699477
8409.000000;0.699708
8408.000000;0.699889
8407.000000;0.699942
8406.000000;0.699864
8405.000000;0.699683
8404.000000;0.699411
8403.000000;0.699079
8402.000000;0.698802
8401.000000;0.698730
8400.000000;0.698881
8399.000000;0.699100
8398.000000;0.699211
8397.000000;0.699177
8396.000000;0.699090
8395.000000;0.699064
8394.000000;0.699137
8393.000000;0.699239
8392.000000;0.699216
8391.000000;0.698973
8390.000000;0.698588
8389.000000;0.698239
8388.000000;0.698011
8387.000000;0.697840
8386.000000;0.697658
8385.000000;0.697490
8384.000000;0.697368
8383.000000;0.697259
8382.000000;0.697153
8381.000000;0.697125
8380.000000;0.697226
8379.000000;0.697370
8378.000000;0.697400
8377.000000;0.697257
8376.000000;0.697010
8375.000000;0.696750
8374.000000;0.696516
8373.000000;0.696321
8372.000000;0.696201
8371.000000;0.696208
8370.000000;0.696369
8369.000000;0.696618
8368.000000;0.696783
8367.000000;0.696716
8366.000000;0.696448
8365.000000;0.696164
8364.000000;0.695992
8363.000000;0.695896
8362.000000;0.695780
8361.000000;0.695644
8360.000000;0.695540
8359.000000;0.695457
8358.000000;0.695329
8357.000000;0.695148
8356.000000;0.694982
8355.000000;0.694899
8354.000000;0.694914
8353.000000;0.695008
8352.000000;0.695152
8351.000000;0.695296
8350.000000;0.695371
8349.000000;0.695314
8348.000000;0.695089
8347.000000;0.694727
8346.000000;0.694337
8345.000000;0.694053
8344.000000;0.693947
8343.000000;0.693988
8342.000000;0.694093
8341.000000;0.694188
8340.000000;0.694213
8339.000000;0.694147
8338.000000;0.694030
8337.000000;0.693925
8336.000000;0.693831
8335.000000;0.693679
8334.000000;0.693435
8333.000000;0.693173
8332.000000;0.692988
8331.000000;0.692892
8330.000000;0.692835
8329.000000;0.692782
8328.000000;0.692729
8327.000000;0.692665
8326.000000;0.692570
8325.000000;0.692448
8324.000000;0.692323
8323.000000;0.692218
8322.000000;0.692159
8321.000000;0.692170
8320.000000;0.692237
8319.000000;0.692296
8318.000000;0.692288
8317.000000;0.692204
8316.000000;0.692058
8315.000000;0.691867
8314.000000;0.691677
8313.000000;0.691574
8312.000000;0.691617
8311.000000;0.691742
8310.000000;0.691789
8309.000000;0.691640
8308.000000;0.691328
8307.000000;0.691020
8306.000000;0.690878
8305.000000;0.690927
8304.000000;0.691037
8303.000000;0.691056
8302.000000;0.690945
8301.000000;0.690773
8300.000000;0.690609
8299.000000;0.690469
8298.000000;0.690361
8297.000000;0.690304
8296.000000;0.690277
8295.000000;0.690210
8294.000000;0.690073
8293.000000;0.689926
8292.000000;0.689854
8291.000000;0.689888
8290.000000;0.690023
8289.000000;0.690251
8288.000000;0.690508
8287.000000;0.690629
8286.000000;0.690456
8285.000000;0.689994
8284.000000;0.689438
8283.000000;0.689033
8282.000000;0.688922
8281.000000;0.689084
8280.000000;0.689350
8279.000000;0.689502
8278.000000;0.689424
8277.000000;0.689189
8276.000000;0.688947
8275.000000;0.688769
8274.000000;0.688624
8273.000000;0.688500
8272.000000;0.688455
8271.000000;0.688498
8270.000000;0.688510
8269.000000;0.688360
8268.000000;0.688068
8267.000000;0.687810
8266.000000;0.687734
8265.000000;0.687827
8264.000000;0.687965
8263.000000;0.688039
8262.000000;0.688025
8261.000000;0.687959
8260.000000;0.687887
8259.000000;0.687834
8258.000000;0.687795
8257.000000;0.687747
8256.000000;0.687685
8255.000000;0.687616
8254.000000;0.687543
8253.000000;0.687438
8252.000000;0.687278
8251.000000;0.687073
8250.000000;0.686865
8249.000000;0.686695
8248.000000;0.686587
8247.000000;0.686544
8246.000000;0.686535
8245.000000;0.686511
8244.000000;0.686470
8243.000000;0.686480
8242.000000;0.686587
8241.000000;0.686716
8240.000000;0.686724
8239.000000;0.686560
8238.000000;0.686324
8237.000000;0.686150
8236.000000;0.686074
8235.000000;0.686040
8234.000000;0.685985
8233.000000;0.685877
8232.000000;0.685708
8231.000000;0.685518
8230.000000;0.685386
8229.000000;0.685357
8228.000000;0.685389
8227.000000;0.685393
8226.000000;0.685330
8225.000000;0.685224
8224.000000;0.685114
8223.000000;0.685012
8222.000000;0.684901
8221.000000;0.684776
8220.000000;0.684669
8219.000000;0.684640
8218.000000;0.684694
8217.000000;0.684732
8216.000000;0.684640
8215.000000;0.684433
8214.000000;0.684249
8213.000000;0.684165
8212.000000;0.684101
8211.000000;0.683958
8210.000000;0.683770
8209.000000;0.683647
8208.000000;0.683615
8207.000000;0.683603
8206.000000;0.683566
8205.000000;0.683523
8204.000000;0.683497
8203.000000;0.683480
8202.000000;0.683470
8201.000000;0.683469
8200.000000;0.683439
8199.000000;0.683334
8198.000000;0.683168
8197.000000;0.683008
8196.000000;0.682889
8195.000000;0.682778
8194.000000;0.682654
8193.000000;0.682549
8192.000000;0.682508
8191.000000;0.682527
8190.000000;0.682549
8189.000000;0.682516
8188.000000;0.682402
8187.000000;0.682242
8186.000000;0.682115
8185.000000;0.682067
8184.000000;0.682068
8183.000000;0.682063
8182.000000;0.682045
8181.000000;0.682054
8180.000000;0.682098
8179.000000;0.682123
8178.000000;0.682056
8177.000000;0.681856
8176.000000;0.681547
8175.000000;0.681219
8174.000000;0.680996
8173.000000;0.680939
8172.000000;0.680996
8171.000000;0.681072
8170.000000;0.681129
8169.000000;0.681180
8168.000000;0.681218
8167.000000;0.681221
8166.000000;0.681201
8165.000000;0.681182
8164.000000;0.681138
8163.000000;0.681010
8162.000000;0.680802
8161.000000;0.680591
8160.000000;0.680433
8159.000000;0.680323
8158.000000;0.680249
8157.000000;0.680230
8156.000000;0.680251
8155.000000;0.680238
8154.000000;0.680130
8153.000000;0.679956
8152.000000;0.679800
8151.000000;0.679710
8150.000000;0.679675
8149.000000;0.679663
8148.000000;0.679657
8147.000000;0.679636
8146.000000;0.679582
8145.000000;0.679496
8144.000000;0.679413
8143.000000;0.679373
8142.000000;0.679380
8141.000000;0.679392
8140.000000;0.679363
8139.000000;0.679270
8138.000000;0.679118
8137.000000;0.678914
8136.000000;0.678691
8135.000000;0.678517
8134.000000;0.678447
8133.000000;0.678463
8132.000000;0.678488
8131.000000;0.678486
8130.000000;0.678466
8129.000000;0.678415
8128.000000;0.678285
8127.000000;0.678093
8126.000000;0.677938
8125.000000;0.677880
8124.000000;0.677857
8123.000000;0.677786
8122.000000;0.677700
8121.000000;0.677687
8120.000000;0.677747
8119.000000;0.677788
8118.000000;0.677762
8117.000000;0.677706
8116.000000;0.677663
8115.000000;0.677640
8114.000000;0.677635
8113.000000;0.677627
8112.000000;0.677554
8111.000000;0.677373
8110.000000;0.677155
8109.000000;0.677051
8108.000000;0.677121
8107.000000;0.677255
8106.000000;0.677299
8105.000000;0.677207
8104.000000;0.677060
8103.000000;0.676958
8102.000000;0.676942
8101.000000;0.676967
8100.000000;0.676945
8099.000000;0.676816
8098.000000;0.676597
8097.000000;0.676360
8096.000000;0.676173
8095.000000;0.676077
8094.000000;0.676084
8093.000000;0.676154
8092.000000;0.676202
8091.000000;0.676172
8090.000000;0.676106
8089.000000;0.676070
8088.000000;0.676040
8087.000000;0.675917
8086.000000;0.675677
8085.000000;0.675423
8084.000000;0.675280
8083.000000;0.675272
8082.000000;0.675348
8081.000000;0.675449
8080.000000;0.675543
8079.000000;0.675592
8078.000000;0.675563
8077.000000;0.675440
8076.000000;0.675219
8075.000000;0.674920
8074.000000;0.674616
8073.000000;0.674425
8072.000000;0.674425
8071.000000;0.674574
8070.000000;0.674724
8069.000000;0.674731
8068.000000;0.674556
8067.000000;0.674273
8066.000000;0.674011
8065.000000;0.673873
8064.000000;0.673886
8063.000000;0.673998
8062.000000;0.674113
8061.000000;0.674160
8060.000000;0.674132
8059.000000;0.674069
8058.000000;0.673990
8057.000000;0.673864
8056.000000;0.673666
8055.000000;0.673452
8054.000000;0.673325
8053.000000;0.673320
8052.000000;0.673372
8051.000000;0.673397
8050.000000;0.673370
8049.000000;0.673308
8048.000000;0.673223
8047.000000;0.673137
8046.000000;0.673091
8045.000000;0.673101
8044.000000;0.673128
8043.000000;0.673116
8042.000000;0.673050
8041.000000;0.672936
8040.000000;0.672773
8039.000000;0.672578
8038.000000;0.672413
8037.000000;0.672337
8036.000000;0.672341
8035.000000;0.672382
8034.000000;0.672442
8033.000000;0.672527
8032.000000;0.672605
8031.000000;0.672609
8030.000000;0.672496
8029.000000;0.672296
8028.000000;0.672095
8027.000000;0.671980
8026.000000;0.671980
8025.000000;0.672038
8024.000000;0.672068
8023.000000;0.672033
8022.000000;0.671960
8021.000000;0.671862
8020.000000;0.671713
8019.000000;0.671502
8018.000000;0.671282
8017.000000;0.671128
8016.000000;0.671079
8015.000000;0.671144
8014.000000;0.671298
8013.000000;0.671456
8012.000000;0.671517
8011.000000;0.671483
8010.000000;0.671453
8009.000000;0.671474
8008.000000;0.671448
8007.000000;0.671282
8006.000000;0.671052
8005.000000;0.670920
8004.000000;0.670921
8003.000000;0.670921
8002.000000;0.670781
8001.000000;0.670490
8000.000000;0.670145
7999.000000;0.669864
7998.000000;0.669730
7997.000000;0.669750
7996.000000;0.669861
7995.000000;0.670005
7994.000000;0.670175
7993.000000;0.670352
7992.000000;0.670452
7991.000000;0.670398
7990.000000;0.670228
7989.000000;0.670050
7988.000000;0.669914
7987.000000;0.669816
7986.000000;0.669791
7985.000000;0.669891
7984.000000;0.670072
7983.000000;0.670187
7982.000000;0.670133
7981.000000;0.669934
7980.000000;0.669680
7979.000000;0.669446
7978.000000;0.669293
7977.000000;0.669269
7976.000000;0.669348
7975.000000;0.669419
7974.000000;0.669368
7973.000000;0.669165
7972.000000;0.668877
7971.000000;0.668620
7970.000000;0.668509
7969.000000;0.668596
7968.000000;0.668818
7967.000000;0.669041
7966.000000;0.669164
7965.000000;0.669159
7964.000000;0.669049
7963.000000;0.668871
7962.000000;0.668677
7961.000000;0.668509
7960.000000;0.668372
7959.000000;0.668249
7958.000000;0.668140
7957.000000;0.668061
7956.000000;0.668015
7955.000000;0.667990
7954.000000;0.667983
7953.000000;0.667983
7952.000000;0.667939
7951.000000;0.667814
7950.000000;0.667667
7949.000000;0.667612
7948.000000;0.667693
7947.000000;0.667824
7946.000000;0.667876
7945.000000;0.667802
7944.000000;0.667652
7943.000000;0.667505
7942.000000;0.667388
7941.000000;0.667261
7940.000000;0.667069
7939.000000;0.666820
7938.000000;0.666592
7937.000000;0.666460
7936.000000;0.666435
7935.000000;0.666502
7934.000000;0.666652
7933.000000;0.666841
7932.000000;0.666960
7931.000000;0.666921
7930.000000;0.666766
7929.000000;0.666638
7928.000000;0.666632
7927.000000;0.666716
7926.000000;0.666790
7925.000000;0.666773
7924.000000;0.666652
7923.000000;0.666488
7922.000000;0.666389
7921.000000;0.666415
7920.000000;0.666506
7919.000000;0.666511
7918.000000;0.666338
7917.000000;0.666043
7916.000000;0.665788
7915.000000;0.665717
7914.000000;0.665840
7913.000000;0.666028
7912.000000;0.666107
7911.000000;0.666013
7910.000000;0.665819
7909.000000;0.665635
7908.000000;0.665504
7907.000000;0.665428
7906.000000;0.665416
7905.000000;0.665439
7904.000000;0.665393
7903.000000;0.665196
7902.000000;0.664917
7901.000000;0.664745
7900.000000;0.664792
7899.000000;0.664981
7898.000000;0.665135
7897.000000;0.665144
7896.000000;0.665035
7895.000000;0.664919
7894.000000;0.664865
7893.000000;0.664829
7892.000000;0.664707
7891.000000;0.664479
7890.000000;0.664259
7889.000000;0.664167
7888.000000;0.664206
7887.000000;0.664304
7886.000000;0.664418
7885.000000;0.664527
7884.000000;0.664572
7883.000000;0.664483
7882.000000;0.664287
7881.000000;0.664089
7880.000000;0.663971
7879.000000;0.663933
7878.000000;0.663939
7877.000000;0.663940
7876.000000;0.663880
7875.000000;0.663743
7874.000000;0.663591
7873.000000;0.663506
7872.000000;0.663482
7871.000000;0.663454
7870.000000;0.663406
7869.000000;0.663382
7868.000000;0.663394
7867.000000;0.663403
7866.000000;0.663400
7865.000000;0.663412
7864.000000;0.663420
7863.000000;0.663342
7862.000000;0.663143
7861.000000;0.662895
7860.000000;0.662687
7859.000000;0.662551
7858.000000;0.662495
7857.000000;0.662537
7856.000000;0.662658
7855.000000;0.662757
7854.000000;0.662730
7853.000000;0.662575
7852.000000;0.662380
7851.000000;0.662234
7850.000000;0.662179
7849.000000;0.662214
7848.000000;0.662298
7847.000000;0.662368
7846.000000;0.662378
7845.000000;0.662334
7844.000000;0.662264
7843.000000;0.662189
7842.000000;0.662101
7841.000000;0.661988
7840.000000;0.661856
7839.000000;0.661740
7838.000000;0.661689
7837.000000;0.661718
7836.000000;0.661783
7835.000000;0.661831
7834.000000;0.661852
7833.000000;0.661868
7832.000000;0.661881
7831.000000;0.661863
7830.000000;0.661797
7829.000000;0.661690
7828.000000;0.661553
7827.000000;0.661406
7826.000000;0.661298
7825.000000;0.661278
7824.000000;0.661324
7823.000000;0.661346
7822.000000;0.661272
7821.000000;0.661109
7820.000000;0.660921
7819.000000;0.660779
7818.000000;0.660733
7817.000000;0.660793
7816.000000;0.660905
7815.000000;0.660971
7814.000000;0.660921
7813.000000;0.660761
7812.000000;0.660563
7811.000000;0.660401
7810.000000;0.660308
7809.000000;0.660266
7808.000000;0.660244
7807.000000;0.660232
7806.000000;0.660241
7805.000000;0.660252
7804.000000;0.660217
7803.000000;0.660123
7802.000000;0.660027
7801.000000;0.659989
7800.000000;0.659987
7799.000000;0.659941
7798.000000;0.659820
7797.000000;0.659669
7796.000000;0.659557
7795.000000;0.659523
7794.000000;0.659562
7793.000000;0.659620
7792.000000;0.659604
7791.000000;0.659453
7790.000000;0.659209
7789.000000;0.658991
7788.000000;0.658884
7787.000000;0.658882
7786.000000;0.658934
7785.000000;0.658997
7784.000000;0.659053
7783.000000;0.659089
7782.000000;0.659089
7781.000000;0.659044
7780.000000;0.658969
7779.000000;0.658916
7778.000000;0.658931
7777.000000;0.658990
7776.000000;0.658996
7775.000000;0.658881
7774.000000;0.658674
7773.000000;0.658464
7772.000000;0.658307
7771.000000;0.658216
7770.000000;0.658201
7769.000000;0.658259
7768.000000;0.658345
7767.000000;0.658399
7766.000000;0.658407
7765.000000;0.658402
7764.000000;0.658401
7763.000000;0.658388
7762.000000;0.658334
7761.000000;0.658231
7760.000000;0.658085
7759.000000;0.657930
7758.000000;0.657803
7757.000000;0.657702
7756.000000;0.657589
7755.000000;0.657444
7754.000000;0.657304
7753.000000;0.657209
7752.000000;0.657150
7751.000000;0.657100
7750.000000;0.657054
7749.000000;0.656997
7748.000000;0.656894
7747.000000;0.656743
7746.000000;0.656618
7745.000000;0.656577
7744.000000;0.656572
7743.000000;0.656526
7742.000000;0.656454
7741.000000;0.656435
7740.000000;0.656474
7739.000000;0.656491
7738.000000;0.656448
7737.000000;0.656401
7736.000000;0.656402
7735.000000;0.656423
7734.000000;0.656397
7733.000000;0.656299
7732.000000;0.656163
7731.000000;0.656055
7730.000000;0.656030
7729.000000;0.656088
7728.000000;0.656158
7727.000000;0.656181
7726.000000;0.656172
7725.000000;0.656185
7724.000000;0.656209
7723.000000;0.656185
7722.000000;0.656089
7721.000000;0.655952
7720.000000;0.655791
7719.000000;0.655592
7718.000000;0.655377
7717.000000;0.655213
7716.000000;0.655121
7715.000000;0.655065
7714.000000;0.655019
7713.000000;0.655014
7712.000000;0.655075
7711.000000;0.655166
7710.000000;0.655245
7709.000000;0.655296
7708.000000;0.655302
7707.000000;0.655213
7706.000000;0.655016
7705.000000;0.654786
7704.000000;0.654614
7703.000000;0.654522
7702.000000;0.654467
7701.000000;0.654424
7700.000000;0.654420
7699.000000;0.654476
7698.000000;0.654552
7697.000000;0.654579
7696.000000;0.654528
7695.000000;0.654441
7694.000000;0.654388
7693.000000;0.654384
7692.000000;0.654382
7691.000000;0.654330
7690.000000;0.654217
7689.000000;0.654066
7688.000000;0.653905
7687.000000;0.653768
7686.000000;0.653688
7685.000000;0.653665
7684.000000;0.653667
7683.000000;0.653668
7682.000000;0.653668
7681.000000;0.653649
7680.000000;0.653579
7679.000000;0.653469
7678.000000;0.653387
7677.000000;0.653366
7676.000000;0.653351
7675.000000;0.653285
7674.000000;0.653205
7673.000000;0.653181
7672.000000;0.653197
7671.000000;0.653174
7670.000000;0.653082
7669.000000;0.652961
7668.000000;0.652842
7667.000000;0.652727
7666.000000;0.652626
7665.000000;0.652556
7664.000000;0.652493
7663.000000;0.652393
7662.000000;0.652264
7661.000000;0.652175
7660.000000;0.652178
7659.000000;0.652258
7658.000000;0.652357
7657.000000;0.652414
7656.000000;0.652384
7655.000000;0.652284
7654.000000;0.652195
7653.000000;0.652175
7652.000000;0.652177
7651.000000;0.652110
7650.000000;0.651967
7649.000000;0.651824
7648.000000;0.651742
7647.000000;0.651718
7646.000000;0.651731
7645.000000;0.651763
7644.000000;0.651770
7643.000000;0.651713
7642.000000;0.651618
7641.000000;0.651548
7640.000000;0.651507
7639.000000;0.651437
7638.000000;0.651318
7637.000000;0.651190
7636.000000;0.651083
7635.000000;0.650984
7634.000000;0.650887
7633.000000;0.650822
7632.000000;0.650800
7631.000000;0.650793
7630.000000;0.650790
7629.000000;0.650814
7628.000000;0.650865
7627.000000;0.650909
7626.000000;0.650926
7625.000000;0.650933
7624.000000;0.650934
7623.000000;0.650902
7622.000000;0.650829
7621.000000;0.650736
7620.000000;0.650638
7619.000000;0.650538
7618.000000;0.650455
7617.000000;0.650415
7616.000000;0.650385
7615.000000;0.650293
7614.000000;0.650132
7613.000000;0.649978
7612.000000;0.649897
7611.000000;0.649872
7610.000000;0.649859
7609.000000;0.649847
7608.000000;0.649841
7607.000000;0.649845
7606.000000;0.649877
7605.000000;0.649957
7604.000000;0.650052
7603.000000;0.650088
7602.000000;0.650037
7601.000000;0.649938
7600.000000;0.649829
7599.000000;0.649707
7598.000000;0.649584
7597.000000;0.649505
7596.000000;0.649478
7595.000000;0.649443
7594.000000;0.649359
7593.000000;0.649259
7592.000000;0.649192
7591.000000;0.649166
7590.000000;0.649177
7589.000000;0.649235
7588.000000;0.649312
7587.000000;0.649324
7586.000000;0.649229
7585.000000;0.649095
7584.000000;0.649027
7583.000000;0.649032
7582.000000;0.649042
7581.000000;0.649011
7580.000000;0.648955
7579.000000;0.648903
7578.000000;0.648869
7577.000000;0.648856
7576.000000;0.648848
7575.000000;0.648807
7574.000000;0.648714
7573.000000;0.648608
7572.000000;0.648544
7571.000000;0.648528
7570.000000;0.648521
7569.000000;0.648493
7568.000000;0.648446
7567.000000;0.648389
7566.000000;0.648331
7565.000000;0.648293
7564.000000;0.648285
7563.000000;0.648299
7562.000000;0.648310
7561.000000;0.648302
7560.000000;0.648256
7559.000000;0.648155
7558.000000;0.648004
7557.000000;0.647847
7556.000000;0.647735
7555.000000;0.647679
7554.000000;0.647663
7553.000000;0.647673
7552.000000;0.647704
7551.000000;0.647741
7550.000000;0.647760
7549.000000;0.647749
7548.000000;0.647714
7547.000000;0.647675
7546.000000;0.647649
7545.000000;0.647652
7544.000000;0.647677
7543.000000;0.647708
7542.000000;0.647735
7541.000000;0.647760
7540.000000;0.647779
7539.000000;0.647780
7538.000000;0.647765
7537.000000;0.647744
7536.000000;0.647716
7535.000000;0.647665
7534.000000;0.647589
7533.000000;0.647500
7532.000000;0.647404
7531.000000;0.647300
7530.000000;0.647223
7529.000000;0.647227
7528.000000;0.647323
7527.000000;0.647440
7526.000000;0.647496
7525.000000;0.647475
7524.000000;0.647427
7523.000000;0.647393
7522.000000;0.647376
7521.000000;0.647352
7520.000000;0.647300
7519.000000;0.647221
7518.000000;0.647141
7517.000000;0.647103
7516.000000;0.647130
7515.000000;0.647205
7514.000000;0.647272
7513.000000;0.647273
7512.000000;0.647175
7511.000000;0.647003
7510.000000;0.646836
7509.000000;0.646757
7508.000000;0.646793
7507.000000;0.646896
7506.000000;0.646992
7505.000000;0.647035
7504.000000;0.647021
7503.000000;0.646976
7502.000000;0.646934
7501.000000;0.646921
7500.000000;0.646947
7499.000000;0.647009
7498.000000;0.647091
7497.000000;0.647152
7496.000000;0.647136
7495.000000;0.647026
7494.000000;0.646889
7493.000000;0.646810
7492.000000;0.646791
7491.000000;0.646749
7490.000000;0.646637
7489.000000;0.646510
7488.000000;0.646465
7487.000000;0.646521
7486.000000;0.646610
7485.000000;0.646662
7484.000000;0.646676
7483.000000;0.646696
7482.000000;0.646750
7481.000000;0.646820
7480.000000;0.646869
7479.000000;0.646886
7478.000000;0.646894
7477.000000;0.646918
7476.000000;0.646956
7475.000000;0.646986
7474.000000;0.646993
7473.000000;0.646975
7472.000000;0.646926
7471.000000;0.646842
7470.000000;0.646731
7469.000000;0.646625
7468.000000;0.646561
7467.000000;0.646557
7466.000000;0.646592
7465.000000;0.646619
7464.000000;0.646611
7463.000000;0.646586
7462.000000;0.646580
7461.000000;0.646598
7460.000000;0.646615
7459.000000;0.646624
7458.000000;0.646653
7457.000000;0.646708
7456.000000;0.646758
7455.000000;0.646774
7454.000000;0.646764
7453.000000;0.646749
7452.000000;0.646736
7451.000000;0.646738
7450.000000;0.646784
7449.000000;0.646867
7448.000000;0.646924
7447.000000;0.646918
7446.000000;0.646879
7445.000000;0.646847
7444.000000;0.646799
7443.000000;0.646708
7442.000000;0.646630
7441.000000;0.646644
7440.000000;0.646728
7439.000000;0.646773
7438.000000;0.646743
7437.000000;0.646731
7436.000000;0.646821
7435.000000;0.646974
7434.000000;0.647074
7433.000000;0.647070
7432.000000;0.647010
7431.000000;0.646971
7430.000000;0.646979
7429.000000;0.647004
7428.000000;0.647005
7427.000000;0.646980
7426.000000;0.646972
7425.000000;0.647010
7424.000000;0.647064
7423.000000;0.647091
7422.000000;0.647096
7421.000000;0.647113
7420.000000;0.647137
7419.000000;0.647128
7418.000000;0.647080
7417.000000;0.647039
7416.000000;0.647047
7415.000000;0.647092
7414.000000;0.647134
7413.000000;0.647148
7412.000000;0.647130
7411.000000;0.647100
7410.000000;0.647097
7409.000000;0.647147
7408.000000;0.647230
7407.000000;0.647302
7406.000000;0.647347
7405.000000;0.647371
7404.000000;0.647370
7403.000000;0.647324
7402.000000;0.647247
7401.000000;0.647194
7400.000000;0.647205
7399.000000;0.647274
7398.000000;0.647374
7397.000000;0.647467
7396.000000;0.647508
7395.000000;0.647480
7394.000000;0.647435
7393.000000;0.647448
7392.000000;0.647516
7391.000000;0.647555
7390.000000;0.647512
7389.000000;0.647439
7388.000000;0.647420
7387.000000;0.647467
7386.000000;0.647526
7385.000000;0.647555
7384.000000;0.647559
7383.000000;0.647557
7382.000000;0.647564
7381.000000;0.647605
7380.000000;0.647689
7379.000000;0.647777
7378.000000;0.647797
7377.000000;0.647707
7376.000000;0.647548
7375.000000;0.647427
7374.000000;0.647437
7373.000000;0.647589
7372.000000;0.647808
7371.000000;0.648009
7370.000000;0.648159
7369.000000;0.648281
7368.000000;0.648389
7367.000000;0.648459
7366.000000;0.648464
7365.000000;0.648404
7364.000000;0.648294
7363.000000;0.648149
7362.000000;0.648011
7361.000000;0.647961
7360.000000;0.648056
7359.000000;0.648252
7358.000000;0.648435
7357.000000;0.648507
7356.000000;0.648468
7355.000000;0.648402
7354.000000;0.648398
7353.000000;0.648471
7352.000000;0.648561
7351.000000;0.648612
7350.000000;0.648634
7349.000000;0.648676
7348.000000;0.648739
7347.000000;0.648761
7346.000000;0.648703
7345.000000;0.648613
7344.000000;0.648575
7343.000000;0.648616
7342.000000;0.648689
7341.000000;0.648763
7340.000000;0.648878
7339.000000;0.649084
7338.000000;0.649347
7337.000000;0.649548
7336.000000;0.649589
7335.000000;0.649501
7334.000000;0.649431
7333.000000;0.649493
7332.000000;0.649652
7331.000000;0.649767
7330.000000;0.649763
7329.000000;0.649704
7328.000000;0.649708
7327.000000;0.649818
7326.000000;0.649983
7325.000000;0.650140
7324.000000;0.650270
7323.000000;0.650394
7322.000000;0.650525
7321.000000;0.650644
7320.000000;0.650718
7319.000000;0.650736
7318.000000;0.650729
7317.000000;0.650742
7316.000000;0.650773
7315.000000;0.650768
7314.000000;0.650676
7313.000000;0.650531
7312.000000;0.650451
7311.000000;0.650553
7310.000000;0.650853
7309.000000;0.651241
7308.000000;0.651567
7307.000000;0.651766
7306.000000;0.651886
7305.000000;0.652017
7304.000000;0.652203
7303.000000;0.652411
7302.000000;0.652567
7301.000000;0.652616
7300.000000;0.652578
7299.000000;0.652561
7298.000000;0.652677
7297.000000;0.652932
7296.000000;0.653208
7295.000000;0.653401
7294.000000;0.653531
7293.000000;0.653701
7292.000000;0.653954
7291.000000;0.654225
7290.000000;0.654433
7289.000000;0.654570
7288.000000;0.654687
7287.000000;0.654834
7286.000000;0.655028
7285.000000;0.655265
7284.000000;0.655521
7283.000000;0.655761
7282.000000;0.655950
7281.000000;0.656085
7280.000000;0.656205
7279.000000;0.656359
7278.000000;0.656551
7277.000000;0.656735
7276.000000;0.656884
7275.000000;0.657029
7274.000000;0.657227
7273.000000;0.657480
7272.000000;0.657732
7271.000000;0.657952
7270.000000;0.658171
7269.000000;0.658429
7268.000000;0.658712
7267.000000;0.658959
7266.000000;0.659111
7265.000000;0.659141
7264.000000;0.659103
7263.000000;0.659140
7262.000000;0.659396
7261.000000;0.659881
7260.000000;0.660445
7259.000000;0.660929
7258.000000;0.661278
7257.000000;0.661515
7256.000000;0.661660
7255.000000;0.661745
7254.000000;0.661848
7253.000000;0.662067
7252.000000;0.662432
7251.000000;0.662859
7250.000000;0.663203
7249.000000;0.663367
7248.000000;0.663409
7247.000000;0.663526
7246.000000;0.663871
7245.000000;0.664370
7244.000000;0.664805
7243.000000;0.665094
7242.000000;0.665398
7241.000000;0.665875
7240.000000;0.666449
7239.000000;0.666929
7238.000000;0.667251
7237.000000;0.667495
7236.000000;0.667731
7235.000000;0.667956
7234.000000;0.668167
7233.000000;0.668416
7232.000000;0.668770
7231.000000;0.669268
7230.000000;0.669906
7229.000000;0.670595
7228.000000;0.671172
7227.000000;0.671527
7226.000000;0.671736
7225.000000;0.671979
7224.000000;0.672335
7223.000000;0.672733
7222.000000;0.673094
7221.000000;0.673440
7220.000000;0.673839
7219.000000;0.674326
7218.000000;0.674887
7217.000000;0.675459
7216.000000;0.675960
7215.000000;0.676358
7214.000000;0.676703
7213.000000;0.677052
7212.000000;0.677392
7211.000000;0.677695
7210.000000;0.678008
7209.000000;0.678414
7208.000000;0.678929
7207.000000;0.679502
7206.000000;0.680096
7205.000000;0.680680
7204.000000;0.681186
7203.000000;0.681580
7202.000000;0.681961
7201.000000;0.682483
7200.000000;0.683175
7199.000000;0.683915
7198.000000;0.684579
7197.000000;0.685110
7196.000000;0.685494
7195.000000;0.685755
7194.000000;0.685982
7193.000000;0.686286
7192.000000;0.686720
7191.000000;0.687278
7190.000000;0.687925
7189.000000;0.688564
7188.000000;0.689067
7187.000000;0.689439
7186.000000;0.689879
7185.000000;0.690533
7184.000000;0.691264
7183.000000;0.691829
7182.000000;0.692241
7181.000000;0.692769
7180.000000;0.693573
7179.000000;0.694544
7178.000000;0.695506
7177.000000;0.696368
7176.000000;0.697045
7175.000000;0.697456
7174.000000;0.697668
7173.000000;0.697898
7172.000000;0.698284
7171.000000;0.698787
7170.000000;0.699346
7169.000000;0.699980
7168.000000;0.700698
7167.000000;0.701412
7166.000000;0.702026
7165.000000;0.702531
7164.000000;0.702976
7163.000000;0.703442
7162.000000;0.704053
7161.000000;0.704891
7160.000000;0.705870
7159.000000;0.706810
7158.000000;0.707628
7157.000000;0.708325
7156.000000;0.708841
7155.000000;0.709128
7154.000000;0.709351
7153.000000;0.709813
7152.000000;0.710606
7151.000000;0.711518
7150.000000;0.712322
7149.000000;0.712974
7148.000000;0.713492
7147.000000;0.713829
7146.000000;0.713983
7145.000000;0.714101
7144.000000;0.714330
7143.000000;0.714658
7142.000000;0.714973
7141.000000;0.715235
7140.000000;0.715551
7139.000000;0.716099
7138.000000;0.716951
7137.000000;0.717918
7136.000000;0.718689
7135.000000;0.719218
7134.000000;0.719802
7133.000000;0.720606
7132.000000;0.721317
7131.000000;0.721562
7130.000000;0.721535
7129.000000;0.721799
7128.000000;0.722522
7127.000000;0.723289
7126.000000;0.723708
7125.000000;0.723811
7124.000000;0.723783
7123.000000;0.723716
7122.000000;0.723733
7121.000000;0.723960
7120.000000;0.724202
7119.000000;0.724062
7118.000000;0.723587
7117.000000;0.723419
7116.000000;0.723980
7115.000000;0.724881
7114.000000;0.725461
7113.000000;0.725592
7112.000000;0.725560
7111.000000;0.725449
7110.000000;0.725056
7109.000000;0.724337
7108.000000;0.723549
7107.000000;0.722962
7106.000000;0.722642
7105.000000;0.722578
7104.000000;0.722798
7103.000000;0.723268
7102.000000;0.723730
7101.000000;0.723761
7100.000000;0.723098
7099.000000;0.721988
7098.000000;0.721070
7097.000000;0.720736
7096.000000;0.720709
7095.000000;0.720463
7094.000000;0.719938
7093.000000;0.719499
7092.000000;0.719281
7091.000000;0.719002
7090.000000;0.718440
7089.000000;0.717659
7088.000000;0.716690
7087.000000;0.715427
7086.000000;0.713991
7085.000000;0.712849
7084.000000;0.712302
7083.000000;0.712121
7082.000000;0.711836
7081.000000;0.711181
7080.000000;0.710182
7079.000000;0.709072
7078.000000;0.708171
7077.000000;0.707554
7076.000000;0.706801
7075.000000;0.705384
7074.000000;0.703362
7073.000000;0.701352
7072.000000;0.699798
7071.000000;0.698636
7070.000000;0.697665
7069.000000;0.696800
7068.000000;0.695848
7067.000000;0.694500
7066.000000;0.692703
7065.000000;0.690715
7064.000000;0.688715
7063.000000;0.686731
7062.000000;0.684961
7061.000000;0.683670
7060.000000;0.682693
7059.000000;0.681517
7058.000000;0.679973
7057.000000;0.678344
7056.000000;0.676694
7055.000000;0.674691
7054.000000;0.672278
7053.000000;0.669889
7052.000000;0.667781
7051.000000;0.665719
7050.000000;0.663564
7049.000000;0.661604
7048.000000;0.659985
7047.000000;0.658411
7046.000000;0.656730
7045.000000;0.655279
7044.000000;0.654229
7043.000000;0.653086
7042.000000;0.651323
7041.000000;0.649082
7040.000000;0.646795
7039.000000;0.644516
7038.000000;0.642048
7037.000000;0.639447
7036.000000;0.636934
7035.000000;0.634577
7034.000000;0.632356
7033.000000;0.630285
7032.000000;0.628213
7031.000000;0.625889
7030.000000;0.623456
7029.000000;0.621436
7028.000000;0.619884
7027.000000;0.618002
7026.000000;0.615118
7025.000000;0.611707
7024.000000;0.608861
7023.000000;0.606986
7022.000000;0.605497
7021.000000;0.603653
7020.000000;0.601231
7019.000000;0.598401
7018.000000;0.595354
7017.000000;0.592221
7016.000000;0.589171
7015.000000;0.586457
7014.000000;0.584321
7013.000000;0.582737
7012.000000;0.581271
7011.000000;0.579402
7010.000000;0.577017
7009.000000;0.574403
7008.000000;0.571778
7007.000000;0.569089
7006.000000;0.566240
7005.000000;0.563201
7004.000000;0.559932
7003.000000;0.556533
7002.000000;0.553458
7001.000000;0.551161
7000.000000;0.549467
6999.000000;0.547682
6998.000000;0.545397
6997.000000;0.542790
6996.000000;0.540055
6995.000000;0.537079
6994.000000;0.533915
6993.000000;0.531037
6992.000000;0.528756
6991.000000;0.526697
6990.000000;0.524248
6989.000000;0.521371
6988.000000;0.518645
6987.000000;0.516599
6986.000000;0.515195
6985.000000;0.513885
6984.000000;0.512009
6983.000000;0.509204
6982.000000;0.505543
6981.000000;0.501435
6980.000000;0.497462
6979.000000;0.494234
6978.000000;0.492058
6977.000000;0.490495
6976.000000;0.488525
6975.000000;0.485530
6974.000000;0.481947
6973.000000;0.478629
6972.000000;0.475763
6971.000000;0.472865
6970.000000;0.469698
6969.000000;0.466667
6968.000000;0.464283
6967.000000;0.462616
6966.000000;0.461328
6965.000000;0.459964
6964.000000;0.458241
6963.000000;0.456282
6962.000000;0.454483
6961.000000;0.452908
6960.000000;0.451029
6959.000000;0.448357
6958.000000;0.445103
6957.000000;0.441835
6956.000000;0.438722
6955.000000;0.435569
6954.000000;0.432423
6953.000000;0.429604
6952.000000;0.427220
6951.000000;0.425118
6950.000000;0.423227
6949.000000;0.421462
6948.000000;0.419384
6947.000000;0.416536
6946.000000;0.413166
6945.000000;0.410134
6944.000000;0.407978
6943.000000;0.406368
6942.000000;0.404580
6941.000000;0.402238
6940.000000;0.399527
6939.000000;0.396908
6938.000000;0.394744
6937.000000;0.393106
6936.000000;0.391888
6935.000000;0.390945
6934.000000;0.389901
6933.000000;0.388068
6932.000000;0.385164
6931.000000;0.382063
6930.000000;0.380118
6929.000000;0.379512
6928.000000;0.378940
6927.000000;0.377245
6926.000000;0.374628
6925.000000;0.371856
6924.000000;0.369176
6923.000000;0.366636
6922.000000;0.364666
6921.000000;0.363397
6920.000000;0.362039
6919.000000;0.359842
6918.000000;0.357246
6917.000000;0.355223
6916.000000;0.353872
6915.000000;0.352539
6914.000000;0.350933
6913.000000;0.349217
6912.000000;0.347360
6911.000000;0.345310
6910.000000;0.343531
6909.000000;0.342449
6908.000000;0.341549
6907.000000;0.339916
6906.000000;0.337495
6905.000000;0.334989
6904.000000;0.332686
6903.000000;0.330359
6902.000000;0.328222
6901.000000;0.326954
6900.000000;0.326640
6899.000000;0.326492
6898.000000;0.325754
6897.000000;0.324260
6896.000000;0.322064
6895.000000;0.319292
6894.000000;0.316524
6893.000000;0.314617
6892.000000;0.313837
6891.000000;0.313613
6890.000000;0.313238
6889.000000;0.312442
6888.000000;0.311354
6887.000000;0.310386
6886.000000;0.310123
6885.000000;0.310777
6884.000000;0.311674
6883.000000;0.311668
6882.000000;0.310126
6881.000000;0.307350
6880.000000;0.304234
6879.000000;0.301779
6878.000000;0.300650
6877.000000;0.300686
6876.000000;0.300955
6875.000000;0.300668
6874.000000;0.299867
6873.000000;0.299005
6872.000000;0.298232
6871.000000;0.297461
6870.000000;0.296715
6869.000000;0.295917
6868.000000;0.294745
6867.000000;0.293227
6866.000000;0.292048
6865.000000;0.291646
6864.000000;0.291399
6863.000000;0.290463
6862.000000;0.289070
6861.000000;0.288190
6860.000000;0.288126
6859.000000;0.288215
6858.000000;0.287864
6857.000000;0.287247
6856.000000;0.286957
6855.000000;0.287390
6854.000000;0.288374
6853.000000;0.289018
6852.000000;0.288195
6851.000000;0.285662
6850.000000;0.282545
6849.000000;0.280368
6848.000000;0.279805
6847.000000;0.280636
6846.000000;0.282336
6845.000000;0.284107
6844.000000;0.284920
6843.000000;0.284400
6842.000000;0.283428
6841.000000;0.283160
6840.000000;0.283640
6839.000000;0.284034
6838.000000;0.283984
6837.000000;0.283927
6836.000000;0.284193
6835.000000;0.284520
6834.000000;0.284490
6833.000000;0.284011
6832.000000;0.283437
6831.000000;0.283512
6830.000000;0.284840
6829.000000;0.286947
6828.000000;0.288257
6827.000000;0.287716
6826.000000;0.286099
6825.000000;0.284939
6824.000000;0.284532
6823.000000;0.283857
6822.000000;0.282303
6821.000000;0.280595
6820.000000;0.279958
6819.000000;0.280968
6818.000000;0.283228
6817.000000;0.285648
6816.000000;0.287182
6815.000000;0.287760
6814.000000;0.288369
6813.000000;0.289768
6812.000000;0.291391
6811.000000;0.292072
6810.000000;0.291592
6809.000000;0.290847
6808.000000;0.290667
6807.000000;0.291133
6806.000000;0.291932
6805.000000;0.292693
6804.000000;0.293070
6803.000000;0.293070
6802.000000;0.293211
6801.000000;0.293831
6800.000000;0.294452
6799.000000;0.294453
6798.000000;0.294135
6797.000000;0.294350
6796.000000;0.295221
6795.000000;0.296063
6794.000000;0.296520
6793.000000;0.296975
6792.000000;0.297774
6791.000000;0.298819
6790.000000;0.300062
6789.000000;0.301647
6788.000000;0.303281
6787.000000;0.304182
6786.000000;0.304032
6785.000000;0.303473
6784.000000;0.303309
6783.000000;0.303649
6782.000000;0.304147
6781.000000;0.304667
6780.000000;0.305316
6779.000000;0.306056
6778.000000;0.306683
6777.000000;0.307121
6776.000000;0.307553
6775.000000;0.308253
6774.000000;0.309323
6773.000000;0.310499
6772.000000;0.311282
6771.000000;0.311424
6770.000000;0.311260
6769.000000;0.311359
6768.000000;0.311957
6767.000000;0.312895
6766.000000;0.313973
6765.000000;0.315038
6764.000000;0.315867
6763.000000;0.316330
6762.000000;0.316649
6761.000000;0.317199
6760.000000;0.318058
6759.000000;0.319054
6758.000000;0.320136
6757.000000;0.321349
6756.000000;0.322489
6755.000000;0.323225
6754.000000;0.323626
6753.000000;0.324241
6752.000000;0.325469
6751.000000;0.327088
6750.000000;0.328484
6749.000000;0.329205
6748.000000;0.329253
6747.000000;0.329018
6746.000000;0.328926
6745.000000;0.329050
6744.000000;0.329149
6743.000000;0.329179
6742.000000;0.329540
6741.000000;0.330552
6740.000000;0.331892
6739.000000;0.332956
6738.000000;0.333661
6737.000000;0.334456
6736.000000;0.335601
6735.000000;0.336833
6734.000000;0.337809
6733.000000;0.338466
6732.000000;0.338877
6731.000000;0.339125
6730.000000;0.339467
6729.000000;0.340250
6728.000000;0.341458
6727.000000;0.342599
6726.000000;0.343253
6725.000000;0.343547
6724.000000;0.343925
6723.000000;0.344589
6722.000000;0.345342
6721.000000;0.345895
6720.000000;0.346192
6719.000000;0.346432
6718.000000;0.346852
6717.000000;0.347478
6716.000000;0.348137
6715.000000;0.348732
6714.000000;0.349410
6713.000000;0.350333
6712.000000;0.351377
6711.000000;0.352264
6710.000000;0.352908
6709.000000;0.353451
6708.000000;0.354005
6707.000000;0.354577
6706.000000;0.355242
6705.000000;0.356127
6704.000000;0.357180
6703.000000;0.358120
6702.000000;0.358721
6701.000000;0.359052
6700.000000;0.359344
6699.000000;0.359759
6698.000000;0.360312
6697.000000;0.360933
6696.000000;0.361549
6695.000000;0.362161
6694.000000;0.362829
6693.000000;0.363539
6692.000000;0.364173
6691.000000;0.364686
6690.000000;0.365219
6689.000000;0.365888
6688.000000;0.366571
6687.000000;0.367082
6686.000000;0.367490
6685.000000;0.368044
6684.000000;0.368814
6683.000000;0.369628
6682.000000;0.370358
6681.000000;0.371048
6680.000000;0.371711
6679.000000;0.372248
6678.000000;0.372652
6677.000000;0.373108
6676.000000;0.373784
6675.000000;0.374630
6674.000000;0.375486
6673.000000;0.376266
6672.000000;0.376948
6671.000000;0.377504
6670.000000;0.377940
6669.000000;0.378374
6668.000000;0.378938
6667.000000;0.379630
6666.000000;0.380314
6665.000000;0.380872
6664.000000;0.381335
6663.000000;0.381858
6662.000000;0.382563
6661.000000;0.383387
6660.000000;0.384127
6659.000000;0.384653
6658.000000;0.385039
6657.000000;0.385444
6656.000000;0.385931
6655.000000;0.386453
6654.000000;0.386974
6653.000000;0.387521
6652.000000;0.388126
6651.000000;0.388798
6650.000000;0.389520
6649.000000;0.390234
6648.000000;0.390858
6647.000000;0.391380
6646.000000;0.391885
6645.000000;0.392433
6644.000000;0.392955
6643.000000;0.393354
6642.000000;0.393643
6641.000000;0.393927
6640.000000;0.394283
6639.000000;0.394752
6638.000000;0.395377
6637.000000;0.396129
6636.000000;0.396846
6635.000000;0.397366
6634.000000;0.397724
6633.000000;0.398125
6632.000000;0.398711
6631.000000;0.399435
6630.000000;0.400163
6629.000000;0.400811
6628.000000;0.401370
6627.000000;0.401859
6626.000000;0.402285
6625.000000;0.402646
6624.000000;0.402969
6623.000000;0.403328
6622.000000;0.403785
6621.000000;0.404298
6620.000000;0.404783
6619.000000;0.405266
6618.000000;0.405878
6617.000000;0.406645
6616.000000;0.407407
6615.000000;0.408015
6614.000000;0.408506
6613.000000;0.408978
6612.000000;0.409408
6611.000000;0.409728
6610.000000;0.410006
6609.000000;0.410404
6608.000000;0.410968
6607.000000;0.411594
6606.000000;0.412166
6605.000000;0.412650
6604.000000;0.413073
6603.000000;0.413508
6602.000000;0.414038
6601.000000;0.414655
6600.000000;0.415227
6599.000000;0.415645
6598.000000;0.415952
6597.000000;0.416247
6596.000000;0.416542
6595.000000;0.416821
6594.000000;0.417175
6593.000000;0.417711
6592.000000;0.418372
6591.000000;0.418990
6590.000000;0.419502
6589.000000;0.419999
6588.000000;0.420556
6587.000000;0.421145
6586.000000;0.421721
6585.000000;0.422273
6584.000000;0.422769
6583.000000;0.423166
6582.000000;0.423494
6581.000000;0.423857
6580.000000;0.424314
6579.000000;0.424846
6578.000000;0.425422
6577.000000;0.426035
6576.000000;0.426636
6575.000000;0.427147
6574.000000;0.427527
6573.000000;0.427801
6572.000000;0.428010
6571.000000;0.428214
6570.000000;0.428510
6569.000000;0.428977
6568.000000;0.429562
6567.000000;0.430125
6566.000000;0.430596
6565.000000;0.431018
6564.000000;0.431434
6563.000000;0.431805
6562.000000;0.432084
6561.000000;0.432312
6560.000000;0.432595
6559.000000;0.432999
6558.000000;0.433491
6557.000000;0.433965
6556.000000;0.434340
6555.000000;0.434643
6554.000000;0.434984
6553.000000;0.435424
6552.000000;0.435916
6551.000000;0.436397
6550.000000;0.436885
6549.000000;0.437410
6548.000000;0.437917
6547.000000;0.438307
6546.000000;0.438568
6545.000000;0.438783
6544.000000;0.439029
6543.000000;0.439326
6542.000000;0.439683
6541.000000;0.440116
6540.000000;0.440615
6539.000000;0.441151
6538.000000;0.441706
6537.000000;0.442247
6536.000000;0.442705
6535.000000;0.443039
6534.000000;0.443309
6533.000000;0.443607
6532.000000;0.443957
6531.000000;0.444327
6530.000000;0.444722
6529.000000;0.445174
6528.000000;0.445657
6527.000000;0.446087
6526.000000;0.446439
6525.000000;0.446772
6524.000000;0.447133
6523.000000;0.447498
6522.000000;0.447816
6521.000000;0.448084
6520.000000;0.448340
6519.000000;0.448627
6518.000000;0.448947
6517.000000;0.449254
6516.000000;0.449507
6515.000000;0.449742
6514.000000;0.450068
6513.000000;0.450526
6512.000000;0.451016
6511.000000;0.451399
6510.000000;0.451655
6509.000000;0.451878
6508.000000;0.452138
6507.000000;0.452426
6506.000000;0.452716
6505.000000;0.453019
6504.000000;0.453369
6503.000000;0.453791
6502.000000;0.454280
6501.000000;0.454773
6500.000000;0.455160
6499.000000;0.455398
6498.000000;0.455580
6497.000000;0.455853
6496.000000;0.456263
6495.000000;0.456728
6494.000000;0.457141
6493.000000;0.457440
6492.000000;0.457618
6491.000000;0.457737
6490.000000;0.457910
6489.000000;0.458224
6488.000000;0.458651
6487.000000;0.459096
6486.000000;0.459495
6485.000000;0.459848
6484.000000;0.460170
6483.000000;0.460480
6482.000000;0.460805
6481.000000;0.461147
6480.000000;0.461449
6479.000000;0.461664
6478.000000;0.461844
6477.000000;0.462094
6476.000000;0.462433
6475.000000;0.462778
6474.000000;0.463062
6473.000000;0.463299
6472.000000;0.463535
6471.000000;0.463784
6470.000000;0.464042
6469.000000;0.464311
6468.000000;0.464594
6467.000000;0.464904
6466.000000;0.465265
6465.000000;0.465681
6464.000000;0.466104
6463.000000;0.466469
6462.000000;0.466767
6461.000000;0.467053
6460.000000;0.467362
6459.000000;0.467675
6458.000000;0.467948
6457.000000;0.468166
6456.000000;0.468352
6455.000000;0.468564
6454.000000;0.468843
6453.000000;0.469167
6452.000000;0.469468
6451.000000;0.469714
6450.000000;0.469945
6449.000000;0.470194
6448.000000;0.470422
6447.000000;0.470582
6446.000000;0.470714
6445.000000;0.470912
6444.000000;0.471210
6443.000000;0.471566
6442.000000;0.471916
6441.000000;0.472231
6440.000000;0.472511
6439.000000;0.472780
6438.000000;0.473068
6437.000000;0.473360
6436.000000;0.473606
6435.000000;0.473796
6434.000000;0.474001
6433.000000;0.474259
6432.000000;0.474514
6431.000000;0.474701
6430.000000;0.474868
6429.000000;0.475106
6428.000000;0.475412
6427.000000;0.475704
6426.000000;0.475952
6425.000000;0.476199
6424.000000;0.476459
6423.000000;0.476680
6422.000000;0.476833
6421.000000;0.476955
6420.000000;0.477096
6419.000000;0.477277
6418.000000;0.477513
6417.000000;0.477800
6416.000000;0.478086
6415.000000;0.478306
6414.000000;0.478454
6413.000000;0.478578
6412.000000;0.478704
6411.000000;0.478825
6410.000000;0.478964
6409.000000;0.479166
6408.000000;0.479418
6407.000000;0.479644
6406.000000;0.479815
6405.000000;0.479984
6404.000000;0.480217
6403.000000;0.480511
6402.000000;0.480827
6401.000000;0.481123
6400.000000;0.481366
6399.000000;0.481553
6398.000000;0.481739
6397.000000;0.481991
6396.000000;0.482287
6395.000000;0.482520
6394.000000;0.482613
6393.000000;0.482612
6392.000000;0.482627
6391.000000;0.482736
6390.000000;0.482952
6389.000000;0.483242
6388.000000;0.483545
6387.000000;0.483807
6386.000000;0.484012
6385.000000;0.484191
6384.000000;0.484375
6383.000000;0.484568
6382.000000;0.484757
6381.000000;0.484916
6380.000000;0.485022
6379.000000;0.485090
6378.000000;0.485186
6377.000000;0.485355
6376.000000;0.485568
6375.000000;0.485763
6374.000000;0.485930
6373.000000;0.486106
6372.000000;0.486300
6371.000000;0.486490
6370.000000;0.486672
6369.000000;0.486864
6368.000000;0.487051
6367.000000;0.487196
6366.000000;0.487302
6365.000000;0.487413
6364.000000;0.487541
6363.000000;0.487648
6362.000000;0.487722
6361.000000;0.487797
6360.000000;0.487902
6359.000000;0.488028
6358.000000;0.488176
6357.000000;0.488362
6356.000000;0.488570
6355.000000;0.488748
6354.000000;0.488877
6353.000000;0.489005
6352.000000;0.489176
6351.000000;0.489373
6350.000000;0.489559
6349.000000;0.489724
6348.000000;0.489882
6347.000000;0.490031
6346.000000;0.490170
6345.000000;0.490307
6344.000000;0.490440
6343.000000;0.490546
6342.000000;0.490613
6341.000000;0.490656
6340.000000;0.490696
6339.000000;0.490741
6338.000000;0.490798
6337.000000;0.490877
6336.000000;0.490977
6335.000000;0.491086
6334.000000;0.491209
6333.000000;0.491358
6332.000000;0.491516
6331.000000;0.491644
6330.000000;0.491741
6329.000000;0.491842
6328.000000;0.491962
6327.000000;0.492079
6326.000000;0.492171
6325.000000;0.492248
6324.000000;0.492320
6323.000000;0.492378
6322.000000;0.492422
6321.000000;0.492489
6320.000000;0.492600
6319.000000;0.492736
6318.000000;0.492869
6317.000000;0.493001
6316.000000;0.493147
6315.000000;0.493303
6314.000000;0.493450
6313.000000;0.493577
6312.000000;0.493694
6311.000000;0.493815
6310.000000;0.493937
6309.000000;0.494030
6308.000000;0.494054
6307.000000;0.494022
6306.000000;0.494012
6305.000000;0.494102
6304.000000;0.494276
6303.000000;0.494444
6302.000000;0.494547
6301.000000;0.494613
6300.000000;0.494687
6299.000000;0.494767
6298.000000;0.494818
6297.000000;0.494830
6296.000000;0.494830
6295.000000;0.494862
6294.000000;0.494956
6293.000000;0.495105
6292.000000;0.495257
6291.000000;0.495355
6290.000000;0.495401
6289.000000;0.495449
6288.000000;0.495542
6287.000000;0.495664
6286.000000;0.495774
6285.000000;0.495847
6284.000000;0.495882
6283.000000;0.495891
6282.000000;0.495902
6281.000000;0.495947
6280.000000;0.496033
6279.000000;0.496140
6278.000000;0.496258
6277.000000;0.496396
6276.000000;0.496539
6275.000000;0.496638
6274.000000;0.496653
6273.000000;0.496608
6272.000000;0.496565
6271.000000;0.496564
6270.000000;0.496598
6269.000000;0.496644
6268.000000;0.496692
6267.000000;0.496754
6266.000000;0.496837
6265.000000;0.496932
6264.000000;0.497008
6263.000000;0.497051
6262.000000;0.497077
6261.000000;0.497115
6260.000000;0.497164
6259.000000;0.497212
6258.000000;0.497264
6257.000000;0.497335
6256.000000;0.497408
6255.000000;0.497445
6254.000000;0.497448
6253.000000;0.497467
6252.000000;0.497538
6251.000000;0.497634
6250.000000;0.497704
6249.000000;0.497729
6248.000000;0.497723
6247.000000;0.497705
6246.000000;0.497700
6245.000000;0.497734
6244.000000;0.497812
6243.000000;0.497895
6242.000000;0.497935
6241.000000;0.497934
6240.000000;0.497935
6239.000000;0.497970
6238.000000;0.498022
6237.000000;0.498058
6236.000000;0.498068
6235.000000;0.498068
6234.000000;0.498077
6233.000000;0.498099
6232.000000;0.498129
6231.000000;0.498161
6230.000000;0.498192
6229.000000;0.498217
6228.000000;0.498251
6227.000000;0.498315
6226.000000;0.498416
6225.000000;0.498519
6224.000000;0.498569
6223.000000;0.498542
6222.000000;0.498469
6221.000000;0.498401
6220.000000;0.498371
6219.000000;0.498385
6218.000000;0.498440
6217.000000;0.498521
6216.000000;0.498604
6215.000000;0.498676
6214.000000;0.498740
6213.000000;0.498789
6212.000000;0.498798
6211.000000;0.498764
6210.000000;0.498739
6209.000000;0.498776
6208.000000;0.498859
6207.000000;0.498919
6206.000000;0.498911
6205.000000;0.498867
6204.000000;0.498838
6203.000000;0.498838
6202.000000;0.498843
6201.000000;0.498832
6200.000000;0.498812
6199.000000;0.498804
6198.000000;0.498829
6197.000000;0.498888
6196.000000;0.498968
6195.000000;0.499064
6194.000000;0.499170
6193.000000;0.499259
6192.000000;0.499274
6191.000000;0.499169
6190.000000;0.498979
6189.000000;0.498815
6188.000000;0.498774
6187.000000;0.498861
6186.000000;0.498993
6185.000000;0.499077
6184.000000;0.499080
6183.000000;0.499038
6182.000000;0.499000
6181.000000;0.498993
6180.000000;0.499014
6179.000000;0.499052
6178.000000;0.499093
6177.000000;0.499112
6176.000000;0.499096
6175.000000;0.499062
6174.000000;0.499046
6173.000000;0.499057
6172.000000;0.499078
6171.000000;0.499091
6170.000000;0.499094
6169.000000;0.499083
6168.000000;0.499051
6167.000000;0.499012
6166.000000;0.498994
6165.000000;0.499005
6164.000000;0.499019
6163.000000;0.499016
6162.000000;0.499000
6161.000000;0.498973
6160.000000;0.498924
6159.000000;0.498879
6158.000000;0.498897
6157.000000;0.498997
6156.000000;0.499113
6155.000000;0.499168
6154.000000;0.499157
6153.000000;0.499119
6152.000000;0.499069
6151.000000;0.499004
6150.000000;0.498952
6149.000000;0.498957
6148.000000;0.499017
6147.000000;0.499082
6146.000000;0.499116
6145.000000;0.499117
6144.000000;0.499094
6143.000000;0.499052
6142.000000;0.499010
6141.000000;0.498993
6140.000000;0.499002
6139.000000;0.499013
6138.000000;0.499017
6137.000000;0.499018
6136.000000;0.499007
6135.000000;0.498976
6134.000000;0.498935
6133.000000;0.498902
6132.000000;0.498871
6131.000000;0.498836
6130.000000;0.498824
6129.000000;0.498870
6128.000000;0.498956
6127.000000;0.499016
6126.000000;0.499005
6125.000000;0.498936
6124.000000;0.498857
6123.000000;0.498807
6122.000000;0.498803
6121.000000;0.498834
6120.000000;0.498863
6119.000000;0.498862
6118.000000;0.498850
6117.000000;0.498861
6116.000000;0.498891
6115.000000;0.498899
6114.000000;0.498869
6113.000000;0.498828
6112.000000;0.498796
6111.000000;0.498766
6110.000000;0.498736
6109.000000;0.498727
6108.000000;0.498750
6107.000000;0.498790
6106.000000;0.498827
6105.000000;0.498853
6104.000000;0.498862
6103.000000;0.498835
6102.000000;0.498775
6101.000000;0.498709
6100.000000;0.498664
6099.000000;0.498640
6098.000000;0.498625
6097.000000;0.498614
6096.000000;0.498606
6095.000000;0.498598
6094.000000;0.498586
6093.000000;0.498566
6092.000000;0.498531
6091.000000;0.498479
6090.000000;0.498436
6089.000000;0.498434
6088.000000;0.498479
6087.000000;0.498541
6086.000000;0.498594
6085.000000;0.498632
6084.000000;0.498659
6083.000000;0.498677
6082.000000;0.498685
6081.000000;0.498681
6080.000000;0.498659
6079.000000;0.498611
6078.000000;0.498552
6077.000000;0.498512
6076.000000;0.498505
6075.000000;0.498517
6074.000000;0.498529
6073.000000;0.498539
6072.000000;0.498557
6071.000000;0.498592
6070.000000;0.498636
6069.000000;0.498667
6068.000000;0.498654
6067.000000;0.498584
6066.000000;0.498483
6065.000000;0.498390
6064.000000;0.498334
6063.000000;0.498331
6062.000000;0.498389
6061.000000;0.498488
6060.000000;0.498580
6059.000000;0.498617
6058.000000;0.498598
6057.000000;0.498541
6056.000000;0.498455
6055.000000;0.498352
6054.000000;0.498279
6053.000000;0.498269
6052.000000;0.498300
6051.000000;0.498310
6050.000000;0.498289
6049.000000;0.498285
6048.000000;0.498330
6047.000000;0.498394
6046.000000;0.498427
6045.000000;0.498420
6044.000000;0.498407
6043.000000;0.498427
6042.000000;0.498491
6041.000000;0.498567
6040.000000;0.498596
6039.000000;0.498544
6038.000000;0.498442
6037.000000;0.498356
6036.000000;0.498313
6035.000000;0.498292
6034.000000;0.498275
6033.000000;0.498264
6032.000000;0.498262
6031.000000;0.498255
6030.000000;0.498245
6029.000000;0.498258
6028.000000;0.498305
6027.000000;0.498357
6026.000000;0.498379
6025.000000;0.498361
6024.000000;0.498316
6023.000000;0.498261
6022.000000;0.498219
6021.000000;0.498213
6020.000000;0.498244
6019.000000;0.498279
6018.000000;0.498286
6017.000000;0.498264
6016.000000;0.498233
6015.000000;0.498212
6014.000000;0.498214
6013.000000;0.498246
6012.000000;0.498297
6011.000000;0.498343
6010.000000;0.498369
6009.000000;0.498379
6008.000000;0.498380
6007.000000;0.498365
6006.000000;0.498336
6005.000000;0.498305
6004.000000;0.498280
6003.000000;0.498259
6002.000000;0.498241
6001.000000;0.498234
6000.000000;0.498238
5999.000000;0.498232
5998.000000;0.498199
5997.000000;0.498150
5996.000000;0.498111
5995.000000;0.498097
5994.000000;0.498102
5993.000000;0.498116
5992.000000;0.498134
5991.000000;0.498161
5990.000000;0.498202
5989.000000;0.498246
5988.000000;0.498265
5987.000000;0.498246
5986.000000;0.498214
5985.000000;0.498208
5984.000000;0.498241
5983.000000;0.498293
5982.000000;0.498343
5981.000000;0.498386
5980.000000;0.498415
5979.000000;0.498422
5978.000000;0.498401
5977.000000;0.498358
5976.000000;0.498298
5975.000000;0.498220
5974.000000;0.498138
5973.000000;0.498087
5972.000000;0.498102
5971.000000;0.498189
5970.000000;0.498324
5969.000000;0.498460
5968.000000;0.498542
5967.000000;0.498543
5966.000000;0.498479
5965.000000;0.498391
5964.000000;0.498313
5963.000000;0.498262
5962.000000;0.498258
5961.000000;0.498315
5960.000000;0.498406
5959.000000;0.498472
5958.000000;0.498479
5957.000000;0.498444
5956.000000;0.498403
5955.000000;0.498368
5954.000000;0.498331
5953.000000;0.498292
5952.000000;0.498252
5951.000000;0.498210
5950.000000;0.498176
5949.000000;0.498186
5948.000000;0.498267
5947.000000;0.498396
5946.000000;0.498511
5945.000000;0.498559
5944.000000;0.498542
5943.000000;0.498493
5942.000000;0.498446
5941.000000;0.498426
5940.000000;0.498453
5939.000000;0.498529
5938.000000;0.498629
5937.000000;0.498707
5936.000000;0.498744
5935.000000;0.498759
5934.000000;0.498782
5933.000000;0.498808
5932.000000;0.498817
5931.000000;0.498812
5930.000000;0.498820
5929.000000;0.498852
5928.000000;0.498882
5927.000000;0.498889
5926.000000;0.498887
5925.000000;0.498902
5924.000000;0.498927
5923.000000;0.498929
5922.000000;0.498894
5921.000000;0.498841
5920.000000;0.498801
5919.000000;0.498781
5918.000000;0.498767
5917.000000;0.498739
5916.000000;0.498693
5915.000000;0.498652
5914.000000;0.498648
5913.000000;0.498680
5912.000000;0.498711
5911.000000;0.498708
5910.000000;0.498682
5909.000000;0.498672
5908.000000;0.498704
5907.000000;0.498774
5906.000000;0.498865
5905.000000;0.498954
5904.000000;0.499013
5903.000000;0.499028
5902.000000;0.499010
5901.000000;0.498984
5900.000000;0.498958
5899.000000;0.498923
5898.000000;0.498881
5897.000000;0.498857
5896.000000;0.498877
5895.000000;0.498942
5894.000000;0.499018
5893.000000;0.499066
5892.000000;0.499071
5891.000000;0.499056
5890.000000;0.499040
5889.000000;0.499014
5888.000000;0.498955
5887.000000;0.498875
5886.000000;0.498815
5885.000000;0.498790
5884.000000;0.498767
5883.000000;0.498730
5882.000000;0.498711
5881.000000;0.498751
5880.000000;0.498841
5879.000000;0.498932
5878.000000;0.498993
5877.000000;0.499025
5876.000000;0.499033
5875.000000;0.499025
5874.000000;0.499019
5873.000000;0.499028
5872.000000;0.499039
5871.000000;0.499034
5870.000000;0.499023
5869.000000;0.499031
5868.000000;0.499055
5867.000000;0.499071
5866.000000;0.499070
5865.000000;0.499064
5864.000000;0.499061
5863.000000;0.499063
5862.000000;0.499078
5861.000000;0.499115
5860.000000;0.499155
5859.000000;0.499167
5858.000000;0.499144
5857.000000;0.499106
5856.000000;0.499072
5855.000000;0.499048
5854.000000;0.499041
5853.000000;0.499054
5852.000000;0.499076
5851.000000;0.499098
5850.000000;0.499137
5849.000000;0.499221
5848.000000;0.499335
5847.000000;0.499425
5846.000000;0.499454
5845.000000;0.499427
5844.000000;0.499386
5843.000000;0.499370
5842.000000;0.499392
5841.000000;0.499426
5840.000000;0.499416
5839.000000;0.499331
5838.000000;0.499210
5837.000000;0.499134
5836.000000;0.499144
5835.000000;0.499215
5834.000000;0.499301
5833.000000;0.499375
5832.000000;0.499428
5831.000000;0.499458
5830.000000;0.499481
5829.000000;0.499517
5828.000000;0.499561
5827.000000;0.499586
5826.000000;0.499583
5825.000000;0.499566
5824.000000;0.499548
5823.000000;0.499524
5822.000000;0.499501
5821.000000;0.499505
5820.000000;0.499542
5819.000000;0.499580
5818.000000;0.499585
5817.000000;0.499571
5816.000000;0.499576
5815.000000;0.499615
5814.000000;0.499664
5813.000000;0.499700
5812.000000;0.499721
5811.000000;0.499737
5810.000000;0.499749
5809.000000;0.499757
5808.000000;0.499765
5807.000000;0.499782
5806.000000;0.499806
5805.000000;0.499820
5804.000000;0.499798
5803.000000;0.499740
5802.000000;0.499668
5801.000000;0.499606
5800.000000;0.499562
5799.000000;0.499537
5798.000000;0.499546
5797.000000;0.499595
5796.000000;0.499676
5795.000000;0.499765
5794.000000;0.499842
5793.000000;0.499890
5792.000000;0.499894
5791.000000;0.499859
5790.000000;0.499820
5789.000000;0.499803
5788.000000;0.499803
5787.000000;0.499804
5786.000000;0.499813
5785.000000;0.499849
5784.000000;0.499897
5783.000000;0.499917
5782.000000;0.499900
5781.000000;0.499885
5780.000000;0.499911
5779.000000;0.499964
5778.000000;0.499996
5777.000000;0.499977
5776.000000;0.499924
5775.000000;0.499888
5774.000000;0.499901
5773.000000;0.499944
5772.000000;0.499950
5771.000000;0.499880
5770.000000;0.499768
5769.000000;0.499694
5768.000000;0.499715
5767.000000;0.499817
5766.000000;0.499938
5765.000000;0.500016
5764.000000;0.500018
5763.000000;0.499952
5762.000000;0.499869
5761.000000;0.499823
5760.000000;0.499836
5759.000000;0.499884
5758.000000;0.499922
5757.000000;0.499909
5756.000000;0.499833
5755.000000;0.499723
5754.000000;0.499641
5753.000000;0.499637
5752.000000;0.499702
5751.000000;0.499776
5750.000000;0.499800
5749.000000;0.499768
5748.000000;0.499724
5747.000000;0.499716
5746.000000;0.499755
5745.000000;0.499803
5744.000000;0.499817
5743.000000;0.499799
5742.000000;0.499785
5741.000000;0.499795
5740.000000;0.499804
5739.000000;0.499783
5738.000000;0.499751
5737.000000;0.499748
5736.000000;0.499778
5735.000000;0.499801
5734.000000;0.499786
5733.000000;0.499742
5732.000000;0.499699
5731.000000;0.499678
5730.000000;0.499674
5729.000000;0.499664
5728.000000;0.499634
5727.000000;0.499605
5726.000000;0.499623
5725.000000;0.499697
5724.000000;0.499771
5723.000000;0.499780
5722.000000;0.499732
5721.000000;0.499690
5720.000000;0.499688
5719.000000;0.499687
5718.000000;0.499642
5717.000000;0.499566
5716.000000;0.499517
5715.000000;0.499522
5714.000000;0.499557
5713.000000;0.499575
5712.000000;0.499554
5711.000000;0.499501
5710.000000;0.499435
5709.000000;0.499381
5708.000000;0.499364
5707.000000;0.499395
5706.000000;0.499444
5705.000000;0.499451
5704.000000;0.499386
5703.000000;0.499300
5702.000000;0.499279
5701.000000;0.499342
5700.000000;0.499428
5699.000000;0.499472
5698.000000;0.499475
5697.000000;0.499474
5696.000000;0.499472
5695.000000;0.499443
5694.000000;0.499380
5693.000000;0.499305
5692.000000;0.499247
5691.000000;0.499226
5690.000000;0.499248
5689.000000;0.499304
5688.000000;0.499363
5687.000000;0.499402
5686.000000;0.499412
5685.000000;0.499392
5684.000000;0.499331
5683.000000;0.499242
5682.000000;0.499170
5681.000000;0.499153
5680.000000;0.499182
5679.000000;0.499222
5678.000000;0.499257
5677.000000;0.499288
5676.000000;0.499320
5675.000000;0.499366
5674.000000;0.499447
5673.000000;0.499555
5672.000000;0.499642
5671.000000;0.499674
5670.000000;0.499674
5669.000000;0.499678
5668.000000;0.499687
5667.000000;0.499688
5666.000000;0.499702
5665.000000;0.499756
5664.000000;0.499826
5663.000000;0.499862
5662.000000;0.499864
5661.000000;0.499884
5660.000000;0.499952
5659.000000;0.500035
5658.000000;0.500091
5657.000000;0.500111
5656.000000;0.500110
5655.000000;0.500108
5654.000000;0.500129
5653.000000;0.500186
5652.000000;0.500256
5651.000000;0.500298
5650.000000;0.500311
5649.000000;0.500335
5648.000000;0.500401
5647.000000;0.500499
5646.000000;0.500597
5645.000000;0.500668
5644.000000;0.500693
5643.000000;0.500687
5642.000000;0.500707
5641.000000;0.500814
5640.000000;0.500998
5639.000000;0.501184
5638.000000;0.501310
5637.000000;0.501385
5636.000000;0.501449
5635.000000;0.501515
5634.000000;0.501569
5633.000000;0.501608
5632.000000;0.501658
5631.000000;0.501749
5630.000000;0.501883
5629.000000;0.502027
5628.000000;0.502143
5627.000000;0.502234
5626.000000;0.502339
5625.000000;0.502484
5624.000000;0.502642
5623.000000;0.502772
5622.000000;0.502863
5621.000000;0.502932
5620.000000;0.502988
5619.000000;0.503031
5618.000000;0.503082
5617.000000;0.503178
5616.000000;0.503324
5615.000000;0.503493
5614.000000;0.503667
5613.000000;0.503854
5612.000000;0.504050
5611.000000;0.504229
5610.000000;0.504373
5609.000000;0.504494
5608.000000;0.504602
5607.000000;0.504686
5606.000000;0.504746
5605.000000;0.504816
5604.000000;0.504934
5603.000000;0.505100
5602.000000;0.505280
5601.000000;0.505446
5600.000000;0.505592
5599.000000;0.505719
5598.000000;0.505825
5597.000000;0.505911
5596.000000;0.505994
5595.000000;0.506098
5594.000000;0.506235
5593.000000;0.506386
5592.000000;0.506520
5591.000000;0.506621
5590.000000;0.506700
5589.000000;0.506772
5588.000000;0.506850
5587.000000;0.506948
5586.000000;0.507082
5585.000000;0.507257
5584.000000;0.507457
5583.000000;0.507657
5582.000000;0.507841
5581.000000;0.507998
5580.000000;0.508132
5579.000000;0.508252
5578.000000;0.508368
5577.000000;0.508483
5576.000000;0.508597
5575.000000;0.508711
5574.000000;0.508819
5573.000000;0.508895
5572.000000;0.508933
5571.000000;0.508993
5570.000000;0.509146
5569.000000;0.509382
5568.000000;0.509613
5567.000000;0.509775
5566.000000;0.509895
5565.000000;0.510031
5564.000000;0.510187
5563.000000;0.510317
5562.000000;0.510394
5561.000000;0.510431
5560.000000;0.510462
5559.000000;0.510523
5558.000000;0.510636
5557.000000;0.510787
5556.000000;0.510936
5555.000000;0.511070
5554.000000;0.511214
5553.000000;0.511373
5552.000000;0.511501
5551.000000;0.511570
5550.000000;0.511626
5549.000000;0.511728
5548.000000;0.511860
5547.000000;0.511951
5546.000000;0.511974
5545.000000;0.511967
5544.000000;0.511977
5543.000000;0.512028
5542.000000;0.512131
5541.000000;0.512293
5540.000000;0.512483
5539.000000;0.512657
5538.000000;0.512800
5537.000000;0.512927
5536.000000;0.513044
5535.000000;0.513129
5534.000000;0.513174
5533.000000;0.513204
5532.000000;0.513256
5531.000000;0.513354
5530.000000;0.513497
5529.000000;0.513655
5528.000000;0.513784
5527.000000;0.513867
5526.000000;0.513938
5525.000000;0.514041
5524.000000;0.514165
5523.000000;0.514249
5522.000000;0.514265
5521.000000;0.514259
5520.000000;0.514312
5519.000000;0.514467
5518.000000;0.514687
5517.000000;0.514887
5516.000000;0.515001
5515.000000;0.515032
5514.000000;0.515030
5513.000000;0.515033
5512.000000;0.515050
5511.000000;0.515095
5510.000000;0.515199
5509.000000;0.515358
5508.000000;0.515518
5507.000000;0.515632
5506.000000;0.515712
5505.000000;0.515791
5504.000000;0.515870
5503.000000;0.515941
5502.000000;0.516020
5501.000000;0.516122
5500.000000;0.516208
5499.000000;0.516226
5498.000000;0.516202
5497.000000;0.516217
5496.000000;0.516314
5495.000000;0.516454
5494.000000;0.516590
5493.000000;0.516715
5492.000000;0.516843
5491.000000;0.516964
5490.000000;0.517062
5489.000000;0.517127
5488.000000;0.517160
5487.000000;0.517176
5486.000000;0.517208
5485.000000;0.517293
5484.000000;0.517424
5483.000000;0.517546
5482.000000;0.517607
5481.000000;0.517611
5480.000000;0.517612
5479.000000;0.517669
5478.000000;0.517815
5477.000000;0.518029
5476.000000;0.518251
5475.000000;0.518417
5474.000000;0.518503
5473.000000;0.518529
5472.000000;0.518528
5471.000000;0.518521
5470.000000;0.518524
5469.000000;0.518562
5468.000000;0.518652
5467.000000;0.518791
5466.000000;0.518949
5465.000000;0.519101
5464.000000;0.519242
5463.000000;0.519384
5462.000000;0.519530
5461.000000;0.519675
5460.000000;0.519816
5459.000000;0.519959
5458.000000;0.520106
5457.000000;0.520234
5456.000000;0.520313
5455.000000;0.520347
5454.000000;0.520380
5453.000000;0.520448
5452.000000;0.520538
5451.000000;0.520620
5450.000000;0.520705
5449.000000;0.520820
5448.000000;0.520947
5447.000000;0.521056
5446.000000;0.521162
5445.000000;0.521311
5444.000000;0.521509
5443.000000;0.521704
5442.000000;0.521845
5441.000000;0.521937
5440.000000;0.522024
5439.000000;0.522153
5438.000000;0.522337
5437.000000;0.522538
5436.000000;0.522684
5435.000000;0.522763
5434.000000;0.522866
5433.000000;0.523080
5432.000000;0.523371
5431.000000;0.523629
5430.000000;0.523803
5429.000000;0.523946
5428.000000;0.524139
5427.000000;0.524415
5426.000000;0.524754
5425.000000;0.525114
5424.000000;0.525439
5423.000000;0.525703
5422.000000;0.525928
5421.000000;0.526135
5420.000000;0.526299
5419.000000;0.526395
5418.000000;0.526453
5417.000000;0.526525
5416.000000;0.526618
5415.000000;0.526729
5414.000000;0.526912
5413.000000;0.527239
5412.000000;0.527684
5411.000000;0.528162
5410.000000;0.528653
5409.000000;0.529193
5408.000000;0.529760
5407.000000;0.530241
5406.000000;0.530564
5405.000000;0.530782
5404.000000;0.530990
5403.000000;0.531230
5402.000000;0.531485
5401.000000;0.531709
5400.000000;0.531880
5399.000000;0.532042
5398.000000;0.532296
5397.000000;0.532702
5396.000000;0.533202
5395.000000;0.533698
5394.000000;0.534175
5393.000000;0.534686
5392.000000;0.535232
5391.000000;0.535757
5390.000000;0.536262
5389.000000;0.536807
5388.000000;0.537387
5387.000000;0.537902
5386.000000;0.538302
5385.000000;0.538662
5384.000000;0.539069
5383.000000;0.539526
5382.000000;0.540018
5381.000000;0.540584
5380.000000;0.541252
5379.000000;0.541974
5378.000000;0.542697
5377.000000;0.543435
5376.000000;0.544227
5375.000000;0.545051
5374.000000;0.545850
5373.000000;0.546613
5372.000000;0.547373
5371.000000;0.548161
5370.000000;0.548998
5369.000000;0.549907
5368.000000;0.550890
5367.000000;0.551909
5366.000000;0.552918
5365.000000;0.553879
5364.000000;0.554768
5363.000000;0.555615
5362.000000;0.556508
5361.000000;0.557516
5360.000000;0.558595
5359.000000;0.559648
5358.000000;0.560676
5357.000000;0.561782
5356.000000;0.563030
5355.000000;0.564353
5354.000000;0.565650
5353.000000;0.566885
5352.000000;0.568062
5351.000000;0.569207
5350.000000;0.570406
5349.000000;0.571755
5348.000000;0.573214
5347.000000;0.574620
5346.000000;0.575889
5345.000000;0.577157
5344.000000;0.578642
5343.000000;0.580360
5342.000000;0.582081
5341.000000;0.583572
5340.000000;0.584803
5339.000000;0.585975
5338.000000;0.587410
5337.000000;0.589279
5336.000000;0.591414
5335.000000;0.593475
5334.000000;0.595289
5333.000000;0.596939
5332.000000;0.598548
5331.000000;0.600092
5330.000000;0.601410
5329.000000;0.602366
5328.000000;0.602993
5327.000000;0.603540
5326.000000;0.604267
5325.000000;0.605125
5324.000000;0.605781
5323.000000;0.606035
5322.000000;0.606016
5321.000000;0.605798
5320.000000;0.605088
5319.000000;0.603600
5318.000000;0.601502
5317.000000;0.599057
5316.000000;0.596040
5315.000000;0.592049
5314.000000;0.587289
5313.000000;0.582408
5312.000000;0.577500
5311.000000;0.571781
5310.000000;0.564321
5309.000000;0.554650
5308.000000;0.542706
5307.000000;0.528806
5306.000000;0.513603
5305.000000;0.497412
5304.000000;0.479646
5303.000000;0.459586
5302.000000;0.437921
5301.000000;0.417274
5300.000000;0.401190
5299.000000;0.392669
5298.000000;0.393732
5297.000000;0.405250
5296.000000;0.425096
5295.000000;0.449179
5294.000000;0.477416
5293.000000;0.513183
5292.000000;0.554865
5291.000000;0.595080
5290.000000;0.629515
5289.000000;0.660233
5288.000000;0.690795
5287.000000;0.723623
5286.000000;0.759312
5285.000000;0.792935
5284.000000;0.815246
5283.000000;0.824631
5282.000000;0.831055
5281.000000;0.842185
5280.000000;0.854608
5279.000000;0.863061
5278.000000;0.869964
5277.000000;0.878811
5276.000000;0.885971
5275.000000;0.887361
5274.000000;0.886618
5273.000000;0.888627
5272.000000;0.892407
5271.000000;0.896797
5270.000000;0.904880
5269.000000;0.915544
5268.000000;0.919616
5267.000000;0.914257
5266.000000;0.911311
5265.000000;0.920776
5264.000000;0.936045
5263.000000;0.942868
5262.000000;0.938171
5261.000000;0.930114
5260.000000;0.923893
5259.000000;0.920386
5258.000000;0.923271
5257.000000;0.934637
5256.000000;0.947347
5255.000000;0.952242
5254.000000;0.950210
5253.000000;0.947549
5252.000000;0.944731
5251.000000;0.939248
5250.000000;0.933706
5249.000000;0.931214
5248.000000;0.927536
5247.000000;0.917743
5246.000000;0.906900
5245.000000;0.904095
5244.000000;0.910185
5243.000000;0.918820
5242.000000;0.925399
5241.000000;0.928399
5240.000000;0.925558
5239.000000;0.917005
5238.000000;0.908961
5237.000000;0.906706
5236.000000;0.907652
5235.000000;0.907110
5234.000000;0.906027
5233.000000;0.907061
5232.000000;0.908315
5231.000000;0.907292
5230.000000;0.906683
5229.000000;0.909425
5228.000000;0.912495
5227.000000;0.912506
5226.000000;0.912341
5225.000000;0.914811
5224.000000;0.915336
5223.000000;0.909056
5222.000000;0.900883
5221.000000;0.899687
5220.000000;0.906600
5219.000000;0.915334
5218.000000;0.920896
5217.000000;0.922645
5216.000000;0.920995
5215.000000;0.917599
5214.000000;0.916064
5213.000000;0.916625
5212.000000;0.914120
5211.000000;0.906621
5210.000000;0.901030
5209.000000;0.904325
5208.000000;0.914203
5207.000000;0.923152
5206.000000;0.928092
5205.000000;0.930121
5204.000000;0.928348
5203.000000;0.921936
5202.000000;0.915130
5201.000000;0.913067
5200.000000;0.915518
5199.000000;0.919183
5198.000000;0.922422
5197.000000;0.923255
5196.000000;0.917608
5195.000000;0.905670
5194.000000;0.895168
5193.000000;0.892820
5192.000000;0.896956
5191.000000;0.902044
5190.000000;0.905707
5189.000000;0.907009
5188.000000;0.903614
5187.000000;0.896761
5186.000000;0.893202
5185.000000;0.896319
5184.000000;0.900529
5183.000000;0.899598
5182.000000;0.896133
5181.000000;0.895844
5180.000000;0.897673
5179.000000;0.897242
5178.000000;0.895893
5177.000000;0.898233
5176.000000;0.903441
5175.000000;0.906206
5174.000000;0.904938
5173.000000;0.902870
5172.000000;0.902132
5171.000000;0.902432
5170.000000;0.903551
5169.000000;0.904328
5168.000000;0.902160
5167.000000;0.898103
5166.000000;0.898538
5165.000000;0.906853
5164.000000;0.916711
5163.000000;0.918685
5162.000000;0.912286
5161.000000;0.905199
5160.000000;0.902954
5159.000000;0.905124
5158.000000;0.908561
5157.000000;0.909743
5156.000000;0.906300
5155.000000;0.900098
5154.000000;0.896416
5153.000000;0.897753
5152.000000;0.901578
5151.000000;0.905323
5150.000000;0.909684
5149.000000;0.914032
5148.000000;0.913326
5147.000000;0.906123
5146.000000;0.899700
5145.000000;0.900769
5144.000000;0.907036
5143.000000;0.911832
5142.000000;0.913557
5141.000000;0.915117
5140.000000;0.917212
5139.000000;0.918536
5138.000000;0.919203
5137.000000;0.918617
5136.000000;0.913729
5135.000000;0.904445
5134.000000;0.896232
5133.000000;0.892774
5132.000000;0.891525
5131.000000;0.890206
5130.000000;0.891546
5129.000000;0.897855
5128.000000;0.905435
5127.000000;0.908837
5126.000000;0.908517
5125.000000;0.907304
5124.000000;0.903315
5123.000000;0.894756
5122.000000;0.887046
5121.000000;0.887280
5120.000000;0.895045
5119.000000;0.904046
5118.000000;0.910123
5117.000000;0.912503
5116.000000;0.909267
5115.000000;0.899404
5114.000000;0.887994
5113.000000;0.882092
5112.000000;0.883717
5111.000000;0.890574
5110.000000;0.900113
5109.000000;0.909206
5108.000000;0.913441
5107.000000;0.911311
5106.000000;0.906558
5105.000000;0.902382
5104.000000;0.896799
5103.000000;0.888324
5102.000000;0.882346
5101.000000;0.885725
5100.000000;0.897986
5099.000000;0.911924
5098.000000;0.920765
5097.000000;0.921822
5096.000000;0.915943
5095.000000;0.907687
5094.000000;0.903327
5093.000000;0.904624
5092.000000;0.906748
5091.000000;0.905642
5090.000000;0.903991
5089.000000;0.905531
5088.000000;0.908249
5087.000000;0.908466
5086.000000;0.907232
5085.000000;0.907303
5084.000000;0.908101
5083.000000;0.908470
5082.000000;0.910258
5081.000000;0.914081
5080.000000;0.915921
5079.000000;0.913512
5078.000000;0.911631
5077.000000;0.914669
5076.000000;0.918371
5075.000000;0.915549
5074.000000;0.906989
5073.000000;0.899664
5072.000000;0.897194
5071.000000;0.898504
5070.000000;0.902499
5069.000000;0.907433
5068.000000;0.908438
5067.000000;0.903039
5066.000000;0.897488
5065.000000;0.900474
5064.000000;0.911752
5063.000000;0.921831
5062.000000;0.922840
5061.000000;0.915846
5060.000000;0.906764
5059.000000;0.900679
5058.000000;0.900223
5057.000000;0.903846
5056.000000;0.905445
5055.000000;0.900185
5054.000000;0.890762
5053.000000;0.883931
5052.000000;0.882362
5051.000000;0.883604
5050.000000;0.884725
5049.000000;0.884293
5048.000000;0.881756
5047.000000;0.878568
5046.000000;0.878198
5045.000000;0.881682
5044.000000;0.885085
5043.000000;0.884374
5042.000000;0.880733
5041.000000;0.877863
5040.000000;0.876838
5039.000000;0.876894
5038.000000;0.877994
5037.000000;0.879289
5036.000000;0.878301
5035.000000;0.875326
5034.000000;0.874906
5033.000000;0.878912
5032.000000;0.882303
5031.000000;0.879749
5030.000000;0.872947
5029.000000;0.866365
5028.000000;0.859976
5027.000000;0.852021
5026.000000;0.844896
5025.000000;0.842178
5024.000000;0.842701
5023.000000;0.842773
5022.000000;0.842403
5021.000000;0.843959
5020.000000;0.846047
5019.000000;0.844270
5018.000000;0.837538
5017.000000;0.828979
5016.000000;0.821204
5015.000000;0.814699
5014.000000;0.810000
5013.000000;0.807823
5012.000000;0.807358
5011.000000;0.807062
5010.000000;0.806574
5009.000000;0.806043
5008.000000;0.805054
5007.000000;0.803884
5006.000000;0.803451
5005.000000;0.802079
5004.000000;0.795797
5003.000000;0.784829
5002.000000;0.775547
5001.000000;0.772609
5000.000000;0.773229
4999.000000;0.771955
4998.000000;0.767656
4997.000000;0.762109
4996.000000;0.755425
4995.000000;0.747945
4994.000000;0.743259
4993.000000;0.743846
4992.000000;0.745749
4991.000000;0.742653
4990.000000;0.734430
4989.000000;0.726384
4988.000000;0.721463
4987.000000;0.718377
4986.000000;0.715713
4985.000000;0.713443
4984.000000;0.711141
4983.000000;0.708197
4982.000000;0.705170
4981.000000;0.701571
4980.000000;0.694080
4979.000000;0.681091
4978.000000;0.666816
4977.000000;0.656686
4976.000000;0.650596
4975.000000;0.644284
4974.000000;0.636288
4973.000000;0.629536
4972.000000;0.626241
4971.000000;0.625128
4970.000000;0.623677
4969.000000;0.620237
4968.000000;0.614068
4967.000000;0.605793
4966.000000;0.597717
4965.000000;0.591494
4964.000000;0.585932
4963.000000;0.579167
4962.000000;0.572217
4961.000000;0.567759
4960.000000;0.565755
4959.000000;0.562830
4958.000000;0.556226
4957.000000;0.546539
4956.000000;0.536430
4955.000000;0.528049
4954.000000;0.521431
4953.000000;0.514505
4952.000000;0.505283
4951.000000;0.494692
4950.000000;0.486171
4949.000000;0.481735
4948.000000;0.479641
4947.000000;0.476716
4946.000000;0.471641
4945.000000;0.464706
4944.000000;0.456140
4943.000000;0.446669
4942.000000;0.438141
4941.000000;0.431446
4940.000000;0.424951
4939.000000;0.417053
4938.000000;0.409091
4937.000000;0.403506
4936.000000;0.400050
4935.000000;0.395786
4934.000000;0.388404
4933.000000;0.377973
4932.000000;0.365963
4931.000000;0.354307
4930.000000;0.344915
4929.000000;0.338334
4928.000000;0.333009
4927.000000;0.327021
4926.000000;0.320175
4925.000000;0.313370
4924.000000;0.306814
4923.000000;0.300141
4922.000000;0.293562
4921.000000;0.287537
4920.000000;0.281664
4919.000000;0.275012
4918.000000;0.267238
4917.000000;0.258637
4916.000000;0.249640
4915.000000;0.240927
4914.000000;0.233222
4913.000000;0.226198
4912.000000;0.218325
4911.000000;0.208634
4910.000000;0.198231
4909.000000;0.189189
4908.000000;0.182186
4907.000000;0.176068
4906.000000;0.169330
4905.000000;0.161344
4904.000000;0.152730
4903.000000;0.144909
4902.000000;0.138576
4901.000000;0.132413
4900.000000;0.124194
4899.000000;0.113656
4898.000000;0.103313
4897.000000;0.095815
4896.000000;0.091266
4895.000000;0.087637
4894.000000;0.083076
4893.000000;0.077257
4892.000000;0.071099
4891.000000;0.065800
4890.000000;0.061704
4889.000000;0.057815
4888.000000;0.052986
4887.000000;0.047510
4886.000000;0.042598
4885.000000;0.038306
4884.000000;0.033219
4883.000000;0.026599
4882.000000;0.019817
4881.000000;0.014966
4880.000000;0.012664
4879.000000;0.011714
4878.000000;0.010319
4877.000000;0.007316
4876.000000;0.002775
4875.000000;-0.002208
4874.000000;-0.006582
4873.000000;-0.010308
4872.000000;-0.013936
4871.000000;-0.017241
4870.000000;-0.019039
4869.000000;-0.018583
4868.000000;-0.016610
4867.000000;-0.014720
4866.000000;-0.013951
4865.000000;-0.014138
4864.000000;-0.014464
4863.000000;-0.014300
4862.000000;-0.013742
4861.000000;-0.013442
4860.000000;-0.013727
4859.000000;-0.014028
4858.000000;-0.013516
4857.000000;-0.012134
4856.000000;-0.010439
4855.000000;-0.008471
4854.000000;-0.005560
4853.000000;-0.001581
4852.000000;0.002382
4851.000000;0.005260
4850.000000;0.007375
4849.000000;0.009890
4848.000000;0.013111
4847.000000;0.016149
4846.000000;0.018243
4845.000000;0.019701
4844.000000;0.021340
4843.000000;0.023593
4842.000000;0.026425
4841.000000;0.029695
4840.000000;0.033256
4839.000000;0.036944
4838.000000;0.040672
4837.000000;0.044364
4836.000000;0.047726
4835.000000;0.050443
4834.000000;0.052722
4833.000000;0.055245
4832.000000;0.058352
4831.000000;0.061581
4830.000000;0.064305
4829.000000;0.066549
4828.000000;0.068829
4827.000000;0.071423
4826.000000;0.074200
4825.000000;0.077088
4824.000000;0.080230
4823.000000;0.083639
4822.000000;0.087081
4821.000000;0.090470
4820.000000;0.094097
4819.000000;0.098221
4818.000000;0.102581
4817.000000;0.106584
4816.000000;0.109913
4815.000000;0.112772
4814.000000;0.115503
4813.000000;0.118185
4812.000000;0.120736
4811.000000;0.123256
4810.000000;0.126035
4809.000000;0.129212
4808.000000;0.132623
4807.000000;0.136012
4806.000000;0.139231
4805.000000;0.142229
4804.000000;0.144995
4803.000000;0.147652
4802.000000;0.150416
4801.000000;0.153332
4800.000000;0.156198
4799.000000;0.158902
4798.000000;0.161675
4797.000000;0.164781
4796.000000;0.168065
4795.000000;0.171038
4794.000000;0.173459
4793.000000;0.175613
4792.000000;0.177973
4791.000000;0.180723
4790.000000;0.183664
4789.000000;0.186431
4788.000000;0.188756
4787.000000;0.190632
4786.000000;0.192361
4785.000000;0.194380
4784.000000;0.196940
4783.000000;0.199875
4782.000000;0.202738
4781.000000;0.205221
4780.000000;0.207443
4779.000000;0.209771
4778.000000;0.212387
4777.000000;0.215126
4776.000000;0.217738
4775.000000;0.220123
4774.000000;0.222247
4773.000000;0.224034
4772.000000;0.225574
4771.000000;0.227241
4770.000000;0.229321
4769.000000;0.231614
4768.000000;0.233711
4767.000000;0.235546
4766.000000;0.237343
4765.000000;0.239104
4764.000000;0.240603
4763.000000;0.241920
4762.000000;0.243510
4761.000000;0.245587
4760.000000;0.247831
4759.000000;0.249897
4758.000000;0.251857
4757.000000;0.253884
4756.000000;0.255893
4755.000000;0.257764
4754.000000;0.259639
4753.000000;0.261675
4752.000000;0.263722
4751.000000;0.265545
4750.000000;0.267158
4749.000000;0.268683
4748.000000;0.270087
4747.000000;0.271374
4746.000000;0.272811
4745.000000;0.274622
4744.000000;0.276582
4743.000000;0.278233
4742.000000;0.279462
4741.000000;0.280558
4740.000000;0.281805
4739.000000;0.283263
4738.000000;0.284929
4737.000000;0.286813
4736.000000;0.288843
4735.000000;0.290876
4734.000000;0.292834
4733.000000;0.294684
4732.000000;0.296337
4731.000000;0.297714
4730.000000;0.298877
4729.000000;0.299959
4728.000000;0.301051
4727.000000;0.302233
4726.000000;0.303603
4725.000000;0.305124
4724.000000;0.306571
4723.000000;0.307771
4722.000000;0.308777
4721.000000;0.309721
4720.000000;0.310643
4719.000000;0.311620
4718.000000;0.312839
4717.000000;0.314342
4716.000000;0.315858
4715.000000;0.317120
4714.000000;0.318225
4713.000000;0.319474
4712.000000;0.320968
4711.000000;0.322559
4710.000000;0.324055
4709.000000;0.325255
4708.000000;0.325966
4707.000000;0.326250
4706.000000;0.326568
4705.000000;0.327366
4704.000000;0.328600
4703.000000;0.329905
4702.000000;0.331137
4701.000000;0.332451
4700.000000;0.333886
4699.000000;0.335197
4698.000000;0.336165
4697.000000;0.336882
4696.000000;0.337627
4695.000000;0.338617
4694.000000;0.339875
4693.000000;0.341223
4692.000000;0.342409
4691.000000;0.343354
4690.000000;0.344241
4689.000000;0.345267
4688.000000;0.346395
4687.000000;0.347455
4686.000000;0.348385
4685.000000;0.349232
4684.000000;0.350020
4683.000000;0.350764
4682.000000;0.351520
4681.000000;0.352279
4680.000000;0.352938
4679.000000;0.353528
4678.000000;0.354305
4677.000000;0.355411
4676.000000;0.356610
4675.000000;0.357627
4674.000000;0.358580
4673.000000;0.359767
4672.000000;0.361116
4671.000000;0.362202
4670.000000;0.362808
4669.000000;0.363175
4668.000000;0.363645
4667.000000;0.364308
4666.000000;0.365060
4665.000000;0.365786
4664.000000;0.366437
4663.000000;0.367085
4662.000000;0.367900
4661.000000;0.368920
4660.000000;0.369885
4659.000000;0.370504
4658.000000;0.370846
4657.000000;0.371254
4656.000000;0.371890
4655.000000;0.372597
4654.000000;0.373209
4653.000000;0.373769
4652.000000;0.374395
4651.000000;0.375147
4650.000000;0.376060
4649.000000;0.377092
4648.000000;0.378029
4647.000000;0.378625
4646.000000;0.378914
4645.000000;0.379195
4644.000000;0.379650
4643.000000;0.380154
4642.000000;0.380533
4641.000000;0.380837
4640.000000;0.381282
4639.000000;0.382028
4638.000000;0.383065
4637.000000;0.384212
4636.000000;0.385204
4635.000000;0.385894
4634.000000;0.386392
4633.000000;0.386911
4632.000000;0.387493
4631.000000;0.388019
4630.000000;0.388467
4629.000000;0.388985
4628.000000;0.389675
4627.000000;0.390436
4626.000000;0.391065
4625.000000;0.391444
4624.000000;0.391645
4623.000000;0.391916
4622.000000;0.392503
4621.000000;0.393346
4620.000000;0.394040
4619.000000;0.394275
4618.000000;0.394260
4617.000000;0.394491
4616.000000;0.395143
4615.000000;0.395944
4614.000000;0.396628
4613.000000;0.397223
4612.000000;0.397817
4611.000000;0.398319
4610.000000;0.398619
4609.000000;0.398787
4608.000000;0.398968
4607.000000;0.399234
4606.000000;0.399655
4605.000000;0.400328
4604.000000;0.401192
4603.000000;0.401947
4602.000000;0.402367
4601.000000;0.402593
4600.000000;0.402935
4599.000000;0.403467
4598.000000;0.403961
4597.000000;0.404235
4596.000000;0.404390
4595.000000;0.404680
4594.000000;0.405246
4593.000000;0.405983
4592.000000;0.406605
4591.000000;0.406845
4590.000000;0.406702
4589.000000;0.406506
4588.000000;0.406643
4587.000000;0.407168
4586.000000;0.407727
4585.000000;0.407944
4584.000000;0.407861
4583.000000;0.407914
4582.000000;0.408438
4581.000000;0.409287
4580.000000;0.410011
4579.000000;0.410334
4578.000000;0.410372
4577.000000;0.410394
4576.000000;0.410544
4575.000000;0.410824
4574.000000;0.411207
4573.000000;0.411653
4572.000000;0.412092
4571.000000;0.412479
4570.000000;0.412821
4569.000000;0.413103
4568.000000;0.413268
4567.000000;0.413324
4566.000000;0.413394
4565.000000;0.413595
4564.000000;0.413912
4563.000000;0.414281
4562.000000;0.414693
4561.000000;0.415146
4560.000000;0.415552
4559.000000;0.415794
4558.000000;0.415838
4557.000000;0.415735
4556.000000;0.415574
4555.000000;0.415494
4554.000000;0.415619
4553.000000;0.415925
4552.000000;0.416241
4551.000000;0.416475
4550.000000;0.416730
4549.000000;0.417100
4548.000000;0.417462
4547.000000;0.417608
4546.000000;0.417493
4545.000000;0.417239
4544.000000;0.416990
4543.000000;0.416895
4542.000000;0.417116
4541.000000;0.417654
4540.000000;0.418212
4539.000000;0.418433
4538.000000;0.418286
4537.000000;0.418080
4536.000000;0.418091
4535.000000;0.418303
4534.000000;0.418519
4533.000000;0.418612
4532.000000;0.418633
4531.000000;0.418767
4530.000000;0.419174
4529.000000;0.419797
4528.000000;0.420346
4527.000000;0.420531
4526.000000;0.420307
4525.000000;0.419889
4524.000000;0.419561
4523.000000;0.419515
4522.000000;0.419762
4521.000000;0.420137
4520.000000;0.420450
4519.000000;0.420683
4518.000000;0.420944
4517.000000;0.421226
4516.000000;0.421358
4515.000000;0.421283
4514.000000;0.421199
4513.000000;0.421307
4512.000000;0.421571
4511.000000;0.421834
4510.000000;0.422044
4509.000000;0.422200
4508.000000;0.422255
4507.000000;0.422224
4506.000000;0.422276
4505.000000;0.422507
4504.000000;0.422758
4503.000000;0.422833
4502.000000;0.422779
4501.000000;0.422746
4500.000000;0.422687
4499.000000;0.422450
4498.000000;0.422099
4497.000000;0.421886
4496.000000;0.421908
4495.000000;0.422019
4494.000000;0.422082
4493.000000;0.422120
4492.000000;0.422169
4491.000000;0.422167
4490.000000;0.422046
4489.000000;0.421853
4488.000000;0.421749
4487.000000;0.421923
4486.000000;0.422439
4485.000000;0.423099
4484.000000;0.423557
4483.000000;0.423651
4482.000000;0.423544
4481.000000;0.423445
4480.000000;0.423330
4479.000000;0.423067
4478.000000;0.422680
4477.000000;0.422357
4476.000000;0.422262
4475.000000;0.422461
4474.000000;0.422920
4473.000000;0.423450
4472.000000;0.423806
4471.000000;0.423965
4470.000000;0.424143
4469.000000;0.424437
4468.000000;0.424612
4467.000000;0.424442
4466.000000;0.424042
4465.000000;0.423677
4464.000000;0.423434
4463.000000;0.423319
4462.000000;0.423446
4461.000000;0.423844
4460.000000;0.424212
4459.000000;0.424203
4458.000000;0.423857
4457.000000;0.423484
4456.000000;0.423238
4455.000000;0.423073
4454.000000;0.423004
4453.000000;0.423112
4452.000000;0.423351
4451.000000;0.423614
4450.000000;0.423905
4449.000000;0.424194
4448.000000;0.424258
4447.000000;0.423957
4446.000000;0.423543
4445.000000;0.423377
4444.000000;0.423437
4443.000000;0.423437
4442.000000;0.423343
4441.000000;0.423394
4440.000000;0.423662
4439.000000;0.423961
4438.000000;0.424144
4437.000000;0.424174
4436.000000;0.423968
4435.000000;0.423525
4434.000000;0.423166
4433.000000;0.423236
4432.000000;0.423569
4431.000000;0.423664
4430.000000;0.423420
4429.000000;0.423283
4428.000000;0.423566
4427.000000;0.423997
4426.000000;0.424105
4425.000000;0.423732
4424.000000;0.423040
4423.000000;0.422281
4422.000000;0.421700
4421.000000;0.421427
4420.000000;0.421349
4419.000000;0.421246
4418.000000;0.421108
4417.000000;0.421132
4416.000000;0.421393
4415.000000;0.421700
4414.000000;0.421798
4413.000000;0.421533
4412.000000;0.420875
4411.000000;0.419982
4410.000000;0.419206
4409.000000;0.418793
4408.000000;0.418647
4407.000000;0.418582
4406.000000;0.418679
4405.000000;0.419053
4404.000000;0.419414
4403.000000;0.419260
4402.000000;0.418530
4401.000000;0.417668
4400.000000;0.417021
4399.000000;0.416540
4398.000000;0.416075
4397.000000;0.415645
4396.000000;0.415317
4395.000000;0.415083
4394.000000;0.414871
4393.000000;0.414495
4392.000000;0.413683
4391.000000;0.412448
4390.000000;0.411297
4389.000000;0.410716
4388.000000;0.410550
4387.000000;0.410284
4386.000000;0.409797
4385.000000;0.409368
4384.000000;0.409017
4383.000000;0.408393
4382.000000;0.407359
4381.000000;0.406197
4380.000000;0.405122
4379.000000;0.404078
4378.000000;0.403071
4377.000000;0.402243
4376.000000;0.401497
4375.000000;0.400531
4374.000000;0.399395
4373.000000;0.398573
4372.000000;0.398297
4371.000000;0.398114
4370.000000;0.397365
4369.000000;0.395855
4368.000000;0.393928
4367.000000;0.392151
4366.000000;0.391008
4365.000000;0.390613
4364.000000;0.390566
4363.000000;0.390291
4362.000000;0.389572
4361.000000;0.388561
4360.000000;0.387331
4359.000000;0.385757
4358.000000;0.383840
4357.000000;0.381838
4356.000000;0.380061
4355.000000;0.378738
4354.000000;0.377969
4353.000000;0.377533
4352.000000;0.376899
4351.000000;0.375825
4350.000000;0.374802
4349.000000;0.374418
4348.000000;0.374412
4347.000000;0.373865
4346.000000;0.372280
4345.000000;0.369977
4344.000000;0.367520
4343.000000;0.365300
4342.000000;0.363636
4341.000000;0.362733
4340.000000;0.362502
4339.000000;0.362736
4338.000000;0.363279
4337.000000;0.363599
4336.000000;0.362576
4335.000000;0.359512
4334.000000;0.355244
4333.000000;0.351497
4332.000000;0.349209
4331.000000;0.348039
4330.000000;0.347272
4329.000000;0.346548
4328.000000;0.345853
4327.000000;0.345476
4326.000000;0.345808
4325.000000;0.346508
4324.000000;0.346253
4323.000000;0.344153
4322.000000;0.341153
4321.000000;0.339026
4320.000000;0.338134
4319.000000;0.337257
4318.000000;0.335542
4317.000000;0.333418
4316.000000;0.331521
4315.000000;0.329919
4314.000000;0.328600
4313.000000;0.327619
4312.000000;0.326662
4311.000000;0.325370
4310.000000;0.324061
4309.000000;0.323093
4308.000000;0.321738
4307.000000;0.319212
4306.000000;0.316726
4305.000000;0.316664
4304.000000;0.319379
4303.000000;0.322436
4302.000000;0.323540
4301.000000;0.322769
4300.000000;0.321235
4299.000000;0.319224
4298.000000;0.316647
4297.000000;0.313888
4296.000000;0.311260
4295.000000;0.308830
4294.000000;0.307437
4293.000000;0.308405
4292.000000;0.311363
4291.000000;0.313946
4290.000000;0.314813
4289.000000;0.315270
4288.000000;0.316639
4287.000000;0.317890
4286.000000;0.317550
4285.000000;0.316591
4284.000000;0.317464
4283.000000;0.321013
4282.000000;0.325770
4281.000000;0.329698
4280.000000;0.331510
4279.000000;0.331263
4278.000000;0.330772
4277.000000;0.332390
4276.000000;0.336353
4275.000000;0.340113
4274.000000;0.341621
4273.000000;0.342572
4272.000000;0.346477
4271.000000;0.354162
4270.000000;0.362734
4269.000000;0.368866
4268.000000;0.371964
4267.000000;0.374038
4266.000000;0.377349
4265.000000;0.382385
4264.000000;0.387708
4263.000000;0.391749
4262.000000;0.394850
4261.000000;0.399238
4260.000000;0.406892
4259.000000;0.417987
4258.000000;0.430975
4257.000000;0.443032
4256.000000;0.451056
4255.000000;0.454043
4254.000000;0.454636
4253.000000;0.457019
4252.000000;0.463310
4251.000000;0.472886
4250.000000;0.484783
4249.000000;0.498917
4248.000000;0.514512
4247.000000;0.529142
4246.000000;0.541145
4245.000000;0.550681
4244.000000;0.557878
4243.000000;0.562477
4242.000000;0.566323
4241.000000;0.573660
4240.000000;0.587322
4239.000000;0.605965
4238.000000;0.625702
4237.000000;0.643044
4236.000000;0.655782
4235.000000;0.663536
4234.000000;0.668740
4233.000000;0.674781
4232.000000;0.682024
4231.000000;0.687766
4230.000000;0.691739
4229.000000;0.699035
4228.000000;0.714162
4227.000000;0.734296
4226.000000;0.751447
4225.000000;0.760890
4224.000000;0.764828
4223.000000;0.767951
4222.000000;0.773532
4221.000000;0.783219
4220.000000;0.796316
4219.000000;0.808695
4218.000000;0.816210
4217.000000;0.820933
4216.000000;0.829838
4215.000000;0.845872
4214.000000;0.863640
4213.000000;0.875404
4212.000000;0.880637
4211.000000;0.885665
4210.000000;0.893949
4209.000000;0.901731
4208.000000;0.903846
4207.000000;0.900934
4206.000000;0.899448
4205.000000;0.905874
4204.000000;0.922184
4203.000000;0.943736
4202.000000;0.960506
4201.000000;0.965677
4200.000000;0.964064
4199.000000;0.966550
4198.000000;0.977001
4197.000000;0.988440
4196.000000;0.994186
4195.000000;0.998058
4194.000000;1.006475
4193.000000;1.017820
4192.000000;1.027348
4191.000000;1.038064
4190.000000;1.057072
4189.000000;1.081993
4188.000000;1.100872
4187.000000;1.109217
4186.000000;1.115572
4185.000000;1.125990
4184.000000;1.138223
4183.000000;1.152169
4182.000000;1.168993
4181.000000;1.181381
4180.000000;1.180907
4179.000000;1.177001
4178.000000;1.191246
4177.000000;1.228944
4176.000000;1.268008
4175.000000;1.285005
4174.000000;1.287796
4173.000000;1.301258
4172.000000;1.329452
4171.000000;1.350749
4170.000000;1.346634
4169.000000;1.325216
4168.000000;1.307126
4167.000000;1.306730
4166.000000;1.327537
4165.000000;1.354118
4164.000000;1.357764
4163.000000;1.342547
4162.000000;1.346835
4161.000000;1.384501
4160.000000;1.424306
4159.000000;1.421680
4158.000000;1.384903
4157.000000;1.361545
4156.000000;1.374833
4155.000000;1.411823
4154.000000;1.443767
4153.000000;1.452656
4152.000000;1.444947
4151.000000;1.444983
4150.000000;1.476037
4149.000000;1.535843
4148.000000;1.578291
4147.000000;1.555673
4146.000000;1.499414
4145.000000;1.468396
4144.000000;1.476004
4143.000000;1.497632
4142.000000;1.512173
4141.000000;1.530433
4140.000000;1.565147
4139.000000;1.596348
4138.000000;1.606588
4137.000000;1.607648
4136.000000;1.601089
4135.000000;1.591782
4134.000000;1.596450
4133.000000;1.619684
4132.000000;1.650175
4131.000000;1.669931
4130.000000;1.670989
4129.000000;1.666300
4128.000000;1.675958
4127.000000;1.708827
4126.000000;1.758763
4125.000000;1.799906
4124.000000;1.796755
4123.000000;1.754920
4122.000000;1.723632
4121.000000;1.734915
4120.000000;1.777987
4119.000000;1.832840
4118.000000;1.906386
4117.000000;1.982670
4116.000000;1.991901
4115.000000;1.916217
4114.000000;1.827356
4113.000000;1.782679
4112.000000;1.783233
4111.000000;1.800257
4110.000000;1.821825
4109.000000;1.856603
4108.000000;1.906111
4107.000000;1.941486
4106.000000;1.918592
4105.000000;1.852629
4104.000000;1.796354
4103.000000;1.781901
4102.000000;1.809844
4101.000000;1.838725
4100.000000;1.818845
4099.000000;1.757342
4098.000000;1.715151
4097.000000;1.740601
4096.000000;1.827012
4095.000000;1.897347
4094.000000;1.877757
4093.000000;1.830063
4092.000000;1.825093
4091.000000;1.862632
4090.000000;1.895610
4089.000000;1.892358
4088.000000;1.879138
4087.000000;1.883325
4086.000000;1.920762
4085.000000;2.002897
4084.000000;2.079232
4083.000000;2.066042
4082.000000;2.015634
4081.000000;1.957661
4080.000000;1.881128
4079.000000;1.816909
4078.000000;1.801516
4077.000000;1.847663
4076.000000;1.950635
4075.000000;2.053181
4074.000000;2.070238
4073.000000;2.027440
4072.000000;1.969757
4071.000000;1.950886
4070.000000;2.023180
4069.000000;2.150122
4068.000000;2.162799
4067.000000;2.069331
4066.000000;1.999910
4065.000000;2.011850
4064.000000;2.087442
4063.000000;2.158671
4062.000000;2.144140
4061.000000;2.056171
4060.000000;1.948420
4059.000000;1.890770
4058.000000;1.938347
4057.000000;2.083223
4056.000000;2.225387
4055.000000;2.186784
4054.000000;2.070081
4053.000000;2.027684
4052.000000;1.996462
4051.000000;1.947869
4050.000000;1.917229
4049.000000;1.925863
4048.000000;1.973160
4047.000000;2.011098
4046.000000;2.032854
4045.000000;2.083457
4044.000000;2.163658
4043.000000;2.228694
4042.000000;2.281045
4041.000000;2.316541
4040.000000;2.181761
4039.000000;1.935425
4038.000000;1.782011
4037.000000;1.784097
4036.000000;1.948704
4035.000000;2.108607
4034.000000;2.086946
4033.000000;2.124291
4032.000000;2.162863
4031.000000;2.177870
4030.000000;2.291557
4029.000000;2.366062
4028.000000;2.284694
4027.000000;2.509468
4026.000000;2.453180
4025.000000;2.226531
4024.000000;2.385582
4023.000000;2.441190
4022.000000;2.558770
4021.000000;2.467898
4020.000000;2.129487
4019.000000;1.997094
4018.000000;2.001277
4017.000000;2.128510
4016.000000;2.279617
4015.000000;2.212395
4014.000000;2.015784
4013.000000;1.937684
4012.000000;1.993940
4011.000000;2.021420
4010.000000;1.955608
4009.000000;1.894618
4008.000000;1.876046
4007.000000;1.931596
4006.000000;2.045722
4005.000000;2.140410
4004.000000;2.109599
4003.000000;1.993160
4002.000000;1.940966
4001.000000;1.991957
4000.000000;2.080304
3999.000000;2.049321
3998.000000;1.931748
3997.000000;1.880813
3996.000000;1.944480
3995.000000;2.103822
3994.000000;2.166409
3993.000000;2.061220
3992.000000;1.948490
3991.000000;1.859664
3990.000000;1.810605
3989.000000;1.804749
3988.000000;1.858573
3987.000000;1.988416
3986.000000;2.164163
3985.000000;2.315389
3984.000000;2.273782
3983.000000;2.113827
3982.000000;2.040662
3981.000000;2.102654
3980.000000;2.285115
3979.000000;2.266094
3978.000000;2.172132
3977.000000;2.275737
3976.000000;2.560093
3975.000000;2.339344
3974.000000;2.038235
3973.000000;1.907152
3972.000000;1.865671
3971.000000;1.920999
3970.000000;2.029932
3969.000000;2.101987
3968.000000;2.273036
3967.000000;2.542823
3966.000000;2.289411
3965.000000;2.089502
3964.000000;2.084194
3963.000000;2.112498
3962.000000;1.999787
3961.000000;1.950608
3960.000000;2.081818
3959.000000;2.352522
3958.000000;2.226753
3957.000000;1.976135
3956.000000;1.860978
3955.000000;1.860535
3954.000000;1.927952
3953.000000;1.993307
3952.000000;2.058413
3951.000000;2.229679
3950.000000;2.219756
3949.000000;1.987911
3948.000000;1.803742
3947.000000;1.669286
3946.000000;1.634260
3945.000000;1.691476
3944.000000;2.028254
3943.000000;2.447386
3942.000000;2.107202
3941.000000;2.166123
3940.000000;2.247757
3939.000000;2.131281
3938.000000;1.980948
3937.000000;1.938900
3936.000000;1.982567
3935.000000;2.148631
3934.000000;2.100270
3933.000000;1.757456
3932.000000;1.632789
3931.000000;1.679984
3930.000000;1.838042
3929.000000;2.091261
3928.000000;2.334428
3927.000000;2.210623
3926.000000;1.906079
3925.000000;1.728613
3924.000000;1.678974
3923.000000;1.697180
3922.000000;1.713660
3921.000000;1.667583
3920.000000;1.623634
3919.000000;1.690680
3918.000000;1.962973
3917.000000;2.146430
3916.000000;1.983401
3915.000000;1.922423
3914.000000;1.886915
3913.000000;1.879518
3912.000000;1.899015
3911.000000;1.984447
3910.000000;2.061542
3909.000000;2.120175
3908.000000;2.142664
3907.000000;2.179333
3906.000000;2.360722
3905.000000;2.704445
3904.000000;2.578488
3903.000000;2.332725
3902.000000;2.156902
3901.000000;2.113657
3900.000000;2.219592
3899.000000;2.348453
3898.000000;2.307616
3897.000000;1.933970
3896.000000;1.835524
3895.000000;1.690860
3894.000000;1.616028
3893.000000;1.716982
3892.000000;1.885630
3891.000000;1.874964
3890.000000;1.808625
3889.000000;1.968762
3888.000000;2.059857
3887.000000;1.814066
3886.000000;1.711937
3885.000000;1.700424
3884.000000;1.595236
3883.000000;1.455218
3882.000000;1.515217
3881.000000;1.822194
3880.000000;2.283796
3879.000000;1.954455
3878.000000;1.804293
3877.000000;1.832771
3876.000000;1.843904
3875.000000;1.609959
3874.000000;2.014124
3873.000000;2.487192
3872.000000;2.243108
3871.000000;2.066770
3870.000000;2.230872
3869.000000;2.265400
3868.000000;2.097607
3867.000000;2.133196
3866.000000;2.358621
3865.000000;2.476163
3864.000000;2.308924
3863.000000;2.200938
3862.000000;2.195241
3861.000000;2.038708
3860.000000;1.866287
3859.000000;1.928772
3858.000000;1.845147
3857.000000;1.658116
3856.000000;1.881634
3855.000000;1.872695
3854.000000;1.874308
3853.000000;2.031953
3852.000000;2.717040
3851.000000;2.322213
3850.000000;2.377154
3849.000000;2.358297
3848.000000;1.913715
3847.000000;1.838541
3846.000000;1.962569
3845.000000;2.036338
3844.000000;2.039690
3843.000000;1.876164
3842.000000;1.546819
3841.000000;1.458402
3840.000000;1.515192
3839.000000;1.592696
3838.000000;1.631746
3837.000000;1.659928
3836.000000;1.742163
3835.000000;2.087139
3834.000000;2.331956
3833.000000;2.728373
3832.000000;2.570624
3831.000000;2.040663
3830.000000;1.957050
3829.000000;1.914127
3828.000000;1.875746
3827.000000;1.886520
3826.000000;1.927761
3825.000000;1.796689
3824.000000;1.709996
3823.000000;1.754868
3822.000000;1.770573
3821.000000;1.790858
3820.000000;1.966069
3819.000000;2.285577
3818.000000;2.672933
3817.000000;2.569589
3816.000000;2.356640
3815.000000;2.240053
3814.000000;2.125732
3813.000000;1.993650
3812.000000;1.877141
3811.000000;1.830743
3810.000000;1.895689
3809.000000;2.040315
3808.000000;2.111277
3807.000000;2.049114
3806.000000;1.955384
3805.000000;1.949300
3804.000000;2.327355
3803.000000;2.261974
3802.000000;1.962610
3801.000000;1.777729
3800.000000;1.604883
3799.000000;1.531692
3798.000000;1.575367
3797.000000;1.702881
3796.000000;1.891539
3795.000000;2.138298
3794.000000;2.284227
3793.000000;2.354900
3792.000000;2.577206
3791.000000;2.772515
3790.000000;2.333924
3789.000000;2.027001
3788.000000;1.845812
3787.000000;1.786171
3786.000000;1.772826
3785.000000;1.710353
3784.000000;1.668293
3783.000000;1.722022
3782.000000;1.849727
3781.000000;1.948439
3780.000000;2.012863
3779.000000;2.163575
3778.000000;2.300519
3777.000000;2.140560
3776.000000;1.988861
3775.000000;1.918338
3774.000000;1.860760
3773.000000;1.804588
3772.000000;1.787110
3771.000000;1.833413
3770.000000;1.918904
3769.000000;1.982438
3768.000000;2.010131
3767.000000;2.076291
3766.000000;2.281193
3765.000000;2.236148
3764.000000;1.865409
3763.000000;1.731265
3762.000000;1.790334
3761.000000;2.028663
3760.000000;2.068958
3759.000000;1.911871
3758.000000;2.142391
3757.000000;2.289305
3756.000000;2.473839
3755.000000;2.353537
3754.000000;2.285251
3753.000000;2.273135
3752.000000;2.052478
3751.000000;1.983830
3750.000000;2.121579
3749.000000;2.360319
3748.000000;2.408067
3747.000000;2.432359
3746.000000;2.397912
3745.000000;2.240906
3744.000000;2.073057
3743.000000;1.929722
3742.000000;1.878741
3741.000000;1.972606
3740.000000;2.172892
3739.000000;2.294754
3738.000000;2.298455
3737.000000;2.012851
3736.000000;1.880126
3735.000000;1.913828
3734.000000;2.001525
3733.000000;1.964593
3732.000000;1.877926
3731.000000;1.848242
3730.000000;1.869840
3729.000000;1.965754
3728.000000;2.197630
3727.000000;2.632131
3726.000000;2.519450
3725.000000;2.288051
3724.000000;2.515693
3723.000000;2.539604
3722.000000;2.396122
3721.000000;2.682148
3720.000000;2.140643
3719.000000;2.058478
3718.000000;2.341106
3717.000000;2.327464
3716.000000;1.994992
3715.000000;1.797062
3714.000000;1.689699
3713.000000;1.848944
3712.000000;2.041488
3711.000000;1.642033
3710.000000;1.668485
3709.000000;1.955852
3708.000000;2.053862
3707.000000;1.851157
3706.000000;1.776161
3705.000000;1.746246
3704.000000;1.797124
3703.000000;1.926676
3702.000000;1.981315
3701.000000;2.251823
3700.000000;2.436922
3699.000000;1.986154
3698.000000;1.917123
3697.000000;2.131258
3696.000000;2.281931
3695.000000;1.948658
3694.000000;1.719992
3693.000000;1.593509
3692.000000;1.602628
3691.000000;1.750122
3690.000000;1.773738
3689.000000;1.923748
3688.000000;2.678871
3687.000000;2.033463
3686.000000;1.772452
3685.000000;1.759250
3684.000000;1.882169
3683.000000;1.974293
3682.000000;1.885648
3681.000000;1.611911
3680.000000;1.861240
3679.000000;2.199075
3678.000000;2.692970
3677.000000;2.316148
3676.000000;2.025435
3675.000000;1.837277
3674.000000;1.755403
3673.000000;1.780476
3672.000000;1.845595
3671.000000;2.008161
3670.000000;1.888060
3669.000000;2.440082
3668.000000;2.400298
3667.000000;2.048866
3666.000000;1.975223
3665.000000;1.975198
3664.000000;2.128036
3663.000000;2.320560
3662.000000;2.290170
3661.000000;2.113232
3660.000000;2.037616
3659.000000;2.266874
3658.000000;2.626059
3657.000000;2.022537
3656.000000;2.024813
3655.000000;1.988782
3654.000000;2.024553
3653.000000;2.192222
3652.000000;2.249190
3651.000000;2.161508
3650.000000;2.236089
3649.000000;2.276244
3648.000000;2.421108
3647.000000;1.621613
3646.000000;1.619319
3645.000000;1.804684
3644.000000;1.961904
3643.000000;2.028106
3642.000000;2.444419
3641.000000;2.439810
3640.000000;2.128110
3639.000000;2.119357
3638.000000;1.859652
3637.000000;1.661213
3636.000000;1.630089
3635.000000;1.730978
3634.000000;1.865722
3633.000000;1.808198
3632.000000;1.729061
3631.000000;1.823319
3630.000000;2.015202
3629.000000;1.703546
3628.000000;1.513815
3627.000000;1.469165
3626.000000;1.794790
3625.000000;1.921893
3624.000000;1.864191
3623.000000;1.957823
3622.000000;2.129655
3621.000000;2.304983
3620.000000;2.517395
3619.000000;2.473743
3618.000000;2.863656
3617.000000;2.388803
3616.000000;1.901577
3615.000000;1.810841
3614.000000;1.885836
3613.000000;1.999118
3612.000000;2.018331
3611.000000;2.137316
3610.000000;2.449355
3609.000000;2.988948
3608.000000;1.887781
3607.000000;1.711662
3606.000000;1.664332
3605.000000;1.634618
3604.000000;1.596667
3603.000000;1.538192
3602.000000;1.565306
3601.000000;1.754414
3600.000000;2.168286
3599.000000;2.407032
3598.000000;2.195853
3597.000000;2.156200
3596.000000;1.797440
3595.000000;1.524796
3594.000000;1.497514
3593.000000;1.808801
3592.000000;1.920531
3591.000000;1.501428
3590.000000;1.440231
3589.000000;1.481231
3588.000000;1.787793
3587.000000;1.848321
3586.000000;1.650382
3585.000000;1.746104
3584.000000;2.083908
3583.000000;2.432882
3582.000000;2.244832
3581.000000;2.218166
3580.000000;2.306312
3579.000000;2.277846
3578.000000;2.165756
3577.000000;2.141007
3576.000000;2.354700
3575.000000;2.529961
3574.000000;2.110895
3573.000000;1.986926
3572.000000;2.012525
3571.000000;2.020566
3570.000000;1.916019
3569.000000;1.860413
3568.000000;1.629566
3567.000000;1.585112
3566.000000;1.535769
3565.000000;1.588206
3564.000000;1.813135
3563.000000;1.957385
3562.000000;1.898064
3561.000000;1.930631
3560.000000;2.212017
3559.000000;2.401428
3558.000000;2.387936
3557.000000;2.267478
3556.000000;1.954036
3555.000000;1.783204
3554.000000;1.759034
3553.000000;1.820006
3552.000000;1.798352
3551.000000;1.687894
3550.000000;1.611630
3549.000000;1.572214
3548.000000;1.554150
3547.000000;1.562355
3546.000000;1.619312
3545.000000;1.725639
3544.000000;1.826051
3543.000000;1.858005
3542.000000;1.824984
3541.000000;1.783358
3540.000000;1.788131
3539.000000;1.869909
3538.000000;1.979352
3537.000000;1.926635
3536.000000;1.805487
3535.000000;1.764165
3534.000000;1.778430
3533.000000;1.790365
3532.000000;1.753641
3531.000000;1.696682
3530.000000;1.623300
3529.000000;1.544624
3528.000000;1.587314
3527.000000;1.929075
3526.000000;2.149136
3525.000000;1.984782
3524.000000;1.921378
3523.000000;1.905517
3522.000000;2.092978
3521.000000;2.244828
3520.000000;2.093249
3519.000000;2.029677
3518.000000;2.255908
3517.000000;2.846790
3516.000000;2.435647
3515.000000;2.044249
3514.000000;1.827233
3513.000000;1.866666
3512.000000;2.282185
3511.000000;8.000000
3510.000000;2.539223
3509.000000;2.045475
3508.000000;1.931226
3507.000000;1.990589
3506.000000;2.119756
3505.000000;2.233730
3504.000000;2.135613
3503.000000;1.876108
3502.000000;1.684447
3501.000000;1.674733
3500.000000;1.833183
3499.000000;2.085853
3498.000000;2.155436
3497.000000;1.926570
3496.000000;1.743921
3495.000000;1.688929
3494.000000;1.735936
3493.000000;1.842899
3492.000000;1.950588
3491.000000;1.872063
3490.000000;1.689758
3489.000000;1.615167
3488.000000;1.637630
3487.000000;1.693444
3486.000000;1.701883
3485.000000;1.622711
3484.000000;1.511308
3483.000000;1.453698
3482.000000;1.491150
3481.000000;1.625437
3480.000000;1.815500
3479.000000;1.960405
3478.000000;1.960663
3477.000000;1.850329
3476.000000;1.744906
3475.000000;1.710186
3474.000000;1.755489
3473.000000;1.854695
3472.000000;1.933853
3471.000000;1.976655
3470.000000;2.030340
3469.000000;1.953515
3468.000000;1.846783
3467.000000;1.828486
3466.000000;1.808609
3465.000000;1.739405
3464.000000;1.695110
3463.000000;1.712715
3462.000000;1.790514
3461.000000;1.908001
3460.000000;1.975966
3459.000000;1.981547
3458.000000;1.989854
3457.000000;2.013033
3456.000000;2.038307
3455.000000;1.989998
3454.000000;1.899959
3453.000000;1.846714
3452.000000;1.882921
3451.000000;2.029636
3450.000000;2.070546
3449.000000;1.959849
3448.000000;1.903613
3447.000000;2.009538
3446.000000;2.207536
3445.000000;2.137474
3444.000000;1.964387
3443.000000;1.832763
3442.000000;1.796858
3441.000000;1.833783
3440.000000;1.916755
3439.000000;2.040329
3438.000000;2.181136
3437.000000;2.415639
3436.000000;2.686975
3435.000000;2.447293
3434.000000;2.254454
3433.000000;2.135514
3432.000000;1.968600
3431.000000;1.917748
3430.000000;2.103902
3429.000000;2.265685
3428.000000;2.156581
3427.000000;2.184432
3426.000000;2.344760
3425.000000;2.572957
3424.000000;2.312517
3423.000000;1.969989
3422.000000;1.857860
3421.000000;1.976024
3420.000000;2.362302
3419.000000;2.698178
3418.000000;2.312335
3417.000000;2.073703
3416.000000;2.058557
3415.000000;2.171004
3414.000000;2.145719
3413.000000;2.073251
3412.000000;2.139630
3411.000000;2.088953
3410.000000;2.006959
3409.000000;2.328903
3408.000000;2.559372
3407.000000;2.108727
3406.000000;2.131898
3405.000000;2.136023
3404.000000;2.190128
3403.000000;2.325265
3402.000000;2.126054
3401.000000;1.921767
3400.000000;1.937319
3399.000000;2.169863
3398.000000;2.113615
3397.000000;1.960765
3396.000000;1.893075
3395.000000;1.830050
3394.000000;1.819262
3393.000000;1.923572
3392.000000;2.403808
3391.000000;2.219877
3390.000000;2.073546
3389.000000;2.303519
3388.000000;2.427579
3387.000000;2.164864
3386.000000;1.798710
3385.000000;1.686278
3384.000000;1.772951
3383.000000;1.882210
3382.000000;1.892395
3381.000000;1.983878
3380.000000;2.243017
3379.000000;2.544407
3378.000000;2.241610
3377.000000;1.917915
3376.000000;1.745517
3375.000000;1.683467
3374.000000;1.690922
3373.000000;1.698689
3372.000000;1.721124
3371.000000;1.839789
3370.000000;2.159571
3369.000000;2.159273
3368.000000;1.908039
3367.000000;1.811604
3366.000000;1.754326
3365.000000;1.683704
3364.000000;1.646034
3363.000000;1.706461
3362.000000;1.865875
3361.000000;1.983901
3360.000000;2.036887
3359.000000;2.272158
3358.000000;2.773355
3357.000000;2.449096
3356.000000;2.346705
3355.000000;2.312412
3354.000000;2.101801
3353.000000;1.983398
3352.000000;1.877735
3351.000000;1.843411
3350.000000;2.035945
3349.000000;2.170996
3348.000000;2.010675
3347.000000;2.076704
3346.000000;2.411418
3345.000000;2.545036
3344.000000;2.724953
3343.000000;2.926011
3342.000000;2.515382
3341.000000;2.321219
3340.000000;2.182910
3339.000000;2.068028
3338.000000;1.962519
3337.000000;1.873470
3336.000000;1.858125
3335.000000;1.929378
3334.000000;2.008652
3333.000000;2.033425
3332.000000;2.097376
3331.000000;2.233711
3330.000000;2.335059
3329.000000;2.325055
3328.000000;2.238104
3327.000000;2.185869
3326.000000;2.267076
3325.000000;2.476297
3324.000000;2.668045
3323.000000;2.563460
3322.000000;2.396689
3321.000000;2.369120
3320.000000;2.405863
3319.000000;2.278627
3318.000000;2.056376
3317.000000;1.958044
3316.000000;2.085608
3315.000000;2.220986
3314.000000;2.069490
3313.000000;1.982588
3312.000000;1.871977
3311.000000;1.786224
3310.000000;1.921697
3309.000000;2.370885
3308.000000;2.155398
3307.000000;2.295193
3306.000000;2.480279
3305.000000;1.968637
3304.000000;1.869170
3303.000000;1.828832
3302.000000;1.850237
3301.000000;1.887072
3300.000000;1.864300
3299.000000;1.905995
3298.000000;2.024214
3297.000000;2.056107
3296.000000;1.992922
3295.000000;2.004260
3294.000000;2.114194
3293.000000;2.094980
3292.000000;1.927515
3291.000000;1.836249
3290.000000;1.923692
3289.000000;2.637383
3288.000000;2.299068
3287.000000;1.922211
3286.000000;1.867213
3285.000000;1.899055
3284.000000;1.940636
3283.000000;1.859972
3282.000000;1.760578
3281.000000;1.764631
3280.000000;1.869326
3279.000000;1.898102
3278.000000;1.988842
3277.000000;2.214548
3276.000000;2.042907
3275.000000;1.930909
3274.000000;1.903429
3273.000000;1.818683
3272.000000;1.709100
3271.000000;1.637916
3270.000000;1.638883
3269.000000;1.734461
3268.000000;2.064845
3267.000000;2.616316
3266.000000;2.303231
3265.000000;2.050432
3264.000000;1.986692
3263.000000;2.080364
3262.000000;2.194810
3261.000000;2.278151
3260.000000;2.331695
3259.000000;2.291462
3258.000000;2.170309
3257.000000;2.115477
3256.000000;2.215335
3255.000000;2.392811
3254.000000;2.511017
3253.000000;2.120705
3252.000000;1.914082
3251.000000;1.862487
3250.000000;1.840742
3249.000000;1.831134
3248.000000;1.841864
3247.000000;1.873155
3246.000000;1.973687
3245.000000;2.086474
3244.000000;2.006160
3243.000000;1.881770
3242.000000;1.780765
3241.000000;1.690643
3240.000000;1.650533
3239.000000;1.619602
3238.000000;1.561427
3237.000000;1.517593
3236.000000;1.558364
3235.000000;1.683342
3234.000000;1.887738
3233.000000;2.638393
3232.000000;2.114609
3231.000000;1.764817
3230.000000;1.693694
3229.000000;1.657781
3228.000000;1.617575
3227.000000;1.603373
3226.000000;1.657159
3225.000000;1.772547
3224.000000;1.864909
3223.000000;1.863849
3222.000000;1.886857
3221.000000;1.916346
3220.000000;1.832728
3219.000000;1.751432
3218.000000;1.752181
3217.000000;1.814385
3216.000000;1.920815
3215.000000;2.055451
3214.000000;2.509647
3213.000000;2.529154
3212.000000;1.990738
3211.000000;1.826462
3210.000000;1.790568
3209.000000;1.822008
3208.000000;1.846859
3207.000000;1.794183
3206.000000;1.741911
3205.000000;1.764634
3204.000000;1.882698
3203.000000;2.081114
3202.000000;2.242543
3201.000000;2.198389
3200.000000;2.086779
3199.000000;2.030409
3198.000000;2.002526
3197.000000;1.975157
3196.000000;2.015134
3195.000000;2.234733
3194.000000;2.372411
3193.000000;2.180998
3192.000000;2.197728
3191.000000;2.502403
3190.000000;2.503492
3189.000000;2.198930
3188.000000;2.158156
3187.000000;2.085328
3186.000000;1.986210
3185.000000;1.993801
3184.000000;2.063961
3183.000000;2.116721
3182.000000;2.144399
3181.000000;2.218359
3180.000000;2.336409
3179.000000;2.285060
3178.000000;2.051446
3177.000000;1.871550
3176.000000;1.775262
3175.000000;1.705524
3174.000000;1.676885
3173.000000;1.769821
3172.000000;1.999229
3171.000000;2.019104
3170.000000;1.850623
3169.000000;1.828517
3168.000000;2.038818
3167.000000;2.349492
3166.000000;2.596931
3165.000000;2.546275
3164.000000;1.952681
3163.000000;1.767814
3162.000000;1.714839
3161.000000;1.727283
3160.000000;1.775846
3159.000000;1.812695
3158.000000;1.864703
3157.000000;1.990700
3156.000000;2.086818
3155.000000;2.122817
3154.000000;2.315702
3153.000000;1.938389
3152.000000;1.694121
3151.000000;1.710591
3150.000000;1.925364
3149.000000;2.462068
3148.000000;2.413087
3147.000000;2.015248
3146.000000;1.874706
3145.000000;1.776178
3144.000000;1.651896
3143.000000;1.547891
3142.000000;1.513465
3141.000000;1.539077
3140.000000;1.571798
3139.000000;1.598278
3138.000000;1.620902
3137.000000;1.614207
3136.000000;1.605196
3135.000000;1.634157
3134.000000;1.694809
3133.000000;1.734917
3132.000000;1.722292
3131.000000;1.720164
3130.000000;1.797172
3129.000000;1.954245
3128.000000;2.043163
3127.000000;1.879062
3126.000000;1.690395
3125.000000;1.603842
3124.000000;1.608732
3123.000000;1.691876
3122.000000;1.901547
3121.000000;2.329380
3120.000000;2.497936
3119.000000;2.549276
3118.000000;2.987322
3117.000000;2.712526
3116.000000;2.439332
3115.000000;2.397854
3114.000000;2.179964
3113.000000;1.845230
3112.000000;1.693775
3111.000000;1.725205
3110.000000;1.919512
3109.000000;1.976177
3108.000000;1.886681
3107.000000;1.921673
3106.000000;1.982129
3105.000000;2.081791
3104.000000;2.233445
3103.000000;2.301986
3102.000000;2.038627
3101.000000;1.792718
3100.000000;1.707641
3099.000000;1.698541
3098.000000;1.713490
3097.000000;1.745937
3096.000000;1.817781
3095.000000;1.915501
3094.000000;2.183051
3093.000000;3.095804
3092.000000;2.278284
3091.000000;2.260845
3090.000000;2.292814
3089.000000;1.895304
3088.000000;1.789003
3087.000000;1.896036
3086.000000;2.096829
3085.000000;2.218001
3084.000000;2.237621
3083.000000;2.130954
3082.000000;2.163651
3081.000000;2.184027
3080.000000;2.126180
3079.000000;2.291824
3078.000000;2.132818
3077.000000;1.844217
3076.000000;1.777548
3075.000000;1.886642
3074.000000;2.143735
3073.000000;2.292185
3072.000000;2.068733
3071.000000;1.882362
3070.000000;1.891099
3069.000000;2.124054
3068.000000;2.500118
3067.000000;2.246216
3066.000000;1.855081
3065.000000;1.660595
3064.000000;1.630267
3063.000000;1.745265
3062.000000;2.020046
3061.000000;2.362336
3060.000000;2.176497
3059.000000;1.930535
3058.000000;1.903953
3057.000000;2.147678
3056.000000;2.714337
3055.000000;2.645915
3054.000000;2.115619
3053.000000;1.821574
3052.000000;1.727600
3051.000000;1.721116
3050.000000;1.738628
3049.000000;1.765828
3048.000000;1.815722
3047.000000;1.841358
3046.000000;1.865274
3045.000000;1.891916
3044.000000;2.026514
3043.000000;2.712784
3042.000000;2.032472
3041.000000;1.681863
3040.000000;1.581059
3039.000000;1.568299
3038.000000;1.620375
3037.000000;1.736192
3036.000000;1.935806
3035.000000;2.360997
3034.000000;2.880983
3033.000000;2.168204
3032.000000;1.965962
3031.000000;1.886060
3030.000000;1.890205
3029.000000;2.001086
3028.000000;2.020568
3027.000000;1.896249
3026.000000;1.834044
3025.000000;1.790499
3024.000000;1.807298
3023.000000;1.952522
3022.000000;1.987976
3021.000000;2.006631
3020.000000;2.218125
3019.000000;2.485242
3018.000000;2.245572
3017.000000;1.854052
3016.000000;1.660608
3015.000000;1.635186
3014.000000;1.785145
3013.000000;2.168759
3012.000000;2.520677
3011.000000;2.149586
3010.000000;1.964324
3009.000000;2.233425
3008.000000;2.249301
3007.000000;1.846007
3006.000000;1.848151
3005.000000;1.929306
3004.000000;1.984122
3003.000000;2.200155
3002.000000;2.625762
3001.000000;2.650184
3000.000000;2.504096
2999.000000;2.312989
2998.000000;2.028420
2997.000000;1.827196
2996.000000;1.807412
2995.000000;2.078298
2994.000000;2.474178
2993.000000;3.163766
2992.000000;2.315763
2991.000000;2.009214
2990.000000;2.280362
2989.000000;2.424973
2988.000000;2.323699
2987.000000;2.180081
2986.000000;1.853204
2985.000000;1.833344
2984.000000;2.183048
2983.000000;2.287530
2982.000000;2.277173
2981.000000;2.518510
2980.000000;1.932820
2979.000000;1.789066
2978.000000;1.903894
2977.000000;2.249377
2976.000000;2.303531
2975.000000;2.187486
2974.000000;2.454368
2973.000000;2.461685
2972.000000;2.195692
2971.000000;1.945495
2970.000000;1.842974
2969.000000;1.774678
2968.000000;1.702963
2967.000000;1.734818
2966.000000;1.994284
2965.000000;2.486928
2964.000000;2.020301
2963.000000;1.775604
2962.000000;1.734933
2961.000000;1.746021
2960.000000;1.702602
2959.000000;1.655132
2958.000000;1.748529
2957.000000;2.054363
2956.000000;2.481575
2955.000000;2.529700
2954.000000;2.345582
2953.000000;2.031118
2952.000000;1.878577
2951.000000;1.868845
2950.000000;1.970700
2949.000000;2.007461
2948.000000;1.951947
2947.000000;2.092302
2946.000000;2.462039
2945.000000;2.750473
2944.000000;2.671787
2943.000000;2.459323
2942.000000;2.839124
2941.000000;2.603558
2940.000000;2.294450
2939.000000;2.927889
2938.000000;2.341306
2937.000000;1.888438
2936.000000;1.746375
2935.000000;1.731771
2934.000000;1.825312
2933.000000;1.928385
2932.000000;2.035658
2931.000000;2.063498
2930.000000;1.887778
2929.000000;1.725364
2928.000000;1.635416
2927.000000;1.625975
2926.000000;1.678144
2925.000000;1.706826
2924.000000;1.673069
2923.000000;1.651356
2922.000000;1.702055
2921.000000;1.798570
2920.000000;1.786749
2919.000000;1.655217
2918.000000;1.552367
2917.000000;1.483475
2916.000000;1.421907
2915.000000;1.422277
2914.000000;1.555683
2913.000000;1.901867
2912.000000;2.572978
2911.000000;2.316714
2910.000000;1.858485
2909.000000;1.696513
2908.000000;1.727027
2907.000000;1.902004
2906.000000;2.138320
2905.000000;2.021844
2904.000000;1.778902
2903.000000;1.743513
2902.000000;1.910061
2901.000000;2.256160
2900.000000;2.336912
2899.000000;2.071798
2898.000000;1.968530
2897.000000;2.070876
2896.000000;2.367859
2895.000000;2.289740
2894.000000;2.324084
2893.000000;2.539560
2892.000000;1.992448
2891.000000;1.744369
2890.000000;1.706766
2889.000000;1.791814
2888.000000;2.003268
2887.000000;2.027131
2886.000000;2.123002
2885.000000;2.527833
2884.000000;2.026473
2883.000000;1.870293
2882.000000;1.987141
2881.000000;1.867365
2880.000000;1.663154
2879.000000;1.628831
2878.000000;1.744810
2877.000000;2.124627
2876.000000;2.864962
2875.000000;2.516761
2874.000000;2.563510
2873.000000;1.987140
2872.000000;1.788674
2871.000000;1.932868
2870.000000;2.238913
2869.000000;2.017286
2868.000000;1.940500
2867.000000;2.395117
2866.000000;2.155991
2865.000000;1.819664
2864.000000;1.866954
2863.000000;2.134211
2862.000000;2.328998
2861.000000;2.303703
2860.000000;2.704556
2859.000000;2.316622
2858.000000;1.919387
2857.000000;1.727143
2856.000000;1.603385
2855.000000;1.582614
2854.000000;1.630145
2853.000000;1.723319
2852.000000;1.855872
2851.000000;2.024836
2850.000000;2.082912
2849.000000;2.212220
2848.000000;2.379341
2847.000000;1.877462
2846.000000;1.625326
2845.000000;1.550879
2844.000000;1.550911
2843.000000;1.544581
2842.000000;1.576180
2841.000000;1.714500
2840.000000;1.735219
2839.000000;1.647737
2838.000000;1.718398
2837.000000;2.262247
2836.000000;2.401768
2835.000000;1.974639
2834.000000;2.116358
2833.000000;1.960327
2832.000000;1.773673
2831.000000;1.789911
2830.000000;1.808712
2829.000000;1.780852
2828.000000;1.767819
2827.000000;1.774701
2826.000000;1.872098
2825.000000;2.192912
2824.000000;2.345492
2823.000000;2.072850
2822.000000;1.807629
2821.000000;1.696815
2820.000000;1.738560
2819.000000;1.715589
2818.000000;1.700220
2817.000000;1.910058
2816.000000;2.313565
2815.000000;2.596785
2814.000000;2.716161
2813.000000;2.574527
2812.000000;2.177370
2811.000000;1.947407
2810.000000;1.893481
2809.000000;1.922370
2808.000000;1.982879
2807.000000;2.011148
2806.000000;2.071724
2805.000000;1.973058
2804.000000;1.966667
2803.000000;2.302743
2802.000000;2.628028
2801.000000;2.978055
2800.000000;2.285222
2799.000000;1.875230
2798.000000;1.750664
2797.000000;1.793923
2796.000000;2.134022
2795.000000;2.642207
2794.000000;2.292636
2793.000000;2.497984
2792.000000;2.217522
2791.000000;1.813575
2790.000000;1.810300
2789.000000;2.061566
2788.000000;2.098884
2787.000000;1.930826
2786.000000;1.964554
2785.000000;1.910684
2784.000000;1.806588
2783.000000;1.816951
2782.000000;1.839915
2781.000000;1.790415
2780.000000;1.726399
2779.000000;1.798768
2778.000000;2.160997
2777.000000;2.467651
2776.000000;2.101137
2775.000000;1.842441
2774.000000;1.776301
2773.000000;2.003993
2772.000000;2.299350
2771.000000;2.101176
2770.000000;2.068440
2769.000000;2.058358
2768.000000;2.061516
2767.000000;2.411978
2766.000000;2.605880
2765.000000;2.190302
2764.000000;2.388315
2763.000000;2.387790
2762.000000;2.486405
2761.000000;2.248480
2760.000000;1.709447
2759.000000;1.587203
2758.000000;1.645159
2757.000000;1.759499
2756.000000;1.794066
2755.000000;1.742555
2754.000000;1.823111
2753.000000;2.216075
2752.000000;2.080211
2751.000000;1.971322
2750.000000;1.897238
2749.000000;1.562162
2748.000000;1.421986
2747.000000;1.483684
2746.000000;1.675244
2745.000000;1.735796
2744.000000;1.682552
2743.000000;1.917590
2742.000000;2.388750
2741.000000;1.782522
2740.000000;1.674962
2739.000000;1.808758
2738.000000;1.587587
2737.000000;1.382842
2736.000000;1.387690
2735.000000;1.633271
2734.000000;1.956524
2733.000000;1.922278
2732.000000;2.352997
2731.000000;2.269663
2730.000000;1.807357
2729.000000;1.715437
2728.000000;1.625080
2727.000000;1.589296
2726.000000;1.509069
2725.000000;1.442950
2724.000000;1.525152
2723.000000;1.869887
2722.000000;2.256087
2721.000000;1.870304
2720.000000;1.638610
2719.000000;1.520612
2718.000000;1.482459
2717.000000;1.477570
2716.000000;1.471747
2715.000000;1.502371
2714.000000;1.719550
2713.000000;2.129552
2712.000000;2.045588
2711.000000;2.017096
2710.000000;1.810657
2709.000000;1.607916
2708.000000;1.570540
2707.000000;1.617166
2706.000000;1.798840
2705.000000;2.129951
2704.000000;2.249974
2703.000000;2.007574
2702.000000;1.732544
2701.000000;1.551217
2700.000000;1.546025
2699.000000;1.698035
2698.000000;1.839180
2697.000000;1.934935
2696.000000;1.823832
2695.000000;1.654894
2694.000000;1.653188
2693.000000;1.888604
2692.000000;2.582266
2691.000000;2.223256
2690.000000;2.092003
2689.000000;2.012944
2688.000000;1.663924
2687.000000;1.512931
2686.000000;1.498566
2685.000000;1.705161
2684.000000;2.231128
2683.000000;1.905332
2682.000000;1.798035
2681.000000;2.015449
2680.000000;1.789533
2679.000000;1.607313
2678.000000;1.657635
2677.000000;1.753036
2676.000000;1.757294
2675.000000;1.846694
2674.000000;2.005914
2673.000000;1.863139
2672.000000;1.685403
2671.000000;1.604834
2670.000000;1.560773
2669.000000;1.591759
2668.000000;1.727258
2667.000000;1.787891
2666.000000;1.654343
2665.000000;1.751508
2664.000000;1.955560
2663.000000;1.619253
2662.000000;1.477194
2661.000000;1.480386
2660.000000;1.517029
2659.000000;1.505269
2658.000000;1.399953
2657.000000;1.373519
2656.000000;1.690701
2655.000000;2.252191
2654.000000;1.787804
2653.000000;1.845710
2652.000000;1.886894
2651.000000;1.717259
2650.000000;1.531950
2649.000000;1.371029
2648.000000;1.319738
2647.000000;1.385138
2646.000000;1.550421
2645.000000;1.544225
2644.000000;1.460378
2643.000000;1.530458
2642.000000;1.741721
2641.000000;1.817023
2640.000000;1.667776
2639.000000;1.554901
2638.000000;1.587202
2637.000000;1.598022
2636.000000;1.456885
2635.000000;1.513306
2634.000000;1.519551
2633.000000;1.306175
2632.000000;1.275910
2631.000000;1.484340
2630.000000;1.992075
2629.000000;2.130205
2628.000000;2.043504
2627.000000;2.050335
2626.000000;2.058897
2625.000000;2.029939
2624.000000;1.694299
2623.000000;1.561007
2622.000000;1.475412
2621.000000;1.443773
2620.000000;1.631340
2619.000000;1.961262
2618.000000;1.845315
2617.000000;1.636444
2616.000000;1.586613
2615.000000;1.673418
2614.000000;1.823576
2613.000000;1.848040
2612.000000;1.618841
2611.000000;1.442398
2610.000000;1.397709
2609.000000;1.581708
2608.000000;2.116618
2607.000000;2.348435
2606.000000;2.076164
2605.000000;1.599674
2604.000000;1.498264
2603.000000;1.732854
2602.000000;1.912496
2601.000000;1.764334
2600.000000;1.572886
2599.000000;1.418934
2598.000000;1.411745
2597.000000;1.617603
2596.000000;1.853151
2595.000000;1.785761
2594.000000;1.839526
2593.000000;1.891709
2592.000000;1.847701
2591.000000;1.900952
2590.000000;1.814896
2589.000000;1.721060
2588.000000;1.644100
2587.000000;1.645222
2586.000000;1.747209
2585.000000;1.714013
2584.000000;1.602137
2583.000000;1.517238
2582.000000;1.498095
2581.000000;1.554042
2580.000000;1.544300
2579.000000;1.453917
2578.000000;1.369761
2577.000000;1.313491
2576.000000;1.309397
2575.000000;1.380772
2574.000000;1.547402
2573.000000;1.759569
2572.000000;1.839683
2571.000000;1.770732
2570.000000;1.738757
2569.000000;1.701208
2568.000000;1.592492
2567.000000;1.533547
2566.000000;1.524249
2565.000000;1.503871
2564.000000;1.562608
2563.000000;1.700731
2562.000000;1.897731
2561.000000;2.389041
2560.000000;2.102519
2559.000000;1.757405
2558.000000;1.596905
2557.000000;1.452504
2556.000000;1.383700
2555.000000;1.432840
2554.000000;1.579491
2553.000000;1.649183
2552.000000;1.686389
2551.000000;1.715042
2550.000000;1.676119
2549.000000;1.723512
2548.000000;1.833117
2547.000000;1.872523
2546.000000;2.005862
2545.000000;2.279987
2544.000000;1.981113
2543.000000;1.876627
2542.000000;1.876419
2541.000000;1.644406
2540.000000;1.532824
2539.000000;1.513574
2538.000000;1.497819
2537.000000;1.473001
2536.000000;1.481838
2535.000000;1.539516
2534.000000;1.654321
2533.000000;1.955946
2532.000000;1.977452
2531.000000;1.735586
2530.000000;1.736238
2529.000000;1.728845
2528.000000;1.577180
2527.000000;1.501012
2526.000000;1.529818
2525.000000;1.582695
2524.000000;1.708590
2523.000000;2.052332
2522.000000;2.344955
2521.000000;2.172591
2520.000000;1.972186
2519.000000;1.895644
2518.000000;1.948688
2517.000000;2.068195
2516.000000;2.407965
2515.000000;2.113341
2514.000000;1.767518
2513.000000;1.692206
2512.000000;1.704908
2511.000000;1.760084
2510.000000;1.770005
2509.000000;1.698662
2508.000000;1.699125
2507.000000;1.782097
2506.000000;1.831468
2505.000000;1.921277
2504.000000;1.971541
2503.000000;1.899663
2502.000000;1.844915
2501.000000;1.740946
2500.000000;1.646344
2499.000000;1.605329
2498.000000;1.604594
2497.000000;1.626439
2496.000000;1.638963
2495.000000;1.634916
2494.000000;1.667264
2493.000000;1.845703
2492.000000;2.187739
2491.000000;2.240778
2490.000000;1.836789
2489.000000;1.531924
2488.000000;1.413507
2487.000000;1.432519
2486.000000;1.484521
2485.000000;1.493162
2484.000000;1.520445
2483.000000;1.582258
2482.000000;1.638656
2481.000000;1.724815
2480.000000;1.873230
2479.000000;1.988772
2478.000000;1.857441
2477.000000;1.623624
2476.000000;1.460055
2475.000000;1.395758
2474.000000;1.429584
2473.000000;1.538004
2472.000000;1.643931
2471.000000;1.760903
2470.000000;2.003181
2469.000000;1.925374
2468.000000;1.656404
2467.000000;1.544786
2466.000000;1.517340
2465.000000;1.484997
2464.000000;1.439894
2463.000000;1.435024
2462.000000;1.591936
2461.000000;2.131452
2460.000000;2.032272
2459.000000;1.758395
2458.000000;1.695845
2457.000000;1.561223
2456.000000;1.551317
2455.000000;1.601437
2454.000000;1.619722
2453.000000;1.632641
2452.000000;1.689126
2451.000000;1.916868
2450.000000;2.145606
2449.000000;1.876866
2448.000000;1.682001
2447.000000;1.666653
2446.000000;1.922855
2445.000000;2.384437
2444.000000;2.121848
2443.000000;1.801601
2442.000000;1.688283
2441.000000;1.906782
2440.000000;1.885085
2439.000000;1.589923
2438.000000;1.596305
2437.000000;1.850435
2436.000000;1.961020
2435.000000;1.680082
2434.000000;1.702518
2433.000000;1.972210
2432.000000;1.797251
2431.000000;1.554001
2430.000000;1.572420
2429.000000;1.902536
2428.000000;1.877251
2427.000000;1.636985
2426.000000;1.689189
2425.000000;1.884033
2424.000000;2.114072
2423.000000;2.141647
2422.000000;2.286085
2421.000000;2.543773
2420.000000;1.969483
2419.000000;1.665073
2418.000000;1.573588
2417.000000;1.690361
2416.000000;1.753277
2415.000000;1.543936
2414.000000;1.471181
2413.000000;1.531310
2412.000000;1.670378
2411.000000;1.675796
2410.000000;1.681687
2409.000000;2.127678
2408.000000;1.889199
2407.000000;1.523530
2406.000000;1.521970
2405.000000;1.659553
2404.000000;1.662629
2403.000000;1.566901
2402.000000;1.549306
2401.000000;1.776954
2400.000000;2.426743
2399.000000;2.198670
2398.000000;2.348652
2397.000000;1.878846
2396.000000;1.671524
2395.000000;1.947037
2394.000000;1.939464
2393.000000;1.767429
2392.000000;1.833768
2391.000000;1.946137
2390.000000;1.891748
2389.000000;1.808880
2388.000000;1.874271
2387.000000;1.914857
2386.000000;1.662090
2385.000000;1.494818
2384.000000;1.444347
2383.000000;1.326238
2382.000000;1.186154
2381.000000;1.165590
2380.000000;1.301015
2379.000000;1.556805
2378.000000;1.913327
2377.000000;2.428422
2376.000000;1.944767
2375.000000;1.626082
2374.000000;1.467045
2373.000000;1.326009
2372.000000;1.266297
2371.000000;1.265358
2370.000000;1.279692
2369.000000;1.296031
2368.000000;1.341084
2367.000000;1.365557
2366.000000;1.473108
2365.000000;1.541283
2364.000000;1.266163
2363.000000;1.176488
2362.000000;1.214794
2361.000000;1.166141
2360.000000;1.205238
2359.000000;1.358934
2358.000000;1.269507
2357.000000;1.158245
2356.000000;1.199787
2355.000000;1.209238
2354.000000;1.110716
2353.000000;1.012599
2352.000000;0.968924
2351.000000;1.020719
2350.000000;1.222348
2349.000000;1.310984
2348.000000;1.187917
2347.000000;1.145405
2346.000000;1.155636
2345.000000;1.155398
2344.000000;1.105848
2343.000000;1.058371
2342.000000;1.113464
2341.000000;1.259269
2340.000000;1.495874
2339.000000;1.798933
2338.000000;1.536485
2337.000000;1.350126
2336.000000;1.277481
2335.000000;1.181658
2334.000000;1.113059
2333.000000;1.129000
2332.000000;1.320188
2331.000000;1.570512
2330.000000;1.847351
2329.000000;1.887393
2328.000000;1.411141
2327.000000;1.226305
2326.000000;1.197444
2325.000000;1.240566
2324.000000;1.323593
2323.000000;1.339838
2322.000000;1.336162
2321.000000;1.399240
2320.000000;1.580234
2319.000000;1.813699
2318.000000;1.783485
2317.000000;1.606652
2316.000000;1.494163
2315.000000;1.415158
2314.000000;1.372197
2313.000000;1.373743
2312.000000;1.623396
2311.000000;2.271860
2310.000000;1.894757
2309.000000;1.920353
2308.000000;1.730253
2307.000000;1.418341
2306.000000;1.386586
2305.000000;1.452556
2304.000000;1.593148
2303.000000;1.603289
2302.000000;1.466031
2301.000000;1.349861
2300.000000;1.351365
2299.000000;1.524697
2298.000000;1.679068
2297.000000;2.003578
2296.000000;1.791337
2295.000000;1.293119
2294.000000;1.143242
2293.000000;1.185406
2292.000000;1.276496
2291.000000;1.280905
2290.000000;1.337133
2289.000000;1.564611
2288.000000;1.885979
2287.000000;1.831216
2286.000000;1.574800
2285.000000;1.447549
2284.000000;1.403907
2283.000000;1.389111
2282.000000;1.385803
2281.000000;1.443382
2280.000000;1.620432
2279.000000;1.938431
2278.000000;1.905237
2277.000000;1.611987
2276.000000;1.490524
2275.000000;1.462841
2274.000000;1.496539
2273.000000;1.575094
2272.000000;1.621777
2271.000000;1.608126
2270.000000;1.586953
2269.000000;1.523378
2268.000000;1.473207
2267.000000;1.465724
2266.000000;1.633278
2265.000000;1.864174
2264.000000;1.886852
2263.000000;2.156981
2262.000000;1.718034
2261.000000;1.486402
2260.000000;1.580311
2259.000000;1.862814
2258.000000;2.076232
2257.000000;1.712957
2256.000000;1.485948
2255.000000;1.441800
2254.000000;1.584969
2253.000000;2.000459
2252.000000;1.943594
2251.000000;1.642151
2250.000000;1.680392
2249.000000;1.729859
2248.000000;1.659084
2247.000000;1.672747
2246.000000;1.751880
2245.000000;1.974043
2244.000000;2.326581
2243.000000;1.897077
2242.000000;1.720048
2241.000000;2.081309
2240.000000;1.980819
2239.000000;1.772303
2238.000000;2.186628
2237.000000;1.883390
2236.000000;1.466022
2235.000000;1.325759
2234.000000;1.312444
2233.000000;1.422283
2232.000000;1.596387
2231.000000;1.710071
2230.000000;1.999733
2229.000000;2.144361
2228.000000;1.761856
2227.000000;1.776785
2226.000000;1.979881
2225.000000;1.947099
2224.000000;1.705126
2223.000000;1.511262
2222.000000;1.406780
2221.000000;1.398503
2220.000000;1.538963
2219.000000;1.846325
2218.000000;1.966087
2217.000000;1.742484
2216.000000;1.589053
2215.000000;1.505781
2214.000000;1.477842
2213.000000;1.546076
2212.000000;1.769773
2211.000000;2.073915
2210.000000;2.020805
2209.000000;1.685894
2208.000000;1.463311
2207.000000;1.396726
2206.000000;1.451321
2205.000000;1.605268
2204.000000;1.783345
2203.000000;1.763447
2202.000000;1.785942
2201.000000;2.080390
2200.000000;2.130397
2199.000000;1.842848
2198.000000;1.670231
2197.000000;1.548400
2196.000000;1.556969
2195.000000;2.012522
2194.000000;2.233621
2193.000000;1.630744
2192.000000;1.460005
2191.000000;1.368218
2190.000000;1.351162
2189.000000;1.421901
2188.000000;1.499831
2187.000000;1.501523
2186.000000;1.413903
2185.000000;1.438502
2184.000000;1.821715
2183.000000;1.969057
2182.000000;1.652007
2181.000000;1.793929
2180.000000;1.912963
2179.000000;1.678185
2178.000000;1.591879
2177.000000;1.706991
2176.000000;1.708711
2175.000000;1.504648
2174.000000;1.485348
2173.000000;1.635263
2172.000000;1.951588
2171.000000;1.916982
2170.000000;1.661026
2169.000000;1.861816
2168.000000;1.988574
2167.000000;1.716549
2166.000000;1.762441
2165.000000;1.624587
2164.000000;1.555013
2163.000000;2.004084
2162.000000;2.172256
2161.000000;1.959634
2160.000000;2.205515
2159.000000;1.686151
2158.000000;1.656278
2157.000000;2.359569
2156.000000;1.695325
2155.000000;1.543245
2154.000000;1.791735
2153.000000;1.867268
2152.000000;1.905289
2151.000000;1.650695
2150.000000;1.450593
2149.000000;1.502805
2148.000000;1.723843
2147.000000;1.984064
2146.000000;2.100071
2145.000000;1.968424
2144.000000;1.953963
2143.000000;2.550626
2142.000000;2.374672
2141.000000;1.592093
2140.000000;1.356850
2139.000000;1.339354
2138.000000;1.487321
2137.000000;1.625146
2136.000000;1.641769
2135.000000;1.800389
2134.000000;2.030629
2133.000000;2.204126
2132.000000;1.972934
2131.000000;1.683064
2130.000000;1.661245
2129.000000;1.610082
2128.000000;1.406913
2127.000000;1.326484
2126.000000;1.383576
2125.000000;1.440488
2124.000000;1.390333
2123.000000;1.342532
2122.000000;1.368920
2121.000000;1.454745
2120.000000;1.609456
2119.000000;1.731991
2118.000000;1.801035
2117.000000;2.145185
2116.000000;1.944678
2115.000000;1.601173
2114.000000;1.611231
2113.000000;1.574101
2112.000000;1.459461
2111.000000;1.472172
2110.000000;1.620432
2109.000000;2.022567
2108.000000;2.224003
2107.000000;1.779671
2106.000000;1.669618
2105.000000;1.936703
2104.000000;2.284552
2103.000000;2.021668
2102.000000;2.058826
2101.000000;2.335172
2100.000000;2.084178
2099.000000;1.816356
2098.000000;1.751821
2097.000000;1.660456
2096.000000;1.596067
2095.000000;1.664019
2094.000000;1.777196
2093.000000;1.750707
2092.000000;1.601495
2091.000000;1.506991
2090.000000;1.437302
2089.000000;1.414706
2088.000000;1.500531
2087.000000;1.589850
2086.000000;1.488954
2085.000000;1.312353
2084.000000;1.241875
2083.000000;1.318088
2082.000000;1.425089
2081.000000;1.464957
2080.000000;1.475900
2079.000000;1.400482
2078.000000;1.415720
2077.000000;1.757950
2076.000000;2.070617
2075.000000;1.867098
2074.000000;1.731186
2073.000000;1.448484
2072.000000;1.305689
2071.000000;1.344106
2070.000000;1.483282
2069.000000;1.667690
2068.000000;1.803389
2067.000000;1.687639
2066.000000;1.529019
2065.000000;1.486879
2064.000000;1.577355
2063.000000;1.706184
2062.000000;1.750833
2061.000000;1.702268
2060.000000;1.433362
2059.000000;1.305803
2058.000000;1.391057
2057.000000;1.668149
2056.000000;2.545684
2055.000000;1.979177
2054.000000;1.418289
2053.000000;1.260218
2052.000000;1.299929
2051.000000;1.413036
2050.000000;1.435400
2049.000000;1.489074
2048.000000;1.611260
2047.000000;1.752290
2046.000000;1.957888
2045.000000;1.946339
2044.000000;1.653688
2043.000000;1.391977
2042.000000;1.252523
2041.000000;1.242928
2040.000000;1.438483
2039.000000;1.727446
2038.000000;1.589413
2037.000000;1.409480
2036.000000;1.393030
2035.000000;1.466172
2034.000000;1.514080
2033.000000;1.847002
2032.000000;1.771962
2031.000000;1.372100
2030.000000;1.334687
2029.000000;1.342212
2028.000000;1.523522
2027.000000;2.019472
2026.000000;1.837474
2025.000000;1.809646
2024.000000;1.862739
2023.000000;1.635397
2022.000000;1.508646
2021.000000;1.518491
2020.000000;1.684328
2019.000000;1.919201
2018.000000;1.814685
2017.000000;1.674146
2016.000000;1.518135
2015.000000;1.564935
2014.000000;1.963907
2013.000000;1.556131
2012.000000;1.284831
2011.000000;1.278732
2010.000000;1.315232
2009.000000;1.384448
2008.000000;1.560765
2007.000000;1.944085
2006.000000;2.257869
2005.000000;2.152129
2004.000000;2.286049
2003.000000;1.751550
2002.000000;1.337783
2001.000000;1.224760
2000.000000;1.308489
1999.000000;1.450040
1998.000000;1.424522
1997.000000;1.338584
1996.000000;1.306041
1995.000000;1.385195
1994.000000;1.632470
1993.000000;1.882207
1992.000000;1.887294
1991.000000;1.740771
1990.000000;1.635498
1989.000000;1.518140
1988.000000;1.271756
1987.000000;1.165588
1986.000000;1.203119
1985.000000;1.549292
1984.000000;2.040715
1983.000000;1.319854
1982.000000;1.131573
1981.000000;1.146247
1980.000000;1.228937
1979.000000;1.297726
1978.000000;1.282347
1977.000000;1.305075
1976.000000;1.317087
1975.000000;1.328993
1974.000000;1.449524
1973.000000;1.426461
1972.000000;1.248113
1971.000000;1.185013
1970.000000;1.194025
1969.000000;1.255688
1968.000000;1.370481
1967.000000;1.501768
1966.000000;1.796994
1965.000000;2.155990
1964.000000;1.672171
1963.000000;1.403061
1962.000000;1.267387
1961.000000;1.176988
1960.000000;1.134081
1959.000000;1.134754
1958.000000;1.313887
1957.000000;1.570489
1956.000000;1.564149
1955.000000;1.686185
1954.000000;1.331353
1953.000000;1.027352
1952.000000;0.980907
1951.000000;1.065148
1950.000000;1.224052
1949.000000;1.361696
1948.000000;1.389322
1947.000000;1.309215
1946.000000;1.261479
1945.000000;1.301090
1944.000000;1.368350
1943.000000;1.414520
1942.000000;1.403899
1941.000000;1.411533
1940.000000;1.460913
1939.000000;1.398069
1938.000000;1.299241
1937.000000;1.313976
1936.000000;1.456725
1935.000000;1.673425
1934.000000;1.754379
1933.000000;1.650605
1932.000000;1.599770
1931.000000;1.699634
1930.000000;1.808402
1929.000000;1.723611
1928.000000;1.572928
1927.000000;1.431888
1926.000000;1.330069
1925.000000;1.241011
1924.000000;1.178388
1923.000000;1.207987
1922.000000;1.361104
1921.000000;1.586425
1920.000000;1.599207
1919.000000;1.509694
1918.000000;1.505935
1917.000000;1.734007
1916.000000;2.271275
1915.000000;1.775976
1914.000000;1.604279
1913.000000;1.687009
1912.000000;1.663943
1911.000000;1.705738
1910.000000;1.771963
1909.000000;1.491562
1908.000000;1.262825
1907.000000;1.177120
1906.000000;1.158353
1905.000000;1.170266
1904.000000;1.156327
1903.000000;1.098720
1902.000000;1.020094
1901.000000;0.964069
1900.000000;0.967600
1899.000000;1.033958
1898.000000;1.141643
1897.000000;1.209064
1896.000000;1.167838
1895.000000;1.105330
1894.000000;1.071032
1893.000000;1.044644
1892.000000;0.997092
1891.000000;0.932087
1890.000000;0.905488
1889.000000;0.960961
1888.000000;1.094634
1887.000000;1.174291
1886.000000;1.139169
1885.000000;1.157068
1884.000000;1.403583
1883.000000;1.951196
1882.000000;2.033372
1881.000000;1.537577
1880.000000;1.169148
1879.000000;1.048181
1878.000000;1.207894
1877.000000;1.637755
1876.000000;1.479058
1875.000000;1.298804
1874.000000;1.267772
1873.000000;1.195229
1872.000000;1.285217
1871.000000;1.506319
1870.000000;1.892875
1869.000000;2.041042
1868.000000;1.539275
1867.000000;1.310327
1866.000000;1.306314
1865.000000;1.644708
1864.000000;1.553156
1863.000000;1.190825
1862.000000;1.145065
1861.000000;1.235384
1860.000000;1.375469
1859.000000;1.542569
1858.000000;1.866164
1857.000000;2.214701
1856.000000;1.840217
1855.000000;1.632837
1854.000000;1.495068
1853.000000;1.329900
1852.000000;1.218169
1851.000000;1.209594
1850.000000;1.343948
1849.000000;1.483033
1848.000000;1.416934
1847.000000;1.335338
1846.000000;1.240886
1845.000000;1.125626
1844.000000;1.071761
1843.000000;1.099553
1842.000000;1.155101
1841.000000;1.148815
1840.000000;1.091893
1839.000000;1.060261
1838.000000;1.104931
1837.000000;1.238919
1836.000000;1.361345
1835.000000;1.447041
1834.000000;1.497049
1833.000000;1.367462
1832.000000;1.272947
1831.000000;1.307549
1830.000000;1.446734
1829.000000;1.461378
1828.000000;1.314529
1827.000000;1.231615
1826.000000;1.347181
1825.000000;1.604289
1824.000000;1.427946
1823.000000;1.285393
1822.000000;1.257495
1821.000000;1.211070
1820.000000;1.156679
1819.000000;1.149960
1818.000000;1.230679
1817.000000;1.423354
1816.000000;1.910979
1815.000000;1.737116
1814.000000;1.370472
1813.000000;1.300422
1812.000000;1.243978
1811.000000;1.142512
1810.000000;1.096943
1809.000000;1.154297
1808.000000;1.340066
1807.000000;1.694880
1806.000000;1.739664
1805.000000;1.539071
1804.000000;1.453586
1803.000000;1.339724
1802.000000;1.269877
1801.000000;1.284939
1800.000000;1.343086
1799.000000;1.437518
1798.000000;1.557408
1797.000000;1.947691
1796.000000;2.028489
1795.000000;1.464190
1794.000000;1.352057
1793.000000;1.384036
1792.000000;1.431839
1791.000000;1.450867
1790.000000;1.549123
1789.000000;1.943984
1788.000000;1.841204
1787.000000;1.662761
1786.000000;1.538737
1785.000000;1.296973
1784.000000;1.202350
1783.000000;1.240301
1782.000000;1.348235
1781.000000;1.617887
1780.000000;1.661572
1779.000000;1.695602
1778.000000;2.272397
1777.000000;1.508462
1776.000000;1.288475
1775.000000;1.330508
1774.000000;1.433694
1773.000000;1.530405
1772.000000;1.728248
1771.000000;2.000265
1770.000000;1.536472
1769.000000;1.363972
1768.000000;1.388645
1767.000000;1.514521
1766.000000;1.473800
1765.000000;1.313390
1764.000000;1.306984
1763.000000;1.557522
1762.000000;2.121836
1761.000000;2.506289
1760.000000;2.150154
1759.000000;1.555448
1758.000000;1.272707
1757.000000;1.221202
1756.000000;1.316880
1755.000000;1.418535
1754.000000;1.356287
1753.000000;1.327690
1752.000000;1.363073
1751.000000;1.396637
1750.000000;1.451852
1749.000000;1.270853
1748.000000;1.085058
1747.000000;1.054696
1746.000000;1.184335
1745.000000;1.492507
1744.000000;1.671612
1743.000000;1.609107
1742.000000;1.582211
1741.000000;1.489502
1740.000000;1.444848
1739.000000;1.425579
1738.000000;1.422579
1737.000000;1.411183
1736.000000;1.431964
1735.000000;1.743820
1734.000000;1.471209
1733.000000;1.129680
1732.000000;1.105041
1731.000000;1.197596
1730.000000;1.454488
1729.000000;1.740025
1728.000000;1.341326
1727.000000;1.056857
1726.000000;0.997342
1725.000000;1.071729
1724.000000;1.110212
1723.000000;1.085260
1722.000000;1.105796
1721.000000;1.153971
1720.000000;1.218789
1719.000000;1.427887
1718.000000;1.949461
1717.000000;1.804694
1716.000000;1.496966
1715.000000;1.527507
1714.000000;1.760935
1713.000000;1.573885
1712.000000;1.256651
1711.000000;1.145356
1710.000000;1.203365
1709.000000;1.312012
1708.000000;1.290068
1707.000000;1.389203
1706.000000;1.879329
1705.000000;2.573500
1704.000000;1.831142
1703.000000;1.451515
1702.000000;1.292902
1701.000000;1.362380
1700.000000;1.674934
1699.000000;2.143742
1698.000000;1.487765
1697.000000;1.472835
1696.000000;2.095045
1695.000000;1.515433
1694.000000;1.396885
1693.000000;1.378954
1692.000000;1.362778
1691.000000;1.401501
1690.000000;1.420322
1689.000000;1.626397
1688.000000;2.029978
1687.000000;1.677447
1686.000000;1.197715
1685.000000;1.111686
1684.000000;1.354716
1683.000000;1.624437
1682.000000;1.709892
1681.000000;1.753962
1680.000000;1.600851
1679.000000;1.539233
1678.000000;1.695487
1677.000000;1.875130
1676.000000;1.832601
1675.000000;1.605236
1674.000000;1.457086
1673.000000;1.445929
1672.000000;1.706078
1671.000000;2.054243
1670.000000;1.701046
1669.000000;1.585796
1668.000000;1.520935
1667.000000;1.458623
1666.000000;1.527589
1665.000000;1.444246
1664.000000;1.306087
1663.000000;1.447961
1662.000000;1.633557
1661.000000;1.398313
1660.000000;1.190645
1659.000000;1.051690
1658.000000;1.048691
1657.000000;1.158918
1656.000000;1.172660
1655.000000;1.005216
1654.000000;0.872662
1653.000000;0.897260
1652.000000;0.985576
1651.000000;1.008926
1650.000000;1.014181
1649.000000;1.048799
1648.000000;1.171380
1647.000000;1.358536
1646.000000;1.412114
1645.000000;1.328367
1644.000000;1.282517
1643.000000;1.452157
1642.000000;1.563715
1641.000000;1.727906
1640.000000;1.822974
1639.000000;1.284824
1638.000000;1.155927
1637.000000;1.377818
1636.000000;1.803323
1635.000000;1.556518
1634.000000;1.422612
1633.000000;1.419989
1632.000000;1.501600
1631.000000;1.564406
1630.000000;1.739958
1629.000000;2.025996
1628.000000;1.557265
1627.000000;1.322685
1626.000000;1.243057
1625.000000;1.260045
1624.000000;1.343317
1623.000000;1.271123
1622.000000;1.133720
1621.000000;1.121071
1620.000000;1.239106
1619.000000;1.313632
1618.000000;1.331007
1617.000000;1.223552
1616.000000;1.075646
1615.000000;1.086840
1614.000000;1.126116
1613.000000;1.110513
1612.000000;1.086333
1611.000000;1.103083
1610.000000;1.141818
1609.000000;1.192332
1608.000000;1.426249
1607.000000;1.554574
1606.000000;1.244882
1605.000000;1.177610
1604.000000;1.250590
1603.000000;1.114953
1602.000000;0.932400
1601.000000;0.886513
1600.000000;0.961075
1599.000000;1.220319
1598.000000;1.477824
1597.000000;1.283619
1596.000000;1.309757
1595.000000;1.734302
1594.000000;1.593871
1593.000000;1.296393
1592.000000;1.199059
1591.000000;1.269705
1590.000000;1.434829
1589.000000;1.275081
1588.000000;1.212217
1587.000000;1.426023
1586.000000;1.833992
1585.000000;1.743502
1584.000000;1.505816
1583.000000;1.401418
1582.000000;1.377045
1581.000000;1.332840
1580.000000;1.202017
1579.000000;1.269059
1578.000000;1.280802
1577.000000;0.936383
1576.000000;0.870091
1575.000000;1.108656
1574.000000;1.515033
1573.000000;1.594012
1572.000000;1.516800
1571.000000;1.866112
1570.000000;1.575336
1569.000000;1.436802
1568.000000;1.735551
1567.000000;2.099076
1566.000000;1.668999
1565.000000;1.273895
1564.000000;1.162883
1563.000000;1.256389
1562.000000;1.498765
1561.000000;1.666770
1560.000000;1.471196
1559.000000;1.417900
1558.000000;1.593073
1557.000000;1.589384
1556.000000;1.454053
1555.000000;1.393645
1554.000000;1.733817
1553.000000;2.027081
1552.000000;1.392086
1551.000000;1.354600
1550.000000;1.408044
1549.000000;1.312760
1548.000000;1.337323
1547.000000;1.354210
1546.000000;1.139177
1545.000000;1.075953
1544.000000;1.288972
1543.000000;1.584912
1542.000000;1.725328
1541.000000;1.290895
1540.000000;1.103120
1539.000000;1.369230
1538.000000;1.623835
1537.000000;1.343068
1536.000000;1.275423
1535.000000;1.324601
1534.000000;1.296818
1533.000000;1.244328
1532.000000;1.288755
1531.000000;1.349740
1530.000000;1.246946
1529.000000;1.120919
1528.000000;1.136423
1527.000000;1.303266
1526.000000;1.291225
1525.000000;1.141181
1524.000000;1.113809
1523.000000;1.141853
1522.000000;1.180614
1521.000000;1.187494
1520.000000;1.202746
1519.000000;1.273820
1518.000000;1.366226
1517.000000;1.386285
1516.000000;1.318764
1515.000000;1.364809
1514.000000;1.647025
1513.000000;1.577463
1512.000000;1.343350
1511.000000;1.338091
1510.000000;1.383882
1509.000000;1.350578
1508.000000;1.248261
1507.000000;1.191862
1506.000000;1.215023
1505.000000;1.223569
1504.000000;1.291373
1503.000000;1.628822
1502.000000;1.482735
1501.000000;1.140567
1500.000000;1.071717
1499.000000;1.084283
1498.000000;1.123957
1497.000000;1.208130
1496.000000;1.305496
1495.000000;1.331835
1494.000000;1.355792
1493.000000;1.431536
1492.000000;1.361721
1491.000000;1.271658
1490.000000;1.307459
1489.000000;1.497004
1488.000000;1.785377
1487.000000;1.570826
1486.000000;1.332465
1485.000000;1.386956
1484.000000;1.525974
1483.000000;1.253206
1482.000000;1.158280
1481.000000;1.250454
1480.000000;1.215871
1479.000000;1.166554
1478.000000;1.107626
1477.000000;1.041342
1476.000000;1.131318
1475.000000;1.427411
1474.000000;1.486758
1473.000000;1.338427
1472.000000;1.229207
1471.000000;1.112708
1470.000000;1.103420
1469.000000;1.179368
1468.000000;1.264051
1467.000000;1.324025
1466.000000;1.420620
1465.000000;1.536054
1464.000000;1.521355
1463.000000;1.382272
1462.000000;1.270470
1461.000000;1.221419
1460.000000;1.243979
1459.000000;1.292181
1458.000000;1.472574
1457.000000;2.226742
1456.000000;1.953531
1455.000000;1.600172
1454.000000;1.425991
1453.000000;1.545191
1452.000000;1.651491
1451.000000;1.175004
1450.000000;1.046947
1449.000000;1.052675
1448.000000;1.062461
1447.000000;1.111998
1446.000000;1.090175
1445.000000;1.022702
1444.000000;1.063411
1443.000000;1.239485
1442.000000;1.225580
1441.000000;1.035450
1440.000000;0.969518
1439.000000;1.013293
1438.000000;1.075379
1437.000000;1.065575
1436.000000;1.089170
1435.000000;1.303198
1434.000000;1.336321
1433.000000;1.117288
1432.000000;1.280133
1431.000000;1.487477
1430.000000;1.086151
1429.000000;0.971136
1428.000000;1.044119
1427.000000;1.174185
1426.000000;1.211586
1425.000000;1.183217
1424.000000;1.208439
1423.000000;1.182839
1422.000000;1.137269
1421.000000;1.270184
1420.000000;1.550594
1419.000000;1.566727
1418.000000;1.719582
1417.000000;1.711911
1416.000000;1.415881
1415.000000;1.226694
1414.000000;1.091110
1413.000000;1.039452
1412.000000;0.983540
1411.000000;0.928341
1410.000000;1.003839
1409.000000;1.242051
1408.000000;1.370315
1407.000000;1.371773
1406.000000;1.537857
1405.000000;1.484015
1404.000000;1.278278
1403.000000;1.239938
1402.000000;1.334555
1401.000000;1.428200
1400.000000;1.367767
1399.000000;1.304513
1398.000000;1.328218
1397.000000;1.252777
1396.000000;1.117288
1395.000000;1.080206
1394.000000;1.115422
1393.000000;1.143205
1392.000000;1.121929
1391.000000;1.021235
1390.000000;0.902531
1389.000000;0.885465
1388.000000;0.960903
1387.000000;1.023840
1386.000000;1.103884
1385.000000;1.124221
1384.000000;0.959452
1383.000000;0.816212
1382.000000;0.739824
1381.000000;0.712735
1380.000000;0.748307
1379.000000;0.851680
1378.000000;0.974977
1377.000000;1.043417
1376.000000;1.109157
1375.000000;1.138429
1374.000000;1.090238
1373.000000;1.081916
1372.000000;1.110225
1371.000000;1.129834
1370.000000;1.133719
1369.000000;1.154199
1368.000000;1.243421
1367.000000;1.404574
1366.000000;1.584463
1365.000000;1.642191
1364.000000;1.476738
1363.000000;1.387728
1362.000000;1.465970
1361.000000;1.527666
1360.000000;1.894742
1359.000000;1.807519
1358.000000;1.219585
1357.000000;1.068585
1356.000000;1.239302
1355.000000;1.676735
1354.000000;1.492607
1353.000000;1.558011
1352.000000;1.811103
1351.000000;1.332279
1350.000000;1.304948
1349.000000;1.643294
1348.000000;1.265512
1347.000000;1.116524
1346.000000;1.311972
1345.000000;1.276450
1344.000000;1.118936
1343.000000;1.195431
1342.000000;1.595288
1341.000000;2.344451
1340.000000;1.667346
1339.000000;1.493865
1338.000000;1.478377
1337.000000;1.522127
1336.000000;1.502011
1335.000000;1.374028
1334.000000;1.309744
1333.000000;1.472263
1332.000000;1.637321
1331.000000;1.403534
1330.000000;1.380499
1329.000000;1.450303
1328.000000;1.386309
1327.000000;1.349479
1326.000000;1.349932
1325.000000;1.377034
1324.000000;1.436842
1323.000000;1.329353
1322.000000;1.110326
1321.000000;0.996118
1320.000000;1.039318
1319.000000;1.356122
1318.000000;1.663990
1317.000000;1.184339
1316.000000;0.903210
1315.000000;0.730407
1314.000000;0.686514
1313.000000;0.809401
1312.000000;1.064696
1311.000000;1.269726
1310.000000;1.255928
1309.000000;1.142088
1308.000000;1.135357
1307.000000;1.362598
1306.000000;1.526012
1305.000000;1.312721
1304.000000;1.158197
1303.000000;1.151467
1302.000000;1.589993
1301.000000;1.626250
1300.000000;1.134415
1299.000000;0.953271
1298.000000;0.825258
1297.000000;0.765458
1296.000000;0.785470
1295.000000;0.865588
1294.000000;0.980906
1293.000000;1.102660
1292.000000;1.117409
1291.000000;1.041908
1290.000000;1.007913
1289.000000;0.967579
1288.000000;0.850988
1287.000000;0.728765
1286.000000;0.683879
1285.000000;0.769655
1284.000000;1.006164
1283.000000;1.037230
1282.000000;0.869942
1281.000000;0.829814
1280.000000;0.784818
1279.000000;0.738843
1278.000000;0.775148
1277.000000;0.921120
1276.000000;1.174503
1275.000000;1.502911
1274.000000;1.423756
1273.000000;1.061489
1272.000000;0.900704
1271.000000;0.940718
1270.000000;1.183133
1269.000000;1.544963
1268.000000;1.458819
1267.000000;1.106999
1266.000000;0.922335
1265.000000;0.919991
1264.000000;1.086472
1263.000000;1.410159
1262.000000;1.706669
1261.000000;1.569695
1260.000000;1.326117
1259.000000;1.188339
1258.000000;1.123049
1257.000000;1.154058
1256.000000;1.335027
1255.000000;1.565404
1254.000000;1.899916
1253.000000;1.902390
1252.000000;1.348757
1251.000000;1.101717
1250.000000;1.054334
1249.000000;1.183134
1248.000000;1.180516
1247.000000;1.083549
1246.000000;1.196324
1245.000000;1.568580
1244.000000;2.046996
1243.000000;1.690601
1242.000000;1.469001
1241.000000;1.231622
1240.000000;0.983586
1239.000000;0.887352
1238.000000;0.982524
1237.000000;1.281919
1236.000000;1.264329
1235.000000;0.971142
1234.000000;0.863878
1233.000000;0.888776
1232.000000;0.975652
1231.000000;1.047597
1230.000000;1.056848
1229.000000;1.081159
1228.000000;1.113571
1227.000000;1.025001
1226.000000;0.900542
1225.000000;0.921671
1224.000000;1.076803
1223.000000;1.111029
1222.000000;1.403898
1221.000000;1.431454
1220.000000;1.193985
1219.000000;1.440272
1218.000000;1.082909
1217.000000;0.937424
1216.000000;0.989316
1215.000000;0.813540
1214.000000;0.801676
1213.000000;1.149784
1212.000000;1.051008
1211.000000;0.849902
1210.000000;0.986798
1209.000000;1.382408
1208.000000;1.519958
1207.000000;1.038897
1206.000000;0.858473
1205.000000;0.895207
1204.000000;1.130114
1203.000000;1.377265
1202.000000;1.328977
1201.000000;1.420705
1200.000000;1.308710
