Criado como novo conjunto de dados;"2706_e01_daniel.spp","6302.5 Secs"
cm-1;Abs
10000.000000;1.015357
9999.000000;1.014985
9998.000000;1.014590
9997.000000;1.014241
9996.000000;1.013718
9995.000000;1.013253
9994.000000;1.013099
9993.000000;1.012987
9992.000000;1.012843
9991.000000;1.012871
9990.000000;1.013228
9989.000000;1.013715
9988.000000;1.014025
9987.000000;1.014097
9986.000000;1.014081
9985.000000;1.014087
9984.000000;1.014142
9983.000000;1.014275
9982.000000;1.014447
9981.000000;1.014482
9980.000000;1.014231
9979.000000;1.013806
9978.000000;1.013459
9977.000000;1.013232
9976.000000;1.012871
9975.000000;1.012158
9974.000000;1.011279
9973.000000;1.010791
9972.000000;1.011154
9971.000000;1.012237
9970.000000;1.013337
9969.000000;1.013809
9968.000000;1.013648
9967.000000;1.013272
9966.000000;1.012876
9965.000000;1.012344
9964.000000;1.011798
9963.000000;1.011702
9962.000000;1.012178
9961.000000;1.012632
9960.000000;1.012483
9959.000000;1.011972
9958.000000;1.011773
9957.000000;1.011992
9956.000000;1.012066
9955.000000;1.011627
9954.000000;1.010968
9953.000000;1.010563
9952.000000;1.010528
9951.000000;1.010753
9950.000000;1.011214
9949.000000;1.011886
9948.000000;1.012539
9947.000000;1.012873
9946.000000;1.012790
9945.000000;1.012449
9944.000000;1.012097
9943.000000;1.011870
9942.000000;1.011676
9941.000000;1.011321
9940.000000;1.010821
9939.000000;1.010504
9938.000000;1.010599
9937.000000;1.010838
9936.000000;1.010773
9935.000000;1.010450
9934.000000;1.010411
9933.000000;1.010969
9932.000000;1.011793
9931.000000;1.012297
9930.000000;1.012212
9929.000000;1.011652
9928.000000;1.010881
9927.000000;1.010221
9926.000000;1.009972
9925.000000;1.010224
9924.000000;1.010801
9923.000000;1.011504
9922.000000;1.012257
9921.000000;1.012939
9920.000000;1.013255
9919.000000;1.012942
9918.000000;1.012035
9917.000000;1.010847
9916.000000;1.009806
9915.000000;1.009321
9914.000000;1.009572
9913.000000;1.010280
9912.000000;1.010833
9911.000000;1.010802
9910.000000;1.010258
9909.000000;1.009560
9908.000000;1.009020
9907.000000;1.008829
9906.000000;1.009067
9905.000000;1.009579
9904.000000;1.010029
9903.000000;1.010215
9902.000000;1.010202
9901.000000;1.010062
9900.000000;1.009707
9899.000000;1.009193
9898.000000;1.008960
9897.000000;1.009437
9896.000000;1.010502
9895.000000;1.011564
9894.000000;1.012134
9893.000000;1.012096
9892.000000;1.011536
9891.000000;1.010653
9890.000000;1.009833
9889.000000;1.009502
9888.000000;1.009737
9887.000000;1.010190
9886.000000;1.010507
9885.000000;1.010700
9884.000000;1.011022
9883.000000;1.011559
9882.000000;1.012036
9881.000000;1.012047
9880.000000;1.011449
9879.000000;1.010517
9878.000000;1.009642
9877.000000;1.008949
9876.000000;1.008358
9875.000000;1.008020
9874.000000;1.008379
9873.000000;1.009552
9872.000000;1.010836
9871.000000;1.011208
9870.000000;1.010375
9869.000000;1.009080
9868.000000;1.008310
9867.000000;1.008457
9866.000000;1.009257
9865.000000;1.010221
9864.000000;1.010900
9863.000000;1.010989
9862.000000;1.010469
9861.000000;1.009689
9860.000000;1.009125
9859.000000;1.009039
9858.000000;1.009363
9857.000000;1.009826
9856.000000;1.010117
9855.000000;1.010017
9854.000000;1.009540
9853.000000;1.008943
9852.000000;1.008555
9851.000000;1.008560
9850.000000;1.008918
9849.000000;1.009433
9848.000000;1.009843
9847.000000;1.009939
9846.000000;1.009721
9845.000000;1.009456
9844.000000;1.009495
9843.000000;1.009960
9842.000000;1.010580
9841.000000;1.010876
9840.000000;1.010575
9839.000000;1.009894
9838.000000;1.009350
9837.000000;1.009214
9836.000000;1.009246
9835.000000;1.009084
9834.000000;1.008814
9833.000000;1.008853
9832.000000;1.009255
9831.000000;1.009464
9830.000000;1.009009
9829.000000;1.008217
9828.000000;1.007899
9827.000000;1.008410
9826.000000;1.009328
9825.000000;1.010026
9824.000000;1.010230
9823.000000;1.009966
9822.000000;1.009332
9821.000000;1.008599
9820.000000;1.008240
9819.000000;1.008502
9818.000000;1.008991
9817.000000;1.009001
9816.000000;1.008312
9815.000000;1.007444
9814.000000;1.007077
9813.000000;1.007405
9812.000000;1.008102
9811.000000;1.008726
9810.000000;1.009036
9809.000000;1.009020
9808.000000;1.008815
9807.000000;1.008612
9806.000000;1.008547
9805.000000;1.008624
9804.000000;1.008752
9803.000000;1.008847
9802.000000;1.008903
9801.000000;1.008975
9800.000000;1.009089
9799.000000;1.009139
9798.000000;1.008925
9797.000000;1.008375
9796.000000;1.007715
9795.000000;1.007339
9794.000000;1.007469
9793.000000;1.007989
9792.000000;1.008605
9791.000000;1.009074
9790.000000;1.009260
9789.000000;1.009117
9788.000000;1.008739
9787.000000;1.008358
9786.000000;1.008177
9785.000000;1.008220
9784.000000;1.008404
9783.000000;1.008673
9782.000000;1.008922
9781.000000;1.008829
9780.000000;1.008053
9779.000000;1.006736
9778.000000;1.005621
9777.000000;1.005464
9776.000000;1.006346
9775.000000;1.007677
9774.000000;1.008831
9773.000000;1.009620
9772.000000;1.010114
9771.000000;1.010228
9770.000000;1.009757
9769.000000;1.008793
9768.000000;1.007842
9767.000000;1.007390
9766.000000;1.007460
9765.000000;1.007729
9764.000000;1.008006
9763.000000;1.008389
9762.000000;1.008911
9761.000000;1.009270
9760.000000;1.009130
9759.000000;1.008608
9758.000000;1.008219
9757.000000;1.008251
9756.000000;1.008398
9755.000000;1.008164
9754.000000;1.007539
9753.000000;1.007042
9752.000000;1.007095
9751.000000;1.007514
9750.000000;1.007751
9749.000000;1.007521
9748.000000;1.007059
9747.000000;1.006758
9746.000000;1.006726
9745.000000;1.006759
9744.000000;1.006676
9743.000000;1.006553
9742.000000;1.006628
9741.000000;1.007024
9740.000000;1.007599
9739.000000;1.008047
9738.000000;1.008126
9737.000000;1.007806
9736.000000;1.007238
9735.000000;1.006632
9734.000000;1.006170
9733.000000;1.006002
9732.000000;1.006206
9731.000000;1.006728
9730.000000;1.007369
9729.000000;1.007869
9728.000000;1.008054
9727.000000;1.007963
9726.000000;1.007823
9725.000000;1.007872
9724.000000;1.008131
9723.000000;1.008363
9722.000000;1.008306
9721.000000;1.007933
9720.000000;1.007428
9719.000000;1.006957
9718.000000;1.006572
9717.000000;1.006332
9716.000000;1.006347
9715.000000;1.006620
9714.000000;1.006932
9713.000000;1.007042
9712.000000;1.006970
9711.000000;1.006995
9710.000000;1.007313
9709.000000;1.007736
9708.000000;1.007767
9707.000000;1.007085
9706.000000;1.005993
9705.000000;1.005289
9704.000000;1.005515
9703.000000;1.006354
9702.000000;1.006948
9701.000000;1.006868
9700.000000;1.006510
9699.000000;1.006400
9698.000000;1.006441
9697.000000;1.006201
9696.000000;1.005702
9695.000000;1.005481
9694.000000;1.005819
9693.000000;1.006353
9692.000000;1.006596
9691.000000;1.006526
9690.000000;1.006457
9689.000000;1.006544
9688.000000;1.006693
9687.000000;1.006793
9686.000000;1.006785
9685.000000;1.006602
9684.000000;1.006252
9683.000000;1.005947
9682.000000;1.005926
9681.000000;1.006159
9680.000000;1.006419
9679.000000;1.006636
9678.000000;1.006974
9677.000000;1.007492
9676.000000;1.007916
9675.000000;1.007877
9674.000000;1.007327
9673.000000;1.006635
9672.000000;1.006284
9671.000000;1.006497
9670.000000;1.007097
9669.000000;1.007663
9668.000000;1.007868
9667.000000;1.007692
9666.000000;1.007336
9665.000000;1.006980
9664.000000;1.006696
9663.000000;1.006523
9662.000000;1.006495
9661.000000;1.006573
9660.000000;1.006666
9659.000000;1.006754
9658.000000;1.006905
9657.000000;1.007094
9656.000000;1.007121
9655.000000;1.006824
9654.000000;1.006309
9653.000000;1.005859
9652.000000;1.005628
9651.000000;1.005507
9650.000000;1.005307
9649.000000;1.004990
9648.000000;1.004745
9647.000000;1.004850
9646.000000;1.005431
9645.000000;1.006280
9644.000000;1.006947
9643.000000;1.007101
9642.000000;1.006799
9641.000000;1.006340
9640.000000;1.005922
9639.000000;1.005565
9638.000000;1.005334
9637.000000;1.005409
9636.000000;1.005843
9635.000000;1.006395
9634.000000;1.006736
9633.000000;1.006756
9632.000000;1.006551
9631.000000;1.006210
9630.000000;1.005735
9629.000000;1.005161
9628.000000;1.004620
9627.000000;1.004278
9626.000000;1.004252
9625.000000;1.004512
9624.000000;1.004838
9623.000000;1.004968
9622.000000;1.004899
9621.000000;1.004943
9620.000000;1.005350
9619.000000;1.005943
9618.000000;1.006285
9617.000000;1.006144
9616.000000;1.005642
9615.000000;1.005029
9614.000000;1.004536
9613.000000;1.004387
9612.000000;1.004630
9611.000000;1.004901
9610.000000;1.004629
9609.000000;1.003668
9608.000000;1.002569
9607.000000;1.002105
9606.000000;1.002621
9605.000000;1.003858
9604.000000;1.005183
9603.000000;1.005933
9602.000000;1.005800
9601.000000;1.005104
9600.000000;1.004573
9599.000000;1.004692
9598.000000;1.005326
9597.000000;1.005993
9596.000000;1.006348
9595.000000;1.006279
9594.000000;1.005806
9593.000000;1.005117
9592.000000;1.004570
9591.000000;1.004403
9590.000000;1.004517
9589.000000;1.004701
9588.000000;1.004940
9587.000000;1.005311
9586.000000;1.005716
9585.000000;1.005960
9584.000000;1.006027
9583.000000;1.006052
9582.000000;1.006113
9581.000000;1.006238
9580.000000;1.006496
9579.000000;1.006812
9578.000000;1.006837
9577.000000;1.006325
9576.000000;1.005593
9575.000000;1.005263
9574.000000;1.005525
9573.000000;1.005969
9572.000000;1.006142
9571.000000;1.005988
9570.000000;1.005684
9569.000000;1.005387
9568.000000;1.005248
9567.000000;1.005373
9566.000000;1.005605
9565.000000;1.005590
9564.000000;1.005231
9563.000000;1.004876
9562.000000;1.004868
9561.000000;1.005114
9560.000000;1.005260
9559.000000;1.005123
9558.000000;1.004780
9557.000000;1.004392
9556.000000;1.004114
9555.000000;1.004064
9554.000000;1.004192
9553.000000;1.004253
9552.000000;1.004083
9551.000000;1.003812
9550.000000;1.003676
9549.000000;1.003698
9548.000000;1.003726
9547.000000;1.003729
9546.000000;1.003856
9545.000000;1.004200
9544.000000;1.004640
9543.000000;1.004962
9542.000000;1.005080
9541.000000;1.005099
9540.000000;1.005158
9539.000000;1.005227
9538.000000;1.005112
9537.000000;1.004733
9536.000000;1.004285
9535.000000;1.004002
9534.000000;1.003809
9533.000000;1.003460
9532.000000;1.003012
9531.000000;1.002892
9530.000000;1.003349
9529.000000;1.004076
9528.000000;1.004558
9527.000000;1.004629
9526.000000;1.004496
9525.000000;1.004363
9524.000000;1.004281
9523.000000;1.004263
9522.000000;1.004311
9521.000000;1.004329
9520.000000;1.004196
9519.000000;1.003949
9518.000000;1.003762
9517.000000;1.003755
9516.000000;1.003927
9515.000000;1.004238
9514.000000;1.004636
9513.000000;1.004990
9512.000000;1.005151
9511.000000;1.005085
9510.000000;1.004865
9509.000000;1.004551
9508.000000;1.004181
9507.000000;1.003857
9506.000000;1.003723
9505.000000;1.003804
9504.000000;1.003967
9503.000000;1.004067
9502.000000;1.004103
9501.000000;1.004204
9500.000000;1.004449
9499.000000;1.004725
9498.000000;1.004756
9497.000000;1.004356
9496.000000;1.003667
9495.000000;1.003058
9494.000000;1.002726
9493.000000;1.002501
9492.000000;1.002142
9491.000000;1.001750
9490.000000;1.001695
9489.000000;1.002163
9488.000000;1.002906
9487.000000;1.003521
9486.000000;1.003855
9485.000000;1.004074
9484.000000;1.004375
9483.000000;1.004726
9482.000000;1.004888
9481.000000;1.004663
9480.000000;1.004080
9479.000000;1.003362
9478.000000;1.002762
9477.000000;1.002450
9476.000000;1.002492
9475.000000;1.002824
9474.000000;1.003235
9473.000000;1.003476
9472.000000;1.003436
9471.000000;1.003191
9470.000000;1.002909
9469.000000;1.002764
9468.000000;1.002910
9467.000000;1.003360
9466.000000;1.003849
9465.000000;1.003983
9464.000000;1.003651
9463.000000;1.003179
9462.000000;1.002985
9461.000000;1.003140
9460.000000;1.003374
9459.000000;1.003430
9458.000000;1.003281
9457.000000;1.003049
9456.000000;1.002832
9455.000000;1.002684
9454.000000;1.002677
9453.000000;1.002917
9452.000000;1.003424
9451.000000;1.003985
9450.000000;1.004197
9449.000000;1.003816
9448.000000;1.003086
9447.000000;1.002580
9446.000000;1.002658
9445.000000;1.003172
9444.000000;1.003718
9443.000000;1.004066
9442.000000;1.004249
9441.000000;1.004375
9440.000000;1.004473
9439.000000;1.004479
9438.000000;1.004292
9437.000000;1.003911
9436.000000;1.003539
9435.000000;1.003390
9434.000000;1.003349
9433.000000;1.003011
9432.000000;1.002209
9431.000000;1.001339
9430.000000;1.000969
9429.000000;1.001246
9428.000000;1.001876
9427.000000;1.002533
9426.000000;1.003057
9425.000000;1.003317
9424.000000;1.003194
9423.000000;1.002774
9422.000000;1.002352
9421.000000;1.002166
9420.000000;1.002214
9419.000000;1.002346
9418.000000;1.002400
9417.000000;1.002281
9416.000000;1.002065
9415.000000;1.002026
9414.000000;1.002379
9413.000000;1.002970
9412.000000;1.003386
9411.000000;1.003428
9410.000000;1.003304
9409.000000;1.003312
9408.000000;1.003487
9407.000000;1.003639
9406.000000;1.003590
9405.000000;1.003296
9404.000000;1.002855
9403.000000;1.002495
9402.000000;1.002442
9401.000000;1.002694
9400.000000;1.002995
9399.000000;1.003078
9398.000000;1.002871
9397.000000;1.002435
9396.000000;1.001871
9395.000000;1.001361
9394.000000;1.001138
9393.000000;1.001280
9392.000000;1.001627
9391.000000;1.001999
9390.000000;1.002388
9389.000000;1.002781
9388.000000;1.002944
9387.000000;1.002611
9386.000000;1.001870
9385.000000;1.001154
9384.000000;1.000812
9383.000000;1.000829
9382.000000;1.000999
9381.000000;1.001222
9380.000000;1.001543
9379.000000;1.001993
9378.000000;1.002486
9377.000000;1.002862
9376.000000;1.002989
9375.000000;1.002865
9374.000000;1.002618
9373.000000;1.002382
9372.000000;1.002150
9371.000000;1.001808
9370.000000;1.001321
9369.000000;1.000822
9368.000000;1.000502
9367.000000;1.000454
9366.000000;1.000668
9365.000000;1.001088
9364.000000;1.001631
9363.000000;1.002166
9362.000000;1.002544
9361.000000;1.002649
9360.000000;1.002425
9359.000000;1.001888
9358.000000;1.001156
9357.000000;1.000466
9356.000000;1.000086
9355.000000;1.000170
9354.000000;1.000673
9353.000000;1.001365
9352.000000;1.001930
9351.000000;1.002118
9350.000000;1.001865
9349.000000;1.001296
9348.000000;1.000618
9347.000000;1.000068
9346.000000;0.999886
9345.000000;1.000176
9344.000000;1.000700
9343.000000;1.000977
9342.000000;1.000741
9341.000000;1.000281
9340.000000;1.000129
9339.000000;1.000452
9338.000000;1.000933
9337.000000;1.001239
9336.000000;1.001392
9335.000000;1.001539
9334.000000;1.001571
9333.000000;1.001236
9332.000000;1.000579
9331.000000;1.000034
9330.000000;0.999996
9329.000000;1.000423
9328.000000;1.000918
9327.000000;1.001151
9326.000000;1.001130
9325.000000;1.001098
9324.000000;1.001220
9323.000000;1.001419
9322.000000;1.001495
9321.000000;1.001346
9320.000000;1.001025
9319.000000;1.000640
9318.000000;1.000322
9317.000000;1.000259
9316.000000;1.000578
9315.000000;1.001115
9314.000000;1.001454
9313.000000;1.001339
9312.000000;1.000928
9311.000000;1.000521
9310.000000;1.000172
9309.000000;0.999766
9308.000000;0.999356
9307.000000;0.999154
9306.000000;0.999213
9305.000000;0.999320
9304.000000;0.999266
9303.000000;0.999062
9302.000000;0.998866
9301.000000;0.998884
9300.000000;0.999317
9299.000000;1.000182
9298.000000;1.001117
9297.000000;1.001575
9296.000000;1.001337
9295.000000;1.000718
9294.000000;1.000177
9293.000000;0.999917
9292.000000;0.999898
9291.000000;1.000025
9290.000000;1.000174
9289.000000;1.000217
9288.000000;1.000192
9287.000000;1.000299
9286.000000;1.000557
9285.000000;1.000630
9284.000000;1.000231
9283.000000;0.999571
9282.000000;0.999149
9281.000000;0.999159
9280.000000;0.999356
9279.000000;0.999468
9278.000000;0.999496
9277.000000;0.999584
9276.000000;0.999786
9275.000000;1.000061
9274.000000;1.000318
9273.000000;1.000415
9272.000000;1.000240
9271.000000;0.999858
9270.000000;0.999461
9269.000000;0.999176
9268.000000;0.999019
9267.000000;0.999042
9266.000000;0.999319
9265.000000;0.999750
9264.000000;1.000053
9263.000000;1.000076
9262.000000;0.999959
9261.000000;0.999871
9260.000000;0.999713
9259.000000;0.999268
9258.000000;0.998579
9257.000000;0.998000
9256.000000;0.997845
9255.000000;0.998089
9254.000000;0.998431
9253.000000;0.998577
9252.000000;0.998453
9251.000000;0.998226
9250.000000;0.998126
9249.000000;0.998233
9248.000000;0.998390
9247.000000;0.998338
9246.000000;0.997962
9245.000000;0.997423
9244.000000;0.997065
9243.000000;0.997159
9242.000000;0.997680
9241.000000;0.998324
9240.000000;0.998784
9239.000000;0.999013
9238.000000;0.999151
9237.000000;0.999239
9236.000000;0.999122
9235.000000;0.998706
9234.000000;0.998193
9233.000000;0.997939
9232.000000;0.998089
9231.000000;0.998464
9230.000000;0.998767
9229.000000;0.998842
9228.000000;0.998711
9227.000000;0.998507
9226.000000;0.998406
9225.000000;0.998541
9224.000000;0.998869
9223.000000;0.999168
9222.000000;0.999213
9221.000000;0.998976
9220.000000;0.998616
9219.000000;0.998320
9218.000000;0.998195
9217.000000;0.998278
9216.000000;0.998517
9215.000000;0.998735
9214.000000;0.998700
9213.000000;0.998334
9212.000000;0.997818
9211.000000;0.997439
9210.000000;0.997362
9209.000000;0.997581
9208.000000;0.998019
9207.000000;0.998556
9206.000000;0.998986
9205.000000;0.999098
9204.000000;0.998897
9203.000000;0.998639
9202.000000;0.998551
9201.000000;0.998576
9200.000000;0.998486
9199.000000;0.998206
9198.000000;0.997901
9197.000000;0.997746
9196.000000;0.997722
9195.000000;0.997707
9194.000000;0.997645
9193.000000;0.997564
9192.000000;0.997471
9191.000000;0.997347
9190.000000;0.997216
9189.000000;0.997141
9188.000000;0.997126
9187.000000;0.997098
9186.000000;0.997044
9185.000000;0.997073
9184.000000;0.997258
9183.000000;0.997431
9182.000000;0.997269
9181.000000;0.996665
9180.000000;0.995953
9179.000000;0.995640
9178.000000;0.995905
9177.000000;0.996452
9176.000000;0.996881
9175.000000;0.997103
9174.000000;0.997316
9173.000000;0.997652
9172.000000;0.998001
9171.000000;0.998144
9170.000000;0.997960
9169.000000;0.997489
9168.000000;0.996898
9167.000000;0.996410
9166.000000;0.996168
9165.000000;0.996092
9164.000000;0.995997
9163.000000;0.995897
9162.000000;0.996073
9161.000000;0.996692
9160.000000;0.997479
9159.000000;0.997940
9158.000000;0.997894
9157.000000;0.997618
9156.000000;0.997457
9155.000000;0.997480
9154.000000;0.997588
9153.000000;0.997732
9152.000000;0.997883
9151.000000;0.997889
9150.000000;0.997590
9149.000000;0.997047
9148.000000;0.996509
9147.000000;0.996163
9146.000000;0.996016
9145.000000;0.996040
9144.000000;0.996242
9143.000000;0.996571
9142.000000;0.996853
9141.000000;0.996953
9140.000000;0.996928
9139.000000;0.996939
9138.000000;0.997049
9137.000000;0.997192
9136.000000;0.997294
9135.000000;0.997336
9134.000000;0.997287
9133.000000;0.997081
9132.000000;0.996715
9131.000000;0.996332
9130.000000;0.996127
9129.000000;0.996178
9128.000000;0.996387
9127.000000;0.996624
9126.000000;0.996864
9125.000000;0.997135
9124.000000;0.997356
9123.000000;0.997329
9122.000000;0.996967
9121.000000;0.996482
9120.000000;0.996239
9119.000000;0.996402
9118.000000;0.996798
9117.000000;0.997129
9116.000000;0.997272
9115.000000;0.997329
9114.000000;0.997416
9113.000000;0.997472
9112.000000;0.997308
9111.000000;0.996838
9110.000000;0.996237
9109.000000;0.995853
9108.000000;0.995906
9107.000000;0.996289
9106.000000;0.996690
9105.000000;0.996866
9104.000000;0.996786
9103.000000;0.996535
9102.000000;0.996183
9101.000000;0.995775
9100.000000;0.995370
9099.000000;0.995043
9098.000000;0.994855
9097.000000;0.994810
9096.000000;0.994819
9095.000000;0.994740
9094.000000;0.994549
9093.000000;0.994428
9092.000000;0.994606
9091.000000;0.995076
9090.000000;0.995596
9089.000000;0.995954
9088.000000;0.996139
9087.000000;0.996215
9086.000000;0.996188
9085.000000;0.996071
9084.000000;0.995967
9083.000000;0.995967
9082.000000;0.996041
9081.000000;0.996119
9080.000000;0.996205
9079.000000;0.996280
9078.000000;0.996197
9077.000000;0.995809
9076.000000;0.995219
9075.000000;0.994768
9074.000000;0.994725
9073.000000;0.995061
9072.000000;0.995508
9071.000000;0.995772
9070.000000;0.995712
9069.000000;0.995438
9068.000000;0.995256
9067.000000;0.995416
9066.000000;0.995854
9065.000000;0.996219
9064.000000;0.996171
9063.000000;0.995651
9062.000000;0.994910
9061.000000;0.994329
9060.000000;0.994201
9059.000000;0.994589
9058.000000;0.995294
9057.000000;0.995999
9056.000000;0.996451
9055.000000;0.996570
9054.000000;0.996419
9053.000000;0.996111
9052.000000;0.995710
9051.000000;0.995218
9050.000000;0.994671
9049.000000;0.994245
9048.000000;0.994168
9047.000000;0.994478
9046.000000;0.994927
9045.000000;0.995211
9044.000000;0.995261
9043.000000;0.995223
9042.000000;0.995213
9041.000000;0.995186
9040.000000;0.995018
9039.000000;0.994649
9038.000000;0.994151
9037.000000;0.993703
9036.000000;0.993481
9035.000000;0.993513
9034.000000;0.993686
9033.000000;0.993931
9032.000000;0.994320
9031.000000;0.994885
9030.000000;0.995414
9029.000000;0.995594
9028.000000;0.995336
9027.000000;0.994833
9026.000000;0.994325
9025.000000;0.993950
9024.000000;0.993799
9023.000000;0.993918
9022.000000;0.994203
9021.000000;0.994425
9020.000000;0.994450
9019.000000;0.994350
9018.000000;0.994233
9017.000000;0.994079
9016.000000;0.993800
9015.000000;0.993404
9014.000000;0.993031
9013.000000;0.992849
9012.000000;0.992938
9011.000000;0.993224
9010.000000;0.993503
9009.000000;0.993603
9008.000000;0.993536
9007.000000;0.993461
9006.000000;0.993486
9005.000000;0.993566
9004.000000;0.993604
9003.000000;0.993561
9002.000000;0.993444
9001.000000;0.993285
9000.000000;0.993174
8999.000000;0.993216
8998.000000;0.993406
8997.000000;0.993584
8996.000000;0.993574
8995.000000;0.993354
8994.000000;0.993057
8993.000000;0.992823
8992.000000;0.992685
8991.000000;0.992551
8990.000000;0.992301
8989.000000;0.991928
8988.000000;0.991597
8987.000000;0.991533
8986.000000;0.991857
8985.000000;0.992533
8984.000000;0.993392
8983.000000;0.994138
8982.000000;0.994424
8981.000000;0.994094
8980.000000;0.993361
8979.000000;0.992639
8978.000000;0.992199
8977.000000;0.992053
8976.000000;0.992110
8975.000000;0.992281
8974.000000;0.992451
8973.000000;0.992553
8972.000000;0.992694
8971.000000;0.993061
8970.000000;0.993609
8969.000000;0.993994
8968.000000;0.993919
8967.000000;0.993422
8966.000000;0.992782
8965.000000;0.992268
8964.000000;0.992061
8963.000000;0.992246
8962.000000;0.992734
8961.000000;0.993266
8960.000000;0.993633
8959.000000;0.993824
8958.000000;0.993894
8957.000000;0.993809
8956.000000;0.993552
8955.000000;0.993272
8954.000000;0.993162
8953.000000;0.993238
8952.000000;0.993341
8951.000000;0.993316
8950.000000;0.993068
8949.000000;0.992550
8948.000000;0.991863
8947.000000;0.991324
8946.000000;0.991233
8945.000000;0.991539
8944.000000;0.991895
8943.000000;0.992059
8942.000000;0.992117
8941.000000;0.992254
8940.000000;0.992446
8939.000000;0.992523
8938.000000;0.992432
8937.000000;0.992301
8936.000000;0.992255
8935.000000;0.992263
8934.000000;0.992228
8933.000000;0.992136
8932.000000;0.992059
8931.000000;0.992024
8930.000000;0.991986
8929.000000;0.991942
8928.000000;0.991980
8927.000000;0.992138
8926.000000;0.992285
8925.000000;0.992258
8924.000000;0.992087
8923.000000;0.991977
8922.000000;0.992042
8921.000000;0.992202
8920.000000;0.992350
8919.000000;0.992500
8918.000000;0.992688
8917.000000;0.992838
8916.000000;0.992821
8915.000000;0.992574
8914.000000;0.992114
8913.000000;0.991530
8912.000000;0.991019
8911.000000;0.990803
8910.000000;0.990902
8909.000000;0.991079
8908.000000;0.991135
8907.000000;0.991175
8906.000000;0.991417
8905.000000;0.991805
8904.000000;0.992001
8903.000000;0.991780
8902.000000;0.991288
8901.000000;0.990865
8900.000000;0.990729
8899.000000;0.990855
8898.000000;0.991052
8897.000000;0.991093
8896.000000;0.990880
8895.000000;0.990538
8894.000000;0.990326
8893.000000;0.990384
8892.000000;0.990614
8891.000000;0.990814
8890.000000;0.990912
8889.000000;0.991024
8888.000000;0.991304
8887.000000;0.991734
8886.000000;0.992093
8885.000000;0.992154
8884.000000;0.991909
8883.000000;0.991540
8882.000000;0.991194
8881.000000;0.990886
8880.000000;0.990652
8879.000000;0.990618
8878.000000;0.990791
8877.000000;0.990900
8876.000000;0.990667
8875.000000;0.990206
8874.000000;0.989959
8873.000000;0.990202
8872.000000;0.990768
8871.000000;0.991283
8870.000000;0.991505
8869.000000;0.991378
8868.000000;0.990913
8867.000000;0.990210
8866.000000;0.989523
8865.000000;0.989134
8864.000000;0.989135
8863.000000;0.989379
8862.000000;0.989659
8861.000000;0.989860
8860.000000;0.989976
8859.000000;0.990046
8858.000000;0.990119
8857.000000;0.990228
8856.000000;0.990366
8855.000000;0.990475
8854.000000;0.990480
8853.000000;0.990369
8852.000000;0.990228
8851.000000;0.990190
8850.000000;0.990301
8849.000000;0.990457
8848.000000;0.990489
8847.000000;0.990306
8846.000000;0.989937
8845.000000;0.989490
8844.000000;0.989100
8843.000000;0.988895
8842.000000;0.988897
8841.000000;0.988988
8840.000000;0.989012
8839.000000;0.988945
8838.000000;0.988915
8837.000000;0.989051
8836.000000;0.989373
8835.000000;0.989794
8834.000000;0.990149
8833.000000;0.990258
8832.000000;0.990061
8831.000000;0.989724
8830.000000;0.989499
8829.000000;0.989442
8828.000000;0.989378
8827.000000;0.989176
8826.000000;0.988952
8825.000000;0.988905
8824.000000;0.989051
8823.000000;0.989207
8822.000000;0.989186
8821.000000;0.988920
8820.000000;0.988446
8819.000000;0.987903
8818.000000;0.987510
8817.000000;0.987431
8816.000000;0.987641
8815.000000;0.987990
8814.000000;0.988375
8813.000000;0.988761
8812.000000;0.989053
8811.000000;0.989087
8810.000000;0.988808
8809.000000;0.988368
8808.000000;0.987991
8807.000000;0.987794
8806.000000;0.987772
8805.000000;0.987873
8804.000000;0.988021
8803.000000;0.988098
8802.000000;0.987998
8801.000000;0.987697
8800.000000;0.987286
8799.000000;0.986938
8798.000000;0.986828
8797.000000;0.987012
8796.000000;0.987338
8795.000000;0.987551
8794.000000;0.987529
8793.000000;0.987383
8792.000000;0.987293
8791.000000;0.987306
8790.000000;0.987360
8789.000000;0.987431
8788.000000;0.987535
8787.000000;0.987613
8786.000000;0.987530
8785.000000;0.987238
8784.000000;0.986868
8783.000000;0.986629
8782.000000;0.986638
8781.000000;0.986832
8780.000000;0.987001
8779.000000;0.986920
8778.000000;0.986570
8777.000000;0.986221
8776.000000;0.986206
8775.000000;0.986538
8774.000000;0.986851
8773.000000;0.986783
8772.000000;0.986372
8771.000000;0.985972
8770.000000;0.985866
8769.000000;0.986036
8768.000000;0.986297
8767.000000;0.986497
8766.000000;0.986590
8765.000000;0.986607
8764.000000;0.986629
8763.000000;0.986726
8762.000000;0.986876
8761.000000;0.986976
8760.000000;0.986946
8759.000000;0.986789
8758.000000;0.986530
8757.000000;0.986156
8756.000000;0.985684
8755.000000;0.985255
8754.000000;0.985071
8753.000000;0.985206
8752.000000;0.985510
8751.000000;0.985720
8750.000000;0.985667
8749.000000;0.985390
8748.000000;0.985073
8747.000000;0.984909
8746.000000;0.984985
8745.000000;0.985205
8744.000000;0.985322
8743.000000;0.985115
8742.000000;0.984609
8741.000000;0.984099
8740.000000;0.983870
8739.000000;0.983928
8738.000000;0.984056
8737.000000;0.984099
8736.000000;0.984110
8735.000000;0.984179
8734.000000;0.984278
8733.000000;0.984312
8732.000000;0.984247
8731.000000;0.984103
8730.000000;0.983879
8729.000000;0.983600
8728.000000;0.983379
8727.000000;0.983319
8726.000000;0.983367
8725.000000;0.983365
8724.000000;0.983258
8723.000000;0.983158
8722.000000;0.983166
8721.000000;0.983236
8720.000000;0.983243
8719.000000;0.983158
8718.000000;0.983082
8717.000000;0.983125
8716.000000;0.983280
8715.000000;0.983429
8714.000000;0.983476
8713.000000;0.983439
8712.000000;0.983380
8711.000000;0.983269
8710.000000;0.983006
8709.000000;0.982599
8708.000000;0.982240
8707.000000;0.982121
8706.000000;0.982236
8705.000000;0.982435
8704.000000;0.982618
8703.000000;0.982765
8702.000000;0.982832
8701.000000;0.982747
8700.000000;0.982531
8699.000000;0.982296
8698.000000;0.982119
8697.000000;0.982014
8696.000000;0.982006
8695.000000;0.982127
8694.000000;0.982303
8693.000000;0.982385
8692.000000;0.982357
8691.000000;0.982379
8690.000000;0.982571
8689.000000;0.982842
8688.000000;0.983003
8687.000000;0.982968
8686.000000;0.982775
8685.000000;0.982497
8684.000000;0.982223
8683.000000;0.982059
8682.000000;0.982034
8681.000000;0.982042
8680.000000;0.981955
8679.000000;0.981772
8678.000000;0.981594
8677.000000;0.981491
8676.000000;0.981450
8675.000000;0.981415
8674.000000;0.981306
8673.000000;0.981066
8672.000000;0.980768
8671.000000;0.980625
8670.000000;0.980781
8669.000000;0.981109
8668.000000;0.981319
8667.000000;0.981257
8666.000000;0.981004
8665.000000;0.980697
8664.000000;0.980391
8663.000000;0.980137
8662.000000;0.980053
8661.000000;0.980220
8660.000000;0.980560
8659.000000;0.980921
8658.000000;0.981225
8657.000000;0.981454
8656.000000;0.981524
8655.000000;0.981309
8654.000000;0.980821
8653.000000;0.980273
8652.000000;0.979869
8651.000000;0.979627
8650.000000;0.979475
8649.000000;0.979442
8648.000000;0.979622
8647.000000;0.979940
8646.000000;0.980140
8645.000000;0.980057
8644.000000;0.979795
8643.000000;0.979530
8642.000000;0.979268
8641.000000;0.978940
8640.000000;0.978637
8639.000000;0.978554
8638.000000;0.978686
8637.000000;0.978792
8636.000000;0.978721
8635.000000;0.978607
8634.000000;0.978648
8633.000000;0.978806
8632.000000;0.978866
8631.000000;0.978711
8630.000000;0.978438
8629.000000;0.978236
8628.000000;0.978240
8627.000000;0.978445
8626.000000;0.978678
8625.000000;0.978676
8624.000000;0.978329
8623.000000;0.977830
8622.000000;0.977510
8621.000000;0.977518
8620.000000;0.977696
8619.000000;0.977787
8618.000000;0.977660
8617.000000;0.977382
8616.000000;0.977110
8615.000000;0.976960
8614.000000;0.976936
8613.000000;0.976964
8612.000000;0.977019
8611.000000;0.977144
8610.000000;0.977324
8609.000000;0.977399
8608.000000;0.977217
8607.000000;0.976850
8606.000000;0.976533
8605.000000;0.976390
8604.000000;0.976328
8603.000000;0.976232
8602.000000;0.976161
8601.000000;0.976250
8600.000000;0.976497
8599.000000;0.976738
8598.000000;0.976846
8597.000000;0.976844
8596.000000;0.976819
8595.000000;0.976776
8594.000000;0.976639
8593.000000;0.976370
8592.000000;0.976017
8591.000000;0.975645
8590.000000;0.975280
8589.000000;0.974968
8588.000000;0.974835
8587.000000;0.974984
8586.000000;0.975341
8585.000000;0.975672
8584.000000;0.975794
8583.000000;0.975711
8582.000000;0.975531
8581.000000;0.975344
8580.000000;0.975232
8579.000000;0.975279
8578.000000;0.975464
8577.000000;0.975626
8576.000000;0.975635
8575.000000;0.975557
8574.000000;0.975519
8573.000000;0.975473
8572.000000;0.975245
8571.000000;0.974843
8570.000000;0.974514
8569.000000;0.974455
8568.000000;0.974582
8567.000000;0.974683
8566.000000;0.974661
8565.000000;0.974566
8564.000000;0.974448
8563.000000;0.974330
8562.000000;0.974248
8561.000000;0.974209
8560.000000;0.974150
8559.000000;0.974015
8558.000000;0.973868
8557.000000;0.973816
8556.000000;0.973835
8555.000000;0.973787
8554.000000;0.973608
8553.000000;0.973385
8552.000000;0.973209
8551.000000;0.973062
8550.000000;0.972903
8549.000000;0.972794
8548.000000;0.972830
8547.000000;0.972980
8546.000000;0.973093
8545.000000;0.973072
8544.000000;0.972983
8543.000000;0.972960
8542.000000;0.973057
8541.000000;0.973216
8540.000000;0.973342
8539.000000;0.973369
8538.000000;0.973272
8537.000000;0.973082
8536.000000;0.972883
8535.000000;0.972758
8534.000000;0.972715
8533.000000;0.972690
8532.000000;0.972632
8531.000000;0.972570
8530.000000;0.972556
8529.000000;0.972585
8528.000000;0.972593
8527.000000;0.972538
8526.000000;0.972447
8525.000000;0.972356
8524.000000;0.972260
8523.000000;0.972140
8522.000000;0.972018
8521.000000;0.971947
8520.000000;0.971946
8519.000000;0.971969
8518.000000;0.971953
8517.000000;0.971876
8516.000000;0.971755
8515.000000;0.971624
8514.000000;0.971504
8513.000000;0.971400
8512.000000;0.971294
8511.000000;0.971167
8510.000000;0.971036
8509.000000;0.970969
8508.000000;0.971026
8507.000000;0.971195
8506.000000;0.971396
8505.000000;0.971538
8504.000000;0.971574
8503.000000;0.971485
8502.000000;0.971271
8501.000000;0.970977
8500.000000;0.970691
8499.000000;0.970490
8498.000000;0.970387
8497.000000;0.970355
8496.000000;0.970378
8495.000000;0.970427
8494.000000;0.970417
8493.000000;0.970256
8492.000000;0.969978
8491.000000;0.969744
8490.000000;0.969688
8489.000000;0.969762
8488.000000;0.969811
8487.000000;0.969774
8486.000000;0.969746
8485.000000;0.969820
8484.000000;0.969947
8483.000000;0.970009
8482.000000;0.969993
8481.000000;0.969999
8480.000000;0.970067
8479.000000;0.970086
8478.000000;0.969934
8477.000000;0.969637
8476.000000;0.969339
8475.000000;0.969144
8474.000000;0.969078
8473.000000;0.969178
8472.000000;0.969466
8471.000000;0.969824
8470.000000;0.969984
8469.000000;0.969770
8468.000000;0.969278
8467.000000;0.968781
8466.000000;0.968485
8465.000000;0.968441
8464.000000;0.968609
8463.000000;0.968879
8462.000000;0.969087
8461.000000;0.969121
8460.000000;0.969050
8459.000000;0.969039
8458.000000;0.969134
8457.000000;0.969210
8456.000000;0.969162
8455.000000;0.969036
8454.000000;0.968933
8453.000000;0.968869
8452.000000;0.968795
8451.000000;0.968689
8450.000000;0.968563
8449.000000;0.968410
8448.000000;0.968213
8447.000000;0.967990
8446.000000;0.967789
8445.000000;0.967660
8444.000000;0.967644
8443.000000;0.967753
8442.000000;0.967921
8441.000000;0.968013
8440.000000;0.967934
8439.000000;0.967706
8438.000000;0.967418
8437.000000;0.967137
8436.000000;0.966913
8435.000000;0.966801
8434.000000;0.966809
8433.000000;0.966842
8432.000000;0.966775
8431.000000;0.966591
8430.000000;0.966401
8429.000000;0.966337
8428.000000;0.966448
8427.000000;0.966675
8426.000000;0.966897
8425.000000;0.967012
8424.000000;0.967014
8423.000000;0.966993
8422.000000;0.967022
8421.000000;0.967081
8420.000000;0.967102
8419.000000;0.967052
8418.000000;0.966943
8417.000000;0.966809
8416.000000;0.966719
8415.000000;0.966752
8414.000000;0.966891
8413.000000;0.966966
8412.000000;0.966806
8411.000000;0.966451
8410.000000;0.966131
8409.000000;0.966028
8408.000000;0.966120
8407.000000;0.966252
8406.000000;0.966290
8405.000000;0.966208
8404.000000;0.966085
8403.000000;0.966062
8402.000000;0.966223
8401.000000;0.966513
8400.000000;0.966782
8399.000000;0.966908
8398.000000;0.966829
8397.000000;0.966512
8396.000000;0.966009
8395.000000;0.965526
8394.000000;0.965308
8393.000000;0.965386
8392.000000;0.965538
8391.000000;0.965550
8390.000000;0.965433
8389.000000;0.965327
8388.000000;0.965295
8387.000000;0.965309
8386.000000;0.965350
8385.000000;0.965387
8384.000000;0.965308
8383.000000;0.965014
8382.000000;0.964599
8381.000000;0.964304
8380.000000;0.964272
8379.000000;0.964406
8378.000000;0.964508
8377.000000;0.964478
8376.000000;0.964344
8375.000000;0.964166
8374.000000;0.963977
8373.000000;0.963806
8372.000000;0.963703
8371.000000;0.963727
8370.000000;0.963899
8369.000000;0.964159
8368.000000;0.964380
8367.000000;0.964479
8366.000000;0.964468
8365.000000;0.964388
8364.000000;0.964212
8363.000000;0.963884
8362.000000;0.963452
8361.000000;0.963088
8360.000000;0.962930
8359.000000;0.962956
8358.000000;0.963061
8357.000000;0.963205
8356.000000;0.963420
8355.000000;0.963698
8354.000000;0.963922
8353.000000;0.963961
8352.000000;0.963828
8351.000000;0.963692
8350.000000;0.963702
8349.000000;0.963810
8348.000000;0.963813
8347.000000;0.963606
8346.000000;0.963323
8345.000000;0.963152
8344.000000;0.963084
8343.000000;0.962954
8342.000000;0.962732
8341.000000;0.962604
8340.000000;0.962715
8339.000000;0.962947
8338.000000;0.963077
8337.000000;0.963066
8336.000000;0.963073
8335.000000;0.963186
8334.000000;0.963301
8333.000000;0.963274
8332.000000;0.963093
8331.000000;0.962843
8330.000000;0.962582
8329.000000;0.962311
8328.000000;0.962041
8327.000000;0.961825
8326.000000;0.961731
8325.000000;0.961786
8324.000000;0.961954
8323.000000;0.962146
8322.000000;0.962287
8321.000000;0.962379
8320.000000;0.962462
8319.000000;0.962528
8318.000000;0.962508
8317.000000;0.962360
8316.000000;0.962134
8315.000000;0.961911
8314.000000;0.961725
8313.000000;0.961571
8312.000000;0.961474
8311.000000;0.961473
8310.000000;0.961552
8309.000000;0.961628
8308.000000;0.961637
8307.000000;0.961611
8306.000000;0.961632
8305.000000;0.961736
8304.000000;0.961854
8303.000000;0.961874
8302.000000;0.961761
8301.000000;0.961595
8300.000000;0.961513
8299.000000;0.961592
8298.000000;0.961793
8297.000000;0.961987
8296.000000;0.962045
8295.000000;0.961918
8294.000000;0.961682
8293.000000;0.961485
8292.000000;0.961428
8291.000000;0.961475
8290.000000;0.961504
8289.000000;0.961433
8288.000000;0.961268
8287.000000;0.961035
8286.000000;0.960734
8285.000000;0.960393
8284.000000;0.960115
8283.000000;0.960013
8282.000000;0.960087
8281.000000;0.960209
8280.000000;0.960265
8279.000000;0.960268
8278.000000;0.960318
8277.000000;0.960454
8276.000000;0.960606
8275.000000;0.960703
8274.000000;0.960790
8273.000000;0.960958
8272.000000;0.961160
8271.000000;0.961194
8270.000000;0.960936
8269.000000;0.960549
8268.000000;0.960349
8267.000000;0.960467
8266.000000;0.960718
8265.000000;0.960833
8264.000000;0.960746
8263.000000;0.960599
8262.000000;0.960536
8261.000000;0.960564
8260.000000;0.960604
8259.000000;0.960588
8258.000000;0.960488
8257.000000;0.960316
8256.000000;0.960109
8255.000000;0.959917
8254.000000;0.959802
8253.000000;0.959829
8252.000000;0.960041
8251.000000;0.960377
8250.000000;0.960651
8249.000000;0.960684
8248.000000;0.960480
8247.000000;0.960222
8246.000000;0.960068
8245.000000;0.959992
8244.000000;0.959870
8243.000000;0.959682
8242.000000;0.959558
8241.000000;0.959597
8240.000000;0.959722
8239.000000;0.959772
8238.000000;0.959711
8237.000000;0.959661
8236.000000;0.959737
8235.000000;0.959890
8234.000000;0.959974
8233.000000;0.959919
8232.000000;0.959792
8231.000000;0.959710
8230.000000;0.959729
8229.000000;0.959824
8228.000000;0.959912
8227.000000;0.959896
8226.000000;0.959727
8225.000000;0.959431
8224.000000;0.959085
8223.000000;0.958767
8222.000000;0.958548
8221.000000;0.958493
8220.000000;0.958583
8219.000000;0.958694
8218.000000;0.958712
8217.000000;0.958701
8216.000000;0.958840
8215.000000;0.959164
8214.000000;0.959449
8213.000000;0.959429
8212.000000;0.959075
8211.000000;0.958598
8210.000000;0.958233
8209.000000;0.958076
8208.000000;0.958094
8207.000000;0.958196
8206.000000;0.958307
8205.000000;0.958423
8204.000000;0.958582
8203.000000;0.958752
8202.000000;0.958817
8201.000000;0.958713
8200.000000;0.958545
8199.000000;0.958461
8198.000000;0.958465
8197.000000;0.958429
8196.000000;0.958294
8195.000000;0.958138
8194.000000;0.958048
8193.000000;0.958000
8192.000000;0.957909
8191.000000;0.957722
8190.000000;0.957457
8189.000000;0.957198
8188.000000;0.957074
8187.000000;0.957167
8186.000000;0.957434
8185.000000;0.957749
8184.000000;0.958021
8183.000000;0.958211
8182.000000;0.958266
8181.000000;0.958156
8180.000000;0.957982
8179.000000;0.957899
8178.000000;0.957913
8177.000000;0.957852
8176.000000;0.957630
8175.000000;0.957394
8174.000000;0.957325
8173.000000;0.957398
8172.000000;0.957461
8171.000000;0.957474
8170.000000;0.957519
8169.000000;0.957622
8168.000000;0.957729
8167.000000;0.957835
8166.000000;0.957968
8165.000000;0.958027
8164.000000;0.957823
8163.000000;0.957342
8162.000000;0.956854
8161.000000;0.956643
8160.000000;0.956722
8159.000000;0.956892
8158.000000;0.957009
8157.000000;0.957072
8156.000000;0.957120
8155.000000;0.957154
8154.000000;0.957170
8153.000000;0.957174
8152.000000;0.957170
8151.000000;0.957186
8150.000000;0.957294
8149.000000;0.957521
8148.000000;0.957741
8147.000000;0.957739
8146.000000;0.957441
8145.000000;0.957004
8144.000000;0.956659
8143.000000;0.956505
8142.000000;0.956485
8141.000000;0.956510
8140.000000;0.956547
8139.000000;0.956596
8138.000000;0.956653
8137.000000;0.956697
8136.000000;0.956704
8135.000000;0.956672
8134.000000;0.956634
8133.000000;0.956645
8132.000000;0.956714
8131.000000;0.956795
8130.000000;0.956862
8129.000000;0.956956
8128.000000;0.957121
8127.000000;0.957301
8126.000000;0.957368
8125.000000;0.957244
8124.000000;0.956981
8123.000000;0.956719
8122.000000;0.956580
8121.000000;0.956601
8120.000000;0.956705
8119.000000;0.956751
8118.000000;0.956656
8117.000000;0.956493
8116.000000;0.956443
8115.000000;0.956599
8114.000000;0.956867
8113.000000;0.957053
8112.000000;0.957036
8111.000000;0.956843
8110.000000;0.956588
8109.000000;0.956380
8108.000000;0.956255
8107.000000;0.956172
8106.000000;0.956062
8105.000000;0.955925
8104.000000;0.955832
8103.000000;0.955833
8102.000000;0.955889
8101.000000;0.955917
8100.000000;0.955905
8099.000000;0.955939
8098.000000;0.956122
8097.000000;0.956456
8096.000000;0.956813
8095.000000;0.956989
8094.000000;0.956871
8093.000000;0.956564
8092.000000;0.956333
8091.000000;0.956346
8090.000000;0.956496
8089.000000;0.956517
8088.000000;0.956278
8087.000000;0.955896
8086.000000;0.955567
8085.000000;0.955361
8084.000000;0.955240
8083.000000;0.955201
8082.000000;0.955307
8081.000000;0.955578
8080.000000;0.955920
8079.000000;0.956172
8078.000000;0.956216
8077.000000;0.956021
8076.000000;0.955640
8075.000000;0.955206
8074.000000;0.954898
8073.000000;0.954826
8072.000000;0.954935
8071.000000;0.955076
8070.000000;0.955168
8069.000000;0.955240
8068.000000;0.955307
8067.000000;0.955276
8066.000000;0.955086
8065.000000;0.954851
8064.000000;0.954754
8063.000000;0.954815
8062.000000;0.954876
8061.000000;0.954847
8060.000000;0.954836
8059.000000;0.954974
8058.000000;0.955215
8057.000000;0.955402
8056.000000;0.955459
8055.000000;0.955418
8054.000000;0.955329
8053.000000;0.955243
8052.000000;0.955243
8051.000000;0.955375
8050.000000;0.955522
8049.000000;0.955483
8048.000000;0.955208
8047.000000;0.954875
8046.000000;0.954703
8045.000000;0.954737
8044.000000;0.954869
8043.000000;0.954996
8042.000000;0.955112
8041.000000;0.955251
8040.000000;0.955409
8039.000000;0.955515
8038.000000;0.955494
8037.000000;0.955344
8036.000000;0.955156
8035.000000;0.955030
8034.000000;0.954982
8033.000000;0.954955
8032.000000;0.954900
8031.000000;0.954800
8030.000000;0.954630
8029.000000;0.954377
8028.000000;0.954109
8027.000000;0.953976
8026.000000;0.954078
8025.000000;0.954355
8024.000000;0.954647
8023.000000;0.954837
8022.000000;0.954920
8021.000000;0.954937
8020.000000;0.954911
8019.000000;0.954853
8018.000000;0.954804
8017.000000;0.954816
8016.000000;0.954891
8015.000000;0.954947
8014.000000;0.954896
8013.000000;0.954741
8012.000000;0.954569
8011.000000;0.954441
8010.000000;0.954333
8009.000000;0.954213
8008.000000;0.954097
8007.000000;0.954028
8006.000000;0.954033
8005.000000;0.954149
8004.000000;0.954406
8003.000000;0.954705
8002.000000;0.954809
8001.000000;0.954558
8000.000000;0.954092
7999.000000;0.953722
7998.000000;0.953603
7997.000000;0.953645
7996.000000;0.953724
7995.000000;0.953840
7994.000000;0.954010
7993.000000;0.954166
7992.000000;0.954238
7991.000000;0.954252
7990.000000;0.954237
7989.000000;0.954149
7988.000000;0.953972
7987.000000;0.953814
7986.000000;0.953795
7985.000000;0.953877
7984.000000;0.953920
7983.000000;0.953887
7982.000000;0.953860
7981.000000;0.953877
7980.000000;0.953858
7979.000000;0.953735
7978.000000;0.953578
7977.000000;0.953535
7976.000000;0.953686
7975.000000;0.953976
7974.000000;0.954254
7973.000000;0.954371
7972.000000;0.954286
7971.000000;0.954087
7970.000000;0.953906
7969.000000;0.953810
7968.000000;0.953783
7967.000000;0.953788
7966.000000;0.953804
7965.000000;0.953820
7964.000000;0.953827
7963.000000;0.953828
7962.000000;0.953823
7961.000000;0.953810
7960.000000;0.953796
7959.000000;0.953801
7958.000000;0.953816
7957.000000;0.953798
7956.000000;0.953741
7955.000000;0.953712
7954.000000;0.953756
7953.000000;0.953794
7952.000000;0.953696
7951.000000;0.953440
7950.000000;0.953158
7949.000000;0.952991
7948.000000;0.952976
7947.000000;0.953062
7946.000000;0.953186
7945.000000;0.953299
7944.000000;0.953380
7943.000000;0.953447
7942.000000;0.953525
7941.000000;0.953581
7940.000000;0.953541
7939.000000;0.953389
7938.000000;0.953217
7937.000000;0.953130
7936.000000;0.953142
7935.000000;0.953187
7934.000000;0.953219
7933.000000;0.953241
7932.000000;0.953248
7931.000000;0.953187
7930.000000;0.953015
7929.000000;0.952780
7928.000000;0.952610
7927.000000;0.952611
7926.000000;0.952768
7925.000000;0.952980
7924.000000;0.953161
7923.000000;0.953276
7922.000000;0.953298
7921.000000;0.953189
7920.000000;0.952969
7919.000000;0.952730
7918.000000;0.952550
7917.000000;0.952427
7916.000000;0.952341
7915.000000;0.952332
7914.000000;0.952432
7913.000000;0.952558
7912.000000;0.952581
7911.000000;0.952503
7910.000000;0.952471
7909.000000;0.952589
7908.000000;0.952790
7907.000000;0.952931
7906.000000;0.952941
7905.000000;0.952852
7904.000000;0.952731
7903.000000;0.952640
7902.000000;0.952627
7901.000000;0.952701
7900.000000;0.952820
7899.000000;0.952926
7898.000000;0.952976
7897.000000;0.952949
7896.000000;0.952853
7895.000000;0.952732
7894.000000;0.952636
7893.000000;0.952563
7892.000000;0.952478
7891.000000;0.952388
7890.000000;0.952335
7889.000000;0.952327
7888.000000;0.952330
7887.000000;0.952352
7886.000000;0.952449
7885.000000;0.952619
7884.000000;0.952751
7883.000000;0.952756
7882.000000;0.952666
7881.000000;0.952559
7880.000000;0.952460
7879.000000;0.952366
7878.000000;0.952309
7877.000000;0.952294
7876.000000;0.952235
7875.000000;0.952056
7874.000000;0.951821
7873.000000;0.951676
7872.000000;0.951673
7871.000000;0.951745
7870.000000;0.951835
7869.000000;0.951943
7868.000000;0.952038
7867.000000;0.952041
7866.000000;0.951938
7865.000000;0.951814
7864.000000;0.951742
7863.000000;0.951720
7862.000000;0.951741
7861.000000;0.951835
7860.000000;0.951976
7859.000000;0.952039
7858.000000;0.951934
7857.000000;0.951731
7856.000000;0.951586
7855.000000;0.951559
7854.000000;0.951585
7853.000000;0.951586
7852.000000;0.951557
7851.000000;0.951538
7850.000000;0.951553
7849.000000;0.951592
7848.000000;0.951596
7847.000000;0.951493
7846.000000;0.951277
7845.000000;0.951043
7844.000000;0.950918
7843.000000;0.950948
7842.000000;0.951086
7841.000000;0.951253
7840.000000;0.951389
7839.000000;0.951460
7838.000000;0.951465
7837.000000;0.951430
7836.000000;0.951370
7835.000000;0.951265
7834.000000;0.951119
7833.000000;0.951006
7832.000000;0.951011
7831.000000;0.951112
7830.000000;0.951180
7829.000000;0.951113
7828.000000;0.950943
7827.000000;0.950788
7826.000000;0.950738
7825.000000;0.950792
7824.000000;0.950880
7823.000000;0.950925
7822.000000;0.950903
7821.000000;0.950856
7820.000000;0.950826
7819.000000;0.950796
7818.000000;0.950706
7817.000000;0.950541
7816.000000;0.950380
7815.000000;0.950330
7814.000000;0.950435
7813.000000;0.950627
7812.000000;0.950748
7811.000000;0.950643
7810.000000;0.950306
7809.000000;0.949943
7808.000000;0.949821
7807.000000;0.950011
7806.000000;0.950298
7805.000000;0.950395
7804.000000;0.950226
7803.000000;0.949974
7802.000000;0.949867
7801.000000;0.949962
7800.000000;0.950133
7799.000000;0.950215
7798.000000;0.950138
7797.000000;0.949963
7796.000000;0.949815
7795.000000;0.949766
7794.000000;0.949780
7793.000000;0.949775
7792.000000;0.949721
7791.000000;0.949670
7790.000000;0.949678
7789.000000;0.949735
7788.000000;0.949785
7787.000000;0.949791
7786.000000;0.949751
7785.000000;0.949663
7784.000000;0.949508
7783.000000;0.949313
7782.000000;0.949187
7781.000000;0.949241
7780.000000;0.949454
7779.000000;0.949652
7778.000000;0.949659
7777.000000;0.949454
7776.000000;0.949154
7775.000000;0.948871
7774.000000;0.948653
7773.000000;0.948547
7772.000000;0.948622
7771.000000;0.948872
7770.000000;0.949147
7769.000000;0.949266
7768.000000;0.949184
7767.000000;0.949017
7766.000000;0.948894
7765.000000;0.948845
7764.000000;0.948832
7763.000000;0.948828
7762.000000;0.948840
7761.000000;0.948883
7760.000000;0.948948
7759.000000;0.949000
7758.000000;0.948993
7757.000000;0.948912
7756.000000;0.948788
7755.000000;0.948666
7754.000000;0.948551
7753.000000;0.948419
7752.000000;0.948279
7751.000000;0.948195
7750.000000;0.948209
7749.000000;0.948277
7748.000000;0.948313
7747.000000;0.948268
7746.000000;0.948155
7745.000000;0.948014
7744.000000;0.947894
7743.000000;0.947848
7742.000000;0.947906
7741.000000;0.948024
7740.000000;0.948106
7739.000000;0.948084
7738.000000;0.947970
7737.000000;0.947818
7736.000000;0.947675
7735.000000;0.947569
7734.000000;0.947518
7733.000000;0.947498
7732.000000;0.947444
7731.000000;0.947316
7730.000000;0.947169
7729.000000;0.947112
7728.000000;0.947184
7727.000000;0.947314
7726.000000;0.947401
7725.000000;0.947417
7724.000000;0.947408
7723.000000;0.947420
7722.000000;0.947447
7721.000000;0.947456
7720.000000;0.947423
7719.000000;0.947351
7718.000000;0.947249
7717.000000;0.947118
7716.000000;0.946948
7715.000000;0.946755
7714.000000;0.946601
7713.000000;0.946552
7712.000000;0.946613
7711.000000;0.946709
7710.000000;0.946746
7709.000000;0.946678
7708.000000;0.946508
7707.000000;0.946270
7706.000000;0.946035
7705.000000;0.945893
7704.000000;0.945888
7703.000000;0.945975
7702.000000;0.946060
7701.000000;0.946093
7700.000000;0.946082
7699.000000;0.946049
7698.000000;0.945999
7697.000000;0.945946
7696.000000;0.945899
7695.000000;0.945828
7694.000000;0.945684
7693.000000;0.945472
7692.000000;0.945275
7691.000000;0.945176
7690.000000;0.945182
7689.000000;0.945232
7688.000000;0.945275
7687.000000;0.945284
7686.000000;0.945244
7685.000000;0.945143
7684.000000;0.944991
7683.000000;0.944839
7682.000000;0.944768
7681.000000;0.944851
7680.000000;0.945082
7679.000000;0.945348
7678.000000;0.945500
7677.000000;0.945473
7676.000000;0.945321
7675.000000;0.945140
7674.000000;0.944977
7673.000000;0.944837
7672.000000;0.944730
7671.000000;0.944658
7670.000000;0.944602
7669.000000;0.944536
7668.000000;0.944446
7667.000000;0.944310
7666.000000;0.944115
7665.000000;0.943916
7664.000000;0.943832
7663.000000;0.943917
7662.000000;0.944071
7661.000000;0.944134
7660.000000;0.944064
7659.000000;0.943948
7658.000000;0.943850
7657.000000;0.943755
7656.000000;0.943666
7655.000000;0.943664
7654.000000;0.943785
7653.000000;0.943918
7652.000000;0.943896
7651.000000;0.943682
7650.000000;0.943399
7649.000000;0.943180
7648.000000;0.943050
7647.000000;0.942960
7646.000000;0.942894
7645.000000;0.942878
7644.000000;0.942924
7643.000000;0.942992
7642.000000;0.943024
7641.000000;0.942999
7640.000000;0.942935
7639.000000;0.942843
7638.000000;0.942711
7637.000000;0.942533
7636.000000;0.942339
7635.000000;0.942173
7634.000000;0.942044
7633.000000;0.941930
7632.000000;0.941817
7631.000000;0.941709
7630.000000;0.941619
7629.000000;0.941568
7628.000000;0.941573
7627.000000;0.941619
7626.000000;0.941636
7625.000000;0.941562
7624.000000;0.941439
7623.000000;0.941380
7622.000000;0.941436
7621.000000;0.941538
7620.000000;0.941597
7619.000000;0.941609
7618.000000;0.941606
7617.000000;0.941548
7616.000000;0.941338
7615.000000;0.940960
7614.000000;0.940544
7613.000000;0.940262
7612.000000;0.940185
7611.000000;0.940255
7610.000000;0.940372
7609.000000;0.940462
7608.000000;0.940496
7607.000000;0.940472
7606.000000;0.940416
7605.000000;0.940365
7604.000000;0.940335
7603.000000;0.940298
7602.000000;0.940217
7601.000000;0.940107
7600.000000;0.940024
7599.000000;0.939985
7598.000000;0.939933
7597.000000;0.939812
7596.000000;0.939652
7595.000000;0.939539
7594.000000;0.939504
7593.000000;0.939506
7592.000000;0.939501
7591.000000;0.939487
7590.000000;0.939459
7589.000000;0.939386
7588.000000;0.939272
7587.000000;0.939166
7586.000000;0.939078
7585.000000;0.938935
7584.000000;0.938673
7583.000000;0.938361
7582.000000;0.938139
7581.000000;0.938064
7580.000000;0.938066
7579.000000;0.938060
7578.000000;0.938015
7577.000000;0.937941
7576.000000;0.937865
7575.000000;0.937852
7574.000000;0.937974
7573.000000;0.938210
7572.000000;0.938418
7571.000000;0.938463
7570.000000;0.938348
7569.000000;0.938177
7568.000000;0.938020
7567.000000;0.937850
7566.000000;0.937615
7565.000000;0.937324
7564.000000;0.937054
7563.000000;0.936891
7562.000000;0.936864
7561.000000;0.936920
7560.000000;0.936950
7559.000000;0.936865
7558.000000;0.936646
7557.000000;0.936352
7556.000000;0.936078
7555.000000;0.935914
7554.000000;0.935903
7553.000000;0.936009
7552.000000;0.936123
7551.000000;0.936138
7550.000000;0.936012
7549.000000;0.935774
7548.000000;0.935495
7547.000000;0.935259
7546.000000;0.935148
7545.000000;0.935194
7544.000000;0.935333
7543.000000;0.935427
7542.000000;0.935370
7541.000000;0.935162
7540.000000;0.934905
7539.000000;0.934707
7538.000000;0.934615
7537.000000;0.934583
7536.000000;0.934522
7535.000000;0.934389
7534.000000;0.934237
7533.000000;0.934169
7532.000000;0.934208
7531.000000;0.934242
7530.000000;0.934126
7529.000000;0.933845
7528.000000;0.933538
7527.000000;0.933350
7526.000000;0.933296
7525.000000;0.933304
7524.000000;0.933336
7523.000000;0.933419
7522.000000;0.933548
7521.000000;0.933636
7520.000000;0.933593
7519.000000;0.933418
7518.000000;0.933196
7517.000000;0.933023
7516.000000;0.932958
7515.000000;0.933013
7514.000000;0.933136
7513.000000;0.933207
7512.000000;0.933119
7511.000000;0.932861
7510.000000;0.932528
7509.000000;0.932225
7508.000000;0.931989
7507.000000;0.931795
7506.000000;0.931605
7505.000000;0.931404
7504.000000;0.931223
7503.000000;0.931128
7502.000000;0.931156
7501.000000;0.931259
7500.000000;0.931322
7499.000000;0.931282
7498.000000;0.931157
7497.000000;0.931018
7496.000000;0.930861
7495.000000;0.930666
7494.000000;0.930531
7493.000000;0.930414
7492.000000;0.930322
7491.000000;0.930215
7490.000000;0.930084
7489.000000;0.929941
7488.000000;0.929787
7487.000000;0.929606
7486.000000;0.929407
7485.000000;0.929246
7484.000000;0.929178
7483.000000;0.929201
7482.000000;0.929253
7481.000000;0.929267
7480.000000;0.929232
7479.000000;0.929196
7478.000000;0.929199
7477.000000;0.929220
7476.000000;0.929188
7475.000000;0.929070
7474.000000;0.928906
7473.000000;0.928779
7472.000000;0.928738
7471.000000;0.928764
7470.000000;0.928793
7469.000000;0.928758
7468.000000;0.928631
7467.000000;0.928441
7466.000000;0.928243
7465.000000;0.928060
7464.000000;0.927875
7463.000000;0.927681
7462.000000;0.927500
7461.000000;0.927346
7460.000000;0.927197
7459.000000;0.927034
7458.000000;0.926893
7457.000000;0.926835
7456.000000;0.926876
7455.000000;0.926963
7454.000000;0.927027
7453.000000;0.927032
7452.000000;0.926987
7451.000000;0.926942
7450.000000;0.926927
7449.000000;0.926905
7448.000000;0.926783
7447.000000;0.926536
7446.000000;0.926263
7445.000000;0.926078
7444.000000;0.925986
7443.000000;0.925916
7442.000000;0.925861
7441.000000;0.925881
7440.000000;0.925947
7439.000000;0.925920
7438.000000;0.925727
7437.000000;0.925493
7436.000000;0.925404
7435.000000;0.925471
7434.000000;0.925538
7433.000000;0.925484
7432.000000;0.925340
7431.000000;0.925183
7430.000000;0.925000
7429.000000;0.924740
7428.000000;0.924439
7427.000000;0.924219
7426.000000;0.924149
7425.000000;0.924154
7424.000000;0.924084
7423.000000;0.923861
7422.000000;0.923524
7421.000000;0.923155
7420.000000;0.922802
7419.000000;0.922478
7418.000000;0.922202
7417.000000;0.922013
7416.000000;0.921942
7415.000000;0.921997
7414.000000;0.922165
7413.000000;0.922424
7412.000000;0.922738
7411.000000;0.923040
7410.000000;0.923200
7409.000000;0.923060
7408.000000;0.922546
7407.000000;0.921794
7406.000000;0.921094
7405.000000;0.920656
7404.000000;0.920457
7403.000000;0.920377
7402.000000;0.920387
7401.000000;0.920544
7400.000000;0.920821
7399.000000;0.921031
7398.000000;0.920964
7397.000000;0.920570
7396.000000;0.919971
7395.000000;0.919368
7394.000000;0.918919
7393.000000;0.918640
7392.000000;0.918439
7391.000000;0.918262
7390.000000;0.918175
7389.000000;0.918281
7388.000000;0.918581
7387.000000;0.918940
7386.000000;0.919151
7385.000000;0.919003
7384.000000;0.918380
7383.000000;0.917426
7382.000000;0.916522
7381.000000;0.915961
7380.000000;0.915652
7379.000000;0.915308
7378.000000;0.914933
7377.000000;0.914930
7376.000000;0.915593
7375.000000;0.916657
7374.000000;0.917544
7373.000000;0.917955
7372.000000;0.918045
7371.000000;0.918076
7370.000000;0.918086
7369.000000;0.917939
7368.000000;0.917535
7367.000000;0.916921
7366.000000;0.916340
7365.000000;0.916102
7364.000000;0.916315
7363.000000;0.916800
7362.000000;0.917268
7361.000000;0.917517
7360.000000;0.917470
7359.000000;0.917150
7358.000000;0.916711
7357.000000;0.916430
7356.000000;0.916483
7355.000000;0.916772
7354.000000;0.916943
7353.000000;0.917094
7352.000000;0.917023
7351.000000;0.917402
7350.000000;0.916901
7349.000000;0.917929
7348.000000;0.921214
7347.000000;0.920668
7346.000000;0.920860
7345.000000;0.920608
7344.000000;0.920697
7343.000000;0.920704
7342.000000;0.920662
7341.000000;0.920476
7340.000000;0.920307
7339.000000;0.920221
7338.000000;0.920174
7337.000000;0.920160
7336.000000;0.920251
7335.000000;0.920447
7334.000000;0.920598
7333.000000;0.920535
7332.000000;0.920225
7331.000000;0.919791
7330.000000;0.919439
7329.000000;0.919360
7328.000000;0.919558
7327.000000;0.919778
7326.000000;0.919717
7325.000000;0.919369
7324.000000;0.918998
7323.000000;0.918772
7322.000000;0.918591
7321.000000;0.918319
7320.000000;0.918021
7319.000000;0.917863
7318.000000;0.917881
7317.000000;0.917990
7316.000000;0.918118
7315.000000;0.918228
7314.000000;0.918259
7313.000000;0.918254
7312.000000;0.918182
7311.000000;0.918286
7310.000000;0.918067
7309.000000;0.918174
7308.000000;0.917140
7307.000000;0.915724
7306.000000;0.917398
7305.000000;0.917855
7304.000000;0.918183
7303.000000;0.918120
7302.000000;0.918390
7301.000000;0.917847
7300.000000;0.916800
7299.000000;0.917103
7298.000000;0.917018
7297.000000;0.916931
7296.000000;0.916650
7295.000000;0.916463
7294.000000;0.916424
7293.000000;0.916496
7292.000000;0.916480
7291.000000;0.916262
7290.000000;0.915894
7289.000000;0.915523
7288.000000;0.915248
7287.000000;0.915094
7286.000000;0.914927
7285.000000;0.914802
7284.000000;0.914529
7283.000000;0.914496
7282.000000;0.913841
7281.000000;0.912518
7280.000000;0.912374
7279.000000;0.912027
7278.000000;0.911923
7277.000000;0.911740
7276.000000;0.911517
7275.000000;0.911255
7274.000000;0.911085
7273.000000;0.910999
7272.000000;0.910903
7271.000000;0.910693
7270.000000;0.910327
7269.000000;0.909857
7268.000000;0.909393
7267.000000;0.909001
7266.000000;0.908651
7265.000000;0.908300
7264.000000;0.907968
7263.000000;0.907814
7262.000000;0.907751
7261.000000;0.907836
7260.000000;0.907657
7259.000000;0.907998
7258.000000;0.908737
7257.000000;0.908264
7256.000000;0.907988
7255.000000;0.907461
7254.000000;0.906942
7253.000000;0.906399
7252.000000;0.905929
7251.000000;0.905479
7250.000000;0.905003
7249.000000;0.904485
7248.000000;0.903963
7247.000000;0.903468
7246.000000;0.902968
7245.000000;0.902419
7244.000000;0.901883
7243.000000;0.901505
7242.000000;0.901321
7241.000000;0.901144
7240.000000;0.900727
7239.000000;0.900004
7238.000000;0.899105
7237.000000;0.898179
7236.000000;0.897308
7235.000000;0.896545
7234.000000;0.895955
7233.000000;0.895552
7232.000000;0.895226
7231.000000;0.894785
7230.000000;0.894103
7229.000000;0.893223
7228.000000;0.892308
7227.000000;0.891501
7226.000000;0.890804
7225.000000;0.890089
7224.000000;0.889247
7223.000000;0.888305
7222.000000;0.887371
7221.000000;0.886489
7220.000000;0.885571
7219.000000;0.884628
7218.000000;0.883485
7217.000000;0.882564
7216.000000;0.881271
7215.000000;0.880848
7214.000000;0.878574
7213.000000;0.874866
7212.000000;0.874856
7211.000000;0.873691
7210.000000;0.872892
7209.000000;0.871629
7208.000000;0.870130
7207.000000;0.868157
7206.000000;0.865972
7205.000000;0.863821
7204.000000;0.861954
7203.000000;0.860478
7202.000000;0.859383
7201.000000;0.858618
7200.000000;0.858088
7199.000000;0.857575
7198.000000;0.856775
7197.000000;0.855495
7196.000000;0.853789
7195.000000;0.851859
7194.000000;0.849872
7193.000000;0.847896
7192.000000;0.845987
7191.000000;0.844214
7190.000000;0.842542
7189.000000;0.840789
7188.000000;0.838762
7187.000000;0.836407
7186.000000;0.833778
7185.000000;0.830975
7184.000000;0.828186
7183.000000;0.825699
7182.000000;0.823693
7181.000000;0.822014
7180.000000;0.820387
7179.000000;0.818854
7178.000000;0.817718
7177.000000;0.816919
7176.000000;0.815791
7175.000000;0.813647
7174.000000;0.810444
7173.000000;0.806736
7172.000000;0.803099
7171.000000;0.799764
7170.000000;0.796659
7169.000000;0.793599
7168.000000;0.790475
7167.000000;0.787357
7166.000000;0.784410
7165.000000;0.781653
7164.000000;0.778891
7163.000000;0.776010
7162.000000;0.773169
7161.000000;0.770550
7160.000000;0.768149
7159.000000;0.765926
7158.000000;0.763968
7157.000000;0.762213
7156.000000;0.760218
7155.000000;0.757539
7154.000000;0.754255
7153.000000;0.750842
7152.000000;0.747590
7151.000000;0.744382
7150.000000;0.741026
7149.000000;0.737505
7148.000000;0.733847
7147.000000;0.730040
7146.000000;0.726128
7145.000000;0.722178
7144.000000;0.718166
7143.000000;0.714049
7142.000000;0.709979
7141.000000;0.706228
7140.000000;0.702828
7139.000000;0.699433
7138.000000;0.695752
7137.000000;0.692006
7136.000000;0.688712
7135.000000;0.686044
7134.000000;0.683602
7133.000000;0.680869
7132.000000;0.677725
7131.000000;0.674389
7130.000000;0.671013
7129.000000;0.667517
7128.000000;0.663768
7127.000000;0.659824
7126.000000;0.655906
7125.000000;0.652125
7124.000000;0.648320
7123.000000;0.644149
7122.000000;0.639385
7121.000000;0.634156
7120.000000;0.628917
7119.000000;0.624135
7118.000000;0.619958
7117.000000;0.616160
7116.000000;0.612527
7115.000000;0.609224
7114.000000;0.606568
7113.000000;0.604380
7112.000000;0.601894
7111.000000;0.598463
7110.000000;0.594540
7109.000000;0.590731
7108.000000;0.586862
7107.000000;0.582807
7106.000000;0.578532
7105.000000;0.574233
7104.000000;0.570065
7103.000000;0.566167
7102.000000;0.562282
7101.000000;0.558656
7100.000000;0.554595
7099.000000;0.551219
7098.000000;0.545815
7097.000000;0.538200
7096.000000;0.532980
7095.000000;0.527465
7094.000000;0.523045
7093.000000;0.519396
7092.000000;0.516791
7091.000000;0.514725
7090.000000;0.512592
7089.000000;0.509707
7088.000000;0.505834
7087.000000;0.501286
7086.000000;0.496646
7085.000000;0.492332
7084.000000;0.488391
7083.000000;0.484619
7082.000000;0.480790
7081.000000;0.476793
7080.000000;0.472689
7079.000000;0.468722
7078.000000;0.465164
7077.000000;0.461965
7076.000000;0.458630
7075.000000;0.454579
7074.000000;0.449665
7073.000000;0.444283
7072.000000;0.438978
7071.000000;0.434049
7070.000000;0.429566
7069.000000;0.425573
7068.000000;0.422101
7067.000000;0.419030
7066.000000;0.416086
7065.000000;0.413031
7064.000000;0.409804
7063.000000;0.406422
7062.000000;0.402862
7061.000000;0.399130
7060.000000;0.395383
7059.000000;0.391833
7058.000000;0.388490
7057.000000;0.385059
7056.000000;0.381214
7055.000000;0.376934
7054.000000;0.372477
7053.000000;0.368081
7052.000000;0.363812
7051.000000;0.359636
7050.000000;0.355546
7049.000000;0.351569
7048.000000;0.347713
7047.000000;0.343934
7046.000000;0.340176
7045.000000;0.336464
7044.000000;0.332981
7043.000000;0.329913
7042.000000;0.327130
7041.000000;0.324167
7040.000000;0.320691
7039.000000;0.316868
7038.000000;0.313106
7037.000000;0.309515
7036.000000;0.305905
7035.000000;0.302220
7034.000000;0.298633
7033.000000;0.295185
7032.000000;0.291629
7031.000000;0.287781
7030.000000;0.283789
7029.000000;0.279939
7028.000000;0.276341
7027.000000;0.272893
7026.000000;0.269402
7025.000000;0.265681
7024.000000;0.261666
7023.000000;0.257514
7022.000000;0.253486
7021.000000;0.249754
7020.000000;0.246388
7019.000000;0.243432
7018.000000;0.240760
7017.000000;0.237959
7016.000000;0.234687
7015.000000;0.231108
7014.000000;0.227678
7013.000000;0.224520
7012.000000;0.221356
7011.000000;0.218026
7010.000000;0.214655
7009.000000;0.211284
7008.000000;0.207777
7007.000000;0.204181
7006.000000;0.200777
7005.000000;0.197624
7004.000000;0.194419
7003.000000;0.190971
7002.000000;0.187435
7001.000000;0.183958
7000.000000;0.180477
6999.000000;0.177023
6998.000000;0.173826
6997.000000;0.170932
6996.000000;0.168064
6995.000000;0.165046
6994.000000;0.162006
6993.000000;0.158987
6992.000000;0.155802
6991.000000;0.152439
6990.000000;0.149198
6989.000000;0.146200
6988.000000;0.143207
6987.000000;0.140132
6986.000000;0.137246
6985.000000;0.134567
6984.000000;0.131544
6983.000000;0.127757
6982.000000;0.123551
6981.000000;0.119610
6980.000000;0.116239
6979.000000;0.113417
6978.000000;0.111137
6977.000000;0.109252
6976.000000;0.107287
6975.000000;0.104846
6974.000000;0.101982
6973.000000;0.098874
6972.000000;0.095465
6971.000000;0.091782
6970.000000;0.088288
6969.000000;0.085466
6968.000000;0.083268
6967.000000;0.081315
6966.000000;0.079432
6965.000000;0.077636
6964.000000;0.075840
6963.000000;0.073891
6962.000000;0.071743
6961.000000;0.069308
6960.000000;0.066395
6959.000000;0.063042
6958.000000;0.059638
6957.000000;0.056488
6956.000000;0.053537
6955.000000;0.050747
6954.000000;0.048366
6953.000000;0.046512
6952.000000;0.044866
6951.000000;0.043129
6950.000000;0.041456
6949.000000;0.040046
6948.000000;0.038597
6947.000000;0.036596
6946.000000;0.033954
6945.000000;0.031022
6944.000000;0.028162
6943.000000;0.025545
6942.000000;0.023186
6941.000000;0.020937
6940.000000;0.018670
6939.000000;0.016615
6938.000000;0.015164
6937.000000;0.014196
6936.000000;0.013026
6935.000000;0.011240
6934.000000;0.009149
6933.000000;0.007176
6932.000000;0.005304
6931.000000;0.003435
6930.000000;0.001776
6929.000000;0.000427
6928.000000;-0.000938
6927.000000;-0.002568
6926.000000;-0.004210
6925.000000;-0.005601
6924.000000;-0.006941
6923.000000;-0.008487
6922.000000;-0.010082
6921.000000;-0.011560
6920.000000;-0.013211
6919.000000;-0.015336
6918.000000;-0.017656
6917.000000;-0.019624
6916.000000;-0.021020
6915.000000;-0.021887
6914.000000;-0.022229
6913.000000;-0.022271
6912.000000;-0.022602
6911.000000;-0.023566
6910.000000;-0.024795
6909.000000;-0.025777
6908.000000;-0.026628
6907.000000;-0.027835
6906.000000;-0.029523
6905.000000;-0.031402
6904.000000;-0.033158
6903.000000;-0.034514
6902.000000;-0.035194
6901.000000;-0.035285
6900.000000;-0.035421
6899.000000;-0.036229
6898.000000;-0.037792
6897.000000;-0.039869
6896.000000;-0.042237
6895.000000;-0.044476
6894.000000;-0.045865
6893.000000;-0.046034
6892.000000;-0.045471
6891.000000;-0.045004
6890.000000;-0.045045
6889.000000;-0.045648
6888.000000;-0.046853
6887.000000;-0.048449
6886.000000;-0.049719
6885.000000;-0.049984
6884.000000;-0.049322
6883.000000;-0.048444
6882.000000;-0.048064
6881.000000;-0.048598
6880.000000;-0.050101
6879.000000;-0.052099
6878.000000;-0.053716
6877.000000;-0.054351
6876.000000;-0.054108
6875.000000;-0.053448
6874.000000;-0.052761
6873.000000;-0.052339
6872.000000;-0.052344
6871.000000;-0.052601
6870.000000;-0.052840
6869.000000;-0.053277
6868.000000;-0.054380
6867.000000;-0.055872
6866.000000;-0.056700
6865.000000;-0.056338
6864.000000;-0.055422
6863.000000;-0.054646
6862.000000;-0.053790
6861.000000;-0.052479
6860.000000;-0.051216
6859.000000;-0.050841
6858.000000;-0.051369
6857.000000;-0.052064
6856.000000;-0.052361
6855.000000;-0.052130
6854.000000;-0.051393
6853.000000;-0.050429
6852.000000;-0.049863
6851.000000;-0.050022
6850.000000;-0.050381
6849.000000;-0.050135
6848.000000;-0.049100
6847.000000;-0.047592
6846.000000;-0.045793
6845.000000;-0.043867
6844.000000;-0.042331
6843.000000;-0.041634
6842.000000;-0.041466
6841.000000;-0.041032
6840.000000;-0.039970
6839.000000;-0.038560
6838.000000;-0.037193
6837.000000;-0.036074
6836.000000;-0.035255
6835.000000;-0.034480
6834.000000;-0.033177
6833.000000;-0.031050
6832.000000;-0.028528
6831.000000;-0.026266
6830.000000;-0.024421
6829.000000;-0.022771
6828.000000;-0.021254
6827.000000;-0.019918
6826.000000;-0.018586
6825.000000;-0.017079
6824.000000;-0.015590
6823.000000;-0.014411
6822.000000;-0.013422
6821.000000;-0.012235
6820.000000;-0.010606
6819.000000;-0.008416
6818.000000;-0.005542
6817.000000;-0.002178
6816.000000;0.001018
6815.000000;0.003607
6814.000000;0.005908
6813.000000;0.008398
6812.000000;0.010865
6811.000000;0.012746
6810.000000;0.014139
6809.000000;0.015829
6808.000000;0.018291
6807.000000;0.021187
6806.000000;0.023889
6805.000000;0.026078
6804.000000;0.027831
6803.000000;0.029487
6802.000000;0.031446
6801.000000;0.033818
6800.000000;0.036335
6799.000000;0.038841
6798.000000;0.041646
6797.000000;0.044985
6796.000000;0.048359
6795.000000;0.050975
6794.000000;0.052792
6793.000000;0.054630
6792.000000;0.057192
6791.000000;0.060462
6790.000000;0.064082
6789.000000;0.067832
6788.000000;0.071472
6787.000000;0.074565
6786.000000;0.076853
6785.000000;0.078668
6784.000000;0.080678
6783.000000;0.083205
6782.000000;0.085962
6781.000000;0.088479
6780.000000;0.090664
6779.000000;0.092853
6778.000000;0.095359
6777.000000;0.098121
6776.000000;0.100896
6775.000000;0.103637
6774.000000;0.106467
6773.000000;0.109301
6772.000000;0.111840
6771.000000;0.114024
6770.000000;0.116217
6769.000000;0.118792
6768.000000;0.121766
6767.000000;0.124963
6766.000000;0.128281
6765.000000;0.131600
6764.000000;0.134681
6763.000000;0.137432
6762.000000;0.140091
6761.000000;0.142911
6760.000000;0.145832
6759.000000;0.148690
6758.000000;0.151561
6757.000000;0.154577
6756.000000;0.157552
6755.000000;0.160126
6754.000000;0.162298
6753.000000;0.164530
6752.000000;0.167263
6751.000000;0.170488
6750.000000;0.173823
6749.000000;0.176865
6748.000000;0.179471
6747.000000;0.181807
6746.000000;0.184149
6745.000000;0.186604
6744.000000;0.189114
6743.000000;0.191725
6742.000000;0.194637
6741.000000;0.197825
6740.000000;0.200856
6739.000000;0.203347
6738.000000;0.205501
6737.000000;0.207917
6736.000000;0.210884
6735.000000;0.214095
6734.000000;0.217055
6733.000000;0.219568
6732.000000;0.221820
6731.000000;0.224161
6730.000000;0.226882
6729.000000;0.230033
6728.000000;0.233350
6727.000000;0.236430
6726.000000;0.239029
6725.000000;0.241240
6724.000000;0.243401
6723.000000;0.245821
6722.000000;0.248511
6721.000000;0.251173
6720.000000;0.253544
6719.000000;0.255753
6718.000000;0.258204
6717.000000;0.261043
6716.000000;0.263950
6715.000000;0.266560
6714.000000;0.268936
6713.000000;0.271446
6712.000000;0.274266
6711.000000;0.277217
6710.000000;0.280016
6709.000000;0.282491
6708.000000;0.284657
6707.000000;0.286680
6706.000000;0.288822
6705.000000;0.291229
6704.000000;0.293860
6703.000000;0.296444
6702.000000;0.299046
6701.000000;0.301552
6700.000000;0.303799
6699.000000;0.306069
6698.000000;0.308401
6697.000000;0.310877
6696.000000;0.313362
6695.000000;0.315735
6694.000000;0.318001
6693.000000;0.320246
6692.000000;0.322486
6691.000000;0.324712
6690.000000;0.327010
6689.000000;0.329476
6688.000000;0.332049
6687.000000;0.334547
6686.000000;0.336876
6685.000000;0.339074
6684.000000;0.341207
6683.000000;0.343320
6682.000000;0.345496
6681.000000;0.347826
6680.000000;0.350302
6679.000000;0.352834
6678.000000;0.355362
6677.000000;0.357867
6676.000000;0.360293
6675.000000;0.362561
6674.000000;0.364669
6673.000000;0.366681
6672.000000;0.368631
6671.000000;0.370517
6670.000000;0.372396
6669.000000;0.374369
6668.000000;0.376473
6667.000000;0.378652
6666.000000;0.380854
6665.000000;0.383089
6664.000000;0.385369
6663.000000;0.387670
6662.000000;0.389964
6661.000000;0.392219
6660.000000;0.394376
6659.000000;0.396383
6658.000000;0.398290
6657.000000;0.400232
6656.000000;0.402282
6655.000000;0.404363
6654.000000;0.406336
6653.000000;0.408159
6652.000000;0.409949
6651.000000;0.411892
6650.000000;0.414089
6649.000000;0.416461
6648.000000;0.418814
6647.000000;0.421011
6646.000000;0.423067
6645.000000;0.425045
6644.000000;0.426945
6643.000000;0.428752
6642.000000;0.430523
6641.000000;0.432356
6640.000000;0.434280
6639.000000;0.436258
6638.000000;0.438247
6637.000000;0.440202
6636.000000;0.442032
6635.000000;0.443692
6634.000000;0.445307
6633.000000;0.447098
6632.000000;0.449131
6631.000000;0.451233
6630.000000;0.453200
6629.000000;0.455007
6628.000000;0.456762
6627.000000;0.458528
6626.000000;0.460281
6625.000000;0.462001
6624.000000;0.463711
6623.000000;0.465422
6622.000000;0.467106
6621.000000;0.468749
6620.000000;0.470408
6619.000000;0.472178
6618.000000;0.474102
6617.000000;0.476133
6616.000000;0.478157
6615.000000;0.480062
6614.000000;0.481786
6613.000000;0.483335
6612.000000;0.484781
6611.000000;0.486249
6610.000000;0.487864
6609.000000;0.489667
6608.000000;0.491573
6607.000000;0.493437
6606.000000;0.495174
6605.000000;0.496807
6604.000000;0.498402
6603.000000;0.500000
6602.000000;0.501610
6601.000000;0.503226
6600.000000;0.504829
6599.000000;0.506393
6598.000000;0.507906
6597.000000;0.509395
6596.000000;0.510901
6595.000000;0.512440
6594.000000;0.513977
6593.000000;0.515448
6592.000000;0.516811
6591.000000;0.518102
6590.000000;0.519440
6589.000000;0.520936
6588.000000;0.522597
6587.000000;0.524305
6586.000000;0.525929
6585.000000;0.527448
6584.000000;0.528950
6583.000000;0.530526
6582.000000;0.532183
6581.000000;0.533862
6580.000000;0.535510
6579.000000;0.537098
6578.000000;0.538599
6577.000000;0.539984
6576.000000;0.541265
6575.000000;0.542498
6574.000000;0.543741
6573.000000;0.545034
6572.000000;0.546419
6571.000000;0.547944
6570.000000;0.549596
6569.000000;0.551238
6568.000000;0.552698
6567.000000;0.553919
6566.000000;0.555012
6565.000000;0.556151
6564.000000;0.557425
6563.000000;0.558820
6562.000000;0.560278
6561.000000;0.561763
6560.000000;0.563277
6559.000000;0.564821
6558.000000;0.566361
6557.000000;0.567816
6556.000000;0.569115
6555.000000;0.570265
6554.000000;0.571368
6553.000000;0.572551
6552.000000;0.573872
6551.000000;0.575282
6550.000000;0.576661
6549.000000;0.577914
6548.000000;0.579059
6547.000000;0.580214
6546.000000;0.581479
6545.000000;0.582829
6544.000000;0.584164
6543.000000;0.585422
6542.000000;0.586614
6541.000000;0.587765
6540.000000;0.588879
6539.000000;0.589973
6538.000000;0.591091
6537.000000;0.592248
6536.000000;0.593403
6535.000000;0.594522
6534.000000;0.595631
6533.000000;0.596798
6532.000000;0.598067
6531.000000;0.599421
6530.000000;0.600778
6529.000000;0.602033
6528.000000;0.603150
6527.000000;0.604223
6526.000000;0.605387
6525.000000;0.606648
6524.000000;0.607875
6523.000000;0.608969
6522.000000;0.609990
6521.000000;0.611052
6520.000000;0.612167
6519.000000;0.613255
6518.000000;0.614272
6517.000000;0.615230
6516.000000;0.616138
6515.000000;0.616999
6514.000000;0.617868
6513.000000;0.618816
6512.000000;0.619830
6511.000000;0.620826
6510.000000;0.621789
6509.000000;0.622820
6508.000000;0.623991
6507.000000;0.625231
6506.000000;0.626404
6505.000000;0.627475
6504.000000;0.628525
6503.000000;0.629627
6502.000000;0.630740
6501.000000;0.631769
6500.000000;0.632689
6499.000000;0.633594
6498.000000;0.634615
6497.000000;0.635787
6496.000000;0.637014
6495.000000;0.638162
6494.000000;0.639186
6493.000000;0.640158
6492.000000;0.641165
6491.000000;0.642202
6490.000000;0.643173
6489.000000;0.643995
6488.000000;0.644707
6487.000000;0.645465
6486.000000;0.646410
6485.000000;0.647529
6484.000000;0.648657
6483.000000;0.649626
6482.000000;0.650406
6481.000000;0.651113
6480.000000;0.651879
6479.000000;0.652747
6478.000000;0.653656
6477.000000;0.654521
6476.000000;0.655312
6475.000000;0.656087
6474.000000;0.656923
6473.000000;0.657829
6472.000000;0.658737
6471.000000;0.659609
6470.000000;0.660483
6469.000000;0.661384
6468.000000;0.662253
6467.000000;0.663017
6466.000000;0.663727
6465.000000;0.664528
6464.000000;0.665487
6463.000000;0.666522
6462.000000;0.667517
6461.000000;0.668459
6460.000000;0.669399
6459.000000;0.670355
6458.000000;0.671284
6457.000000;0.672148
6456.000000;0.672947
6455.000000;0.673714
6454.000000;0.674487
6453.000000;0.675284
6452.000000;0.676079
6451.000000;0.676820
6450.000000;0.677496
6449.000000;0.678162
6448.000000;0.678896
6447.000000;0.679708
6446.000000;0.680532
6445.000000;0.681286
6444.000000;0.681944
6443.000000;0.682562
6442.000000;0.683236
6441.000000;0.684020
6440.000000;0.684880
6439.000000;0.685744
6438.000000;0.686589
6437.000000;0.687432
6436.000000;0.688244
6435.000000;0.688936
6434.000000;0.689473
6433.000000;0.689955
6432.000000;0.690525
6431.000000;0.691228
6430.000000;0.692005
6429.000000;0.692808
6428.000000;0.693636
6427.000000;0.694454
6426.000000;0.695170
6425.000000;0.695733
6424.000000;0.696225
6423.000000;0.696781
6422.000000;0.697440
6421.000000;0.698125
6420.000000;0.698758
6419.000000;0.699355
6418.000000;0.699976
6417.000000;0.700635
6416.000000;0.701284
6415.000000;0.701892
6414.000000;0.702497
6413.000000;0.703156
6412.000000;0.703891
6411.000000;0.704678
6410.000000;0.705490
6409.000000;0.706290
6408.000000;0.707028
6407.000000;0.707656
6406.000000;0.708181
6405.000000;0.708662
6404.000000;0.709155
6403.000000;0.709684
6402.000000;0.710254
6401.000000;0.710870
6400.000000;0.711521
6399.000000;0.712181
6398.000000;0.712844
6397.000000;0.713523
6396.000000;0.714201
6395.000000;0.714810
6394.000000;0.715291
6393.000000;0.715670
6392.000000;0.716053
6391.000000;0.716550
6390.000000;0.717196
6389.000000;0.717925
6388.000000;0.718592
6387.000000;0.719085
6386.000000;0.719424
6385.000000;0.719761
6384.000000;0.720240
6383.000000;0.720873
6382.000000;0.721558
6381.000000;0.722193
6380.000000;0.722753
6379.000000;0.723280
6378.000000;0.723837
6377.000000;0.724452
6376.000000;0.725077
6375.000000;0.725622
6374.000000;0.726049
6373.000000;0.726427
6372.000000;0.726847
6371.000000;0.727315
6370.000000;0.727787
6369.000000;0.728265
6368.000000;0.728802
6367.000000;0.729398
6366.000000;0.729974
6365.000000;0.730476
6364.000000;0.730949
6363.000000;0.731466
6362.000000;0.732022
6361.000000;0.732549
6360.000000;0.733010
6359.000000;0.733430
6358.000000;0.733860
6357.000000;0.734333
6356.000000;0.734844
6355.000000;0.735353
6354.000000;0.735811
6353.000000;0.736214
6352.000000;0.736635
6351.000000;0.737152
6350.000000;0.737755
6349.000000;0.738335
6348.000000;0.738784
6347.000000;0.739090
6346.000000;0.739341
6345.000000;0.739640
6344.000000;0.740026
6343.000000;0.740468
6342.000000;0.740903
6341.000000;0.741286
6340.000000;0.741612
6339.000000;0.741918
6338.000000;0.742269
6337.000000;0.742723
6336.000000;0.743285
6335.000000;0.743894
6334.000000;0.744475
6333.000000;0.744997
6332.000000;0.745469
6331.000000;0.745885
6330.000000;0.746221
6329.000000;0.746482
6328.000000;0.746727
6327.000000;0.747019
6326.000000;0.747358
6325.000000;0.747698
6324.000000;0.748009
6323.000000;0.748322
6322.000000;0.748695
6321.000000;0.749146
6320.000000;0.749638
6319.000000;0.750108
6318.000000;0.750527
6317.000000;0.750903
6316.000000;0.751255
6315.000000;0.751593
6314.000000;0.751936
6313.000000;0.752314
6312.000000;0.752724
6311.000000;0.753115
6310.000000;0.753431
6309.000000;0.753692
6308.000000;0.753977
6307.000000;0.754338
6306.000000;0.754745
6305.000000;0.755132
6304.000000;0.755474
6303.000000;0.755803
6302.000000;0.756166
6301.000000;0.756566
6300.000000;0.756956
6299.000000;0.757273
6298.000000;0.757502
6297.000000;0.757705
6296.000000;0.757967
6295.000000;0.758322
6294.000000;0.758730
6293.000000;0.759117
6292.000000;0.759427
6291.000000;0.759651
6290.000000;0.759834
6289.000000;0.760060
6288.000000;0.760383
6287.000000;0.760778
6286.000000;0.761166
6285.000000;0.761495
6284.000000;0.761782
6283.000000;0.762076
6282.000000;0.762416
6281.000000;0.762805
6280.000000;0.763205
6279.000000;0.763545
6278.000000;0.763779
6277.000000;0.763945
6276.000000;0.764142
6275.000000;0.764423
6274.000000;0.764750
6273.000000;0.765053
6272.000000;0.765309
6271.000000;0.765524
6270.000000;0.765707
6269.000000;0.765867
6268.000000;0.766039
6267.000000;0.766249
6266.000000;0.766484
6265.000000;0.766704
6264.000000;0.766892
6263.000000;0.767063
6262.000000;0.767257
6261.000000;0.767535
6260.000000;0.767933
6259.000000;0.768410
6258.000000;0.768849
6257.000000;0.769166
6256.000000;0.769395
6255.000000;0.769644
6254.000000;0.769964
6253.000000;0.770314
6252.000000;0.770623
6251.000000;0.770864
6250.000000;0.771044
6249.000000;0.771183
6248.000000;0.771295
6247.000000;0.771380
6246.000000;0.771443
6245.000000;0.771522
6244.000000;0.771694
6243.000000;0.772017
6242.000000;0.772473
6241.000000;0.772975
6240.000000;0.773429
6239.000000;0.773767
6238.000000;0.773953
6237.000000;0.774001
6236.000000;0.773994
6235.000000;0.774041
6234.000000;0.774188
6233.000000;0.774394
6232.000000;0.774595
6231.000000;0.774772
6230.000000;0.774946
6229.000000;0.775143
6228.000000;0.775371
6227.000000;0.775611
6226.000000;0.775832
6225.000000;0.776009
6224.000000;0.776149
6223.000000;0.776291
6222.000000;0.776478
6221.000000;0.776735
6220.000000;0.777065
6219.000000;0.777433
6218.000000;0.777779
6217.000000;0.778064
6216.000000;0.778304
6215.000000;0.778536
6214.000000;0.778746
6213.000000;0.778886
6212.000000;0.778958
6211.000000;0.779048
6210.000000;0.779237
6209.000000;0.779501
6208.000000;0.779739
6207.000000;0.779888
6206.000000;0.779971
6205.000000;0.780059
6204.000000;0.780214
6203.000000;0.780452
6202.000000;0.780737
6201.000000;0.780999
6200.000000;0.781191
6199.000000;0.781324
6198.000000;0.781446
6197.000000;0.781588
6196.000000;0.781749
6195.000000;0.781930
6194.000000;0.782153
6193.000000;0.782413
6192.000000;0.782661
6191.000000;0.782843
6190.000000;0.782972
6189.000000;0.783108
6188.000000;0.783281
6187.000000;0.783444
6186.000000;0.783534
6185.000000;0.783550
6184.000000;0.783558
6183.000000;0.783633
6182.000000;0.783814
6181.000000;0.784102
6180.000000;0.784456
6179.000000;0.784786
6178.000000;0.784985
6177.000000;0.785002
6176.000000;0.784900
6175.000000;0.784813
6174.000000;0.784857
6173.000000;0.785064
6172.000000;0.785385
6171.000000;0.785731
6170.000000;0.786016
6169.000000;0.786195
6168.000000;0.786299
6167.000000;0.786410
6166.000000;0.786599
6165.000000;0.786854
6164.000000;0.787087
6163.000000;0.787202
6162.000000;0.787194
6161.000000;0.787148
6160.000000;0.787163
6159.000000;0.787269
6158.000000;0.787415
6157.000000;0.787542
6156.000000;0.787631
6155.000000;0.787708
6154.000000;0.787812
6153.000000;0.787965
6152.000000;0.788168
6151.000000;0.788393
6150.000000;0.788603
6149.000000;0.788775
6148.000000;0.788912
6147.000000;0.789018
6146.000000;0.789093
6145.000000;0.789145
6144.000000;0.789202
6143.000000;0.789278
6142.000000;0.789349
6141.000000;0.789385
6140.000000;0.789408
6139.000000;0.789495
6138.000000;0.789697
6137.000000;0.789983
6136.000000;0.790257
6135.000000;0.790449
6134.000000;0.790564
6133.000000;0.790648
6132.000000;0.790726
6131.000000;0.790794
6130.000000;0.790870
6129.000000;0.791003
6128.000000;0.791217
6127.000000;0.791465
6126.000000;0.791659
6125.000000;0.791750
6124.000000;0.791756
6123.000000;0.791726
6122.000000;0.791713
6121.000000;0.791768
6120.000000;0.791918
6119.000000;0.792135
6118.000000;0.792347
6117.000000;0.792502
6116.000000;0.792605
6115.000000;0.792691
6114.000000;0.792786
6113.000000;0.792902
6112.000000;0.793042
6111.000000;0.793179
6110.000000;0.793273
6109.000000;0.793317
6108.000000;0.793364
6107.000000;0.793460
6106.000000;0.793570
6105.000000;0.793608
6104.000000;0.793531
6103.000000;0.793394
6102.000000;0.793301
6101.000000;0.793327
6100.000000;0.793481
6099.000000;0.793720
6098.000000;0.793976
6097.000000;0.794196
6096.000000;0.794354
6095.000000;0.794453
6094.000000;0.794515
6093.000000;0.794586
6092.000000;0.794708
6091.000000;0.794893
6090.000000;0.795118
6089.000000;0.795356
6088.000000;0.795576
6087.000000;0.795730
6086.000000;0.795764
6085.000000;0.795690
6084.000000;0.795603
6083.000000;0.795598
6082.000000;0.795688
6081.000000;0.795818
6080.000000;0.795944
6079.000000;0.796057
6078.000000;0.796157
6077.000000;0.796239
6076.000000;0.796309
6075.000000;0.796364
6074.000000;0.796385
6073.000000;0.796375
6072.000000;0.796390
6071.000000;0.796482
6070.000000;0.796624
6069.000000;0.796739
6068.000000;0.796802
6067.000000;0.796862
6066.000000;0.796970
6065.000000;0.797120
6064.000000;0.797271
6063.000000;0.797391
6062.000000;0.797454
6061.000000;0.797447
6060.000000;0.797409
6059.000000;0.797413
6058.000000;0.797511
6057.000000;0.797693
6056.000000;0.797912
6055.000000;0.798118
6054.000000;0.798243
6053.000000;0.798232
6052.000000;0.798103
6051.000000;0.797967
6050.000000;0.797953
6049.000000;0.798110
6048.000000;0.798400
6047.000000;0.798739
6046.000000;0.799039
6045.000000;0.799244
6044.000000;0.799360
6043.000000;0.799443
6042.000000;0.799529
6041.000000;0.799596
6040.000000;0.799609
6039.000000;0.799575
6038.000000;0.799538
6037.000000;0.799524
6036.000000;0.799534
6035.000000;0.799554
6034.000000;0.799570
6033.000000;0.799580
6032.000000;0.799612
6031.000000;0.799707
6030.000000;0.799866
6029.000000;0.800033
6028.000000;0.800156
6027.000000;0.800242
6026.000000;0.800317
6025.000000;0.800362
6024.000000;0.800338
6023.000000;0.800264
6022.000000;0.800219
6021.000000;0.800270
6020.000000;0.800418
6019.000000;0.800622
6018.000000;0.800843
6017.000000;0.801052
6016.000000;0.801236
6015.000000;0.801398
6014.000000;0.801540
6013.000000;0.801638
6012.000000;0.801661
6011.000000;0.801622
6010.000000;0.801582
6009.000000;0.801590
6008.000000;0.801631
6007.000000;0.801652
6006.000000;0.801631
6005.000000;0.801594
6004.000000;0.801585
6003.000000;0.801617
6002.000000;0.801670
6001.000000;0.801712
6000.000000;0.801739
5999.000000;0.801772
5998.000000;0.801826
5997.000000;0.801885
5996.000000;0.801916
5995.000000;0.801912
5994.000000;0.801901
5993.000000;0.801916
5992.000000;0.801962
5991.000000;0.802022
5990.000000;0.802075
5989.000000;0.802098
5988.000000;0.802075
5987.000000;0.802004
5986.000000;0.801921
5985.000000;0.801877
5984.000000;0.801908
5983.000000;0.802008
5982.000000;0.802146
5981.000000;0.802298
5980.000000;0.802462
5979.000000;0.802632
5978.000000;0.802782
5977.000000;0.802874
5976.000000;0.802903
5975.000000;0.802911
5974.000000;0.802951
5973.000000;0.803036
5972.000000;0.803140
5971.000000;0.803235
5970.000000;0.803314
5969.000000;0.803380
5968.000000;0.803432
5967.000000;0.803468
5966.000000;0.803497
5965.000000;0.803529
5964.000000;0.803559
5963.000000;0.803577
5962.000000;0.803596
5961.000000;0.803640
5960.000000;0.803712
5959.000000;0.803781
5958.000000;0.803807
5957.000000;0.803782
5956.000000;0.803725
5955.000000;0.803648
5954.000000;0.803548
5953.000000;0.803443
5952.000000;0.803376
5951.000000;0.803376
5950.000000;0.803420
5949.000000;0.803475
5948.000000;0.803538
5947.000000;0.803630
5946.000000;0.803746
5945.000000;0.803856
5944.000000;0.803957
5943.000000;0.804082
5942.000000;0.804238
5941.000000;0.804387
5940.000000;0.804498
5939.000000;0.804590
5938.000000;0.804695
5937.000000;0.804801
5936.000000;0.804874
5935.000000;0.804914
5934.000000;0.804945
5933.000000;0.804962
5932.000000;0.804940
5931.000000;0.804883
5930.000000;0.804826
5929.000000;0.804787
5928.000000;0.804742
5927.000000;0.804671
5926.000000;0.804598
5925.000000;0.804570
5924.000000;0.804610
5923.000000;0.804715
5922.000000;0.804856
5921.000000;0.804994
5920.000000;0.805086
5919.000000;0.805112
5918.000000;0.805078
5917.000000;0.804994
5916.000000;0.804861
5915.000000;0.804697
5914.000000;0.804554
5913.000000;0.804478
5912.000000;0.804478
5911.000000;0.804533
5910.000000;0.804628
5909.000000;0.804746
5908.000000;0.804860
5907.000000;0.804948
5906.000000;0.805018
5905.000000;0.805095
5904.000000;0.805176
5903.000000;0.805227
5902.000000;0.805236
5901.000000;0.805227
5900.000000;0.805221
5899.000000;0.805205
5898.000000;0.805157
5897.000000;0.805098
5896.000000;0.805085
5895.000000;0.805159
5894.000000;0.805293
5893.000000;0.805417
5892.000000;0.805473
5891.000000;0.805446
5890.000000;0.805360
5889.000000;0.805248
5888.000000;0.805129
5887.000000;0.805012
5886.000000;0.804899
5885.000000;0.804792
5884.000000;0.804708
5883.000000;0.804679
5882.000000;0.804745
5881.000000;0.804909
5880.000000;0.805110
5879.000000;0.805249
5878.000000;0.805264
5877.000000;0.805180
5876.000000;0.805078
5875.000000;0.805022
5874.000000;0.805025
5873.000000;0.805058
5872.000000;0.805081
5871.000000;0.805068
5870.000000;0.805016
5869.000000;0.804955
5868.000000;0.804928
5867.000000;0.804947
5866.000000;0.804978
5865.000000;0.804978
5864.000000;0.804942
5863.000000;0.804914
5862.000000;0.804937
5861.000000;0.805003
5860.000000;0.805064
5859.000000;0.805078
5858.000000;0.805037
5857.000000;0.804954
5856.000000;0.804850
5855.000000;0.804736
5854.000000;0.804623
5853.000000;0.804523
5852.000000;0.804452
5851.000000;0.804432
5850.000000;0.804477
5849.000000;0.804571
5848.000000;0.804668
5847.000000;0.804713
5846.000000;0.804683
5845.000000;0.804590
5844.000000;0.804462
5843.000000;0.804326
5842.000000;0.804212
5841.000000;0.804144
5840.000000;0.804110
5839.000000;0.804064
5838.000000;0.803961
5837.000000;0.803807
5836.000000;0.803649
5835.000000;0.803525
5834.000000;0.803441
5833.000000;0.803391
5832.000000;0.803380
5831.000000;0.803417
5830.000000;0.803494
5829.000000;0.803574
5828.000000;0.803616
5827.000000;0.803599
5826.000000;0.803540
5825.000000;0.803484
5824.000000;0.803458
5823.000000;0.803448
5822.000000;0.803421
5821.000000;0.803373
5820.000000;0.803338
5819.000000;0.803327
5818.000000;0.803306
5817.000000;0.803229
5816.000000;0.803104
5815.000000;0.802980
5814.000000;0.802885
5813.000000;0.802800
5812.000000;0.802695
5811.000000;0.802562
5810.000000;0.802409
5809.000000;0.802251
5808.000000;0.802123
5807.000000;0.802070
5806.000000;0.802088
5805.000000;0.802099
5804.000000;0.802016
5803.000000;0.801832
5802.000000;0.801619
5801.000000;0.801449
5800.000000;0.801336
5799.000000;0.801254
5798.000000;0.801184
5797.000000;0.801120
5796.000000;0.801048
5795.000000;0.800950
5794.000000;0.800826
5793.000000;0.800694
5792.000000;0.800566
5791.000000;0.800430
5790.000000;0.800274
5789.000000;0.800100
5788.000000;0.799935
5787.000000;0.799820
5786.000000;0.799790
5785.000000;0.799843
5784.000000;0.799930
5783.000000;0.799988
5782.000000;0.799981
5781.000000;0.799924
5780.000000;0.799851
5779.000000;0.799777
5778.000000;0.799678
5777.000000;0.799517
5776.000000;0.799290
5775.000000;0.799050
5774.000000;0.798866
5773.000000;0.798754
5772.000000;0.798668
5771.000000;0.798557
5770.000000;0.798425
5769.000000;0.798305
5768.000000;0.798190
5767.000000;0.798024
5766.000000;0.797773
5765.000000;0.797483
5764.000000;0.797232
5763.000000;0.797062
5762.000000;0.796970
5761.000000;0.796929
5760.000000;0.796897
5759.000000;0.796815
5758.000000;0.796635
5757.000000;0.796360
5756.000000;0.796045
5755.000000;0.795759
5754.000000;0.795555
5753.000000;0.795447
5752.000000;0.795386
5751.000000;0.795275
5750.000000;0.795032
5749.000000;0.794680
5748.000000;0.794325
5747.000000;0.794062
5746.000000;0.793899
5745.000000;0.793786
5744.000000;0.793676
5743.000000;0.793552
5742.000000;0.793418
5741.000000;0.793292
5740.000000;0.793168
5739.000000;0.792995
5738.000000;0.792708
5737.000000;0.792324
5736.000000;0.791969
5735.000000;0.791769
5734.000000;0.791724
5733.000000;0.791718
5732.000000;0.791640
5731.000000;0.791458
5730.000000;0.791197
5729.000000;0.790897
5728.000000;0.790607
5727.000000;0.790364
5726.000000;0.790150
5725.000000;0.789903
5724.000000;0.789585
5723.000000;0.789236
5722.000000;0.788928
5721.000000;0.788691
5720.000000;0.788498
5719.000000;0.788303
5718.000000;0.788085
5717.000000;0.787843
5716.000000;0.787569
5715.000000;0.787244
5714.000000;0.786863
5713.000000;0.786467
5712.000000;0.786138
5711.000000;0.785948
5710.000000;0.785890
5709.000000;0.785870
5708.000000;0.785777
5707.000000;0.785554
5706.000000;0.785228
5705.000000;0.784880
5704.000000;0.784595
5703.000000;0.784418
5702.000000;0.784318
5701.000000;0.784191
5700.000000;0.783958
5699.000000;0.783611
5698.000000;0.783264
5697.000000;0.782921
5696.000000;0.782667
5695.000000;0.782470
5694.000000;0.782237
5693.000000;0.781972
5692.000000;0.781654
5691.000000;0.781280
5690.000000;0.780861
5689.000000;0.780447
5688.000000;0.780094
5687.000000;0.779837
5686.000000;0.779671
5685.000000;0.779551
5684.000000;0.779408
5683.000000;0.779188
5682.000000;0.778886
5681.000000;0.778532
5680.000000;0.778153
5679.000000;0.777754
5678.000000;0.777364
5677.000000;0.777042
5676.000000;0.776831
5675.000000;0.776696
5674.000000;0.776561
5673.000000;0.776394
5672.000000;0.776210
5671.000000;0.776002
5670.000000;0.775723
5669.000000;0.775366
5668.000000;0.775010
5667.000000;0.774734
5666.000000;0.774516
5665.000000;0.774260
5664.000000;0.773918
5663.000000;0.773551
5662.000000;0.773257
5661.000000;0.773086
5660.000000;0.773005
5659.000000;0.772940
5658.000000;0.772826
5657.000000;0.772644
5656.000000;0.772426
5655.000000;0.772207
5654.000000;0.771986
5653.000000;0.771733
5652.000000;0.771436
5651.000000;0.771112
5650.000000;0.770782
5649.000000;0.770467
5648.000000;0.770201
5647.000000;0.770020
5646.000000;0.769919
5645.000000;0.769844
5644.000000;0.769752
5643.000000;0.769635
5642.000000;0.769498
5641.000000;0.769323
5640.000000;0.769094
5639.000000;0.768851
5638.000000;0.768661
5637.000000;0.768551
5636.000000;0.768477
5635.000000;0.768380
5634.000000;0.768246
5633.000000;0.768100
5632.000000;0.767958
5631.000000;0.767820
5630.000000;0.767708
5629.000000;0.767651
5628.000000;0.767645
5627.000000;0.767628
5626.000000;0.767547
5625.000000;0.767429
5624.000000;0.767352
5623.000000;0.767347
5622.000000;0.767343
5621.000000;0.767255
5620.000000;0.767085
5619.000000;0.766924
5618.000000;0.766850
5617.000000;0.766857
5616.000000;0.766884
5615.000000;0.766881
5614.000000;0.766837
5613.000000;0.766766
5612.000000;0.766707
5611.000000;0.766707
5610.000000;0.766803
5609.000000;0.766976
5608.000000;0.767134
5607.000000;0.767148
5606.000000;0.766951
5605.000000;0.766607
5604.000000;0.766274
5603.000000;0.766074
5602.000000;0.766024
5601.000000;0.766077
5600.000000;0.766195
5599.000000;0.766357
5598.000000;0.766527
5597.000000;0.766660
5596.000000;0.766752
5595.000000;0.766834
5594.000000;0.766931
5593.000000;0.767046
5592.000000;0.767188
5591.000000;0.767363
5590.000000;0.767537
5589.000000;0.767634
5588.000000;0.767620
5587.000000;0.767554
5586.000000;0.767536
5585.000000;0.767615
5584.000000;0.767744
5583.000000;0.767835
5582.000000;0.767831
5581.000000;0.767746
5580.000000;0.767644
5579.000000;0.767580
5578.000000;0.767574
5577.000000;0.767630
5576.000000;0.767755
5575.000000;0.767936
5574.000000;0.768126
5573.000000;0.768273
5572.000000;0.768382
5571.000000;0.768491
5570.000000;0.768602
5569.000000;0.768668
5568.000000;0.768674
5567.000000;0.768669
5566.000000;0.768707
5565.000000;0.768787
5564.000000;0.768883
5563.000000;0.769005
5562.000000;0.769178
5561.000000;0.769388
5560.000000;0.769578
5559.000000;0.769707
5558.000000;0.769770
5557.000000;0.769765
5556.000000;0.769665
5555.000000;0.769462
5554.000000;0.769212
5553.000000;0.769002
5552.000000;0.768869
5551.000000;0.768799
5550.000000;0.768814
5549.000000;0.768935
5548.000000;0.769261
5547.000000;0.769574
5546.000000;0.770045
5545.000000;0.770118
5544.000000;0.771581
5543.000000;0.772268
5542.000000;0.772216
5541.000000;0.772533
5540.000000;0.772649
5539.000000;0.772803
5538.000000;0.772857
5537.000000;0.772913
5536.000000;0.772954
5535.000000;0.772992
5534.000000;0.773006
5533.000000;0.772990
5532.000000;0.772978
5531.000000;0.773024
5530.000000;0.773141
5529.000000;0.773252
5528.000000;0.773369
5527.000000;0.773361
5526.000000;0.773530
5525.000000;0.773409
5524.000000;0.773930
5523.000000;0.771802
5522.000000;0.770455
5521.000000;0.770493
5520.000000;0.770310
5519.000000;0.770616
5518.000000;0.770934
5517.000000;0.771409
5516.000000;0.771879
5515.000000;0.772402
5514.000000;0.772992
5513.000000;0.773574
5512.000000;0.773894
5511.000000;0.773687
5510.000000;0.772992
5509.000000;0.771979
5508.000000;0.771207
5507.000000;0.770429
5506.000000;0.770619
5505.000000;0.770266
5504.000000;0.774668
5503.000000;0.776429
5502.000000;0.775697
5501.000000;0.776016
5500.000000;0.775915
5499.000000;0.776245
5498.000000;0.776440
5497.000000;0.776581
5496.000000;0.776553
5495.000000;0.776542
5494.000000;0.776660
5493.000000;0.776831
5492.000000;0.776874
5491.000000;0.776731
5490.000000;0.776539
5489.000000;0.776461
5488.000000;0.776523
5487.000000;0.776642
5486.000000;0.776754
5485.000000;0.776844
5484.000000;0.776884
5483.000000;0.776827
5482.000000;0.776687
5481.000000;0.776556
5480.000000;0.776500
5479.000000;0.776501
5478.000000;0.776527
5477.000000;0.776618
5476.000000;0.776811
5475.000000;0.776996
5474.000000;0.776981
5473.000000;0.776721
5472.000000;0.776402
5471.000000;0.776235
5470.000000;0.776246
5469.000000;0.776297
5468.000000;0.776278
5467.000000;0.776130
5466.000000;0.776044
5465.000000;0.775782
5464.000000;0.775963
5463.000000;0.775591
5462.000000;0.776660
5461.000000;0.772053
5460.000000;0.770406
5459.000000;0.771732
5458.000000;0.772020
5457.000000;0.772849
5456.000000;0.773139
5455.000000;0.773315
5454.000000;0.773152
5453.000000;0.772851
5452.000000;0.772429
5451.000000;0.771869
5450.000000;0.771081
5449.000000;0.770059
5448.000000;0.769054
5447.000000;0.768461
5446.000000;0.768386
5445.000000;0.768479
5444.000000;0.768388
5443.000000;0.768219
5442.000000;0.768292
5441.000000;0.768677
5440.000000;0.769212
5439.000000;0.769793
5438.000000;0.770475
5437.000000;0.770965
5436.000000;0.771105
5435.000000;0.770563
5434.000000;0.770800
5433.000000;0.770573
5432.000000;0.769827
5431.000000;0.769335
5430.000000;0.769008
5429.000000;0.768953
5428.000000;0.768875
5427.000000;0.768599
5426.000000;0.768090
5425.000000;0.767491
5424.000000;0.766932
5423.000000;0.766432
5422.000000;0.765935
5421.000000;0.765409
5420.000000;0.764894
5419.000000;0.764407
5418.000000;0.763964
5417.000000;0.763424
5416.000000;0.762975
5415.000000;0.762314
5414.000000;0.762093
5413.000000;0.759872
5412.000000;0.758616
5411.000000;0.758529
5410.000000;0.758226
5409.000000;0.757903
5408.000000;0.757188
5407.000000;0.756593
5406.000000;0.755884
5405.000000;0.755578
5404.000000;0.754968
5403.000000;0.754113
5402.000000;0.753270
5401.000000;0.752271
5400.000000;0.751223
5399.000000;0.750131
5398.000000;0.749051
5397.000000;0.748002
5396.000000;0.747012
5395.000000;0.746045
5394.000000;0.744955
5393.000000;0.743573
5392.000000;0.741906
5391.000000;0.740175
5390.000000;0.738616
5389.000000;0.737276
5388.000000;0.736026
5387.000000;0.734700
5386.000000;0.733192
5385.000000;0.731482
5384.000000;0.729640
5383.000000;0.727746
5382.000000;0.725866
5381.000000;0.723925
5380.000000;0.721971
5379.000000;0.719621
5378.000000;0.717428
5377.000000;0.715384
5376.000000;0.713124
5375.000000;0.710845
5374.000000;0.708638
5373.000000;0.706252
5372.000000;0.703366
5371.000000;0.700104
5370.000000;0.696775
5369.000000;0.693408
5368.000000;0.689767
5367.000000;0.685742
5366.000000;0.681416
5365.000000;0.676836
5364.000000;0.672033
5363.000000;0.667277
5362.000000;0.663012
5361.000000;0.659440
5360.000000;0.656280
5359.000000;0.652889
5358.000000;0.648616
5357.000000;0.643154
5356.000000;0.636595
5355.000000;0.629253
5354.000000;0.621578
5353.000000;0.614206
5352.000000;0.607832
5351.000000;0.602677
5350.000000;0.597995
5349.000000;0.592466
5348.000000;0.585380
5347.000000;0.577141
5346.000000;0.568485
5345.000000;0.559760
5344.000000;0.551111
5343.000000;0.542796
5342.000000;0.534890
5341.000000;0.526795
5340.000000;0.517477
5339.000000;0.506425
5338.000000;0.494225
5337.000000;0.482087
5336.000000;0.470627
5335.000000;0.459210
5334.000000;0.446667
5333.000000;0.432423
5332.000000;0.416789
5331.000000;0.400476
5330.000000;0.383978
5329.000000;0.367275
5328.000000;0.350080
5327.000000;0.332198
5326.000000;0.313642
5325.000000;0.294505
5324.000000;0.274654
5323.000000;0.253555
5322.000000;0.230654
5321.000000;0.205977
5320.000000;0.180124
5319.000000;0.153563
5318.000000;0.126073
5317.000000;0.097183
5316.000000;0.066923
5315.000000;0.035638
5314.000000;0.003234
5313.000000;-0.030687
5312.000000;-0.066085
5311.000000;-0.102730
5310.000000;-0.141146
5309.000000;-0.182302
5308.000000;-0.226090
5307.000000;-0.271248
5306.000000;-0.317158
5305.000000;-0.364378
5304.000000;-0.413076
5303.000000;-0.462541
5302.000000;-0.512264
5301.000000;-0.561374
5300.000000;-0.606880
5299.000000;-0.644842
5298.000000;-0.672958
5297.000000;-0.690243
5296.000000;-0.696785
5295.000000;-0.694729
5294.000000;-0.686067
5293.000000;-0.670888
5292.000000;-0.650509
5291.000000;-0.628992
5290.000000;-0.609836
5289.000000;-0.593883
5288.000000;-0.580413
5287.000000;-0.568176
5286.000000;-0.556015
5285.000000;-0.544211
5284.000000;-0.534352
5283.000000;-0.526544
5282.000000;-0.518522
5281.000000;-0.509035
5280.000000;-0.500036
5279.000000;-0.493697
5278.000000;-0.489280
5277.000000;-0.484978
5276.000000;-0.480848
5275.000000;-0.477766
5274.000000;-0.475144
5273.000000;-0.471934
5272.000000;-0.468511
5271.000000;-0.465554
5270.000000;-0.462538
5269.000000;-0.459140
5268.000000;-0.456378
5267.000000;-0.454420
5266.000000;-0.451276
5265.000000;-0.445884
5264.000000;-0.440691
5263.000000;-0.438751
5262.000000;-0.439746
5261.000000;-0.441348
5260.000000;-0.442872
5259.000000;-0.444694
5258.000000;-0.445415
5257.000000;-0.443095
5256.000000;-0.438802
5255.000000;-0.436043
5254.000000;-0.436685
5253.000000;-0.439347
5252.000000;-0.441430
5251.000000;-0.441044
5250.000000;-0.437747
5249.000000;-0.433415
5248.000000;-0.431518
5247.000000;-0.433415
5246.000000;-0.436415
5245.000000;-0.437248
5244.000000;-0.436113
5243.000000;-0.435388
5242.000000;-0.435667
5241.000000;-0.435662
5240.000000;-0.435202
5239.000000;-0.435598
5238.000000;-0.437142
5237.000000;-0.438580
5236.000000;-0.439163
5235.000000;-0.439213
5234.000000;-0.438739
5233.000000;-0.437479
5232.000000;-0.436317
5231.000000;-0.436705
5230.000000;-0.438405
5229.000000;-0.439344
5228.000000;-0.438145
5227.000000;-0.435612
5226.000000;-0.433474
5225.000000;-0.432722
5224.000000;-0.433356
5223.000000;-0.434819
5222.000000;-0.436279
5221.000000;-0.437020
5220.000000;-0.436972
5219.000000;-0.436637
5218.000000;-0.436522
5217.000000;-0.436849
5216.000000;-0.437493
5215.000000;-0.437822
5214.000000;-0.437085
5213.000000;-0.435483
5212.000000;-0.434280
5211.000000;-0.434293
5210.000000;-0.434771
5209.000000;-0.434369
5208.000000;-0.432915
5207.000000;-0.431559
5206.000000;-0.431337
5205.000000;-0.432156
5204.000000;-0.433045
5203.000000;-0.433032
5202.000000;-0.432024
5201.000000;-0.430934
5200.000000;-0.430563
5199.000000;-0.430423
5198.000000;-0.429476
5197.000000;-0.428034
5196.000000;-0.427688
5195.000000;-0.428915
5194.000000;-0.430115
5193.000000;-0.429772
5192.000000;-0.428379
5191.000000;-0.427473
5190.000000;-0.427731
5189.000000;-0.428770
5188.000000;-0.429979
5187.000000;-0.430749
5186.000000;-0.430602
5185.000000;-0.429906
5184.000000;-0.429762
5183.000000;-0.430499
5182.000000;-0.431100
5181.000000;-0.430750
5180.000000;-0.430010
5179.000000;-0.429790
5178.000000;-0.430065
5177.000000;-0.430440
5176.000000;-0.431112
5175.000000;-0.432222
5174.000000;-0.432898
5173.000000;-0.432103
5172.000000;-0.430151
5171.000000;-0.428445
5170.000000;-0.427959
5169.000000;-0.428590
5168.000000;-0.429604
5167.000000;-0.430118
5166.000000;-0.429509
5165.000000;-0.427998
5164.000000;-0.426662
5163.000000;-0.426478
5162.000000;-0.427544
5161.000000;-0.429304
5160.000000;-0.430953
5159.000000;-0.431528
5158.000000;-0.430471
5157.000000;-0.428479
5156.000000;-0.427109
5155.000000;-0.427126
5154.000000;-0.427852
5153.000000;-0.428288
5152.000000;-0.428145
5151.000000;-0.427494
5150.000000;-0.426369
5149.000000;-0.425156
5148.000000;-0.424594
5147.000000;-0.424867
5146.000000;-0.425436
5145.000000;-0.426056
5144.000000;-0.427177
5143.000000;-0.428885
5142.000000;-0.430285
5141.000000;-0.430531
5140.000000;-0.429779
5139.000000;-0.428678
5138.000000;-0.427676
5137.000000;-0.427171
5136.000000;-0.427493
5135.000000;-0.428317
5134.000000;-0.428951
5133.000000;-0.429461
5132.000000;-0.430524
5131.000000;-0.431829
5130.000000;-0.431875
5129.000000;-0.429971
5128.000000;-0.427333
5127.000000;-0.425491
5126.000000;-0.424604
5125.000000;-0.424046
5124.000000;-0.423719
5123.000000;-0.423835
5122.000000;-0.424134
5121.000000;-0.424258
5120.000000;-0.424387
5119.000000;-0.424766
5118.000000;-0.425084
5117.000000;-0.424919
5116.000000;-0.424393
5115.000000;-0.423871
5114.000000;-0.423498
5113.000000;-0.423412
5112.000000;-0.423795
5111.000000;-0.424361
5110.000000;-0.424456
5109.000000;-0.424060
5108.000000;-0.423958
5107.000000;-0.424559
5106.000000;-0.425315
5105.000000;-0.425662
5104.000000;-0.425759
5103.000000;-0.425838
5102.000000;-0.425646
5101.000000;-0.424971
5100.000000;-0.424043
5099.000000;-0.423081
5098.000000;-0.422136
5097.000000;-0.421662
5096.000000;-0.422347
5095.000000;-0.424076
5094.000000;-0.425926
5093.000000;-0.427491
5092.000000;-0.429170
5091.000000;-0.430734
5090.000000;-0.430882
5089.000000;-0.429009
5088.000000;-0.426388
5087.000000;-0.424768
5086.000000;-0.424615
5085.000000;-0.425313
5084.000000;-0.426115
5083.000000;-0.426263
5082.000000;-0.425168
5081.000000;-0.423274
5080.000000;-0.421903
5079.000000;-0.421607
5078.000000;-0.421504
5077.000000;-0.420895
5076.000000;-0.420553
5075.000000;-0.421558
5074.000000;-0.423726
5073.000000;-0.426026
5072.000000;-0.427827
5071.000000;-0.428824
5070.000000;-0.428544
5069.000000;-0.426986
5068.000000;-0.425226
5067.000000;-0.424436
5066.000000;-0.424651
5065.000000;-0.425237
5064.000000;-0.425982
5063.000000;-0.426936
5062.000000;-0.427646
5061.000000;-0.427475
5060.000000;-0.426453
5059.000000;-0.425212
5058.000000;-0.424333
5057.000000;-0.424215
5056.000000;-0.425066
5055.000000;-0.426452
5054.000000;-0.427354
5053.000000;-0.427231
5052.000000;-0.426590
5051.000000;-0.426101
5050.000000;-0.425756
5049.000000;-0.425335
5048.000000;-0.425024
5047.000000;-0.424996
5046.000000;-0.425035
5045.000000;-0.425112
5044.000000;-0.425647
5043.000000;-0.426641
5042.000000;-0.427283
5041.000000;-0.427092
5040.000000;-0.426697
5039.000000;-0.426772
5038.000000;-0.426926
5037.000000;-0.426447
5036.000000;-0.425458
5035.000000;-0.424505
5034.000000;-0.423659
5033.000000;-0.422952
5032.000000;-0.423032
5031.000000;-0.424357
5030.000000;-0.426148
5029.000000;-0.427132
5028.000000;-0.427131
5027.000000;-0.427038
5026.000000;-0.427420
5025.000000;-0.428054
5024.000000;-0.428604
5023.000000;-0.428929
5022.000000;-0.428813
5021.000000;-0.428127
5020.000000;-0.427320
5019.000000;-0.427177
5018.000000;-0.428006
5017.000000;-0.429444
5016.000000;-0.430957
5015.000000;-0.432227
5014.000000;-0.433174
5013.000000;-0.433939
5012.000000;-0.434762
5011.000000;-0.435643
5010.000000;-0.436265
5009.000000;-0.436375
5008.000000;-0.435958
5007.000000;-0.435064
5006.000000;-0.433930
5005.000000;-0.433288
5004.000000;-0.433900
5003.000000;-0.435532
5002.000000;-0.437123
5001.000000;-0.438127
5000.000000;-0.439190
4999.000000;-0.440623
4998.000000;-0.441618
4997.000000;-0.441392
4996.000000;-0.440507
4995.000000;-0.440225
4994.000000;-0.440934
4993.000000;-0.442002
4992.000000;-0.442916
4991.000000;-0.443812
4990.000000;-0.444936
4989.000000;-0.446162
4988.000000;-0.447100
4987.000000;-0.447446
4986.000000;-0.447277
4985.000000;-0.447131
4984.000000;-0.447584
4983.000000;-0.448596
4982.000000;-0.449641
4981.000000;-0.450516
4980.000000;-0.451542
4979.000000;-0.452850
4978.000000;-0.454095
4977.000000;-0.455164
4976.000000;-0.456431
4975.000000;-0.458060
4974.000000;-0.459605
4973.000000;-0.460668
4972.000000;-0.461417
4971.000000;-0.462080
4970.000000;-0.462660
4969.000000;-0.463386
4968.000000;-0.464817
4967.000000;-0.466979
4966.000000;-0.469106
4965.000000;-0.470690
4964.000000;-0.472179
4963.000000;-0.474112
4962.000000;-0.476205
4961.000000;-0.477822
4960.000000;-0.478845
4959.000000;-0.479537
4958.000000;-0.480063
4957.000000;-0.480694
4956.000000;-0.481861
4955.000000;-0.483534
4954.000000;-0.485066
4953.000000;-0.486192
4952.000000;-0.487656
4951.000000;-0.490221
4950.000000;-0.493598
4949.000000;-0.496760
4948.000000;-0.498992
4947.000000;-0.500103
4946.000000;-0.500268
4945.000000;-0.500240
4944.000000;-0.501174
4943.000000;-0.503446
4942.000000;-0.506004
4941.000000;-0.507570
4940.000000;-0.508238
4939.000000;-0.509153
4938.000000;-0.510885
4937.000000;-0.512885
4936.000000;-0.514490
4935.000000;-0.515820
4934.000000;-0.517639
4933.000000;-0.520606
4932.000000;-0.524645
4931.000000;-0.528818
4930.000000;-0.531921
4929.000000;-0.533413
4928.000000;-0.533763
4927.000000;-0.533988
4926.000000;-0.535139
4925.000000;-0.537952
4924.000000;-0.542199
4923.000000;-0.546255
4922.000000;-0.548186
4921.000000;-0.547800
4920.000000;-0.546967
4919.000000;-0.547538
4918.000000;-0.549618
4917.000000;-0.552202
4916.000000;-0.554744
4915.000000;-0.557429
4914.000000;-0.560466
4913.000000;-0.563859
4912.000000;-0.567603
4911.000000;-0.571511
4910.000000;-0.574983
4909.000000;-0.577471
4908.000000;-0.579099
4907.000000;-0.580445
4906.000000;-0.581883
4905.000000;-0.583530
4904.000000;-0.585507
4903.000000;-0.587809
4902.000000;-0.590230
4901.000000;-0.592770
4900.000000;-0.595821
4899.000000;-0.599519
4898.000000;-0.603083
4897.000000;-0.605313
4896.000000;-0.605837
4895.000000;-0.605562
4894.000000;-0.605855
4893.000000;-0.607453
4892.000000;-0.610054
4891.000000;-0.612626
4890.000000;-0.614053
4889.000000;-0.613762
4888.000000;-0.611978
4887.000000;-0.609465
4886.000000;-0.607050
4885.000000;-0.605319
4884.000000;-0.604531
4883.000000;-0.604543
4882.000000;-0.604803
4881.000000;-0.604604
4880.000000;-0.603606
4879.000000;-0.602134
4878.000000;-0.600840
4877.000000;-0.600014
4876.000000;-0.599422
4875.000000;-0.598771
4874.000000;-0.597953
4873.000000;-0.596724
4872.000000;-0.594615
4871.000000;-0.591452
4870.000000;-0.587550
4869.000000;-0.583092
4868.000000;-0.577825
4867.000000;-0.571866
4866.000000;-0.566254
4865.000000;-0.562018
4864.000000;-0.558994
4863.000000;-0.556072
4862.000000;-0.552411
4861.000000;-0.547887
4860.000000;-0.542602
4859.000000;-0.536754
4858.000000;-0.530912
4857.000000;-0.525611
4856.000000;-0.520515
4855.000000;-0.514548
4854.000000;-0.507150
4853.000000;-0.499060
4852.000000;-0.491527
4851.000000;-0.484995
4850.000000;-0.478841
4849.000000;-0.472317
4848.000000;-0.465470
4847.000000;-0.458905
4846.000000;-0.452860
4845.000000;-0.446872
4844.000000;-0.440433
4843.000000;-0.433577
4842.000000;-0.426534
4841.000000;-0.419202
4840.000000;-0.411405
4839.000000;-0.403441
4838.000000;-0.395848
4837.000000;-0.388749
4836.000000;-0.381913
4835.000000;-0.375259
4834.000000;-0.368771
4833.000000;-0.362049
4832.000000;-0.354639
4831.000000;-0.346863
4830.000000;-0.339626
4829.000000;-0.333247
4828.000000;-0.327098
4827.000000;-0.320540
4826.000000;-0.313621
4825.000000;-0.306620
4824.000000;-0.299555
4823.000000;-0.292502
4822.000000;-0.285780
4821.000000;-0.279389
4820.000000;-0.272684
4819.000000;-0.265133
4818.000000;-0.257102
4817.000000;-0.249431
4816.000000;-0.242475
4815.000000;-0.235933
4814.000000;-0.229443
4813.000000;-0.222925
4812.000000;-0.216425
4811.000000;-0.209912
4810.000000;-0.203360
4809.000000;-0.196727
4808.000000;-0.190004
4807.000000;-0.183289
4806.000000;-0.176782
4805.000000;-0.170589
4804.000000;-0.164548
4803.000000;-0.158436
4802.000000;-0.152193
4801.000000;-0.145907
4800.000000;-0.139674
4799.000000;-0.133536
4798.000000;-0.127539
4797.000000;-0.121763
4796.000000;-0.116284
4795.000000;-0.111029
4794.000000;-0.105677
4793.000000;-0.099849
4792.000000;-0.093564
4791.000000;-0.087344
4790.000000;-0.081673
4789.000000;-0.076462
4788.000000;-0.071265
4787.000000;-0.065901
4786.000000;-0.060539
4785.000000;-0.055244
4784.000000;-0.049798
4783.000000;-0.044100
4782.000000;-0.038404
4781.000000;-0.033007
4780.000000;-0.027872
4779.000000;-0.022704
4778.000000;-0.017291
4777.000000;-0.011678
4776.000000;-0.006097
4775.000000;-0.000791
4774.000000;0.004210
4773.000000;0.009162
4772.000000;0.014375
4771.000000;0.019893
4770.000000;0.025444
4769.000000;0.030689
4768.000000;0.035421
4767.000000;0.039609
4766.000000;0.043429
4765.000000;0.047210
4764.000000;0.051217
4763.000000;0.055461
4762.000000;0.059812
4761.000000;0.064247
4760.000000;0.068846
4759.000000;0.073603
4758.000000;0.078407
4757.000000;0.083150
4756.000000;0.087742
4755.000000;0.092091
4754.000000;0.096235
4753.000000;0.100402
4752.000000;0.104745
4751.000000;0.109069
4750.000000;0.113039
4749.000000;0.116639
4748.000000;0.120200
4747.000000;0.123996
4746.000000;0.128012
4745.000000;0.132089
4744.000000;0.136108
4743.000000;0.140027
4742.000000;0.143946
4741.000000;0.148082
4740.000000;0.152463
4739.000000;0.156682
4738.000000;0.160260
4737.000000;0.163280
4736.000000;0.166378
4735.000000;0.170031
4734.000000;0.174111
4733.000000;0.178208
4732.000000;0.182100
4731.000000;0.185771
4730.000000;0.189233
4729.000000;0.192548
4728.000000;0.195896
4727.000000;0.199392
4726.000000;0.202932
4725.000000;0.206337
4724.000000;0.209583
4723.000000;0.212770
4722.000000;0.215946
4721.000000;0.219087
4720.000000;0.222186
4719.000000;0.225266
4718.000000;0.228336
4717.000000;0.231417
4716.000000;0.234570
4715.000000;0.237828
4714.000000;0.241132
4713.000000;0.244377
4712.000000;0.247466
4711.000000;0.250314
4710.000000;0.252876
4709.000000;0.255246
4708.000000;0.257660
4707.000000;0.260336
4706.000000;0.263315
4705.000000;0.266446
4704.000000;0.269484
4703.000000;0.272218
4702.000000;0.274615
4701.000000;0.276866
4700.000000;0.279233
4699.000000;0.281821
4698.000000;0.284548
4697.000000;0.287299
4696.000000;0.290027
4695.000000;0.292689
4694.000000;0.295240
4693.000000;0.297718
4692.000000;0.300277
4691.000000;0.303032
4690.000000;0.305912
4689.000000;0.308681
4688.000000;0.311122
4687.000000;0.313221
4686.000000;0.315213
4685.000000;0.317408
4684.000000;0.319902
4683.000000;0.322478
4682.000000;0.324847
4681.000000;0.326945
4680.000000;0.328915
4679.000000;0.330883
4678.000000;0.332873
4677.000000;0.334906
4676.000000;0.337029
4675.000000;0.339231
4674.000000;0.341465
4673.000000;0.343744
4672.000000;0.346104
4671.000000;0.348464
4670.000000;0.350652
4669.000000;0.352608
4668.000000;0.354432
4667.000000;0.356224
4666.000000;0.358005
4665.000000;0.359825
4664.000000;0.361792
4663.000000;0.363923
4662.000000;0.366054
4661.000000;0.368002
4660.000000;0.369733
4659.000000;0.371330
4658.000000;0.372864
4657.000000;0.374373
4656.000000;0.375886
4655.000000;0.377422
4654.000000;0.379001
4653.000000;0.380674
4652.000000;0.382463
4651.000000;0.384287
4650.000000;0.386029
4649.000000;0.387694
4648.000000;0.389391
4647.000000;0.391139
4646.000000;0.392818
4645.000000;0.394357
4644.000000;0.395830
4643.000000;0.397302
4642.000000;0.398705
4641.000000;0.399974
4640.000000;0.401219
4639.000000;0.402656
4638.000000;0.404379
4637.000000;0.406269
4636.000000;0.408109
4635.000000;0.409719
4634.000000;0.411080
4633.000000;0.412347
4632.000000;0.413723
4631.000000;0.415244
4630.000000;0.416758
4629.000000;0.418131
4628.000000;0.419402
4627.000000;0.420656
4626.000000;0.421839
4625.000000;0.422825
4624.000000;0.423646
4623.000000;0.424541
4622.000000;0.425747
4621.000000;0.427267
4620.000000;0.428869
4619.000000;0.430289
4618.000000;0.431433
4617.000000;0.432391
4616.000000;0.433312
4615.000000;0.434279
4614.000000;0.435334
4613.000000;0.436537
4612.000000;0.437900
4611.000000;0.439278
4610.000000;0.440429
4609.000000;0.441239
4608.000000;0.441851
4607.000000;0.442541
4606.000000;0.443523
4605.000000;0.444849
4604.000000;0.446382
4603.000000;0.447855
4602.000000;0.449030
4601.000000;0.449899
4600.000000;0.450679
4599.000000;0.451586
4598.000000;0.452634
4597.000000;0.453687
4596.000000;0.454628
4595.000000;0.455447
4594.000000;0.456223
4593.000000;0.457060
4592.000000;0.457985
4591.000000;0.458874
4590.000000;0.459545
4589.000000;0.459973
4588.000000;0.460359
4587.000000;0.460950
4586.000000;0.461805
4585.000000;0.462792
4584.000000;0.463728
4583.000000;0.464513
4582.000000;0.465171
4581.000000;0.465813
4580.000000;0.466531
4579.000000;0.467289
4578.000000;0.467961
4577.000000;0.468497
4576.000000;0.469003
4575.000000;0.469617
4574.000000;0.470355
4573.000000;0.471102
4572.000000;0.471724
4571.000000;0.472161
4570.000000;0.472462
4569.000000;0.472765
4568.000000;0.473206
4567.000000;0.473810
4566.000000;0.474518
4565.000000;0.475297
4564.000000;0.476153
4563.000000;0.477018
4562.000000;0.477718
4561.000000;0.478132
4560.000000;0.478322
4559.000000;0.478472
4558.000000;0.478741
4557.000000;0.479211
4556.000000;0.479885
4555.000000;0.480650
4554.000000;0.481291
4553.000000;0.481651
4552.000000;0.481760
4551.000000;0.481777
4550.000000;0.481832
4549.000000;0.481969
4548.000000;0.482218
4547.000000;0.482605
4546.000000;0.483110
4545.000000;0.483642
4544.000000;0.484089
4543.000000;0.484393
4542.000000;0.484593
4541.000000;0.484781
4540.000000;0.484991
4539.000000;0.485154
4538.000000;0.485211
4537.000000;0.485272
4536.000000;0.485533
4535.000000;0.486017
4534.000000;0.486498
4533.000000;0.486756
4532.000000;0.486844
4531.000000;0.487000
4530.000000;0.487358
4529.000000;0.487811
4528.000000;0.488129
4527.000000;0.488153
4526.000000;0.487901
4525.000000;0.487550
4524.000000;0.487311
4523.000000;0.487254
4522.000000;0.487282
4521.000000;0.487289
4520.000000;0.487296
4519.000000;0.487394
4518.000000;0.487625
4517.000000;0.487969
4516.000000;0.488375
4515.000000;0.488726
4514.000000;0.488845
4513.000000;0.488660
4512.000000;0.488325
4511.000000;0.488092
4510.000000;0.488056
4509.000000;0.488093
4508.000000;0.488027
4507.000000;0.487805
4506.000000;0.487499
4505.000000;0.487226
4504.000000;0.487076
4503.000000;0.487038
4502.000000;0.487001
4501.000000;0.486841
4500.000000;0.486536
4499.000000;0.486168
4498.000000;0.485849
4497.000000;0.485663
4496.000000;0.485626
4495.000000;0.485643
4494.000000;0.485539
4493.000000;0.485201
4492.000000;0.484698
4491.000000;0.484220
4490.000000;0.483897
4489.000000;0.483705
4488.000000;0.483522
4487.000000;0.483231
4486.000000;0.482821
4485.000000;0.482408
4484.000000;0.482140
4483.000000;0.482013
4482.000000;0.481835
4481.000000;0.481421
4480.000000;0.480777
4479.000000;0.480057
4478.000000;0.479376
4477.000000;0.478756
4476.000000;0.478191
4475.000000;0.477671
4474.000000;0.477176
4473.000000;0.476730
4472.000000;0.476420
4471.000000;0.476256
4470.000000;0.476044
4469.000000;0.475542
4468.000000;0.474752
4467.000000;0.473913
4466.000000;0.473187
4465.000000;0.472481
4464.000000;0.471637
4463.000000;0.470673
4462.000000;0.469752
4461.000000;0.468998
4460.000000;0.468441
4459.000000;0.468060
4458.000000;0.467753
4457.000000;0.467298
4456.000000;0.466477
4455.000000;0.465272
4454.000000;0.463906
4453.000000;0.462680
4452.000000;0.461794
4451.000000;0.461275
4450.000000;0.460957
4449.000000;0.460540
4448.000000;0.459759
4447.000000;0.458590
4446.000000;0.457264
4445.000000;0.456059
4444.000000;0.455078
4443.000000;0.454270
4442.000000;0.453561
4441.000000;0.452897
4440.000000;0.452178
4439.000000;0.451270
4438.000000;0.450152
4437.000000;0.448974
4436.000000;0.447900
4435.000000;0.446920
4434.000000;0.445902
4433.000000;0.444786
4432.000000;0.443633
4431.000000;0.442474
4430.000000;0.441241
4429.000000;0.439890
4428.000000;0.438496
4427.000000;0.437157
4426.000000;0.435861
4425.000000;0.434517
4424.000000;0.433096
4423.000000;0.431661
4422.000000;0.430279
4421.000000;0.428968
4420.000000;0.427705
4419.000000;0.426448
4418.000000;0.425160
4417.000000;0.423852
4416.000000;0.422604
4415.000000;0.421477
4414.000000;0.420394
4413.000000;0.419144
4412.000000;0.417512
4411.000000;0.415429
4410.000000;0.413048
4409.000000;0.410691
4408.000000;0.408670
4407.000000;0.407059
4406.000000;0.405634
4405.000000;0.404106
4404.000000;0.402398
4403.000000;0.400649
4402.000000;0.398983
4401.000000;0.397363
4400.000000;0.395683
4399.000000;0.393889
4398.000000;0.392005
4397.000000;0.390099
4396.000000;0.388262
4395.000000;0.386512
4394.000000;0.384676
4393.000000;0.382489
4392.000000;0.379915
4391.000000;0.377304
4390.000000;0.375070
4389.000000;0.373229
4388.000000;0.371372
4387.000000;0.369137
4386.000000;0.366569
4385.000000;0.363965
4384.000000;0.361528
4383.000000;0.359255
4382.000000;0.357056
4381.000000;0.354812
4380.000000;0.352385
4379.000000;0.349776
4378.000000;0.347248
4377.000000;0.345075
4376.000000;0.343121
4375.000000;0.340858
4374.000000;0.337950
4373.000000;0.334677
4372.000000;0.331632
4371.000000;0.329093
4370.000000;0.326837
4369.000000;0.324454
4368.000000;0.321707
4367.000000;0.318644
4366.000000;0.315542
4365.000000;0.312702
4364.000000;0.310133
4363.000000;0.307482
4362.000000;0.304433
4361.000000;0.301110
4360.000000;0.297886
4359.000000;0.294854
4358.000000;0.291767
4357.000000;0.288499
4356.000000;0.285248
4355.000000;0.282169
4354.000000;0.279099
4353.000000;0.275792
4352.000000;0.272218
4351.000000;0.268437
4350.000000;0.264433
4349.000000;0.260293
4348.000000;0.256380
4347.000000;0.253023
4346.000000;0.250087
4345.000000;0.247080
4344.000000;0.243697
4343.000000;0.240093
4342.000000;0.236613
4341.000000;0.233394
4340.000000;0.230242
4339.000000;0.226848
4338.000000;0.223098
4337.000000;0.219228
4336.000000;0.215567
4335.000000;0.212114
4334.000000;0.208464
4333.000000;0.204243
4332.000000;0.199472
4331.000000;0.194438
4330.000000;0.189418
4329.000000;0.184677
4328.000000;0.180542
4327.000000;0.177163
4326.000000;0.174244
4325.000000;0.171243
4324.000000;0.167834
4323.000000;0.164041
4322.000000;0.159978
4321.000000;0.155667
4320.000000;0.151105
4319.000000;0.146357
4318.000000;0.141576
4317.000000;0.136986
4316.000000;0.132740
4315.000000;0.128697
4314.000000;0.124491
4313.000000;0.119993
4312.000000;0.115568
4311.000000;0.111623
4310.000000;0.107995
4309.000000;0.104064
4308.000000;0.099478
4307.000000;0.094542
4306.000000;0.089880
4305.000000;0.085918
4304.000000;0.082644
4303.000000;0.079592
4302.000000;0.075990
4301.000000;0.071232
4300.000000;0.065479
4299.000000;0.059714
4298.000000;0.055018
4297.000000;0.051667
4296.000000;0.048925
4295.000000;0.045741
4294.000000;0.041759
4293.000000;0.037643
4292.000000;0.034357
4291.000000;0.032093
4290.000000;0.030031
4289.000000;0.027232
4288.000000;0.023563
4287.000000;0.019683
4286.000000;0.016322
4285.000000;0.013751
4284.000000;0.011778
4283.000000;0.009955
4282.000000;0.007877
4281.000000;0.005595
4280.000000;0.003686
4279.000000;0.002604
4278.000000;0.002012
4277.000000;0.001119
4276.000000;-0.000332
4275.000000;-0.001756
4274.000000;-0.002474
4273.000000;-0.002355
4272.000000;-0.001569
4271.000000;-0.000233
4270.000000;0.001324
4269.000000;0.002387
4268.000000;0.002565
4267.000000;0.002465
4266.000000;0.003042
4265.000000;0.004396
4264.000000;0.005864
4263.000000;0.007284
4262.000000;0.009289
4261.000000;0.012129
4260.000000;0.015072
4259.000000;0.017568
4258.000000;0.020278
4257.000000;0.024192
4256.000000;0.029195
4255.000000;0.034293
4254.000000;0.038973
4253.000000;0.043455
4252.000000;0.047708
4251.000000;0.051161
4250.000000;0.053676
4249.000000;0.056079
4248.000000;0.059425
4247.000000;0.064137
4246.000000;0.069902
4245.000000;0.076070
4244.000000;0.081660
4243.000000;0.085799
4242.000000;0.088663
4241.000000;0.091642
4240.000000;0.096135
4239.000000;0.102294
4238.000000;0.109169
4237.000000;0.115883
4236.000000;0.122289
4235.000000;0.128513
4234.000000;0.134298
4233.000000;0.139114
4232.000000;0.142827
4231.000000;0.146107
4230.000000;0.150062
4229.000000;0.155287
4228.000000;0.161249
4227.000000;0.166731
4226.000000;0.170980
4225.000000;0.174479
4224.000000;0.178625
4223.000000;0.184606
4222.000000;0.192500
4221.000000;0.201353
4220.000000;0.209926
4219.000000;0.217271
4218.000000;0.222877
4217.000000;0.226831
4216.000000;0.230000
4215.000000;0.233645
4214.000000;0.238397
4213.000000;0.243715
4212.000000;0.248655
4211.000000;0.253052
4210.000000;0.257528
4209.000000;0.262427
4208.000000;0.267383
4207.000000;0.272071
4206.000000;0.276801
4205.000000;0.282064
4204.000000;0.287924
4203.000000;0.294163
4202.000000;0.300632
4201.000000;0.307039
4200.000000;0.312715
4199.000000;0.317103
4198.000000;0.320442
4197.000000;0.323661
4196.000000;0.327735
4195.000000;0.333205
4194.000000;0.339901
4193.000000;0.346843
4192.000000;0.352800
4191.000000;0.357328
4190.000000;0.361040
4189.000000;0.364747
4188.000000;0.368785
4187.000000;0.373371
4186.000000;0.378874
4185.000000;0.385095
4184.000000;0.390895
4183.000000;0.395410
4182.000000;0.399357
4181.000000;0.404285
4180.000000;0.410658
4179.000000;0.417430
4178.000000;0.423416
4177.000000;0.428350
4176.000000;0.432563
4175.000000;0.436397
4174.000000;0.440202
4173.000000;0.444360
4172.000000;0.449090
4171.000000;0.454466
4170.000000;0.460525
4169.000000;0.466929
4168.000000;0.472629
4167.000000;0.476601
4166.000000;0.479060
4165.000000;0.481449
4164.000000;0.485109
4163.000000;0.490262
4162.000000;0.496254
4161.000000;0.502211
4160.000000;0.507427
4159.000000;0.511719
4158.000000;0.515552
4157.000000;0.519455
4156.000000;0.523386
4155.000000;0.527236
4154.000000;0.531757
4153.000000;0.538006
4152.000000;0.545655
4151.000000;0.552772
4150.000000;0.557745
4149.000000;0.560853
4148.000000;0.563523
4147.000000;0.566685
4146.000000;0.570339
4145.000000;0.574196
4144.000000;0.578222
4143.000000;0.582733
4142.000000;0.588097
4141.000000;0.594063
4140.000000;0.599419
4139.000000;0.603028
4138.000000;0.605536
4137.000000;0.609178
4136.000000;0.615298
4135.000000;0.622588
4134.000000;0.628273
4133.000000;0.630857
4132.000000;0.631350
4131.000000;0.632028
4130.000000;0.634486
4129.000000;0.638713
4128.000000;0.643480
4127.000000;0.647593
4126.000000;0.650930
4125.000000;0.654153
4124.000000;0.657695
4123.000000;0.661594
4122.000000;0.666187
4121.000000;0.672117
4120.000000;0.679267
4119.000000;0.686266
4118.000000;0.691617
4117.000000;0.695088
4116.000000;0.697654
4115.000000;0.700328
4114.000000;0.703563
4113.000000;0.707330
4112.000000;0.711380
4111.000000;0.715852
4110.000000;0.721714
4109.000000;0.729730
4108.000000;0.738740
4107.000000;0.745943
4106.000000;0.749726
4105.000000;0.751396
4104.000000;0.753046
4103.000000;0.754744
4102.000000;0.755189
4101.000000;0.754459
4100.000000;0.754603
4099.000000;0.757435
4098.000000;0.762778
4097.000000;0.768727
4096.000000;0.773266
4095.000000;0.775858
4094.000000;0.777942
4093.000000;0.781774
4092.000000;0.788315
4091.000000;0.796223
4090.000000;0.803380
4089.000000;0.809021
4088.000000;0.813872
4087.000000;0.818737
4086.000000;0.823704
4085.000000;0.828514
4084.000000;0.832935
4083.000000;0.836859
4082.000000;0.840524
4081.000000;0.844361
4080.000000;0.848113
4079.000000;0.850525
4078.000000;0.850597
4077.000000;0.848870
4076.000000;0.846951
4075.000000;0.846141
4074.000000;0.847036
4073.000000;0.849836
4072.000000;0.854273
4071.000000;0.859742
4070.000000;0.866152
4069.000000;0.873909
4068.000000;0.882266
4067.000000;0.888673
4066.000000;0.891450
4065.000000;0.892530
4064.000000;0.895490
4063.000000;0.901106
4062.000000;0.906639
4061.000000;0.909637
4060.000000;0.910775
4059.000000;0.912260
4058.000000;0.914941
4057.000000;0.917928
4056.000000;0.919969
4055.000000;0.920703
4054.000000;0.921328
4053.000000;0.924334
4052.000000;0.931665
4051.000000;0.942472
4050.000000;0.953305
4049.000000;0.961276
4048.000000;0.966231
4047.000000;0.969565
4046.000000;0.972378
4045.000000;0.975399
4044.000000;0.979145
4043.000000;0.983090
4042.000000;0.985839
4041.000000;0.987099
4040.000000;0.988167
4039.000000;0.989458
4038.000000;0.989874
4037.000000;0.989946
4036.000000;0.993062
4035.000000;1.001181
4034.000000;1.010755
4033.000000;1.015967
4032.000000;1.015873
4031.000000;1.015107
4030.000000;1.017470
4029.000000;1.022480
4028.000000;1.028343
4027.000000;1.035291
4026.000000;1.044261
4025.000000;1.054004
4024.000000;1.061502
4023.000000;1.064859
4022.000000;1.065104
4021.000000;1.064902
4020.000000;1.065793
4019.000000;1.067409
4018.000000;1.068715
4017.000000;1.069620
4016.000000;1.071616
4015.000000;1.076894
4014.000000;1.086364
4013.000000;1.098073
4012.000000;1.107678
4011.000000;1.111460
4010.000000;1.110172
4009.000000;1.109268
4008.000000;1.113011
4007.000000;1.119217
4006.000000;1.121632
4005.000000;1.117564
4004.000000;1.111487
4003.000000;1.110311
4002.000000;1.117265
4001.000000;1.131151
4000.000000;1.148627
3999.000000;1.165667
3998.000000;1.178218
3997.000000;1.184425
3996.000000;1.186654
3995.000000;1.189076
3994.000000;1.193477
3993.000000;1.199118
3992.000000;1.204899
3991.000000;1.209021
3990.000000;1.208736
3989.000000;1.202839
3988.000000;1.194093
3987.000000;1.188152
3986.000000;1.189348
3985.000000;1.197589
3984.000000;1.208693
3983.000000;1.216794
3982.000000;1.219213
3981.000000;1.219462
3980.000000;1.222361
3979.000000;1.228735
3978.000000;1.235768
3977.000000;1.241259
3976.000000;1.246547
3975.000000;1.253957
3974.000000;1.262359
3973.000000;1.267996
3972.000000;1.269830
3971.000000;1.271106
3970.000000;1.275219
3969.000000;1.282097
3968.000000;1.289097
3967.000000;1.294129
3966.000000;1.298010
3965.000000;1.304650
3964.000000;1.318248
3963.000000;1.337632
3962.000000;1.354455
3961.000000;1.361085
3960.000000;1.359352
3959.000000;1.357117
3958.000000;1.359068
3957.000000;1.364134
3956.000000;1.370126
3955.000000;1.377218
3954.000000;1.386410
3953.000000;1.397134
3952.000000;1.408557
3951.000000;1.422221
3950.000000;1.439875
3949.000000;1.458771
3948.000000;1.471215
3947.000000;1.471930
3946.000000;1.465092
3945.000000;1.460309
3944.000000;1.463926
3943.000000;1.475267
3942.000000;1.486098
3941.000000;1.486175
3940.000000;1.475406
3939.000000;1.463220
3938.000000;1.458592
3937.000000;1.466263
3936.000000;1.484943
3935.000000;1.505470
3934.000000;1.518040
3933.000000;1.522858
3932.000000;1.530746
3931.000000;1.553217
3930.000000;1.589682
3929.000000;1.625417
3928.000000;1.642649
3927.000000;1.638221
3926.000000;1.627539
3925.000000;1.627565
3924.000000;1.645519
3923.000000;1.673757
3922.000000;1.693786
3921.000000;1.694961
3920.000000;1.686107
3919.000000;1.683780
3918.000000;1.690254
3917.000000;1.685852
3916.000000;1.660549
3915.000000;1.638366
3914.000000;1.640236
3913.000000;1.659562
3912.000000;1.679569
3911.000000;1.692228
3910.000000;1.701767
3909.000000;1.716987
3908.000000;1.739210
3907.000000;1.749822
3906.000000;1.737874
3905.000000;1.719714
3904.000000;1.716989
3903.000000;1.742468
3902.000000;1.793670
3901.000000;1.856450
3900.000000;1.916368
3899.000000;1.966714
3898.000000;2.008769
3897.000000;2.042930
3896.000000;2.064229
3895.000000;2.072856
3894.000000;2.077813
3893.000000;2.085226
3892.000000;2.084310
3891.000000;2.053087
3890.000000;2.006935
3889.000000;1.988030
3888.000000;2.000667
3887.000000;2.009944
3886.000000;1.996692
3885.000000;1.991943
3884.000000;2.037299
3883.000000;2.113804
3882.000000;2.152983
3881.000000;2.118125
3880.000000;2.048634
3879.000000;2.022218
3878.000000;2.075284
3877.000000;2.179164
3876.000000;2.296258
3875.000000;2.392719
3874.000000;2.373646
3873.000000;2.302806
3872.000000;2.289664
3871.000000;2.327554
3870.000000;2.407824
3869.000000;2.564067
3868.000000;2.833239
3867.000000;2.986780
3866.000000;2.776112
3865.000000;2.624943
3864.000000;2.583206
3863.000000;2.562263
3862.000000;2.500690
3861.000000;2.423593
3860.000000;2.359825
3859.000000;2.335949
3858.000000;2.361553
3857.000000;2.445423
3856.000000;2.582321
3855.000000;2.704145
3854.000000;2.721623
3853.000000;2.673253
3852.000000;2.663087
3851.000000;2.695617
3850.000000;2.707730
3849.000000;2.668430
3848.000000;2.579001
3847.000000;2.484055
3846.000000;2.453061
3845.000000;2.484846
3844.000000;2.519322
3843.000000;2.579001
3842.000000;2.720450
3841.000000;2.887722
3840.000000;2.986383
3839.000000;3.234045
3838.000000;3.490767
3837.000000;3.059836
3836.000000;2.771332
3835.000000;2.594030
3834.000000;2.480710
3833.000000;2.435224
3832.000000;2.479829
3831.000000;2.710201
3830.000000;2.845948
3829.000000;2.589062
3828.000000;2.449939
3827.000000;2.424972
3826.000000;2.493102
3825.000000;2.626793
3824.000000;2.750926
3823.000000;2.834230
3822.000000;2.719621
3821.000000;2.504703
3820.000000;2.405366
3819.000000;2.430995
3818.000000;2.529323
3817.000000;2.663711
3816.000000;2.842702
3815.000000;3.036614
3814.000000;3.050521
3813.000000;3.200976
3812.000000;3.178142
3811.000000;2.692420
3810.000000;2.496523
3809.000000;2.472235
3808.000000;2.598110
3807.000000;2.781215
3806.000000;2.843259
3805.000000;2.840372
3804.000000;2.818807
3803.000000;2.778866
3802.000000;2.758809
3801.000000;2.804156
3800.000000;2.966372
3799.000000;3.198559
3798.000000;2.994980
3797.000000;2.748229
3796.000000;2.642101
3795.000000;2.652303
3794.000000;2.808122
3793.000000;3.319706
3792.000000;2.971015
3791.000000;2.765272
3790.000000;2.807439
3789.000000;2.892404
3788.000000;2.843847
3787.000000;2.729974
3786.000000;2.648413
3785.000000;2.610251
3784.000000;2.554960
3783.000000;2.496898
3782.000000;2.502700
3781.000000;2.660659
3780.000000;3.121608
3779.000000;2.764856
3778.000000;2.452538
3777.000000;2.437898
3776.000000;2.497289
3775.000000;2.556582
3774.000000;2.520900
3773.000000;2.435232
3772.000000;2.357621
3771.000000;2.316798
3770.000000;2.351213
3769.000000;2.466308
3768.000000;2.522335
3767.000000;2.418007
3766.000000;2.290268
3765.000000;2.227150
3764.000000;2.274284
3763.000000;2.491464
3762.000000;2.932713
3761.000000;2.796048
3760.000000;2.604439
3759.000000;2.667592
3758.000000;2.775678
3757.000000;2.786992
3756.000000;2.741185
3755.000000;2.705210
3754.000000;2.752527
3753.000000;2.969378
3752.000000;3.037840
3751.000000;2.914679
3750.000000;2.962937
3749.000000;3.157801
3748.000000;3.430900
3747.000000;3.461409
3746.000000;3.259494
3745.000000;2.936223
3744.000000;2.644008
3743.000000;2.532806
3742.000000;2.581315
3741.000000;2.639246
3740.000000;2.630964
3739.000000;2.589670
3738.000000;2.541576
3737.000000;2.494020
3736.000000;2.479868
3735.000000;2.537780
3734.000000;2.627514
3733.000000;2.634900
3732.000000;2.548926
3731.000000;2.484383
3730.000000;2.498379
3729.000000;2.553405
3728.000000;2.643293
3727.000000;2.746782
3726.000000;2.706776
3725.000000;2.638203
3724.000000;2.681570
3723.000000;2.731527
3722.000000;2.693836
3721.000000;2.630251
3720.000000;2.629024
3719.000000;2.642696
3718.000000;2.586514
3717.000000;2.587883
3716.000000;2.709179
3715.000000;2.889475
3714.000000;3.012973
3713.000000;2.837787
3712.000000;2.749676
3711.000000;2.893450
3710.000000;3.284718
3709.000000;3.325883
3708.000000;3.210850
3707.000000;3.316258
3706.000000;3.289477
3705.000000;3.298769
3704.000000;3.616622
3703.000000;3.684049
3702.000000;2.954385
3701.000000;2.599970
3700.000000;2.534069
3699.000000;2.592817
3698.000000;2.567681
3697.000000;2.495705
3696.000000;2.513275
3695.000000;2.642980
3694.000000;2.760851
3693.000000;2.703643
3692.000000;2.647002
3691.000000;2.709354
3690.000000;2.900191
3689.000000;3.266125
3688.000000;3.842815
3687.000000;3.434115
3686.000000;3.569378
3685.000000;3.509262
3684.000000;2.969060
3683.000000;2.708668
3682.000000;2.600440
3681.000000;2.589673
3680.000000;2.613893
3679.000000;2.665013
3678.000000;2.738373
3677.000000;2.843156
3676.000000;3.061321
3675.000000;3.380463
3674.000000;3.549989
3673.000000;3.239168
3672.000000;2.986592
3671.000000;2.890145
3670.000000;2.838538
3669.000000;2.857936
3668.000000;2.957000
3667.000000;3.025452
3666.000000;2.987539
3665.000000;3.094094
3664.000000;3.264802
3663.000000;2.790082
3662.000000;2.575997
3661.000000;2.543418
3660.000000;2.576219
3659.000000;2.588405
3658.000000;2.576250
3657.000000;2.640318
3656.000000;2.763231
3655.000000;2.743849
3654.000000;2.692025
3653.000000;2.637426
3652.000000;2.539502
3651.000000;2.452946
3650.000000;2.447192
3649.000000;2.557295
3648.000000;2.751083
3647.000000;3.259815
3646.000000;2.958056
3645.000000;2.535123
3644.000000;2.502667
3643.000000;2.613238
3642.000000;2.964971
3641.000000;2.806589
3640.000000;2.450297
3639.000000;2.292857
3638.000000;2.263675
3637.000000;2.380291
3636.000000;2.758899
3635.000000;2.772660
3634.000000;2.512776
3633.000000;2.466185
3632.000000;2.469134
3631.000000;2.436613
3630.000000;2.416096
3629.000000;2.469799
3628.000000;2.621362
3627.000000;2.756306
3626.000000;2.717148
3625.000000;2.601981
3624.000000;2.518845
3623.000000;2.526997
3622.000000;2.669606
3621.000000;2.982846
3620.000000;3.131215
3619.000000;2.912622
3618.000000;3.391230
3617.000000;3.261618
3616.000000;2.731036
3615.000000;2.637723
3614.000000;2.642006
3613.000000;2.650825
3612.000000;2.659342
3611.000000;2.808751
3610.000000;2.986822
3609.000000;2.786043
3608.000000;2.623952
3607.000000;2.547067
3606.000000;2.498425
3605.000000;2.452415
3604.000000;2.401285
3603.000000;2.371699
3602.000000;2.381668
3601.000000;2.425142
3600.000000;2.506925
3599.000000;2.622732
3598.000000;2.667656
3597.000000;2.611560
3596.000000;2.528973
3595.000000;2.479129
3594.000000;2.514014
3593.000000;2.634621
3592.000000;2.817602
3591.000000;3.122445
3590.000000;2.913486
3589.000000;2.614907
3588.000000;2.658871
3587.000000;2.772691
3586.000000;2.562573
3585.000000;2.426849
3584.000000;2.406085
3583.000000;2.442702
3582.000000;2.536456
3581.000000;2.738935
3580.000000;2.891010
3579.000000;2.551244
3578.000000;2.350432
3577.000000;2.286138
3576.000000;2.299979
3575.000000;2.377192
3574.000000;2.534213
3573.000000;2.744095
3572.000000;2.915958
3571.000000;2.903284
3570.000000;2.713093
3569.000000;2.584792
3568.000000;2.573554
3567.000000;2.672498
3566.000000;2.652440
3565.000000;2.595040
3564.000000;2.735556
3563.000000;3.222342
3562.000000;3.170540
3561.000000;2.891437
3560.000000;2.700297
3559.000000;2.511033
3558.000000;2.421052
3557.000000;2.349633
3556.000000;2.291210
3555.000000;2.279842
3554.000000;2.312560
3553.000000;2.354600
3552.000000;2.393680
3551.000000;2.465948
3550.000000;2.588976
3549.000000;2.701529
3548.000000;2.771317
3547.000000;2.858752
3546.000000;2.942563
3545.000000;3.229815
3544.000000;3.629184
3543.000000;2.811155
3542.000000;2.494501
3541.000000;2.384249
3540.000000;2.509340
3539.000000;2.983829
3538.000000;2.745702
3537.000000;2.459927
3536.000000;2.433930
3535.000000;2.428446
3534.000000;2.493959
3533.000000;2.824630
3532.000000;3.029942
3531.000000;2.705944
3530.000000;2.620622
3529.000000;2.573260
3528.000000;2.462655
3527.000000;2.352352
3526.000000;2.315028
3525.000000;2.375416
3524.000000;2.590209
3523.000000;3.237210
3522.000000;2.767713
3521.000000;2.503593
3520.000000;2.495106
3519.000000;2.630181
3518.000000;2.827117
3517.000000;2.917793
3516.000000;3.036883
3515.000000;3.322735
3514.000000;3.243485
3513.000000;3.406179
3512.000000;3.260911
3511.000000;2.850085
3510.000000;2.682609
3509.000000;2.527005
3508.000000;2.409775
3507.000000;2.368554
3506.000000;2.434542
3505.000000;2.621923
3504.000000;2.787769
3503.000000;2.725679
3502.000000;2.645605
3501.000000;2.589839
3500.000000;2.526579
3499.000000;2.519539
3498.000000;2.590360
3497.000000;2.665387
3496.000000;2.703698
3495.000000;2.724291
3494.000000;2.751282
3493.000000;2.884639
3492.000000;3.154597
3491.000000;2.793409
3490.000000;2.470458
3489.000000;2.380099
3488.000000;2.427871
3487.000000;2.570918
3486.000000;2.853019
3485.000000;3.267428
3484.000000;2.926827
3483.000000;2.668365
3482.000000;2.593296
3481.000000;2.513106
3480.000000;2.387894
3479.000000;2.289128
3478.000000;2.285282
3477.000000;2.527263
3476.000000;2.658519
3475.000000;2.315738
3474.000000;2.246193
3473.000000;2.417069
3472.000000;2.632651
3471.000000;2.610043
3470.000000;2.625327
3469.000000;2.734869
3468.000000;2.797977
3467.000000;2.634307
3466.000000;2.563094
3465.000000;2.545319
3464.000000;2.460884
3463.000000;2.380720
3462.000000;2.421835
3461.000000;2.800313
3460.000000;2.888023
3459.000000;2.503577
3458.000000;2.480388
3457.000000;2.594522
3456.000000;2.985081
3455.000000;2.991760
3454.000000;3.015955
3453.000000;3.110261
3452.000000;2.505444
3451.000000;2.210679
3450.000000;2.130368
3449.000000;2.227939
3448.000000;2.561415
3447.000000;2.848007
3446.000000;2.693001
3445.000000;2.577758
3444.000000;2.577446
3443.000000;2.914628
3442.000000;2.904102
3441.000000;2.483924
3440.000000;2.445647
3439.000000;2.667458
3438.000000;2.570532
3437.000000;2.350578
3436.000000;2.440593
3435.000000;2.725746
3434.000000;3.176453
3433.000000;2.819425
3432.000000;2.563756
3431.000000;2.480410
3430.000000;2.274804
3429.000000;2.248530
3428.000000;2.465686
3427.000000;2.506828
3426.000000;2.353453
3425.000000;2.293041
3424.000000;2.313511
3423.000000;2.508441
3422.000000;2.944618
3421.000000;3.279002
3420.000000;2.840635
3419.000000;2.587221
3418.000000;2.471533
3417.000000;2.465341
3416.000000;2.801539
3415.000000;2.754578
3414.000000;2.413030
3413.000000;2.401083
3412.000000;2.487497
3411.000000;2.861836
3410.000000;2.786349
3409.000000;2.553004
3408.000000;2.677074
3407.000000;2.429357
3406.000000;2.359962
3405.000000;2.551321
3404.000000;2.779681
3403.000000;2.723893
3402.000000;2.627959
3401.000000;2.852541
3400.000000;2.751948
3399.000000;2.573118
3398.000000;3.070457
3397.000000;2.821037
3396.000000;2.654586
3395.000000;2.927624
3394.000000;2.582710
3393.000000;2.373053
3392.000000;2.296049
3391.000000;2.334354
3390.000000;2.504011
3389.000000;2.541072
3388.000000;2.591164
3387.000000;2.971066
3386.000000;2.971271
3385.000000;2.718784
3384.000000;2.908729
3383.000000;3.398960
3382.000000;3.203175
3381.000000;2.704765
3380.000000;2.403067
3379.000000;2.335978
3378.000000;2.407899
3377.000000;2.533999
3376.000000;2.674364
3375.000000;2.772288
3374.000000;2.792367
3373.000000;2.924711
3372.000000;2.764196
3371.000000;2.471792
3370.000000;2.302743
3369.000000;2.290390
3368.000000;2.377182
3367.000000;2.429061
3366.000000;2.535506
3365.000000;2.548813
3364.000000;2.496537
3363.000000;2.684132
3362.000000;3.393791
3361.000000;2.882441
3360.000000;2.648770
3359.000000;2.570128
3358.000000;2.454393
3357.000000;2.331515
3356.000000;2.297890
3355.000000;2.385841
3354.000000;2.561348
3353.000000;2.905915
3352.000000;2.946337
3351.000000;2.572963
3350.000000;2.436336
3349.000000;2.419855
3348.000000;2.537147
3347.000000;2.928409
3346.000000;3.396155
3345.000000;3.185347
3344.000000;3.331921
3343.000000;2.914587
3342.000000;2.644191
3341.000000;2.568990
3340.000000;2.407509
3339.000000;2.294015
3338.000000;2.336542
3337.000000;2.519518
3336.000000;2.754872
3335.000000;2.761883
3334.000000;2.574836
3333.000000;2.430285
3332.000000;2.395473
3331.000000;2.506454
3330.000000;2.751029
3329.000000;2.822349
3328.000000;2.750956
3327.000000;2.988441
3326.000000;3.285393
3325.000000;2.913722
3324.000000;2.710694
3323.000000;2.631406
3322.000000;2.596530
3321.000000;2.677633
3320.000000;3.012192
3319.000000;2.766984
3318.000000;2.524049
3317.000000;2.452306
3316.000000;2.331444
3315.000000;2.220257
3314.000000;2.208575
3313.000000;2.357138
3312.000000;2.702927
3311.000000;2.871257
3310.000000;2.487215
3309.000000;2.339984
3308.000000;2.411983
3307.000000;2.635762
3306.000000;2.770913
3305.000000;2.490921
3304.000000;2.341582
3303.000000;2.350066
3302.000000;2.560962
3301.000000;2.787135
3300.000000;2.451879
3299.000000;2.281709
3298.000000;2.230597
3297.000000;2.248755
3296.000000;2.351822
3295.000000;2.574921
3294.000000;3.159423
3293.000000;2.973462
3292.000000;2.586269
3291.000000;2.598401
3290.000000;2.871499
3289.000000;3.193003
3288.000000;2.885384
3287.000000;2.463273
3286.000000;2.366084
3285.000000;2.567743
3284.000000;2.809562
3283.000000;2.563466
3282.000000;2.367158
3281.000000;2.504020
3280.000000;2.668442
3279.000000;2.325896
3278.000000;2.257400
3277.000000;2.344714
3276.000000;2.700708
3275.000000;2.576492
3274.000000;2.250887
3273.000000;2.250035
3272.000000;2.342648
3271.000000;2.724675
3270.000000;3.068910
3269.000000;3.055719
3268.000000;2.568233
3267.000000;2.187274
3266.000000;2.176725
3265.000000;2.405511
3264.000000;2.549108
3263.000000;2.335342
3262.000000;2.314725
3261.000000;2.408690
3260.000000;2.552669
3259.000000;3.334663
3258.000000;2.538928
3257.000000;2.290696
3256.000000;2.279270
3255.000000;2.238191
3254.000000;2.167932
3253.000000;2.095614
3252.000000;2.034973
3251.000000;2.202152
3250.000000;2.283048
3249.000000;1.926198
3248.000000;1.912499
3247.000000;2.149869
3246.000000;2.450453
3245.000000;2.581483
3244.000000;2.652991
3243.000000;2.955779
3242.000000;3.138885
3241.000000;2.622587
3240.000000;2.248248
3239.000000;2.046596
3238.000000;2.105678
3237.000000;2.182239
3236.000000;2.179392
3235.000000;2.406675
3234.000000;2.265721
3233.000000;2.129190
3232.000000;2.322631
3231.000000;2.547071
3230.000000;2.612173
3229.000000;2.415958
3228.000000;2.162260
3227.000000;2.159365
3226.000000;2.363915
3225.000000;2.599434
3224.000000;2.575645
3223.000000;2.538287
3222.000000;2.587026
3221.000000;2.718541
3220.000000;2.578796
3219.000000;2.267669
3218.000000;2.284037
3217.000000;2.753338
3216.000000;2.664573
3215.000000;2.367393
3214.000000;2.357223
3213.000000;2.299412
3212.000000;2.345121
3211.000000;2.341689
3210.000000;2.285083
3209.000000;2.290575
3208.000000;2.396680
3207.000000;2.491002
3206.000000;2.362867
3205.000000;2.257030
3204.000000;2.232585
3203.000000;2.323605
3202.000000;2.634685
3201.000000;2.641186
3200.000000;2.308091
3199.000000;2.225174
3198.000000;2.303403
3197.000000;2.603938
3196.000000;3.219365
3195.000000;2.845088
3194.000000;2.761237
3193.000000;2.715660
3192.000000;2.487913
3191.000000;2.312722
3190.000000;2.285437
3189.000000;2.374468
3188.000000;2.474475
3187.000000;2.456758
3186.000000;2.390962
3185.000000;2.503649
3184.000000;2.999643
3183.000000;5.039232
3182.000000;2.898668
3181.000000;2.466476
3180.000000;2.428135
3179.000000;2.720890
3178.000000;2.914293
3177.000000;2.623386
3176.000000;2.499527
3175.000000;2.723501
3174.000000;3.279380
3173.000000;2.668165
3172.000000;2.592560
3171.000000;2.706173
3170.000000;2.974949
3169.000000;2.907835
3168.000000;2.591914
3167.000000;2.607876
3166.000000;2.826172
3165.000000;2.849663
3164.000000;2.541542
3163.000000;2.361217
3162.000000;2.296572
3161.000000;2.283042
3160.000000;2.328559
3159.000000;2.527264
3158.000000;3.019923
3157.000000;2.831054
3156.000000;2.658698
3155.000000;3.251931
3154.000000;2.970842
3153.000000;2.678047
3152.000000;2.809589
3151.000000;2.595273
3150.000000;2.294257
3149.000000;2.131274
3148.000000;2.103789
3147.000000;2.204095
3146.000000;2.412799
3145.000000;2.799079
3144.000000;3.557910
3143.000000;3.220579
3142.000000;2.950952
3141.000000;2.708416
3140.000000;2.477858
3139.000000;2.380454
3138.000000;2.452721
3137.000000;2.771394
3136.000000;3.395995
3135.000000;3.153895
3134.000000;2.682691
3133.000000;2.489617
3132.000000;2.574990
3131.000000;2.814339
3130.000000;2.878711
3129.000000;2.827867
3128.000000;2.715222
3127.000000;2.721696
3126.000000;2.837167
3125.000000;2.968692
3124.000000;2.985797
3123.000000;2.682274
3122.000000;2.451378
3121.000000;2.369004
3120.000000;2.418521
3119.000000;2.658452
3118.000000;3.188802
3117.000000;3.212082
3116.000000;2.979680
3115.000000;2.786476
3114.000000;2.640509
3113.000000;2.604944
3112.000000;2.622684
3111.000000;2.600628
3110.000000;2.521878
3109.000000;2.502350
3108.000000;2.640413
3107.000000;3.129665
3106.000000;3.439411
3105.000000;2.995453
3104.000000;2.895174
3103.000000;2.585450
3102.000000;2.398641
3101.000000;2.454294
3100.000000;2.756792
3099.000000;3.229722
3098.000000;2.948883
3097.000000;2.674064
3096.000000;2.492182
3095.000000;2.375570
3094.000000;2.335836
3093.000000;2.371062
3092.000000;2.491789
3091.000000;2.767198
3090.000000;3.023317
3089.000000;2.762988
3088.000000;2.646715
3087.000000;2.675776
3086.000000;2.764647
3085.000000;2.554986
3084.000000;2.292605
3083.000000;2.207538
3082.000000;2.259186
3081.000000;2.439098
3080.000000;2.707418
3079.000000;2.756388
3078.000000;2.590527
3077.000000;2.457573
3076.000000;2.382764
3075.000000;2.429811
3074.000000;2.569554
3073.000000;2.514674
3072.000000;2.371461
3071.000000;2.312031
3070.000000;2.309308
3069.000000;2.397036
3068.000000;2.490442
3067.000000;2.440469
3066.000000;2.401827
3065.000000;2.657502
3064.000000;3.518860
3063.000000;2.551648
3062.000000;2.321112
3061.000000;2.259850
3060.000000;2.295785
3059.000000;2.424714
3058.000000;2.529737
3057.000000;2.586454
3056.000000;2.652887
3055.000000;3.081968
3054.000000;3.177874
3053.000000;2.697234
3052.000000;2.659485
3051.000000;2.891406
3050.000000;3.532952
3049.000000;3.180307
3048.000000;2.666653
3047.000000;2.453920
3046.000000;2.441313
3045.000000;2.699139
3044.000000;2.939199
3043.000000;2.716993
3042.000000;2.658371
3041.000000;2.588415
3040.000000;2.520894
3039.000000;2.516377
3038.000000;2.490953
3037.000000;2.469805
3036.000000;2.517163
3035.000000;2.785178
3034.000000;2.822803
3033.000000;2.458942
3032.000000;2.384478
3031.000000;2.560307
3030.000000;3.005124
3029.000000;2.798627
3028.000000;2.549671
3027.000000;2.650119
3026.000000;2.976991
3025.000000;2.860022
3024.000000;2.654155
3023.000000;2.667365
3022.000000;2.622126
3021.000000;2.541970
3020.000000;2.493659
3019.000000;2.557358
3018.000000;2.734423
3017.000000;2.726488
3016.000000;2.640670
3015.000000;2.578370
3014.000000;2.491259
3013.000000;2.415475
3012.000000;2.416148
3011.000000;2.550134
3010.000000;2.779306
3009.000000;2.762291
3008.000000;2.580272
3007.000000;2.419999
3006.000000;2.279257
3005.000000;2.225219
3004.000000;2.301286
3003.000000;2.436031
3002.000000;2.465326
3001.000000;2.509941
3000.000000;2.613105
2999.000000;2.510600
2998.000000;2.314000
2997.000000;2.228845
2996.000000;2.248733
2995.000000;2.340136
2994.000000;2.415832
2993.000000;2.581297
2992.000000;3.408301
2991.000000;2.937551
2990.000000;2.660512
2989.000000;2.734823
2988.000000;2.716594
2987.000000;2.530123
2986.000000;2.468845
2985.000000;2.601922
2984.000000;2.442681
2983.000000;2.229756
2982.000000;2.200863
2981.000000;2.290032
2980.000000;2.445933
2979.000000;2.625809
2978.000000;2.649995
2977.000000;2.519668
2976.000000;2.480569
2975.000000;2.546948
2974.000000;2.767896
2973.000000;3.086753
2972.000000;2.847291
2971.000000;2.648750
2970.000000;2.567877
2969.000000;2.443151
2968.000000;2.365279
2967.000000;2.383678
2966.000000;2.444553
2965.000000;2.480955
2964.000000;2.517552
2963.000000;2.587105
2962.000000;2.696049
2961.000000;2.906064
2960.000000;2.885219
2959.000000;2.595731
2958.000000;2.462127
2957.000000;2.505891
2956.000000;2.668663
2955.000000;2.749694
2954.000000;2.632234
2953.000000;2.498108
2952.000000;2.493342
2951.000000;2.600901
2950.000000;2.803072
2949.000000;3.095295
2948.000000;3.064243
2947.000000;3.125364
2946.000000;3.225628
2945.000000;2.921419
2944.000000;2.705729
2943.000000;2.525395
2942.000000;2.402878
2941.000000;2.375101
2940.000000;2.461205
2939.000000;2.687991
2938.000000;2.971391
2937.000000;2.901329
2936.000000;2.707567
2935.000000;2.630326
2934.000000;2.571823
2933.000000;2.678877
2932.000000;3.068009
2931.000000;2.640722
2930.000000;2.423125
2929.000000;2.420702
2928.000000;2.734474
2927.000000;3.063796
2926.000000;2.460218
2925.000000;2.360185
2924.000000;2.434833
2923.000000;2.557531
2922.000000;2.644643
2921.000000;3.135594
2920.000000;3.202113
2919.000000;2.561188
2918.000000;2.461425
2917.000000;2.400110
2916.000000;2.386032
2915.000000;2.497440
2914.000000;2.531512
2913.000000;2.399221
2912.000000;2.426484
2911.000000;2.826739
2910.000000;2.967962
2909.000000;2.569316
2908.000000;2.488341
2907.000000;2.561077
2906.000000;2.735690
2905.000000;3.095409
2904.000000;2.972280
2903.000000;2.622365
2902.000000;2.517741
2901.000000;2.581701
2900.000000;2.739386
2899.000000;2.765905
2898.000000;2.599502
2897.000000;2.464154
2896.000000;2.399073
2895.000000;2.539848
2894.000000;2.960606
2893.000000;2.643582
2892.000000;2.367932
2891.000000;2.408118
2890.000000;2.585357
2889.000000;2.572761
2888.000000;2.453803
2887.000000;2.481682
2886.000000;2.778756
2885.000000;3.070286
2884.000000;2.656044
2883.000000;2.590814
2882.000000;2.725093
2881.000000;2.654287
2880.000000;2.596240
2879.000000;2.624530
2878.000000;2.520194
2877.000000;2.351546
2876.000000;2.273396
2875.000000;2.257465
2874.000000;2.256104
2873.000000;2.252444
2872.000000;2.289179
2871.000000;2.449484
2870.000000;2.663261
2869.000000;2.898779
2868.000000;2.806523
2867.000000;2.509713
2866.000000;2.471981
2865.000000;2.461700
2864.000000;2.396590
2863.000000;2.365418
2862.000000;2.411024
2861.000000;2.483369
2860.000000;2.485231
2859.000000;2.444156
2858.000000;2.383677
2857.000000;2.331232
2856.000000;2.283844
2855.000000;2.231395
2854.000000;2.219169
2853.000000;2.263751
2852.000000;2.361263
2851.000000;2.594587
2850.000000;2.642446
2849.000000;2.405182
2848.000000;2.370417
2847.000000;2.401133
2846.000000;2.388531
2845.000000;2.393508
2844.000000;2.412065
2843.000000;2.389407
2842.000000;2.328556
2841.000000;2.312352
2840.000000;2.334006
2839.000000;2.371711
2838.000000;2.395896
2837.000000;2.424488
2836.000000;2.464287
2835.000000;2.585210
2834.000000;2.956506
2833.000000;2.895383
2832.000000;2.593003
2831.000000;2.603560
2830.000000;2.793591
2829.000000;2.931168
2828.000000;2.807892
2827.000000;2.367519
2826.000000;2.214772
2825.000000;2.290495
2824.000000;2.589023
2823.000000;2.934815
2822.000000;2.509074
2821.000000;2.352752
2820.000000;2.365280
2819.000000;2.513547
2818.000000;2.718316
2817.000000;2.714153
2816.000000;2.619097
2815.000000;2.575878
2814.000000;2.684627
2813.000000;2.602511
2812.000000;2.417754
2811.000000;2.451311
2810.000000;2.834005
2809.000000;2.876296
2808.000000;2.446696
2807.000000;2.313063
2806.000000;2.378291
2805.000000;2.538308
2804.000000;2.532369
2803.000000;2.580723
2802.000000;2.850125
2801.000000;3.011472
2800.000000;2.894291
2799.000000;2.800087
2798.000000;2.715618
2797.000000;2.649414
2796.000000;2.665013
2795.000000;2.717180
2794.000000;2.906869
2793.000000;3.180679
2792.000000;3.261179
2791.000000;3.475120
2790.000000;3.039087
2789.000000;2.688714
2788.000000;2.574420
2787.000000;2.552478
2786.000000;2.556573
2785.000000;2.599799
2784.000000;2.716452
2783.000000;2.733730
2782.000000;2.918275
2781.000000;3.131316
2780.000000;2.951404
2779.000000;2.955334
2778.000000;2.866533
2777.000000;2.681850
2776.000000;2.802507
2775.000000;3.462794
2774.000000;2.867775
2773.000000;2.668923
2772.000000;2.945362
2771.000000;3.318541
2770.000000;2.648543
2769.000000;2.403663
2768.000000;2.385844
2767.000000;2.571588
2766.000000;2.902973
2765.000000;2.705128
2764.000000;2.494155
2763.000000;2.373403
2762.000000;2.322082
2761.000000;2.356595
2760.000000;2.460334
2759.000000;2.574847
2758.000000;2.589652
2757.000000;2.541837
2756.000000;2.541539
2755.000000;2.562311
2754.000000;2.543952
2753.000000;2.522140
2752.000000;2.586899
2751.000000;2.625550
2750.000000;2.553162
2749.000000;2.559414
2748.000000;2.761483
2747.000000;3.016768
2746.000000;2.739494
2745.000000;2.592896
2744.000000;2.602153
2743.000000;2.648241
2742.000000;2.703237
2741.000000;2.794520
2740.000000;2.879811
2739.000000;2.668148
2738.000000;2.498482
2737.000000;2.542412
2736.000000;2.736392
2735.000000;2.607614
2734.000000;2.349380
2733.000000;2.245096
2732.000000;2.245840
2731.000000;2.336986
2730.000000;2.484011
2729.000000;2.762183
2728.000000;3.144655
2727.000000;2.847842
2726.000000;2.684770
2725.000000;2.779579
2724.000000;2.958677
2723.000000;2.914370
2722.000000;2.740666
2721.000000;2.666939
2720.000000;2.580395
2719.000000;2.516379
2718.000000;2.487363
2717.000000;2.740235
2716.000000;3.120106
2715.000000;2.511443
2714.000000;2.388319
2713.000000;2.414097
2712.000000;2.416068
2711.000000;2.420151
2710.000000;2.394103
2709.000000;2.367474
2708.000000;2.351097
2707.000000;2.412335
2706.000000;2.609098
2705.000000;3.063347
2704.000000;3.810286
2703.000000;3.115746
2702.000000;2.666994
2701.000000;2.488230
2700.000000;2.475105
2699.000000;2.576897
2698.000000;2.715076
2697.000000;2.975295
2696.000000;3.362679
2695.000000;3.015666
2694.000000;2.690986
2693.000000;2.601743
2692.000000;2.660919
2691.000000;2.593617
2690.000000;2.459094
2689.000000;2.412941
2688.000000;2.490616
2687.000000;2.785839
2686.000000;2.889151
2685.000000;2.671171
2684.000000;2.985408
2683.000000;3.335400
2682.000000;2.685070
2681.000000;2.535434
2680.000000;2.472210
2679.000000;2.425149
2678.000000;2.422018
2677.000000;2.474978
2676.000000;2.638768
2675.000000;3.026396
2674.000000;3.012171
2673.000000;2.749053
2672.000000;2.742531
2671.000000;2.752876
2670.000000;2.692451
2669.000000;2.590184
2668.000000;2.513645
2667.000000;2.440693
2666.000000;2.419643
2665.000000;2.495854
2664.000000;2.827970
2663.000000;3.193352
2662.000000;2.598485
2661.000000;2.365572
2660.000000;2.332899
2659.000000;2.448119
2658.000000;2.622064
2657.000000;2.657086
2656.000000;2.644191
2655.000000;2.654983
2654.000000;2.658061
2653.000000;2.616430
2652.000000;2.704797
2651.000000;2.753570
2650.000000;2.509085
2649.000000;2.332682
2648.000000;2.262511
2647.000000;2.270223
2646.000000;2.363786
2645.000000;2.559696
2644.000000;2.881360
2643.000000;3.113688
2642.000000;2.890388
2641.000000;2.618212
2640.000000;2.500510
2639.000000;2.587606
2638.000000;2.635493
2637.000000;2.473915
2636.000000;2.445161
2635.000000;2.525666
2634.000000;2.566365
2633.000000;2.622931
2632.000000;2.704367
2631.000000;2.637772
2630.000000;2.501842
2629.000000;2.441118
2628.000000;2.491090
2627.000000;2.656265
2626.000000;3.021001
2625.000000;3.072908
2624.000000;2.681752
2623.000000;2.476103
2622.000000;2.340762
2621.000000;2.311579
2620.000000;2.421073
2619.000000;2.626468
2618.000000;2.835235
2617.000000;2.986675
2616.000000;3.010717
2615.000000;2.845638
2614.000000;2.600640
2613.000000;2.396273
2612.000000;2.298044
2611.000000;2.308131
2610.000000;2.399540
2609.000000;2.533845
2608.000000;2.831136
2607.000000;3.099614
2606.000000;2.718385
2605.000000;2.551044
2604.000000;2.448064
2603.000000;2.287103
2602.000000;2.191982
2601.000000;2.191473
2600.000000;2.253424
2599.000000;2.350045
2598.000000;2.506047
2597.000000;2.693288
2596.000000;2.803110
2595.000000;2.810990
2594.000000;2.895658
2593.000000;3.495819
2592.000000;3.247386
2591.000000;2.652629
2590.000000;2.434138
2589.000000;2.387070
2588.000000;2.555851
2587.000000;2.843401
2586.000000;2.777828
2585.000000;2.604190
2584.000000;2.531429
2583.000000;2.479924
2582.000000;2.658630
2581.000000;3.186110
2580.000000;2.705352
2579.000000;2.428277
2578.000000;2.316314
2577.000000;2.383295
2576.000000;2.678155
2575.000000;2.787913
2574.000000;2.723173
2573.000000;2.632518
2572.000000;2.460253
2571.000000;2.348507
2570.000000;2.375718
2569.000000;2.521673
2568.000000;2.584821
2567.000000;2.513295
2566.000000;2.436629
2565.000000;2.374384
2564.000000;2.378613
2563.000000;2.438424
2562.000000;2.533276
2561.000000;2.671962
2560.000000;2.830069
2559.000000;3.033399
2558.000000;3.060806
2557.000000;2.785434
2556.000000;2.626488
2555.000000;2.602963
2554.000000;2.607520
2553.000000;2.612246
2552.000000;2.578440
2551.000000;2.503684
2550.000000;2.475906
2549.000000;2.549511
2548.000000;2.681429
2547.000000;2.731676
2546.000000;3.125791
2545.000000;3.294840
2544.000000;2.698513
2543.000000;2.735916
2542.000000;2.949491
2541.000000;2.688224
2540.000000;2.427515
2539.000000;2.347136
2538.000000;2.331106
2537.000000;2.290539
2536.000000;2.300844
2535.000000;2.411057
2534.000000;2.693900
2533.000000;3.020750
2532.000000;2.725727
2531.000000;2.563430
2530.000000;2.555849
2529.000000;2.744849
2528.000000;2.931344
2527.000000;2.628389
2526.000000;2.520444
2525.000000;2.464368
2524.000000;2.401210
2523.000000;2.401605
2522.000000;2.420181
2521.000000;2.457703
2520.000000;2.686746
2519.000000;3.203160
2518.000000;2.837637
2517.000000;2.597887
2516.000000;2.687125
2515.000000;3.010091
2514.000000;3.236177
2513.000000;2.834084
2512.000000;2.536383
2511.000000;2.365301
2510.000000;2.318836
2509.000000;2.329686
2508.000000;2.312785
2507.000000;2.335243
2506.000000;2.601575
2505.000000;3.224821
2504.000000;2.850892
2503.000000;2.983712
2502.000000;4.175105
2501.000000;3.068145
2500.000000;2.849540
2499.000000;2.661602
2498.000000;2.493644
2497.000000;2.453100
2496.000000;2.489650
2495.000000;2.573025
2494.000000;2.638347
2493.000000;2.576320
2492.000000;2.550102
2491.000000;2.775290
2490.000000;3.362052
2489.000000;3.104626
2488.000000;2.683159
2487.000000;2.516910
2486.000000;2.532658
2485.000000;2.768098
2484.000000;2.880398
2483.000000;2.819286
2482.000000;2.951955
2481.000000;2.800152
2480.000000;2.605151
2479.000000;2.599471
2478.000000;2.631617
2477.000000;2.600508
2476.000000;2.543412
2475.000000;2.508582
2474.000000;2.515790
2473.000000;2.536370
2472.000000;2.457355
2471.000000;2.336786
2470.000000;2.293519
2469.000000;2.433820
2468.000000;2.904858
2467.000000;2.817260
2466.000000;2.479591
2465.000000;2.428229
2464.000000;2.427622
2463.000000;2.483322
2462.000000;2.671568
2461.000000;2.836829
2460.000000;2.611100
2459.000000;2.530363
2458.000000;2.721207
2457.000000;2.701472
2456.000000;2.632674
2455.000000;2.740159
2454.000000;2.635983
2453.000000;2.441755
2452.000000;2.308529
2451.000000;2.286868
2450.000000;2.416539
2449.000000;2.424193
2448.000000;2.292970
2447.000000;2.288453
2446.000000;2.372702
2445.000000;2.415061
2444.000000;2.343297
2443.000000;2.260259
2442.000000;2.242084
2441.000000;2.260322
2440.000000;2.210409
2439.000000;2.135241
2438.000000;2.129249
2437.000000;2.253353
2436.000000;2.591886
2435.000000;2.486476
2434.000000;2.200919
2433.000000;2.129975
2432.000000;2.087312
2431.000000;2.056353
2430.000000;2.068391
2429.000000;2.172618
2428.000000;2.357622
2427.000000;2.660270
2426.000000;2.947240
2425.000000;2.654675
2424.000000;2.676983
2423.000000;2.624886
2422.000000;2.451942
2421.000000;2.436149
2420.000000;2.443083
2419.000000;2.367791
2418.000000;2.535163
2417.000000;3.049543
2416.000000;2.450087
2415.000000;2.229063
2414.000000;2.287408
2413.000000;2.591070
2412.000000;2.674353
2411.000000;2.392625
2410.000000;2.379964
2409.000000;2.444222
2408.000000;2.502376
2407.000000;2.469068
2406.000000;2.458403
2405.000000;2.486426
2404.000000;2.337087
2403.000000;2.166383
2402.000000;2.148323
2401.000000;2.170882
2400.000000;2.154965
2399.000000;2.184963
2398.000000;2.122679
2397.000000;2.043233
2396.000000;2.089583
2395.000000;2.249556
2394.000000;2.425813
2393.000000;2.354514
2392.000000;2.169153
2391.000000;2.127158
2390.000000;2.219393
2389.000000;2.531089
2388.000000;2.620590
2387.000000;2.166038
2386.000000;2.024888
2385.000000;2.153426
2384.000000;2.412059
2383.000000;2.290465
2382.000000;2.219821
2381.000000;2.316864
2380.000000;2.308482
2379.000000;2.278110
2378.000000;2.259287
2377.000000;2.278765
2376.000000;2.452533
2375.000000;2.742072
2374.000000;2.939471
2373.000000;2.441092
2372.000000;2.347385
2371.000000;2.926358
2370.000000;2.379615
2369.000000;2.100709
2368.000000;2.328095
2367.000000;2.602702
2366.000000;2.291131
2365.000000;2.301726
2364.000000;2.396650
2363.000000;2.656072
2362.000000;2.792494
2361.000000;2.268221
2360.000000;2.028263
2359.000000;1.890586
2358.000000;1.967704
2357.000000;2.261496
2356.000000;2.565043
2355.000000;2.417422
2354.000000;2.289740
2353.000000;2.334998
2352.000000;2.380027
2351.000000;2.414096
2350.000000;2.528312
2349.000000;2.676979
2348.000000;2.717122
2347.000000;2.599972
2346.000000;2.442877
2345.000000;2.351307
2344.000000;2.316534
2343.000000;2.412946
2342.000000;2.784747
2341.000000;2.654203
2340.000000;2.193255
2339.000000;2.024405
2338.000000;2.001521
2337.000000;2.070938
2336.000000;2.179869
2335.000000;2.251347
2334.000000;2.260864
2333.000000;2.267476
2332.000000;2.319551
2331.000000;2.383318
2330.000000;2.539886
2329.000000;2.560079
2328.000000;2.454240
2327.000000;2.446310
2326.000000;2.470278
2325.000000;2.692663
2324.000000;3.089970
2323.000000;2.581345
2322.000000;2.297774
2321.000000;2.137340
2320.000000;1.965251
2319.000000;1.905394
2318.000000;1.962260
2317.000000;2.087766
2316.000000;2.188456
2315.000000;2.201871
2314.000000;2.083041
2313.000000;1.970376
2312.000000;1.977108
2311.000000;2.292819
2310.000000;2.792528
2309.000000;2.166778
2308.000000;1.970607
2307.000000;1.957082
2306.000000;2.032330
2305.000000;2.086071
2304.000000;2.051580
2303.000000;2.055300
2302.000000;2.109724
2301.000000;2.228943
2300.000000;2.233188
2299.000000;2.160624
2298.000000;2.189798
2297.000000;2.263047
2296.000000;2.256531
2295.000000;2.206002
2294.000000;2.233441
2293.000000;2.328124
2292.000000;2.517260
2291.000000;2.823088
2290.000000;2.501286
2289.000000;2.165607
2288.000000;2.040578
2287.000000;2.068772
2286.000000;2.212889
2285.000000;2.357913
2284.000000;2.388545
2283.000000;2.404469
2282.000000;2.451955
2281.000000;2.342598
2280.000000;2.212169
2279.000000;2.203618
2278.000000;2.309478
2277.000000;2.446744
2276.000000;2.384023
2275.000000;2.270190
2274.000000;2.272158
2273.000000;2.296341
2272.000000;2.267678
2271.000000;2.249251
2270.000000;2.328268
2269.000000;2.501945
2268.000000;2.563410
2267.000000;2.568534
2266.000000;2.569280
2265.000000;2.504157
2264.000000;2.472317
2263.000000;2.406962
2262.000000;2.354191
2261.000000;2.452253
2260.000000;2.817759
2259.000000;3.169940
2258.000000;2.953381
2257.000000;2.729061
2256.000000;2.447838
2255.000000;2.288513
2254.000000;2.287286
2253.000000;2.338221
2252.000000;2.282676
2251.000000;2.208161
2250.000000;2.255437
2249.000000;2.461147
2248.000000;2.865669
2247.000000;3.010963
2246.000000;2.659232
2245.000000;2.509817
2244.000000;2.502221
2243.000000;2.404618
2242.000000;2.318677
2241.000000;2.302446
2240.000000;2.354129
2239.000000;2.403367
2238.000000;2.573550
2237.000000;3.265956
2236.000000;2.677937
2235.000000;2.395905
2234.000000;2.454689
2233.000000;2.665043
2232.000000;2.822424
2231.000000;2.725606
2230.000000;2.775668
2229.000000;2.784234
2228.000000;2.682058
2227.000000;2.546206
2226.000000;2.703950
2225.000000;2.904268
2224.000000;2.491599
2223.000000;2.312951
2222.000000;2.293043
2221.000000;2.598423
2220.000000;2.713423
2219.000000;2.302441
2218.000000;2.239386
2217.000000;2.364895
2216.000000;2.755287
2215.000000;2.961357
2214.000000;2.659623
2213.000000;2.744513
2212.000000;3.362093
2211.000000;3.130568
2210.000000;2.734577
2209.000000;2.628377
2208.000000;2.750560
2207.000000;3.080176
2206.000000;2.714251
2205.000000;2.550014
2204.000000;2.567682
2203.000000;2.606960
2202.000000;2.681042
2201.000000;2.778211
2200.000000;2.918226
2199.000000;2.737053
2198.000000;2.402981
2197.000000;2.203048
2196.000000;2.110451
2195.000000;2.093092
2194.000000;2.108953
2193.000000;2.114162
2192.000000;2.105298
2191.000000;2.162808
2190.000000;2.451101
2189.000000;2.627501
2188.000000;2.344239
2187.000000;2.242251
2186.000000;2.243564
2185.000000;2.290763
2184.000000;2.290566
2183.000000;2.239744
2182.000000;2.214843
2181.000000;2.246645
2180.000000;2.174361
2179.000000;2.353990
2178.000000;2.986882
2177.000000;2.310980
2176.000000;2.229233
2175.000000;2.415106
2174.000000;2.641705
2173.000000;2.810294
2172.000000;2.382794
2171.000000;2.201596
2170.000000;2.384491
2169.000000;2.432309
2168.000000;2.123590
2167.000000;2.045195
2166.000000;2.085644
2165.000000;2.150769
2164.000000;2.291618
2163.000000;2.884880
2162.000000;2.734525
2161.000000;2.263331
2160.000000;2.369981
2159.000000;2.618624
2158.000000;2.294623
2157.000000;2.112826
2156.000000;2.231355
2155.000000;2.447786
2154.000000;2.310526
2153.000000;2.224540
2152.000000;2.442844
2151.000000;2.648230
2150.000000;2.316906
2149.000000;2.359326
2148.000000;2.385356
2147.000000;1.964515
2146.000000;1.784941
2145.000000;1.801100
2144.000000;2.025813
2143.000000;2.380971
2142.000000;2.503746
2141.000000;2.377582
2140.000000;2.105749
2139.000000;1.983566
2138.000000;1.915802
2137.000000;1.821896
2136.000000;1.775897
2135.000000;1.839408
2134.000000;2.016119
2133.000000;2.184274
2132.000000;2.204566
2131.000000;2.051485
2130.000000;1.990354
2129.000000;2.132646
2128.000000;2.014175
2127.000000;1.753914
2126.000000;1.675625
2125.000000;1.751885
2124.000000;1.847119
2123.000000;1.800949
2122.000000;1.789688
2121.000000;1.909313
2120.000000;2.037839
2119.000000;2.029760
2118.000000;2.070369
2117.000000;2.219342
2116.000000;2.230659
2115.000000;2.107465
2114.000000;2.130394
2113.000000;2.628437
2112.000000;2.850000
2111.000000;2.304921
2110.000000;2.413541
2109.000000;3.020222
2108.000000;2.833740
2107.000000;2.533266
2106.000000;2.347314
2105.000000;2.194354
2104.000000;2.206334
2103.000000;2.290987
2102.000000;2.344245
2101.000000;2.460349
2100.000000;2.497167
2099.000000;2.291116
2098.000000;2.250613
2097.000000;2.475457
2096.000000;2.464173
2095.000000;2.208466
2094.000000;2.075790
2093.000000;1.988853
2092.000000;1.985917
2091.000000;2.093824
2090.000000;2.312196
2089.000000;2.472161
2088.000000;2.453790
2087.000000;2.826015
2086.000000;2.599532
2085.000000;2.135981
2084.000000;2.011654
2083.000000;1.983912
2082.000000;2.024268
2081.000000;2.098684
2080.000000;2.125664
2079.000000;2.118131
2078.000000;2.134488
2077.000000;2.215163
2076.000000;2.340066
2075.000000;2.448862
2074.000000;2.494455
2073.000000;2.663301
2072.000000;2.906940
2071.000000;2.624993
2070.000000;2.328577
2069.000000;2.192966
2068.000000;2.190658
2067.000000;2.382108
2066.000000;2.623281
2065.000000;2.721990
2064.000000;2.716179
2063.000000;2.412661
2062.000000;2.442357
2061.000000;2.630881
2060.000000;2.435410
2059.000000;2.302269
2058.000000;2.259886
2057.000000;2.238069
2056.000000;2.166690
2055.000000;2.156279
2054.000000;2.338952
2053.000000;2.407418
2052.000000;2.230640
2051.000000;2.186368
2050.000000;2.299611
2049.000000;2.458494
2048.000000;2.410389
2047.000000;2.313713
2046.000000;2.311850
2045.000000;2.395830
2044.000000;2.541610
2043.000000;2.763199
2042.000000;2.586852
2041.000000;2.220585
2040.000000;2.105705
2039.000000;2.157745
2038.000000;2.234556
2037.000000;2.264801
2036.000000;2.489783
2035.000000;2.797094
2034.000000;2.447555
2033.000000;2.229354
2032.000000;2.110189
2031.000000;2.065093
2030.000000;2.116945
2029.000000;2.210170
2028.000000;2.429831
2027.000000;2.716170
2026.000000;2.518410
2025.000000;2.376406
2024.000000;2.284135
2023.000000;2.150621
2022.000000;2.075318
2021.000000;2.072813
2020.000000;2.161159
2019.000000;2.331677
2018.000000;2.499784
2017.000000;2.463474
2016.000000;2.258245
2015.000000;2.112391
2014.000000;2.068299
2013.000000;2.106607
2012.000000;2.213012
2011.000000;2.424734
2010.000000;2.932825
2009.000000;2.777218
2008.000000;2.281188
2007.000000;2.056202
2006.000000;1.919308
2005.000000;1.857850
2004.000000;1.866135
2003.000000;1.915490
2002.000000;1.957043
2001.000000;1.977412
2000.000000;2.014262
1999.000000;2.042493
1998.000000;2.028976
1997.000000;2.009437
1996.000000;2.001898
1995.000000;1.997555
1994.000000;2.031254
1993.000000;2.135576
1992.000000;2.295921
1991.000000;2.316341
1990.000000;2.234651
1989.000000;2.216758
1988.000000;2.465207
1987.000000;2.677328
1986.000000;2.203301
1985.000000;2.029438
1984.000000;1.992587
1983.000000;1.982393
1982.000000;1.980123
1981.000000;2.041877
1980.000000;2.226421
1979.000000;2.568113
1978.000000;2.846292
1977.000000;2.458616
1976.000000;2.226758
1975.000000;2.211605
1974.000000;2.486797
1973.000000;2.567176
1972.000000;2.228746
1971.000000;2.105249
1970.000000;2.117076
1969.000000;2.205918
1968.000000;2.513164
1967.000000;2.806189
1966.000000;2.458912
1965.000000;2.393301
1964.000000;2.326594
1963.000000;2.193121
1962.000000;2.191153
1961.000000;2.250637
1960.000000;2.435322
1959.000000;2.726206
1958.000000;2.358886
1957.000000;2.136168
1956.000000;2.182043
1955.000000;2.284828
1954.000000;2.575892
1953.000000;2.800019
1952.000000;2.398367
1951.000000;2.333941
1950.000000;2.376135
1949.000000;2.422723
1948.000000;2.495676
1947.000000;2.695523
1946.000000;3.469954
1945.000000;3.103340
1944.000000;2.877799
1943.000000;2.866837
1942.000000;3.004745
1941.000000;2.721575
1940.000000;2.294335
1939.000000;2.194637
1938.000000;2.258512
1937.000000;2.331844
1936.000000;2.384925
1935.000000;2.528355
1934.000000;2.719583
1933.000000;2.732994
1932.000000;2.731237
1931.000000;2.599967
1930.000000;2.392992
1929.000000;2.255193
1928.000000;2.193348
1927.000000;2.185024
1926.000000;2.255604
1925.000000;2.333615
1924.000000;2.405572
1923.000000;2.541903
1922.000000;2.659307
1921.000000;3.139066
1920.000000;2.768361
1919.000000;2.491317
1918.000000;2.720030
1917.000000;2.622670
1916.000000;2.403262
1915.000000;2.282840
1914.000000;2.152045
1913.000000;2.093905
1912.000000;2.129974
1911.000000;2.238328
1910.000000;2.252218
1909.000000;2.133684
1908.000000;2.070176
1907.000000;2.084179
1906.000000;2.122529
1905.000000;2.155499
1904.000000;2.225530
1903.000000;2.454788
1902.000000;2.980903
1901.000000;2.807427
1900.000000;2.506029
1899.000000;2.506155
1898.000000;2.708311
1897.000000;3.067974
1896.000000;2.608671
1895.000000;2.314497
1894.000000;2.245871
1893.000000;2.230268
1892.000000;2.231463
1891.000000;2.214015
1890.000000;2.173039
1889.000000;2.131001
1888.000000;2.130253
1887.000000;2.253436
1886.000000;2.365262
1885.000000;2.269480
1884.000000;2.271227
1883.000000;2.425508
1882.000000;2.607299
1881.000000;2.608030
1880.000000;2.392254
1879.000000;2.189785
1878.000000;2.065966
1877.000000;2.032310
1876.000000;2.080091
1875.000000;2.206962
1874.000000;2.390236
1873.000000;2.547981
1872.000000;2.563565
1871.000000;2.473069
1870.000000;2.406800
1869.000000;2.480889
1868.000000;2.639480
1867.000000;2.471625
1866.000000;2.267565
1865.000000;2.206674
1864.000000;2.239276
1863.000000;2.331012
1862.000000;2.405741
1861.000000;2.409461
1860.000000;2.364590
1859.000000;2.339197
1858.000000;2.382385
1857.000000;2.508038
1856.000000;2.572264
1855.000000;2.438710
1854.000000;2.288500
1853.000000;2.293828
1852.000000;2.464611
1851.000000;2.472630
1850.000000;2.367077
1849.000000;2.373410
1848.000000;2.533128
1847.000000;2.595242
1846.000000;2.350871
1845.000000;2.207372
1844.000000;2.134543
1843.000000;2.135605
1842.000000;2.289540
1841.000000;2.452356
1840.000000;2.365874
1839.000000;2.288713
1838.000000;2.326267
1837.000000;2.351129
1836.000000;2.356113
1835.000000;2.367176
1834.000000;2.513003
1833.000000;2.939956
1832.000000;2.752285
1831.000000;2.510693
1830.000000;2.431029
1829.000000;2.368767
1828.000000;2.396358
1827.000000;2.627956
1826.000000;2.734699
1825.000000;2.432824
1824.000000;2.353021
1823.000000;2.257572
1822.000000;2.161016
1821.000000;2.203768
1820.000000;2.387516
1819.000000;2.774118
1818.000000;2.862903
1817.000000;2.560149
1816.000000;2.445608
1815.000000;2.464014
1814.000000;2.573218
1813.000000;2.571648
1812.000000;2.371053
1811.000000;2.267487
1810.000000;2.369725
1809.000000;2.589810
1808.000000;2.616882
1807.000000;2.551678
1806.000000;2.431472
1805.000000;2.332411
1804.000000;2.325836
1803.000000;2.536242
1802.000000;2.843666
1801.000000;2.426453
1800.000000;2.216433
1799.000000;2.156859
1798.000000;2.152234
1797.000000;2.195158
1796.000000;2.233017
1795.000000;2.273820
1794.000000;2.298917
1793.000000;2.293925
1792.000000;2.259472
1791.000000;2.219103
1790.000000;2.187724
1789.000000;2.205324
1788.000000;2.310797
1787.000000;2.488690
1786.000000;2.598043
1785.000000;2.491953
1784.000000;2.371847
1783.000000;2.366430
1782.000000;2.472877
1781.000000;2.584570
1780.000000;2.438021
1779.000000;2.265218
1778.000000;2.228106
1777.000000;2.308824
1776.000000;2.548375
1775.000000;2.677901
1774.000000;2.526590
1773.000000;2.538501
1772.000000;2.713113
1771.000000;2.867133
1770.000000;2.670306
1769.000000;2.360121
1768.000000;2.136599
1767.000000;2.084544
1766.000000;2.197653
1765.000000;2.367481
1764.000000;2.501834
1763.000000;2.701719
1762.000000;3.242302
1761.000000;2.821555
1760.000000;2.384522
1759.000000;2.225524
1758.000000;2.110822
1757.000000;1.997490
1756.000000;1.918633
1755.000000;1.910842
1754.000000;1.958854
1753.000000;2.017294
1752.000000;2.068621
1751.000000;2.172872
1750.000000;2.408500
1749.000000;2.539382
1748.000000;2.523511
1747.000000;2.653597
1746.000000;2.577620
1745.000000;2.300740
1744.000000;2.128393
1743.000000;2.036785
1742.000000;1.986905
1741.000000;1.979923
1740.000000;2.001232
1739.000000;2.044847
1738.000000;2.145349
1737.000000;2.333417
1736.000000;2.670941
1735.000000;3.094910
1734.000000;2.772225
1733.000000;2.483885
1732.000000;2.336351
1731.000000;2.247825
1730.000000;2.210861
1729.000000;2.237170
1728.000000;2.341557
1727.000000;2.548978
1726.000000;2.996589
1725.000000;3.269943
1724.000000;2.787602
1723.000000;2.390290
1722.000000;2.181889
1721.000000;2.168315
1720.000000;2.275435
1719.000000;2.376861
1718.000000;2.382054
1717.000000;2.372385
1716.000000;2.392539
1715.000000;2.371054
1714.000000;2.362586
1713.000000;2.353804
1712.000000;2.438346
1711.000000;2.744196
1710.000000;2.594641
1709.000000;2.372395
1708.000000;2.377354
1707.000000;2.394910
1706.000000;2.508951
1705.000000;2.960183
1704.000000;2.989520
1703.000000;2.760508
1702.000000;2.756835
1701.000000;2.642739
1700.000000;2.498398
1699.000000;2.562247
1698.000000;2.885817
1697.000000;2.944558
1696.000000;3.156785
1695.000000;2.882089
1694.000000;2.543241
1693.000000;2.564803
1692.000000;2.638212
1691.000000;2.506622
1690.000000;2.264165
1689.000000;2.087413
1688.000000;2.049159
1687.000000;2.107796
1686.000000;2.185073
1685.000000;2.264024
1684.000000;2.418940
1683.000000;2.801311
1682.000000;3.071438
1681.000000;2.846787
1680.000000;2.784755
1679.000000;2.661852
1678.000000;2.645521
1677.000000;2.760290
1676.000000;2.667960
1675.000000;2.514598
1674.000000;2.442069
1673.000000;2.438017
1672.000000;2.452611
1671.000000;2.427829
1670.000000;2.395721
1669.000000;2.395062
1668.000000;2.398493
1667.000000;2.384187
1666.000000;2.364912
1665.000000;2.334644
1664.000000;2.308626
1663.000000;2.318366
1662.000000;2.367284
1661.000000;2.603080
1660.000000;2.760990
1659.000000;2.421453
1658.000000;2.292042
1657.000000;2.286407
1656.000000;2.346516
1655.000000;2.435261
1654.000000;2.486144
1653.000000;2.513996
1652.000000;2.685826
1651.000000;3.079950
1650.000000;2.731187
1649.000000;2.488724
1648.000000;2.407874
1647.000000;2.339228
1646.000000;2.284962
1645.000000;2.237916
1644.000000;2.236895
1643.000000;2.261977
1642.000000;2.269622
1641.000000;2.259633
1640.000000;2.241800
1639.000000;2.252769
1638.000000;2.324990
1637.000000;2.471053
1636.000000;2.640238
1635.000000;2.653873
1634.000000;2.624770
1633.000000;2.780838
1632.000000;3.015147
1631.000000;3.113606
1630.000000;3.357942
1629.000000;2.912112
1628.000000;2.543346
1627.000000;2.404102
1626.000000;2.347614
1625.000000;2.408664
1624.000000;2.518658
1623.000000;2.440723
1622.000000;2.350563
1621.000000;2.386957
1620.000000;2.517822
1619.000000;2.640872
1618.000000;2.659874
1617.000000;2.718422
1616.000000;2.678581
1615.000000;2.437038
1614.000000;2.255469
1613.000000;2.194277
1612.000000;2.188532
1611.000000;2.157442
1610.000000;2.155670
1609.000000;2.170546
1608.000000;2.151921
1607.000000;2.143194
1606.000000;2.200452
1605.000000;2.398241
1604.000000;2.611056
1603.000000;2.442436
1602.000000;2.200445
1601.000000;2.114809
1600.000000;2.199849
1599.000000;2.448347
1598.000000;2.741328
1597.000000;2.470557
1596.000000;2.196843
1595.000000;2.108861
1594.000000;2.133305
1593.000000;2.207965
1592.000000;2.154045
1591.000000;2.042906
1590.000000;2.002596
1589.000000;1.990386
1588.000000;1.983882
1587.000000;2.024229
1586.000000;2.121350
1585.000000;2.236615
1584.000000;2.357926
1583.000000;2.489167
1582.000000;2.621739
1581.000000;2.532581
1580.000000;2.299346
1579.000000;2.186230
1578.000000;2.161411
1577.000000;2.172001
1576.000000;2.198195
1575.000000;2.237874
1574.000000;2.306241
1573.000000;2.453934
1572.000000;2.756781
1571.000000;2.954466
1570.000000;2.723341
1569.000000;2.555749
1568.000000;2.579996
1567.000000;2.643512
1566.000000;2.523241
1565.000000;2.412498
1564.000000;2.373237
1563.000000;2.359375
1562.000000;2.367793
1561.000000;2.371858
1560.000000;2.386476
1559.000000;2.403493
1558.000000;2.428400
1557.000000;2.415412
1556.000000;2.327605
1555.000000;2.312452
1554.000000;2.336102
1553.000000;2.369173
1552.000000;2.401541
1551.000000;2.382879
1550.000000;2.293695
1549.000000;2.136582
1548.000000;2.119691
1547.000000;2.192948
1546.000000;2.206476
1545.000000;2.226822
1544.000000;2.347760
1543.000000;2.381099
1542.000000;2.338974
1541.000000;2.356602
1540.000000;2.348682
1539.000000;2.374126
1538.000000;2.374628
1537.000000;2.280988
1536.000000;2.256164
1535.000000;2.294776
1534.000000;2.279118
1533.000000;2.261212
1532.000000;2.328384
1531.000000;2.623367
1530.000000;3.035882
1529.000000;2.607444
1528.000000;2.407367
1527.000000;2.389205
1526.000000;2.420711
1525.000000;2.361756
1524.000000;2.316480
1523.000000;2.308106
1522.000000;2.217488
1521.000000;2.075605
1520.000000;1.995980
1519.000000;2.059168
1518.000000;2.260360
1517.000000;2.581178
1516.000000;2.609679
1515.000000;2.614114
1514.000000;2.803820
1513.000000;2.475650
1512.000000;2.267239
1511.000000;2.205875
1510.000000;2.170197
1509.000000;2.143152
1508.000000;2.112341
1507.000000;2.101336
1506.000000;2.110594
1505.000000;2.113872
1504.000000;2.116824
1503.000000;2.161549
1502.000000;2.263586
1501.000000;2.459480
1500.000000;2.645225
1499.000000;2.567041
1498.000000;2.503700
1497.000000;2.465998
1496.000000;2.306145
1495.000000;2.202358
1494.000000;2.262934
1493.000000;2.431847
1492.000000;2.588629
1491.000000;2.614834
1490.000000;2.591139
1489.000000;2.628541
1488.000000;2.873863
1487.000000;3.178698
1486.000000;2.562838
1485.000000;2.212697
1484.000000;2.028553
1483.000000;1.922647
1482.000000;1.881812
1481.000000;1.885370
1480.000000;1.917271
1479.000000;1.956819
1478.000000;1.992991
1477.000000;2.030209
1476.000000;2.087056
1475.000000;2.178392
1474.000000;2.240804
1473.000000;2.203903
1472.000000;2.140367
1471.000000;2.196395
1470.000000;2.561255
1469.000000;2.842804
1468.000000;2.452877
1467.000000;2.239919
1466.000000;2.103355
1465.000000;2.031253
1464.000000;1.960654
1463.000000;1.901130
1462.000000;1.896726
1461.000000;1.930876
1460.000000;1.944167
1459.000000;1.951465
1458.000000;2.005227
1457.000000;2.157834
1456.000000;2.313564
1455.000000;2.430380
1454.000000;2.730705
1453.000000;2.386916
1452.000000;2.076338
1451.000000;2.028244
1450.000000;2.167515
1449.000000;2.366330
1448.000000;2.528902
1447.000000;2.838494
1446.000000;2.431366
1445.000000;2.199638
1444.000000;2.350144
1443.000000;2.782810
1442.000000;3.192584
1441.000000;2.602006
1440.000000;2.264973
1439.000000;2.169807
1438.000000;2.155922
1437.000000;2.177176
1436.000000;2.181674
1435.000000;2.211815
1434.000000;2.276990
1433.000000;2.329771
1432.000000;2.394604
1431.000000;2.498936
1430.000000;2.875533
1429.000000;2.691391
1428.000000;2.278379
1427.000000;2.113353
1426.000000;2.077825
1425.000000;2.115368
1424.000000;2.072930
1423.000000;2.006742
1422.000000;2.039537
1421.000000;2.186865
1420.000000;2.418414
1419.000000;2.459872
1418.000000;2.243230
1417.000000;2.134234
1416.000000;2.239900
1415.000000;2.322697
1414.000000;2.260139
1413.000000;2.306067
1412.000000;2.473479
1411.000000;3.075727
1410.000000;2.974821
1409.000000;2.447493
1408.000000;2.285599
1407.000000;2.179768
1406.000000;2.118105
1405.000000;2.074111
1404.000000;2.081252
1403.000000;2.154961
1402.000000;2.173802
1401.000000;2.126171
1400.000000;2.239471
1399.000000;2.329353
1398.000000;2.047042
1397.000000;1.965025
1396.000000;2.009126
1395.000000;2.041344
1394.000000;2.158214
1393.000000;2.282617
1392.000000;2.285422
1391.000000;2.326723
1390.000000;2.331215
1389.000000;2.243425
1388.000000;2.218503
1387.000000;2.411623
1386.000000;2.813039
1385.000000;2.815478
1384.000000;2.605820
1383.000000;2.312113
1382.000000;2.084764
1381.000000;1.961090
1380.000000;1.887313
1379.000000;1.841586
1378.000000;1.790037
1377.000000;1.743744
1376.000000;1.731724
1375.000000;1.727572
1374.000000;1.774775
1373.000000;1.905090
1372.000000;2.146999
1371.000000;2.433962
1370.000000;2.190471
1369.000000;2.013583
1368.000000;1.981725
1367.000000;1.972313
1366.000000;1.904159
1365.000000;1.800196
1364.000000;1.733346
1363.000000;1.748246
1362.000000;1.876356
1361.000000;2.037819
1360.000000;2.243644
1359.000000;2.741822
1358.000000;2.947083
1357.000000;2.536662
1356.000000;2.378766
1355.000000;2.259640
1354.000000;2.168171
1353.000000;2.084797
1352.000000;1.985116
1351.000000;1.915330
1350.000000;1.927773
1349.000000;2.055469
1348.000000;2.171137
1347.000000;2.097116
1346.000000;2.011505
1345.000000;1.963261
1344.000000;1.926608
1343.000000;1.917069
1342.000000;1.978574
1341.000000;2.088681
1340.000000;2.026752
1339.000000;1.921570
1338.000000;1.917521
1337.000000;1.911391
1336.000000;1.892070
1335.000000;1.946172
1334.000000;2.036240
1333.000000;2.147605
1332.000000;2.185214
1331.000000;2.124315
1330.000000;2.252809
1329.000000;2.450101
1328.000000;2.571887
1327.000000;2.643797
1326.000000;2.501022
1325.000000;2.262289
1324.000000;2.010139
1323.000000;1.874291
1322.000000;1.885755
1321.000000;2.004962
1320.000000;2.036679
1319.000000;1.881604
1318.000000;1.720885
1317.000000;1.695233
1316.000000;1.823069
1315.000000;2.024357
1314.000000;2.175191
1313.000000;2.177728
1312.000000;2.125046
1311.000000;1.930220
1310.000000;1.707386
1309.000000;1.642045
1308.000000;1.685754
1307.000000;1.743585
1306.000000;1.737631
1305.000000;1.714090
1304.000000;1.765395
1303.000000;1.895576
1302.000000;2.026144
1301.000000;2.055586
1300.000000;2.003391
1299.000000;1.936995
1298.000000;1.923929
1297.000000;1.991224
1296.000000;2.033020
1295.000000;2.019170
1294.000000;2.065035
1293.000000;2.294847
1292.000000;2.407851
1291.000000;2.081547
1290.000000;1.971441
1289.000000;1.988656
1288.000000;2.005411
1287.000000;1.996523
1286.000000;1.985412
1285.000000;2.023494
1284.000000;2.130658
1283.000000;2.296866
1282.000000;2.430161
1281.000000;2.350197
1280.000000;2.151590
1279.000000;1.998485
1278.000000;1.897277
1277.000000;1.868534
1276.000000;1.886823
1275.000000;1.889888
1274.000000;1.905277
1273.000000;1.942104
1272.000000;1.920376
1271.000000;1.832052
1270.000000;1.765256
1269.000000;1.748939
1268.000000;1.758302
1267.000000;1.787688
1266.000000;1.843576
1265.000000;1.921547
1264.000000;1.982856
1263.000000;2.006515
1262.000000;2.034512
1261.000000;2.205579
1260.000000;2.401192
1259.000000;2.051697
1258.000000;1.840490
1257.000000;1.815970
1256.000000;1.849341
1255.000000;1.815359
1254.000000;1.734802
1253.000000;1.704904
1252.000000;1.762874
1251.000000;1.917180
1250.000000;2.086921
1249.000000;2.137719
1248.000000;2.149932
1247.000000;2.311659
1246.000000;2.952129
1245.000000;2.969986
1244.000000;2.561118
1243.000000;2.294959
1242.000000;2.039001
1241.000000;1.915359
1240.000000;1.911752
1239.000000;1.947355
1238.000000;1.900693
1237.000000;1.823412
1236.000000;1.825437
1235.000000;1.919731
1234.000000;2.018360
1233.000000;2.065092
1232.000000;2.109727
1231.000000;2.220932
1230.000000;2.286449
1229.000000;2.135226
1228.000000;1.977823
1227.000000;1.828824
1226.000000;1.695020
1225.000000;1.630911
1224.000000;1.652439
1223.000000;1.727321
1222.000000;1.793891
1221.000000;1.797851
1220.000000;1.768887
1219.000000;1.792278
1218.000000;1.901081
1217.000000;2.032781
1216.000000;1.982873
1215.000000;1.864889
1214.000000;1.843988
1213.000000;1.883260
1212.000000;1.902119
1211.000000;1.892278
1210.000000;1.920459
1209.000000;2.019879
1208.000000;2.164433
1207.000000;2.260151
1206.000000;2.175922
1205.000000;2.068086
1204.000000;2.022664
1203.000000;1.973272
1202.000000;1.864918
1201.000000;1.788998
1200.000000;1.812925
