Criado como novo conjunto de dados;"2706_e01_daniel.spp","75245.9 Secs"
cm-1;Abs
10000.000000;0.826113
9999.000000;0.825171
9998.000000;0.824230
9997.000000;0.823292
9996.000000;0.822355
9995.000000;0.821420
9994.000000;0.820489
9993.000000;0.819557
9992.000000;0.818630
9991.000000;0.817799
9990.000000;0.817689
9989.000000;0.818045
9988.000000;0.818214
9987.000000;0.817969
9986.000000;0.817557
9985.000000;0.817233
9984.000000;0.816993
9983.000000;0.816679
9982.000000;0.816119
9981.000000;0.815224
9980.000000;0.814154
9979.000000;0.813380
9978.000000;0.813359
9977.000000;0.814020
9976.000000;0.814720
9975.000000;0.814888
9974.000000;0.814660
9973.000000;0.814663
9972.000000;0.815213
9971.000000;0.815927
9970.000000;0.816217
9969.000000;0.815971
9968.000000;0.815613
9967.000000;0.815528
9966.000000;0.815626
9965.000000;0.815524
9964.000000;0.815052
9963.000000;0.814473
9962.000000;0.814190
9961.000000;0.814263
9960.000000;0.814316
9959.000000;0.813975
9958.000000;0.813378
9957.000000;0.813089
9956.000000;0.813468
9955.000000;0.814259
9954.000000;0.814856
9953.000000;0.814902
9952.000000;0.814525
9951.000000;0.814063
9950.000000;0.813692
9949.000000;0.813301
9948.000000;0.812680
9947.000000;0.811846
9946.000000;0.811183
9945.000000;0.811144
9944.000000;0.811767
9943.000000;0.812619
9942.000000;0.813255
9941.000000;0.813600
9940.000000;0.813759
9939.000000;0.813716
9938.000000;0.813440
9937.000000;0.813120
9936.000000;0.812998
9935.000000;0.812988
9934.000000;0.812753
9933.000000;0.812139
9932.000000;0.811368
9931.000000;0.810789
9930.000000;0.810598
9929.000000;0.810724
9928.000000;0.810805
9927.000000;0.810345
9926.000000;0.809199
9925.000000;0.807884
9924.000000;0.807168
9923.000000;0.807310
9922.000000;0.807921
9921.000000;0.808503
9920.000000;0.808861
9919.000000;0.808960
9918.000000;0.808746
9917.000000;0.808298
9916.000000;0.807933
9915.000000;0.807968
9914.000000;0.808454
9913.000000;0.809163
9912.000000;0.809712
9911.000000;0.809689
9910.000000;0.808915
9909.000000;0.807698
9908.000000;0.806649
9907.000000;0.806167
9906.000000;0.806227
9905.000000;0.806657
9904.000000;0.807339
9903.000000;0.808065
9902.000000;0.808522
9901.000000;0.808603
9900.000000;0.808505
9899.000000;0.808330
9898.000000;0.807872
9897.000000;0.807001
9896.000000;0.806037
9895.000000;0.805442
9894.000000;0.805300
9893.000000;0.805402
9892.000000;0.805679
9891.000000;0.806232
9890.000000;0.806958
9889.000000;0.807480
9888.000000;0.807492
9887.000000;0.807018
9886.000000;0.806300
9885.000000;0.805618
9884.000000;0.805217
9883.000000;0.805168
9882.000000;0.805270
9881.000000;0.805236
9880.000000;0.805021
9879.000000;0.804816
9878.000000;0.804718
9877.000000;0.804586
9876.000000;0.804260
9875.000000;0.803770
9874.000000;0.803296
9873.000000;0.803036
9872.000000;0.803138
9871.000000;0.803632
9870.000000;0.804342
9869.000000;0.804967
9868.000000;0.805288
9867.000000;0.805274
9866.000000;0.804996
9865.000000;0.804546
9864.000000;0.804041
9863.000000;0.803603
9862.000000;0.803260
9861.000000;0.802953
9860.000000;0.802662
9859.000000;0.802451
9858.000000;0.802380
9857.000000;0.802435
9856.000000;0.802573
9855.000000;0.802736
9854.000000;0.802786
9853.000000;0.802541
9852.000000;0.801953
9851.000000;0.801244
9850.000000;0.800768
9849.000000;0.800744
9848.000000;0.801110
9847.000000;0.801607
9846.000000;0.801997
9845.000000;0.802200
9844.000000;0.802267
9843.000000;0.802224
9842.000000;0.802005
9841.000000;0.801569
9840.000000;0.801029
9839.000000;0.800572
9838.000000;0.800248
9837.000000;0.799937
9836.000000;0.799585
9835.000000;0.799402
9834.000000;0.799706
9833.000000;0.800549
9832.000000;0.801523
9831.000000;0.802027
9830.000000;0.801766
9829.000000;0.800982
9828.000000;0.800179
9827.000000;0.799635
9826.000000;0.799264
9825.000000;0.798902
9824.000000;0.798568
9823.000000;0.798364
9822.000000;0.798259
9821.000000;0.798163
9820.000000;0.798161
9819.000000;0.798444
9818.000000;0.798939
9817.000000;0.799218
9816.000000;0.798947
9815.000000;0.798315
9814.000000;0.797813
9813.000000;0.797654
9812.000000;0.797612
9811.000000;0.797455
9810.000000;0.797293
9809.000000;0.797386
9808.000000;0.797746
9807.000000;0.798113
9806.000000;0.798234
9805.000000;0.798033
9804.000000;0.797556
9803.000000;0.796943
9802.000000;0.796449
9801.000000;0.796332
9800.000000;0.796612
9799.000000;0.796994
9798.000000;0.797084
9797.000000;0.796663
9796.000000;0.795804
9795.000000;0.794844
9794.000000;0.794256
9793.000000;0.794359
9792.000000;0.795010
9791.000000;0.795613
9790.000000;0.795589
9789.000000;0.794871
9788.000000;0.793959
9787.000000;0.793510
9786.000000;0.793868
9785.000000;0.794838
9784.000000;0.795826
9783.000000;0.796255
9782.000000;0.795994
9781.000000;0.795389
9780.000000;0.794879
9779.000000;0.794652
9778.000000;0.794656
9777.000000;0.794789
9776.000000;0.794944
9775.000000;0.794991
9774.000000;0.794863
9773.000000;0.794641
9772.000000;0.794411
9771.000000;0.794117
9770.000000;0.793705
9769.000000;0.793354
9768.000000;0.793371
9767.000000;0.793794
9766.000000;0.794263
9765.000000;0.794356
9764.000000;0.793983
9763.000000;0.793417
9762.000000;0.793001
9761.000000;0.792863
9760.000000;0.792861
9759.000000;0.792792
9758.000000;0.792665
9757.000000;0.792699
9756.000000;0.793001
9755.000000;0.793348
9754.000000;0.793433
9753.000000;0.793246
9752.000000;0.793026
9751.000000;0.792908
9750.000000;0.792830
9749.000000;0.792792
9748.000000;0.792908
9747.000000;0.793104
9746.000000;0.793013
9745.000000;0.792366
9744.000000;0.791367
9743.000000;0.790517
9742.000000;0.790136
9741.000000;0.790143
9740.000000;0.790215
9739.000000;0.790063
9738.000000;0.789657
9737.000000;0.789291
9736.000000;0.789348
9735.000000;0.789879
9734.000000;0.790477
9733.000000;0.790662
9732.000000;0.790331
9731.000000;0.789762
9730.000000;0.789273
9729.000000;0.789000
9728.000000;0.788924
9727.000000;0.788982
9726.000000;0.789139
9725.000000;0.789420
9724.000000;0.789835
9723.000000;0.790216
9722.000000;0.790262
9721.000000;0.789880
9720.000000;0.789355
9719.000000;0.789016
9718.000000;0.788819
9717.000000;0.788470
9716.000000;0.787931
9715.000000;0.787518
9714.000000;0.787455
9713.000000;0.787562
9712.000000;0.787524
9711.000000;0.787311
9710.000000;0.787150
9709.000000;0.787196
9708.000000;0.787392
9707.000000;0.787619
9706.000000;0.787819
9705.000000;0.787951
9704.000000;0.787944
9703.000000;0.787785
9702.000000;0.787577
9701.000000;0.787461
9700.000000;0.787469
9699.000000;0.787491
9698.000000;0.787377
9697.000000;0.787081
9696.000000;0.786721
9695.000000;0.786498
9694.000000;0.786549
9693.000000;0.786836
9692.000000;0.787176
9691.000000;0.787362
9690.000000;0.787294
9689.000000;0.787050
9688.000000;0.786813
9687.000000;0.786708
9686.000000;0.786648
9685.000000;0.786360
9684.000000;0.785606
9683.000000;0.784466
9682.000000;0.783386
9681.000000;0.782880
9680.000000;0.783114
9679.000000;0.783775
9678.000000;0.784374
9677.000000;0.784647
9676.000000;0.784636
9675.000000;0.784464
9674.000000;0.784167
9673.000000;0.783775
9672.000000;0.783406
9671.000000;0.783197
9670.000000;0.783197
9669.000000;0.783363
9668.000000;0.783606
9667.000000;0.783748
9666.000000;0.783564
9665.000000;0.782996
9664.000000;0.782317
9663.000000;0.781943
9662.000000;0.782059
9661.000000;0.782504
9660.000000;0.782993
9659.000000;0.783347
9658.000000;0.783498
9657.000000;0.783438
9656.000000;0.783259
9655.000000;0.783111
9654.000000;0.783036
9653.000000;0.782896
9652.000000;0.782568
9651.000000;0.782116
9650.000000;0.781673
9649.000000;0.781242
9648.000000;0.780778
9647.000000;0.780425
9646.000000;0.780464
9645.000000;0.780956
9644.000000;0.781558
9643.000000;0.781825
9642.000000;0.781605
9641.000000;0.781096
9640.000000;0.780608
9639.000000;0.780379
9638.000000;0.780532
9637.000000;0.781012
9636.000000;0.781517
9635.000000;0.781619
9634.000000;0.781093
9633.000000;0.780155
9632.000000;0.779309
9631.000000;0.778954
9630.000000;0.779081
9629.000000;0.779337
9628.000000;0.779378
9627.000000;0.779194
9626.000000;0.779060
9625.000000;0.779193
9624.000000;0.779535
9623.000000;0.779889
9622.000000;0.780157
9621.000000;0.780303
9620.000000;0.780204
9619.000000;0.779734
9618.000000;0.779036
9617.000000;0.778521
9616.000000;0.778451
9615.000000;0.778623
9614.000000;0.778582
9613.000000;0.778127
9612.000000;0.777487
9611.000000;0.777021
9610.000000;0.776850
9609.000000;0.776827
9608.000000;0.776766
9607.000000;0.776645
9606.000000;0.776591
9605.000000;0.776713
9604.000000;0.776979
9603.000000;0.777266
9602.000000;0.777482
9601.000000;0.777610
9600.000000;0.777652
9599.000000;0.777623
9598.000000;0.777598
9597.000000;0.777684
9596.000000;0.777875
9595.000000;0.778011
9594.000000;0.777956
9593.000000;0.777770
9592.000000;0.777627
9591.000000;0.777569
9590.000000;0.777450
9589.000000;0.777171
9588.000000;0.776871
9587.000000;0.776810
9586.000000;0.777057
9585.000000;0.777370
9584.000000;0.777412
9583.000000;0.777070
9582.000000;0.776537
9581.000000;0.776125
9580.000000;0.776023
9579.000000;0.776226
9578.000000;0.776570
9577.000000;0.776795
9576.000000;0.776680
9575.000000;0.776217
9574.000000;0.775627
9573.000000;0.775139
9572.000000;0.774746
9571.000000;0.774294
9570.000000;0.773760
9569.000000;0.773331
9568.000000;0.773170
9567.000000;0.773244
9566.000000;0.773418
9565.000000;0.773623
9564.000000;0.773836
9563.000000;0.774005
9562.000000;0.774099
9561.000000;0.774171
9560.000000;0.774260
9559.000000;0.774287
9558.000000;0.774139
9557.000000;0.773849
9556.000000;0.773573
9555.000000;0.773413
9554.000000;0.773342
9553.000000;0.773318
9552.000000;0.773383
9551.000000;0.773560
9550.000000;0.773734
9549.000000;0.773694
9548.000000;0.773350
9547.000000;0.772880
9546.000000;0.772597
9545.000000;0.772650
9544.000000;0.772850
9543.000000;0.772864
9542.000000;0.772573
9541.000000;0.772163
9540.000000;0.771854
9539.000000;0.771650
9538.000000;0.771425
9537.000000;0.771173
9536.000000;0.771024
9535.000000;0.771078
9534.000000;0.771293
9533.000000;0.771535
9532.000000;0.771626
9531.000000;0.771391
9530.000000;0.770779
9529.000000;0.769978
9528.000000;0.769301
9527.000000;0.768927
9526.000000;0.768814
9525.000000;0.768866
9524.000000;0.769094
9523.000000;0.769545
9522.000000;0.770159
9521.000000;0.770760
9520.000000;0.771142
9519.000000;0.771134
9518.000000;0.770651
9517.000000;0.769804
9516.000000;0.768905
9515.000000;0.768265
9514.000000;0.767970
9513.000000;0.767916
9512.000000;0.768049
9511.000000;0.768405
9510.000000;0.768907
9509.000000;0.769275
9508.000000;0.769292
9507.000000;0.769066
9506.000000;0.768885
9505.000000;0.768863
9504.000000;0.768877
9503.000000;0.768819
9502.000000;0.768739
9501.000000;0.768697
9500.000000;0.768668
9499.000000;0.768690
9498.000000;0.768892
9497.000000;0.769249
9496.000000;0.769457
9495.000000;0.769259
9494.000000;0.768767
9493.000000;0.768279
9492.000000;0.767881
9491.000000;0.767495
9490.000000;0.767236
9489.000000;0.767379
9488.000000;0.767906
9487.000000;0.768370
9486.000000;0.768377
9485.000000;0.768003
9484.000000;0.767588
9483.000000;0.767310
9482.000000;0.767129
9481.000000;0.767018
9480.000000;0.767012
9479.000000;0.767067
9478.000000;0.767027
9477.000000;0.766777
9476.000000;0.766341
9475.000000;0.765834
9474.000000;0.765361
9473.000000;0.764932
9472.000000;0.764479
9471.000000;0.764013
9470.000000;0.763722
9469.000000;0.763781
9468.000000;0.764063
9467.000000;0.764220
9466.000000;0.764120
9465.000000;0.764009
9464.000000;0.764123
9463.000000;0.764342
9462.000000;0.764417
9461.000000;0.764359
9460.000000;0.764383
9459.000000;0.764557
9458.000000;0.764732
9457.000000;0.764760
9456.000000;0.764571
9455.000000;0.764105
9454.000000;0.763416
9453.000000;0.762811
9452.000000;0.762633
9451.000000;0.762850
9450.000000;0.763043
9449.000000;0.762873
9448.000000;0.762413
9447.000000;0.761998
9446.000000;0.761900
9445.000000;0.762184
9444.000000;0.762712
9443.000000;0.763205
9442.000000;0.763419
9441.000000;0.763363
9440.000000;0.763237
9439.000000;0.763135
9438.000000;0.762942
9437.000000;0.762544
9436.000000;0.762023
9435.000000;0.761576
9434.000000;0.761381
9433.000000;0.761555
9432.000000;0.762088
9431.000000;0.762707
9430.000000;0.762994
9429.000000;0.762793
9428.000000;0.762414
9427.000000;0.762287
9426.000000;0.762499
9425.000000;0.762791
9424.000000;0.762904
9423.000000;0.762760
9422.000000;0.762367
9421.000000;0.761788
9420.000000;0.761232
9419.000000;0.760977
9418.000000;0.761068
9417.000000;0.761185
9416.000000;0.760922
9415.000000;0.760196
9414.000000;0.759345
9413.000000;0.758867
9412.000000;0.759055
9411.000000;0.759767
9410.000000;0.760484
9409.000000;0.760667
9408.000000;0.760214
9407.000000;0.759544
9406.000000;0.759149
9405.000000;0.759093
9404.000000;0.759071
9403.000000;0.758895
9402.000000;0.758745
9401.000000;0.758859
9400.000000;0.759171
9399.000000;0.759394
9398.000000;0.759372
9397.000000;0.759184
9396.000000;0.758954
9395.000000;0.758727
9394.000000;0.758527
9393.000000;0.758376
9392.000000;0.758234
9391.000000;0.758056
9390.000000;0.757919
9389.000000;0.757955
9388.000000;0.758135
9387.000000;0.758257
9386.000000;0.758191
9385.000000;0.758005
9384.000000;0.757797
9383.000000;0.757552
9382.000000;0.757250
9381.000000;0.756985
9380.000000;0.756852
9379.000000;0.756828
9378.000000;0.756864
9377.000000;0.756993
9376.000000;0.757226
9375.000000;0.757430
9374.000000;0.757443
9373.000000;0.757244
9372.000000;0.756903
9371.000000;0.756442
9370.000000;0.755872
9369.000000;0.755313
9368.000000;0.754941
9367.000000;0.754829
9366.000000;0.754919
9365.000000;0.755117
9364.000000;0.755324
9363.000000;0.755460
9362.000000;0.755555
9361.000000;0.755741
9360.000000;0.756026
9359.000000;0.756162
9358.000000;0.755905
9357.000000;0.755326
9356.000000;0.754726
9355.000000;0.754309
9354.000000;0.754122
9353.000000;0.754234
9352.000000;0.754713
9351.000000;0.755366
9350.000000;0.755751
9349.000000;0.755580
9348.000000;0.755007
9347.000000;0.754441
9346.000000;0.754141
9345.000000;0.754061
9344.000000;0.753991
9343.000000;0.753788
9342.000000;0.753510
9341.000000;0.753349
9340.000000;0.753412
9339.000000;0.753587
9338.000000;0.753692
9337.000000;0.753675
9336.000000;0.753587
9335.000000;0.753412
9334.000000;0.753114
9333.000000;0.752810
9332.000000;0.752715
9331.000000;0.752862
9330.000000;0.753045
9329.000000;0.753099
9328.000000;0.753070
9327.000000;0.753058
9326.000000;0.753049
9325.000000;0.752996
9324.000000;0.752930
9323.000000;0.752878
9322.000000;0.752780
9321.000000;0.752583
9320.000000;0.752341
9319.000000;0.752126
9318.000000;0.751919
9317.000000;0.751689
9316.000000;0.751492
9315.000000;0.751396
9314.000000;0.751360
9313.000000;0.751293
9312.000000;0.751207
9311.000000;0.751198
9310.000000;0.751309
9309.000000;0.751499
9308.000000;0.751730
9307.000000;0.751977
9306.000000;0.752138
9305.000000;0.752004
9304.000000;0.751417
9303.000000;0.750456
9302.000000;0.749481
9301.000000;0.748951
9300.000000;0.749115
9299.000000;0.749787
9298.000000;0.750450
9297.000000;0.750648
9296.000000;0.750334
9295.000000;0.749843
9294.000000;0.749546
9293.000000;0.749543
9292.000000;0.749664
9291.000000;0.749692
9290.000000;0.749562
9289.000000;0.749346
9288.000000;0.749134
9287.000000;0.748978
9286.000000;0.748926
9285.000000;0.749003
9284.000000;0.749138
9283.000000;0.749204
9282.000000;0.749199
9281.000000;0.749269
9280.000000;0.749483
9279.000000;0.749665
9278.000000;0.749592
9277.000000;0.749282
9276.000000;0.748943
9275.000000;0.748690
9274.000000;0.748474
9273.000000;0.748291
9272.000000;0.748244
9271.000000;0.748347
9270.000000;0.748446
9269.000000;0.748422
9268.000000;0.748317
9267.000000;0.748177
9266.000000;0.747921
9265.000000;0.747469
9264.000000;0.746898
9263.000000;0.746355
9262.000000;0.745906
9261.000000;0.745609
9260.000000;0.745597
9259.000000;0.745911
9258.000000;0.746290
9257.000000;0.746332
9256.000000;0.745909
9255.000000;0.745292
9254.000000;0.744839
9253.000000;0.744672
9252.000000;0.744683
9251.000000;0.744739
9250.000000;0.744792
9249.000000;0.744846
9248.000000;0.744880
9247.000000;0.744837
9246.000000;0.744677
9245.000000;0.744453
9244.000000;0.744290
9243.000000;0.744244
9242.000000;0.744226
9241.000000;0.744143
9240.000000;0.744095
9239.000000;0.744304
9238.000000;0.744807
9237.000000;0.745333
9236.000000;0.745548
9235.000000;0.745370
9234.000000;0.744947
9233.000000;0.744431
9232.000000;0.743913
9231.000000;0.743555
9230.000000;0.743553
9229.000000;0.743853
9228.000000;0.744024
9227.000000;0.743635
9226.000000;0.742779
9225.000000;0.742053
9224.000000;0.741945
9223.000000;0.742347
9222.000000;0.742748
9221.000000;0.742800
9220.000000;0.742566
9219.000000;0.742273
9218.000000;0.741993
9217.000000;0.741650
9216.000000;0.741234
9215.000000;0.740910
9214.000000;0.740887
9213.000000;0.741201
9212.000000;0.741650
9211.000000;0.741950
9210.000000;0.741996
9209.000000;0.741911
9208.000000;0.741841
9207.000000;0.741757
9206.000000;0.741535
9205.000000;0.741182
9204.000000;0.740854
9203.000000;0.740681
9202.000000;0.740663
9201.000000;0.740754
9200.000000;0.740922
9199.000000;0.741084
9198.000000;0.741105
9197.000000;0.740944
9196.000000;0.740732
9195.000000;0.740643
9194.000000;0.740713
9193.000000;0.740850
9192.000000;0.740956
9191.000000;0.741001
9190.000000;0.741001
9189.000000;0.741008
9188.000000;0.741058
9187.000000;0.741085
9186.000000;0.740943
9185.000000;0.740573
9184.000000;0.740131
9183.000000;0.739838
9182.000000;0.739740
9181.000000;0.739699
9180.000000;0.739600
9179.000000;0.739470
9178.000000;0.739365
9177.000000;0.739252
9176.000000;0.739085
9175.000000;0.738935
9174.000000;0.738931
9173.000000;0.739086
9172.000000;0.739232
9171.000000;0.739163
9170.000000;0.738822
9169.000000;0.738359
9168.000000;0.738025
9167.000000;0.737981
9166.000000;0.738151
9165.000000;0.738256
9164.000000;0.738063
9163.000000;0.737655
9162.000000;0.737381
9161.000000;0.737491
9160.000000;0.737847
9159.000000;0.738089
9158.000000;0.738037
9157.000000;0.737853
9156.000000;0.737780
9155.000000;0.737872
9154.000000;0.738019
9153.000000;0.738113
9152.000000;0.738078
9151.000000;0.737830
9150.000000;0.737363
9149.000000;0.736857
9148.000000;0.736569
9147.000000;0.736576
9146.000000;0.736717
9145.000000;0.736785
9144.000000;0.736687
9143.000000;0.736426
9142.000000;0.736053
9141.000000;0.735707
9140.000000;0.735594
9139.000000;0.735797
9138.000000;0.736128
9137.000000;0.736261
9136.000000;0.736025
9135.000000;0.735547
9134.000000;0.735111
9133.000000;0.734930
9132.000000;0.735012
9131.000000;0.735202
9130.000000;0.735311
9129.000000;0.735239
9128.000000;0.735015
9127.000000;0.734742
9126.000000;0.734529
9125.000000;0.734454
9124.000000;0.734526
9123.000000;0.734661
9122.000000;0.734743
9121.000000;0.734722
9120.000000;0.734641
9119.000000;0.734546
9118.000000;0.734418
9117.000000;0.734209
9116.000000;0.733907
9115.000000;0.733540
9114.000000;0.733166
9113.000000;0.732897
9112.000000;0.732869
9111.000000;0.733122
9110.000000;0.733498
9109.000000;0.733745
9108.000000;0.733735
9107.000000;0.733553
9106.000000;0.733358
9105.000000;0.733218
9104.000000;0.733089
9103.000000;0.732906
9102.000000;0.732657
9101.000000;0.732397
9100.000000;0.732227
9099.000000;0.732215
9098.000000;0.732302
9097.000000;0.732297
9096.000000;0.732045
9095.000000;0.731611
9094.000000;0.731222
9093.000000;0.731015
9092.000000;0.730905
9091.000000;0.730760
9090.000000;0.730631
9089.000000;0.730682
9088.000000;0.730919
9087.000000;0.731129
9086.000000;0.731131
9085.000000;0.730986
9084.000000;0.730871
9083.000000;0.730853
9082.000000;0.730871
9081.000000;0.730871
9080.000000;0.730831
9079.000000;0.730668
9078.000000;0.730285
9077.000000;0.729737
9076.000000;0.729272
9075.000000;0.729118
9074.000000;0.729288
9073.000000;0.729602
9072.000000;0.729876
9071.000000;0.730031
9070.000000;0.730079
9069.000000;0.730039
9068.000000;0.729905
9067.000000;0.729685
9066.000000;0.729494
9065.000000;0.729524
9064.000000;0.729845
9063.000000;0.730242
9062.000000;0.730343
9061.000000;0.729978
9060.000000;0.729355
9059.000000;0.728841
9058.000000;0.728630
9057.000000;0.728654
9056.000000;0.728736
9055.000000;0.728748
9054.000000;0.728635
9053.000000;0.728401
9052.000000;0.728096
9051.000000;0.727803
9050.000000;0.727602
9049.000000;0.727536
9048.000000;0.727562
9047.000000;0.727565
9046.000000;0.727450
9045.000000;0.727261
9044.000000;0.727157
9043.000000;0.727231
9042.000000;0.727395
9041.000000;0.727471
9040.000000;0.727372
9039.000000;0.727138
9038.000000;0.726852
9037.000000;0.726590
9036.000000;0.726426
9035.000000;0.726404
9034.000000;0.726492
9033.000000;0.726611
9032.000000;0.726720
9031.000000;0.726793
9030.000000;0.726774
9029.000000;0.726632
9028.000000;0.726472
9027.000000;0.726438
9026.000000;0.726478
9025.000000;0.726323
9024.000000;0.725807
9023.000000;0.725127
9022.000000;0.724671
9021.000000;0.724614
9020.000000;0.724794
9019.000000;0.724961
9018.000000;0.724997
9017.000000;0.724900
9016.000000;0.724689
9015.000000;0.724401
9014.000000;0.724135
9013.000000;0.723987
9012.000000;0.723964
9011.000000;0.723982
9010.000000;0.723951
9009.000000;0.723851
9008.000000;0.723782
9007.000000;0.723909
9006.000000;0.724287
9005.000000;0.724723
9004.000000;0.724901
9003.000000;0.724706
9002.000000;0.724345
9001.000000;0.724102
9000.000000;0.724037
8999.000000;0.724008
8998.000000;0.723882
8997.000000;0.723627
8996.000000;0.723261
8995.000000;0.722845
8994.000000;0.722529
8993.000000;0.722452
8992.000000;0.722562
8991.000000;0.722659
8990.000000;0.722624
8989.000000;0.722536
8988.000000;0.722523
8987.000000;0.722599
8986.000000;0.722675
8985.000000;0.722655
8984.000000;0.722479
8983.000000;0.722162
8982.000000;0.721842
8981.000000;0.721689
8980.000000;0.721717
8979.000000;0.721753
8978.000000;0.721650
8977.000000;0.721490
8976.000000;0.721472
8975.000000;0.721680
8974.000000;0.722006
8973.000000;0.722251
8972.000000;0.722233
8971.000000;0.721862
8970.000000;0.721239
8969.000000;0.720659
8968.000000;0.720402
8967.000000;0.720503
8966.000000;0.720738
8965.000000;0.720840
8964.000000;0.720679
8963.000000;0.720303
8962.000000;0.719900
8961.000000;0.719703
8960.000000;0.719826
8959.000000;0.720147
8958.000000;0.720416
8957.000000;0.720474
8956.000000;0.720347
8955.000000;0.720164
8954.000000;0.720038
8953.000000;0.720017
8952.000000;0.720056
8951.000000;0.720021
8950.000000;0.719800
8949.000000;0.719430
8948.000000;0.719077
8947.000000;0.718878
8946.000000;0.718832
8945.000000;0.718847
8944.000000;0.718832
8943.000000;0.718737
8942.000000;0.718585
8941.000000;0.718462
8940.000000;0.718426
8939.000000;0.718419
8938.000000;0.718327
8937.000000;0.718161
8936.000000;0.718079
8935.000000;0.718209
8934.000000;0.718477
8933.000000;0.718676
8932.000000;0.718665
8931.000000;0.718467
8930.000000;0.718209
8929.000000;0.718016
8928.000000;0.717933
8927.000000;0.717903
8926.000000;0.717812
8925.000000;0.717587
8924.000000;0.717256
8923.000000;0.716926
8922.000000;0.716715
8921.000000;0.716693
8920.000000;0.716840
8919.000000;0.717059
8918.000000;0.717246
8917.000000;0.717367
8916.000000;0.717414
8915.000000;0.717330
8914.000000;0.717038
8913.000000;0.716580
8912.000000;0.716143
8911.000000;0.715893
8910.000000;0.715840
8909.000000;0.715912
8908.000000;0.716080
8907.000000;0.716314
8906.000000;0.716474
8905.000000;0.716379
8904.000000;0.716028
8903.000000;0.715671
8902.000000;0.715583
8901.000000;0.715808
8900.000000;0.716125
8899.000000;0.716255
8898.000000;0.716075
8897.000000;0.715687
8896.000000;0.715312
8895.000000;0.715117
8894.000000;0.715087
8893.000000;0.715059
8892.000000;0.714894
8891.000000;0.714615
8890.000000;0.714371
8889.000000;0.714251
8888.000000;0.714198
8887.000000;0.714109
8886.000000;0.713992
8885.000000;0.713967
8884.000000;0.714096
8883.000000;0.714276
8882.000000;0.714339
8881.000000;0.714221
8880.000000;0.714010
8879.000000;0.713838
8878.000000;0.713774
8877.000000;0.713797
8876.000000;0.713831
8875.000000;0.713789
8874.000000;0.713640
8873.000000;0.713458
8872.000000;0.713348
8871.000000;0.713329
8870.000000;0.713321
8869.000000;0.713251
8868.000000;0.713134
8867.000000;0.712993
8866.000000;0.712788
8865.000000;0.712496
8864.000000;0.712223
8863.000000;0.712137
8862.000000;0.712272
8861.000000;0.712467
8860.000000;0.712534
8859.000000;0.712425
8858.000000;0.712208
8857.000000;0.711953
8856.000000;0.711688
8855.000000;0.711452
8854.000000;0.711316
8853.000000;0.711327
8852.000000;0.711455
8851.000000;0.711593
8850.000000;0.711625
8849.000000;0.711512
8848.000000;0.711315
8847.000000;0.711130
8846.000000;0.710997
8845.000000;0.710906
8844.000000;0.710859
8843.000000;0.710872
8842.000000;0.710895
8841.000000;0.710833
8840.000000;0.710678
8839.000000;0.710557
8838.000000;0.710561
8837.000000;0.710604
8836.000000;0.710523
8835.000000;0.710285
8834.000000;0.709998
8833.000000;0.709738
8832.000000;0.709510
8831.000000;0.709369
8830.000000;0.709439
8829.000000;0.709721
8828.000000;0.710014
8827.000000;0.710106
8826.000000;0.710012
8825.000000;0.709917
8824.000000;0.709952
8823.000000;0.710093
8822.000000;0.710244
8821.000000;0.710308
8820.000000;0.710190
8819.000000;0.709845
8818.000000;0.709355
8817.000000;0.708902
8816.000000;0.708628
8815.000000;0.708546
8814.000000;0.708570
8813.000000;0.708609
8812.000000;0.708617
8811.000000;0.708610
8810.000000;0.708616
8809.000000;0.708603
8808.000000;0.708492
8807.000000;0.708287
8806.000000;0.708140
8805.000000;0.708201
8804.000000;0.708428
8803.000000;0.708628
8802.000000;0.708670
8801.000000;0.708587
8800.000000;0.708442
8799.000000;0.708223
8798.000000;0.707914
8797.000000;0.707601
8796.000000;0.707414
8795.000000;0.707401
8794.000000;0.707497
8793.000000;0.707611
8792.000000;0.707709
8791.000000;0.707807
8790.000000;0.707914
8789.000000;0.707967
8788.000000;0.707845
8787.000000;0.707495
8786.000000;0.707032
8785.000000;0.706681
8784.000000;0.706598
8783.000000;0.706781
8782.000000;0.707115
8781.000000;0.707441
8780.000000;0.707588
8779.000000;0.707456
8778.000000;0.707133
8777.000000;0.706866
8776.000000;0.706853
8775.000000;0.707079
8774.000000;0.707378
8773.000000;0.707582
8772.000000;0.707601
8771.000000;0.707434
8770.000000;0.707192
8769.000000;0.707034
8768.000000;0.707005
8767.000000;0.706961
8766.000000;0.706722
8765.000000;0.706300
8764.000000;0.705908
8763.000000;0.705752
8762.000000;0.705858
8761.000000;0.706086
8760.000000;0.706251
8759.000000;0.706249
8758.000000;0.706115
8757.000000;0.705963
8756.000000;0.705857
8755.000000;0.705753
8754.000000;0.705605
8753.000000;0.705468
8752.000000;0.705432
8751.000000;0.705472
8750.000000;0.705463
8749.000000;0.705347
8748.000000;0.705221
8747.000000;0.705218
8746.000000;0.705342
8745.000000;0.705465
8744.000000;0.705456
8743.000000;0.705288
8742.000000;0.705038
8741.000000;0.704814
8740.000000;0.704671
8739.000000;0.704588
8738.000000;0.704531
8737.000000;0.704501
8736.000000;0.704513
8735.000000;0.704540
8734.000000;0.704527
8733.000000;0.704474
8732.000000;0.704437
8731.000000;0.704460
8730.000000;0.704516
8729.000000;0.704548
8728.000000;0.704521
8727.000000;0.704431
8726.000000;0.704297
8725.000000;0.704171
8724.000000;0.704122
8723.000000;0.704173
8722.000000;0.704268
8721.000000;0.704323
8720.000000;0.704302
8719.000000;0.704225
8718.000000;0.704107
8717.000000;0.703942
8716.000000;0.703751
8715.000000;0.703591
8714.000000;0.703513
8713.000000;0.703505
8712.000000;0.703500
8711.000000;0.703432
8710.000000;0.703270
8709.000000;0.703034
8708.000000;0.702805
8707.000000;0.702696
8706.000000;0.702769
8705.000000;0.702950
8704.000000;0.703078
8703.000000;0.703053
8702.000000;0.702947
8701.000000;0.702926
8700.000000;0.703064
8699.000000;0.703257
8698.000000;0.703329
8697.000000;0.703203
8696.000000;0.702951
8695.000000;0.702702
8694.000000;0.702524
8693.000000;0.702408
8692.000000;0.702340
8691.000000;0.702351
8690.000000;0.702474
8689.000000;0.702675
8688.000000;0.702840
8687.000000;0.702857
8686.000000;0.702699
8685.000000;0.702437
8684.000000;0.702190
8683.000000;0.702058
8682.000000;0.702050
8681.000000;0.702062
8680.000000;0.701968
8679.000000;0.701763
8678.000000;0.701580
8677.000000;0.701517
8676.000000;0.701486
8675.000000;0.701325
8674.000000;0.701047
8673.000000;0.700875
8672.000000;0.700973
8671.000000;0.701213
8670.000000;0.701280
8669.000000;0.701023
8668.000000;0.700617
8667.000000;0.700364
8666.000000;0.700367
8665.000000;0.700449
8664.000000;0.700379
8663.000000;0.700134
8662.000000;0.699901
8661.000000;0.699839
8660.000000;0.699889
8659.000000;0.699828
8658.000000;0.699516
8657.000000;0.699055
8656.000000;0.698710
8655.000000;0.698674
8654.000000;0.698899
8653.000000;0.699141
8652.000000;0.699193
8651.000000;0.699070
8650.000000;0.698963
8649.000000;0.698995
8648.000000;0.699086
8647.000000;0.699057
8646.000000;0.698846
8645.000000;0.698553
8644.000000;0.698299
8643.000000;0.698095
8642.000000;0.697873
8641.000000;0.697598
8640.000000;0.697325
8639.000000;0.697160
8638.000000;0.697156
8637.000000;0.697270
8636.000000;0.697398
8635.000000;0.697460
8634.000000;0.697412
8633.000000;0.697227
8632.000000;0.696914
8631.000000;0.696583
8630.000000;0.696407
8629.000000;0.696448
8628.000000;0.696556
8627.000000;0.696526
8626.000000;0.696315
8625.000000;0.696053
8624.000000;0.695855
8623.000000;0.695702
8622.000000;0.695522
8621.000000;0.695312
8620.000000;0.695127
8619.000000;0.695007
8618.000000;0.694942
8617.000000;0.694900
8616.000000;0.694871
8615.000000;0.694896
8614.000000;0.695021
8613.000000;0.695216
8612.000000;0.695350
8611.000000;0.695291
8610.000000;0.695004
8609.000000;0.694559
8608.000000;0.694072
8607.000000;0.693683
8606.000000;0.693514
8605.000000;0.693546
8604.000000;0.693575
8603.000000;0.693395
8602.000000;0.693030
8601.000000;0.692698
8600.000000;0.692538
8599.000000;0.692470
8598.000000;0.692337
8597.000000;0.692081
8596.000000;0.691748
8595.000000;0.691418
8594.000000;0.691183
8593.000000;0.691118
8592.000000;0.691225
8591.000000;0.691409
8590.000000;0.691567
8589.000000;0.691638
8588.000000;0.691564
8587.000000;0.691293
8586.000000;0.690881
8585.000000;0.690507
8584.000000;0.690316
8583.000000;0.690288
8582.000000;0.690302
8581.000000;0.690285
8580.000000;0.690235
8579.000000;0.690152
8578.000000;0.690039
8577.000000;0.689919
8576.000000;0.689799
8575.000000;0.689615
8574.000000;0.689312
8573.000000;0.688946
8572.000000;0.688643
8571.000000;0.688445
8570.000000;0.688262
8569.000000;0.688007
8568.000000;0.687718
8567.000000;0.687508
8566.000000;0.687428
8565.000000;0.687421
8564.000000;0.687418
8563.000000;0.687407
8562.000000;0.687419
8561.000000;0.687449
8560.000000;0.687442
8559.000000;0.687369
8558.000000;0.687268
8557.000000;0.687204
8556.000000;0.687184
8555.000000;0.687151
8554.000000;0.687046
8553.000000;0.686861
8552.000000;0.686641
8551.000000;0.686454
8550.000000;0.686358
8549.000000;0.686341
8548.000000;0.686314
8547.000000;0.686178
8546.000000;0.685902
8545.000000;0.685545
8544.000000;0.685204
8543.000000;0.684971
8542.000000;0.684893
8541.000000;0.684930
8540.000000;0.684972
8539.000000;0.684940
8538.000000;0.684850
8537.000000;0.684752
8536.000000;0.684634
8535.000000;0.684449
8534.000000;0.684195
8533.000000;0.683915
8532.000000;0.683638
8531.000000;0.683398
8530.000000;0.683255
8529.000000;0.683230
8528.000000;0.683218
8527.000000;0.683100
8526.000000;0.682914
8525.000000;0.682820
8524.000000;0.682866
8523.000000;0.682907
8522.000000;0.682805
8521.000000;0.682584
8520.000000;0.682345
8519.000000;0.682115
8518.000000;0.681876
8517.000000;0.681661
8516.000000;0.681528
8515.000000;0.681467
8514.000000;0.681413
8513.000000;0.681319
8512.000000;0.681188
8511.000000;0.681050
8510.000000;0.680954
8509.000000;0.680954
8508.000000;0.681042
8507.000000;0.681119
8506.000000;0.681066
8505.000000;0.680853
8504.000000;0.680553
8503.000000;0.680279
8502.000000;0.680105
8501.000000;0.680016
8500.000000;0.679908
8499.000000;0.679691
8498.000000;0.679394
8497.000000;0.679132
8496.000000;0.678989
8495.000000;0.678955
8494.000000;0.678988
8493.000000;0.679073
8492.000000;0.679193
8491.000000;0.679320
8490.000000;0.679433
8489.000000;0.679501
8488.000000;0.679434
8487.000000;0.679150
8486.000000;0.678702
8485.000000;0.678265
8484.000000;0.677950
8483.000000;0.677723
8482.000000;0.677534
8481.000000;0.677407
8480.000000;0.677372
8479.000000;0.677392
8478.000000;0.677437
8477.000000;0.677531
8476.000000;0.677646
8475.000000;0.677626
8474.000000;0.677342
8473.000000;0.676864
8472.000000;0.676408
8471.000000;0.676137
8470.000000;0.676055
8469.000000;0.676063
8468.000000;0.676032
8467.000000;0.675887
8466.000000;0.675689
8465.000000;0.675590
8464.000000;0.675637
8463.000000;0.675682
8462.000000;0.675550
8461.000000;0.675255
8460.000000;0.674952
8459.000000;0.674740
8458.000000;0.674602
8457.000000;0.674530
8456.000000;0.674563
8455.000000;0.674695
8454.000000;0.674812
8453.000000;0.674767
8452.000000;0.674487
8451.000000;0.674035
8450.000000;0.673592
8449.000000;0.673359
8448.000000;0.673399
8447.000000;0.673570
8446.000000;0.673672
8445.000000;0.673633
8444.000000;0.673536
8443.000000;0.673484
8442.000000;0.673498
8441.000000;0.673505
8440.000000;0.673381
8439.000000;0.673034
8438.000000;0.672515
8437.000000;0.672021
8436.000000;0.671718
8435.000000;0.671609
8434.000000;0.671596
8433.000000;0.671627
8432.000000;0.671696
8431.000000;0.671752
8430.000000;0.671727
8429.000000;0.671646
8428.000000;0.671598
8427.000000;0.671620
8426.000000;0.671657
8425.000000;0.671662
8424.000000;0.671621
8423.000000;0.671502
8422.000000;0.671272
8421.000000;0.670982
8420.000000;0.670765
8419.000000;0.670689
8418.000000;0.670674
8417.000000;0.670573
8416.000000;0.670306
8415.000000;0.669929
8414.000000;0.669594
8413.000000;0.669464
8412.000000;0.669578
8411.000000;0.669810
8410.000000;0.669971
8409.000000;0.669967
8408.000000;0.669812
8407.000000;0.669547
8406.000000;0.669222
8405.000000;0.668942
8404.000000;0.668805
8403.000000;0.668778
8402.000000;0.668714
8401.000000;0.668532
8400.000000;0.668318
8399.000000;0.668185
8398.000000;0.668130
8397.000000;0.668067
8396.000000;0.667955
8395.000000;0.667828
8394.000000;0.667735
8393.000000;0.667703
8392.000000;0.667729
8391.000000;0.667764
8390.000000;0.667724
8389.000000;0.667547
8388.000000;0.667256
8387.000000;0.666929
8386.000000;0.666644
8385.000000;0.666454
8384.000000;0.666374
8383.000000;0.666366
8382.000000;0.666342
8381.000000;0.666238
8380.000000;0.666081
8379.000000;0.665954
8378.000000;0.665893
8377.000000;0.665857
8376.000000;0.665795
8375.000000;0.665703
8374.000000;0.665599
8373.000000;0.665458
8372.000000;0.665237
8371.000000;0.664964
8370.000000;0.664756
8369.000000;0.664711
8368.000000;0.664797
8367.000000;0.664895
8366.000000;0.664922
8365.000000;0.664889
8364.000000;0.664823
8363.000000;0.664703
8362.000000;0.664507
8361.000000;0.664265
8360.000000;0.664021
8359.000000;0.663774
8358.000000;0.663496
8357.000000;0.663213
8356.000000;0.663013
8355.000000;0.662966
8354.000000;0.663038
8353.000000;0.663109
8352.000000;0.663069
8351.000000;0.662908
8350.000000;0.662712
8349.000000;0.662558
8348.000000;0.662424
8347.000000;0.662244
8346.000000;0.662041
8345.000000;0.661936
8344.000000;0.662005
8343.000000;0.662178
8342.000000;0.662323
8341.000000;0.662361
8340.000000;0.662270
8339.000000;0.662036
8338.000000;0.661692
8337.000000;0.661365
8336.000000;0.661181
8335.000000;0.661114
8334.000000;0.661024
8333.000000;0.660834
8332.000000;0.660632
8331.000000;0.660548
8330.000000;0.660599
8329.000000;0.660683
8328.000000;0.660678
8327.000000;0.660544
8326.000000;0.660335
8325.000000;0.660155
8324.000000;0.660083
8323.000000;0.660114
8322.000000;0.660170
8321.000000;0.660148
8320.000000;0.659989
8319.000000;0.659709
8318.000000;0.659397
8317.000000;0.659140
8316.000000;0.658943
8315.000000;0.658746
8314.000000;0.658540
8313.000000;0.658416
8312.000000;0.658450
8311.000000;0.658578
8310.000000;0.658657
8309.000000;0.658631
8308.000000;0.658574
8307.000000;0.658559
8306.000000;0.658547
8305.000000;0.658453
8304.000000;0.658261
8303.000000;0.658040
8302.000000;0.657854
8301.000000;0.657696
8300.000000;0.657520
8299.000000;0.657328
8298.000000;0.657179
8297.000000;0.657114
8296.000000;0.657096
8295.000000;0.657056
8294.000000;0.656985
8293.000000;0.656934
8292.000000;0.656918
8291.000000;0.656881
8290.000000;0.656766
8289.000000;0.656574
8288.000000;0.656315
8287.000000;0.655992
8286.000000;0.655668
8285.000000;0.655480
8284.000000;0.655497
8283.000000;0.655609
8282.000000;0.655640
8281.000000;0.655553
8280.000000;0.655448
8279.000000;0.655376
8278.000000;0.655269
8277.000000;0.655043
8276.000000;0.654713
8275.000000;0.654371
8274.000000;0.654119
8273.000000;0.654042
8272.000000;0.654170
8271.000000;0.654409
8270.000000;0.654579
8269.000000;0.654552
8268.000000;0.654351
8267.000000;0.654089
8266.000000;0.653864
8265.000000;0.653726
8264.000000;0.653692
8263.000000;0.653749
8262.000000;0.653847
8261.000000;0.653905
8260.000000;0.653845
8259.000000;0.653644
8258.000000;0.653369
8257.000000;0.653145
8256.000000;0.653049
8255.000000;0.653038
8254.000000;0.653023
8253.000000;0.652969
8252.000000;0.652885
8251.000000;0.652746
8250.000000;0.652524
8249.000000;0.652296
8248.000000;0.652200
8247.000000;0.652247
8246.000000;0.652267
8245.000000;0.652111
8244.000000;0.651842
8243.000000;0.651669
8242.000000;0.651717
8241.000000;0.651931
8240.000000;0.652147
8239.000000;0.652210
8238.000000;0.652051
8237.000000;0.651736
8236.000000;0.651427
8235.000000;0.651245
8234.000000;0.651160
8233.000000;0.651052
8232.000000;0.650863
8231.000000;0.650644
8230.000000;0.650472
8229.000000;0.650372
8228.000000;0.650317
8227.000000;0.650266
8226.000000;0.650185
8225.000000;0.650060
8224.000000;0.649929
8223.000000;0.649857
8222.000000;0.649865
8221.000000;0.649898
8220.000000;0.649880
8219.000000;0.649793
8218.000000;0.649684
8217.000000;0.649607
8216.000000;0.649557
8215.000000;0.649490
8214.000000;0.649372
8213.000000;0.649210
8212.000000;0.649018
8211.000000;0.648806
8210.000000;0.648607
8209.000000;0.648485
8208.000000;0.648462
8207.000000;0.648454
8206.000000;0.648339
8205.000000;0.648124
8204.000000;0.647975
8203.000000;0.648029
8202.000000;0.648222
8201.000000;0.648337
8200.000000;0.648227
8199.000000;0.647933
8198.000000;0.647599
8197.000000;0.647334
8196.000000;0.647168
8195.000000;0.647093
8194.000000;0.647082
8193.000000;0.647092
8192.000000;0.647074
8191.000000;0.646991
8190.000000;0.646821
8189.000000;0.646565
8188.000000;0.646273
8187.000000;0.646043
8186.000000;0.645955
8185.000000;0.646011
8184.000000;0.646144
8183.000000;0.646267
8182.000000;0.646305
8181.000000;0.646210
8180.000000;0.645987
8179.000000;0.645695
8178.000000;0.645407
8177.000000;0.645153
8176.000000;0.644939
8175.000000;0.644811
8174.000000;0.644846
8173.000000;0.645054
8172.000000;0.645308
8171.000000;0.645446
8170.000000;0.645414
8169.000000;0.645286
8168.000000;0.645148
8167.000000;0.645002
8166.000000;0.644804
8165.000000;0.644549
8164.000000;0.644291
8163.000000;0.644080
8162.000000;0.643920
8161.000000;0.643780
8160.000000;0.643643
8159.000000;0.643534
8158.000000;0.643489
8157.000000;0.643496
8156.000000;0.643500
8155.000000;0.643457
8154.000000;0.643386
8153.000000;0.643329
8152.000000;0.643292
8151.000000;0.643235
8150.000000;0.643135
8149.000000;0.643008
8148.000000;0.642883
8147.000000;0.642773
8146.000000;0.642671
8145.000000;0.642565
8144.000000;0.642444
8143.000000;0.642300
8142.000000;0.642136
8141.000000;0.641967
8140.000000;0.641809
8139.000000;0.641697
8138.000000;0.641683
8137.000000;0.641784
8136.000000;0.641936
8135.000000;0.642024
8134.000000;0.641977
8133.000000;0.641809
8132.000000;0.641578
8131.000000;0.641350
8130.000000;0.641206
8129.000000;0.641218
8128.000000;0.641374
8127.000000;0.641542
8126.000000;0.641565
8125.000000;0.641371
8124.000000;0.641004
8123.000000;0.640570
8122.000000;0.640192
8121.000000;0.639963
8120.000000;0.639906
8119.000000;0.639962
8118.000000;0.640047
8117.000000;0.640109
8116.000000;0.640117
8115.000000;0.640036
8114.000000;0.639850
8113.000000;0.639608
8112.000000;0.639402
8111.000000;0.639285
8110.000000;0.639238
8109.000000;0.639205
8108.000000;0.639145
8107.000000;0.639034
8106.000000;0.638872
8105.000000;0.638693
8104.000000;0.638567
8103.000000;0.638543
8102.000000;0.638608
8101.000000;0.638701
8100.000000;0.638764
8099.000000;0.638782
8098.000000;0.638767
8097.000000;0.638722
8096.000000;0.638629
8095.000000;0.638476
8094.000000;0.638273
8093.000000;0.638053
8092.000000;0.637859
8091.000000;0.637724
8090.000000;0.637669
8089.000000;0.637671
8088.000000;0.637666
8087.000000;0.637600
8086.000000;0.637476
8085.000000;0.637347
8084.000000;0.637256
8083.000000;0.637209
8082.000000;0.637199
8081.000000;0.637214
8080.000000;0.637205
8079.000000;0.637102
8078.000000;0.636886
8077.000000;0.636633
8076.000000;0.636441
8075.000000;0.636343
8074.000000;0.636297
8073.000000;0.636259
8072.000000;0.636218
8071.000000;0.636175
8070.000000;0.636131
8069.000000;0.636093
8068.000000;0.636055
8067.000000;0.635990
8066.000000;0.635871
8065.000000;0.635733
8064.000000;0.635660
8063.000000;0.635703
8062.000000;0.635812
8061.000000;0.635867
8060.000000;0.635774
8059.000000;0.635541
8058.000000;0.635254
8057.000000;0.635006
8056.000000;0.634838
8055.000000;0.634730
8054.000000;0.634638
8053.000000;0.634530
8052.000000;0.634413
8051.000000;0.634317
8050.000000;0.634263
8049.000000;0.634229
8048.000000;0.634177
8047.000000;0.634112
8046.000000;0.634078
8045.000000;0.634098
8044.000000;0.634119
8043.000000;0.634076
8042.000000;0.633962
8041.000000;0.633824
8040.000000;0.633697
8039.000000;0.633596
8038.000000;0.633550
8037.000000;0.633585
8036.000000;0.633662
8035.000000;0.633680
8034.000000;0.633592
8033.000000;0.633463
8032.000000;0.633382
8031.000000;0.633341
8030.000000;0.633259
8029.000000;0.633083
8028.000000;0.632842
8027.000000;0.632603
8026.000000;0.632415
8025.000000;0.632290
8024.000000;0.632219
8023.000000;0.632187
8022.000000;0.632180
8021.000000;0.632178
8020.000000;0.632128
8019.000000;0.631988
8018.000000;0.631790
8017.000000;0.631643
8016.000000;0.631629
8015.000000;0.631727
8014.000000;0.631844
8013.000000;0.631906
8012.000000;0.631894
8011.000000;0.631807
8010.000000;0.631652
8009.000000;0.631453
8008.000000;0.631243
8007.000000;0.631048
8006.000000;0.630901
8005.000000;0.630851
8004.000000;0.630912
8003.000000;0.631005
8002.000000;0.631003
8001.000000;0.630849
8000.000000;0.630622
7999.000000;0.630443
7998.000000;0.630356
7997.000000;0.630297
7996.000000;0.630185
7995.000000;0.630010
7994.000000;0.629839
7993.000000;0.629741
7992.000000;0.629708
7991.000000;0.629672
7990.000000;0.629572
7989.000000;0.629417
7988.000000;0.629274
7987.000000;0.629220
7986.000000;0.629284
7985.000000;0.629426
7984.000000;0.629538
7983.000000;0.629517
7982.000000;0.629338
7981.000000;0.629077
7980.000000;0.628848
7979.000000;0.628715
7978.000000;0.628663
7977.000000;0.628621
7976.000000;0.628515
7975.000000;0.628331
7974.000000;0.628146
7973.000000;0.628065
7972.000000;0.628114
7971.000000;0.628201
7970.000000;0.628207
7969.000000;0.628102
7968.000000;0.627953
7967.000000;0.627848
7966.000000;0.627817
7965.000000;0.627822
7964.000000;0.627799
7963.000000;0.627708
7962.000000;0.627570
7961.000000;0.627438
7960.000000;0.627324
7959.000000;0.627190
7958.000000;0.627017
7957.000000;0.626856
7956.000000;0.626769
7955.000000;0.626748
7954.000000;0.626724
7953.000000;0.626664
7952.000000;0.626599
7951.000000;0.626562
7950.000000;0.626529
7949.000000;0.626457
7948.000000;0.626341
7947.000000;0.626220
7946.000000;0.626129
7945.000000;0.626071
7944.000000;0.626017
7943.000000;0.625939
7942.000000;0.625830
7941.000000;0.625719
7940.000000;0.625648
7939.000000;0.625634
7938.000000;0.625643
7937.000000;0.625618
7936.000000;0.625540
7935.000000;0.625453
7934.000000;0.625421
7933.000000;0.625450
7932.000000;0.625466
7931.000000;0.625384
7930.000000;0.625195
7929.000000;0.624968
7928.000000;0.624774
7927.000000;0.624638
7926.000000;0.624544
7925.000000;0.624477
7924.000000;0.624432
7923.000000;0.624401
7922.000000;0.624375
7921.000000;0.624344
7920.000000;0.624299
7919.000000;0.624232
7918.000000;0.624139
7917.000000;0.624024
7916.000000;0.623897
7915.000000;0.623768
7914.000000;0.623647
7913.000000;0.623530
7912.000000;0.623397
7911.000000;0.623250
7910.000000;0.623137
7909.000000;0.623117
7908.000000;0.623175
7907.000000;0.623229
7906.000000;0.623212
7905.000000;0.623127
7904.000000;0.623016
7903.000000;0.622903
7902.000000;0.622802
7901.000000;0.622740
7900.000000;0.622736
7899.000000;0.622758
7898.000000;0.622739
7897.000000;0.622646
7896.000000;0.622513
7895.000000;0.622408
7894.000000;0.622366
7893.000000;0.622353
7892.000000;0.622298
7891.000000;0.622162
7890.000000;0.621983
7889.000000;0.621843
7888.000000;0.621777
7887.000000;0.621739
7886.000000;0.621652
7885.000000;0.621487
7884.000000;0.621271
7883.000000;0.621057
7882.000000;0.620895
7881.000000;0.620814
7880.000000;0.620805
7879.000000;0.620824
7878.000000;0.620833
7877.000000;0.620827
7876.000000;0.620825
7875.000000;0.620832
7874.000000;0.620821
7873.000000;0.620760
7872.000000;0.620635
7871.000000;0.620467
7870.000000;0.620294
7869.000000;0.620144
7868.000000;0.620025
7867.000000;0.619941
7866.000000;0.619909
7865.000000;0.619917
7864.000000;0.619906
7863.000000;0.619820
7862.000000;0.619675
7861.000000;0.619545
7860.000000;0.619483
7859.000000;0.619487
7858.000000;0.619549
7857.000000;0.619660
7856.000000;0.619767
7855.000000;0.619782
7854.000000;0.619668
7853.000000;0.619491
7852.000000;0.619339
7851.000000;0.619239
7850.000000;0.619159
7849.000000;0.619075
7848.000000;0.618985
7847.000000;0.618883
7846.000000;0.618762
7845.000000;0.618633
7844.000000;0.618511
7843.000000;0.618399
7842.000000;0.618298
7841.000000;0.618212
7840.000000;0.618140
7839.000000;0.618066
7838.000000;0.617984
7837.000000;0.617911
7836.000000;0.617844
7835.000000;0.617755
7834.000000;0.617640
7833.000000;0.617537
7832.000000;0.617477
7831.000000;0.617436
7830.000000;0.617376
7829.000000;0.617295
7828.000000;0.617206
7827.000000;0.617100
7826.000000;0.616990
7825.000000;0.616935
7824.000000;0.616972
7823.000000;0.617037
7822.000000;0.617021
7821.000000;0.616904
7820.000000;0.616764
7819.000000;0.616672
7818.000000;0.616615
7817.000000;0.616550
7816.000000;0.616465
7815.000000;0.616367
7814.000000;0.616249
7813.000000;0.616105
7812.000000;0.615951
7811.000000;0.615821
7810.000000;0.615746
7809.000000;0.615749
7808.000000;0.615820
7807.000000;0.615891
7806.000000;0.615874
7805.000000;0.615736
7804.000000;0.615533
7803.000000;0.615351
7802.000000;0.615235
7801.000000;0.615169
7800.000000;0.615110
7799.000000;0.615025
7798.000000;0.614904
7797.000000;0.614766
7796.000000;0.614646
7795.000000;0.614588
7794.000000;0.614623
7793.000000;0.614742
7792.000000;0.614864
7791.000000;0.614877
7790.000000;0.614745
7789.000000;0.614556
7788.000000;0.614424
7787.000000;0.614369
7786.000000;0.614317
7785.000000;0.614219
7784.000000;0.614098
7783.000000;0.613974
7782.000000;0.613820
7781.000000;0.613618
7780.000000;0.613424
7779.000000;0.613316
7778.000000;0.613295
7777.000000;0.613280
7776.000000;0.613213
7775.000000;0.613123
7774.000000;0.613074
7773.000000;0.613077
7772.000000;0.613078
7771.000000;0.613033
7770.000000;0.612968
7769.000000;0.612938
7768.000000;0.612946
7767.000000;0.612906
7766.000000;0.612730
7765.000000;0.612427
7764.000000;0.612109
7763.000000;0.611903
7762.000000;0.611846
7761.000000;0.611885
7760.000000;0.611942
7759.000000;0.611980
7758.000000;0.612005
7757.000000;0.612017
7756.000000;0.611990
7755.000000;0.611891
7754.000000;0.611741
7753.000000;0.611609
7752.000000;0.611555
7751.000000;0.611563
7750.000000;0.611563
7749.000000;0.611487
7748.000000;0.611332
7747.000000;0.611153
7746.000000;0.611028
7745.000000;0.610987
7744.000000;0.610972
7743.000000;0.610879
7742.000000;0.610665
7741.000000;0.610407
7740.000000;0.610242
7739.000000;0.610251
7738.000000;0.610407
7737.000000;0.610606
7736.000000;0.610741
7735.000000;0.610739
7734.000000;0.610592
7733.000000;0.610354
7732.000000;0.610108
7731.000000;0.609915
7730.000000;0.609789
7729.000000;0.609707
7728.000000;0.609630
7727.000000;0.609548
7726.000000;0.609490
7725.000000;0.609492
7724.000000;0.609546
7723.000000;0.609582
7722.000000;0.609527
7721.000000;0.609367
7720.000000;0.609150
7719.000000;0.608942
7718.000000;0.608793
7717.000000;0.608735
7716.000000;0.608768
7715.000000;0.608844
7714.000000;0.608893
7713.000000;0.608870
7712.000000;0.608778
7711.000000;0.608654
7710.000000;0.608536
7709.000000;0.608439
7708.000000;0.608342
7707.000000;0.608203
7706.000000;0.608017
7705.000000;0.607836
7704.000000;0.607711
7703.000000;0.607630
7702.000000;0.607547
7701.000000;0.607450
7700.000000;0.607388
7699.000000;0.607392
7698.000000;0.607435
7697.000000;0.607452
7696.000000;0.607413
7695.000000;0.607335
7694.000000;0.607251
7693.000000;0.607192
7692.000000;0.607173
7691.000000;0.607181
7690.000000;0.607167
7689.000000;0.607079
7688.000000;0.606915
7687.000000;0.606733
7686.000000;0.606598
7685.000000;0.606522
7684.000000;0.606466
7683.000000;0.606405
7682.000000;0.606357
7681.000000;0.606337
7680.000000;0.606312
7679.000000;0.606228
7678.000000;0.606089
7677.000000;0.605958
7676.000000;0.605876
7675.000000;0.605819
7674.000000;0.605748
7673.000000;0.605666
7672.000000;0.605606
7671.000000;0.605569
7670.000000;0.605525
7669.000000;0.605447
7668.000000;0.605336
7667.000000;0.605208
7666.000000;0.605095
7665.000000;0.605031
7664.000000;0.605013
7663.000000;0.604982
7662.000000;0.604875
7661.000000;0.604709
7660.000000;0.604575
7659.000000;0.604549
7658.000000;0.604623
7657.000000;0.604720
7656.000000;0.604766
7655.000000;0.604732
7654.000000;0.604644
7653.000000;0.604544
7652.000000;0.604447
7651.000000;0.604335
7650.000000;0.604196
7649.000000;0.604066
7648.000000;0.603994
7647.000000;0.603985
7646.000000;0.603984
7645.000000;0.603933
7644.000000;0.603818
7643.000000;0.603674
7642.000000;0.603564
7641.000000;0.603543
7640.000000;0.603608
7639.000000;0.603676
7638.000000;0.603640
7637.000000;0.603469
7636.000000;0.603236
7635.000000;0.603046
7634.000000;0.602937
7633.000000;0.602878
7632.000000;0.602831
7631.000000;0.602792
7630.000000;0.602783
7629.000000;0.602813
7628.000000;0.602861
7627.000000;0.602889
7626.000000;0.602871
7625.000000;0.602801
7624.000000;0.602680
7623.000000;0.602514
7622.000000;0.602331
7621.000000;0.602186
7620.000000;0.602122
7619.000000;0.602122
7618.000000;0.602125
7617.000000;0.602090
7616.000000;0.602024
7615.000000;0.601953
7614.000000;0.601881
7613.000000;0.601796
7612.000000;0.601698
7611.000000;0.601606
7610.000000;0.601537
7609.000000;0.601490
7608.000000;0.601454
7607.000000;0.601418
7606.000000;0.601400
7605.000000;0.601432
7604.000000;0.601517
7603.000000;0.601594
7602.000000;0.601560
7601.000000;0.601363
7600.000000;0.601058
7599.000000;0.600759
7598.000000;0.600549
7597.000000;0.600441
7596.000000;0.600406
7595.000000;0.600418
7594.000000;0.600456
7593.000000;0.600489
7592.000000;0.600480
7591.000000;0.600417
7590.000000;0.600322
7589.000000;0.600244
7588.000000;0.600218
7587.000000;0.600227
7586.000000;0.600214
7585.000000;0.600133
7584.000000;0.600001
7583.000000;0.599880
7582.000000;0.599799
7581.000000;0.599725
7580.000000;0.599611
7579.000000;0.599478
7578.000000;0.599397
7577.000000;0.599402
7576.000000;0.599438
7575.000000;0.599437
7574.000000;0.599398
7573.000000;0.599381
7572.000000;0.599418
7571.000000;0.599468
7570.000000;0.599465
7569.000000;0.599382
7568.000000;0.599237
7567.000000;0.599073
7566.000000;0.598926
7565.000000;0.598819
7564.000000;0.598749
7563.000000;0.598696
7562.000000;0.598637
7561.000000;0.598566
7560.000000;0.598492
7559.000000;0.598431
7558.000000;0.598389
7557.000000;0.598349
7556.000000;0.598285
7555.000000;0.598196
7554.000000;0.598123
7553.000000;0.598108
7552.000000;0.598148
7551.000000;0.598206
7550.000000;0.598255
7549.000000;0.598290
7548.000000;0.598294
7547.000000;0.598244
7546.000000;0.598156
7545.000000;0.598081
7544.000000;0.598049
7543.000000;0.598030
7542.000000;0.597986
7541.000000;0.597928
7540.000000;0.597893
7539.000000;0.597886
7538.000000;0.597872
7537.000000;0.597827
7536.000000;0.597767
7535.000000;0.597721
7534.000000;0.597692
7533.000000;0.597661
7532.000000;0.597610
7531.000000;0.597533
7530.000000;0.597444
7529.000000;0.597356
7528.000000;0.597276
7527.000000;0.597215
7526.000000;0.597187
7525.000000;0.597193
7524.000000;0.597197
7523.000000;0.597161
7522.000000;0.597089
7521.000000;0.597024
7520.000000;0.596995
7519.000000;0.596987
7518.000000;0.596980
7517.000000;0.596977
7516.000000;0.596971
7515.000000;0.596935
7514.000000;0.596860
7513.000000;0.596785
7512.000000;0.596741
7511.000000;0.596704
7510.000000;0.596629
7509.000000;0.596523
7508.000000;0.596438
7507.000000;0.596408
7506.000000;0.596407
7505.000000;0.596395
7504.000000;0.596353
7503.000000;0.596287
7502.000000;0.596222
7501.000000;0.596193
7500.000000;0.596208
7499.000000;0.596223
7498.000000;0.596183
7497.000000;0.596091
7496.000000;0.596001
7495.000000;0.595950
7494.000000;0.595917
7493.000000;0.595867
7492.000000;0.595816
7491.000000;0.595794
7490.000000;0.595808
7489.000000;0.595832
7488.000000;0.595827
7487.000000;0.595780
7486.000000;0.595704
7485.000000;0.595631
7484.000000;0.595597
7483.000000;0.595615
7482.000000;0.595678
7481.000000;0.595757
7480.000000;0.595818
7479.000000;0.595832
7478.000000;0.595792
7477.000000;0.595730
7476.000000;0.595696
7475.000000;0.595715
7474.000000;0.595772
7473.000000;0.595822
7472.000000;0.595814
7471.000000;0.595721
7470.000000;0.595567
7469.000000;0.595426
7468.000000;0.595370
7467.000000;0.595404
7466.000000;0.595463
7465.000000;0.595482
7464.000000;0.595450
7463.000000;0.595391
7462.000000;0.595330
7461.000000;0.595274
7460.000000;0.595239
7459.000000;0.595245
7458.000000;0.595291
7457.000000;0.595344
7456.000000;0.595378
7455.000000;0.595399
7454.000000;0.595431
7453.000000;0.595472
7452.000000;0.595485
7451.000000;0.595435
7450.000000;0.595329
7449.000000;0.595202
7448.000000;0.595084
7447.000000;0.594993
7446.000000;0.594947
7445.000000;0.594961
7444.000000;0.595026
7443.000000;0.595102
7442.000000;0.595153
7441.000000;0.595167
7440.000000;0.595153
7439.000000;0.595132
7438.000000;0.595142
7437.000000;0.595205
7436.000000;0.595285
7435.000000;0.595309
7434.000000;0.595252
7433.000000;0.595178
7432.000000;0.595170
7431.000000;0.595232
7430.000000;0.595297
7429.000000;0.595305
7428.000000;0.595245
7427.000000;0.595132
7426.000000;0.594994
7425.000000;0.594879
7424.000000;0.594832
7423.000000;0.594846
7422.000000;0.594874
7421.000000;0.594886
7420.000000;0.594892
7419.000000;0.594893
7418.000000;0.594875
7417.000000;0.594845
7416.000000;0.594856
7415.000000;0.594935
7414.000000;0.595031
7413.000000;0.595063
7412.000000;0.595005
7411.000000;0.594902
7410.000000;0.594809
7409.000000;0.594753
7408.000000;0.594750
7407.000000;0.594816
7406.000000;0.594942
7405.000000;0.595071
7404.000000;0.595139
7403.000000;0.595130
7402.000000;0.595083
7401.000000;0.595041
7400.000000;0.595007
7399.000000;0.594966
7398.000000;0.594928
7397.000000;0.594936
7396.000000;0.595009
7395.000000;0.595104
7394.000000;0.595157
7393.000000;0.595159
7392.000000;0.595172
7391.000000;0.595259
7390.000000;0.595407
7389.000000;0.595540
7388.000000;0.595601
7387.000000;0.595579
7386.000000;0.595487
7385.000000;0.595343
7384.000000;0.595198
7383.000000;0.595137
7382.000000;0.595207
7381.000000;0.595367
7380.000000;0.595517
7379.000000;0.595580
7378.000000;0.595555
7377.000000;0.595494
7376.000000;0.595461
7375.000000;0.595498
7374.000000;0.595604
7373.000000;0.595728
7372.000000;0.595804
7371.000000;0.595803
7370.000000;0.595759
7369.000000;0.595727
7368.000000;0.595746
7367.000000;0.595813
7366.000000;0.595900
7365.000000;0.595965
7364.000000;0.595964
7363.000000;0.595891
7362.000000;0.595805
7361.000000;0.595803
7360.000000;0.595943
7359.000000;0.596180
7358.000000;0.596375
7357.000000;0.596413
7356.000000;0.596300
7355.000000;0.596164
7354.000000;0.596124
7353.000000;0.596184
7352.000000;0.596245
7351.000000;0.596235
7350.000000;0.596196
7349.000000;0.596229
7348.000000;0.596374
7347.000000;0.596567
7346.000000;0.596719
7345.000000;0.596809
7344.000000;0.596891
7343.000000;0.597026
7342.000000;0.597225
7341.000000;0.597424
7340.000000;0.597526
7339.000000;0.597494
7338.000000;0.597399
7337.000000;0.597357
7336.000000;0.597400
7335.000000;0.597461
7334.000000;0.597478
7333.000000;0.597473
7332.000000;0.597510
7331.000000;0.597585
7330.000000;0.597638
7329.000000;0.597650
7328.000000;0.597682
7327.000000;0.597778
7326.000000;0.597893
7325.000000;0.597949
7324.000000;0.597948
7323.000000;0.597984
7322.000000;0.598131
7321.000000;0.598343
7320.000000;0.598457
7319.000000;0.598347
7318.000000;0.598056
7317.000000;0.597774
7316.000000;0.597661
7315.000000;0.597723
7314.000000;0.597858
7313.000000;0.597981
7312.000000;0.598093
7311.000000;0.598263
7310.000000;0.598549
7309.000000;0.598926
7308.000000;0.599284
7307.000000;0.599510
7306.000000;0.599591
7305.000000;0.599618
7304.000000;0.599665
7303.000000;0.599706
7302.000000;0.599696
7301.000000;0.599672
7300.000000;0.599721
7299.000000;0.599874
7298.000000;0.600076
7297.000000;0.600259
7296.000000;0.600392
7295.000000;0.600479
7294.000000;0.600554
7293.000000;0.600668
7292.000000;0.600832
7291.000000;0.600964
7290.000000;0.600955
7289.000000;0.600832
7288.000000;0.600774
7287.000000;0.600931
7286.000000;0.601252
7285.000000;0.601551
7284.000000;0.601711
7283.000000;0.601772
7282.000000;0.601839
7281.000000;0.601972
7280.000000;0.602152
7279.000000;0.602328
7278.000000;0.602449
7277.000000;0.602501
7276.000000;0.602515
7275.000000;0.602542
7274.000000;0.602621
7273.000000;0.602772
7272.000000;0.603013
7271.000000;0.603354
7270.000000;0.603758
7269.000000;0.604137
7268.000000;0.604410
7267.000000;0.604576
7266.000000;0.604701
7265.000000;0.604848
7264.000000;0.605032
7263.000000;0.605259
7262.000000;0.605555
7261.000000;0.605934
7260.000000;0.606345
7259.000000;0.606695
7258.000000;0.606929
7257.000000;0.607074
7256.000000;0.607209
7255.000000;0.607396
7254.000000;0.607653
7253.000000;0.607960
7252.000000;0.608289
7251.000000;0.608618
7250.000000;0.608921
7249.000000;0.609162
7248.000000;0.609345
7247.000000;0.609554
7246.000000;0.609891
7245.000000;0.610354
7244.000000;0.610820
7243.000000;0.611178
7242.000000;0.611460
7241.000000;0.611776
7240.000000;0.612150
7239.000000;0.612493
7238.000000;0.612759
7237.000000;0.613042
7236.000000;0.613468
7235.000000;0.614044
7234.000000;0.614645
7233.000000;0.615136
7232.000000;0.615460
7231.000000;0.615648
7230.000000;0.615781
7229.000000;0.615927
7228.000000;0.616111
7227.000000;0.616368
7226.000000;0.616766
7225.000000;0.617335
7224.000000;0.617960
7223.000000;0.618444
7222.000000;0.618691
7221.000000;0.618810
7220.000000;0.618979
7219.000000;0.619259
7218.000000;0.619594
7217.000000;0.619938
7216.000000;0.620302
7215.000000;0.620693
7214.000000;0.621087
7213.000000;0.621467
7212.000000;0.621840
7211.000000;0.622215
7210.000000;0.622613
7209.000000;0.623056
7208.000000;0.623530
7207.000000;0.623971
7206.000000;0.624336
7205.000000;0.624679
7204.000000;0.625108
7203.000000;0.625677
7202.000000;0.626343
7201.000000;0.627021
7200.000000;0.627636
7199.000000;0.628144
7198.000000;0.628561
7197.000000;0.628967
7196.000000;0.629426
7195.000000;0.629923
7194.000000;0.630389
7193.000000;0.630782
7192.000000;0.631115
7191.000000;0.631427
7190.000000;0.631773
7189.000000;0.632208
7188.000000;0.632740
7187.000000;0.633314
7186.000000;0.633864
7185.000000;0.634373
7184.000000;0.634844
7183.000000;0.635296
7182.000000;0.635799
7181.000000;0.636460
7180.000000;0.637285
7179.000000;0.638106
7178.000000;0.638738
7177.000000;0.639167
7176.000000;0.639536
7175.000000;0.639983
7174.000000;0.640567
7173.000000;0.641284
7172.000000;0.642056
7171.000000;0.642739
7170.000000;0.643256
7169.000000;0.643703
7168.000000;0.644227
7167.000000;0.644823
7166.000000;0.645382
7165.000000;0.645915
7164.000000;0.646564
7163.000000;0.647358
7162.000000;0.648119
7161.000000;0.648683
7160.000000;0.649131
7159.000000;0.649690
7158.000000;0.650442
7157.000000;0.651248
7156.000000;0.651928
7155.000000;0.652430
7154.000000;0.652835
7153.000000;0.653244
7152.000000;0.653711
7151.000000;0.654260
7150.000000;0.654939
7149.000000;0.655746
7148.000000;0.656481
7147.000000;0.656823
7146.000000;0.656679
7145.000000;0.656418
7144.000000;0.656600
7143.000000;0.657435
7142.000000;0.658620
7141.000000;0.659711
7140.000000;0.660490
7139.000000;0.660968
7138.000000;0.661223
7137.000000;0.661384
7136.000000;0.661683
7135.000000;0.662336
7134.000000;0.663337
7133.000000;0.664386
7132.000000;0.665093
7131.000000;0.665273
7130.000000;0.665113
7129.000000;0.665059
7128.000000;0.665455
7127.000000;0.666271
7126.000000;0.667151
7125.000000;0.667716
7124.000000;0.667815
7123.000000;0.667575
7122.000000;0.667324
7121.000000;0.667400
7120.000000;0.667874
7119.000000;0.668453
7118.000000;0.668763
7117.000000;0.668722
7116.000000;0.668549
7115.000000;0.668423
7114.000000;0.668341
7113.000000;0.668316
7112.000000;0.668462
7111.000000;0.668791
7110.000000;0.669086
7109.000000;0.669089
7108.000000;0.668746
7107.000000;0.668239
7106.000000;0.667852
7105.000000;0.667805
7104.000000;0.668077
7103.000000;0.668320
7102.000000;0.668087
7101.000000;0.667222
7100.000000;0.666010
7099.000000;0.664915
7098.000000;0.664224
7097.000000;0.663880
7096.000000;0.663591
7095.000000;0.663111
7094.000000;0.662536
7093.000000;0.662247
7092.000000;0.662392
7091.000000;0.662545
7090.000000;0.662111
7089.000000;0.661011
7088.000000;0.659722
7087.000000;0.658657
7086.000000;0.657776
7085.000000;0.656887
7084.000000;0.656014
7083.000000;0.655311
7082.000000;0.654806
7081.000000;0.654342
7080.000000;0.653656
7079.000000;0.652496
7078.000000;0.650888
7077.000000;0.649316
7076.000000;0.648326
7075.000000;0.647829
7074.000000;0.647082
7073.000000;0.645537
7072.000000;0.643475
7071.000000;0.641581
7070.000000;0.640149
7069.000000;0.638996
7068.000000;0.637930
7067.000000;0.636957
7066.000000;0.636023
7065.000000;0.634887
7064.000000;0.633319
7063.000000;0.631304
7062.000000;0.629010
7061.000000;0.626689
7060.000000;0.624630
7059.000000;0.623073
7058.000000;0.622050
7057.000000;0.621244
7056.000000;0.620061
7055.000000;0.618010
7054.000000;0.615188
7053.000000;0.612345
7052.000000;0.610278
7051.000000;0.609101
7050.000000;0.608220
7049.000000;0.607001
7048.000000;0.605274
7047.000000;0.603216
7046.000000;0.601056
7045.000000;0.598997
7044.000000;0.597153
7043.000000;0.595398
7042.000000;0.593402
7041.000000;0.591001
7040.000000;0.588404
7039.000000;0.585966
7038.000000;0.583873
7037.000000;0.582124
7036.000000;0.580574
7035.000000;0.578861
7034.000000;0.576568
7033.000000;0.573693
7032.000000;0.570749
7031.000000;0.568194
7030.000000;0.566027
7029.000000;0.564096
7028.000000;0.562498
7027.000000;0.561261
7026.000000;0.559851
7025.000000;0.557492
7024.000000;0.554032
7023.000000;0.550109
7022.000000;0.546454
7021.000000;0.543386
7020.000000;0.540969
7019.000000;0.539178
7018.000000;0.537709
7017.000000;0.536038
7016.000000;0.533970
7015.000000;0.531890
7014.000000;0.530183
7013.000000;0.528606
7012.000000;0.526528
7011.000000;0.523655
7010.000000;0.520236
7009.000000;0.516685
7008.000000;0.513323
7007.000000;0.510460
7006.000000;0.508324
7005.000000;0.506782
7004.000000;0.505314
7003.000000;0.503354
7002.000000;0.500506
7001.000000;0.496556
7000.000000;0.491643
6999.000000;0.486570
6998.000000;0.482599
6997.000000;0.480542
6996.000000;0.480010
6995.000000;0.479671
6994.000000;0.478286
6993.000000;0.475519
6992.000000;0.471900
6991.000000;0.468226
6990.000000;0.464998
6989.000000;0.462277
6988.000000;0.459949
6987.000000;0.457932
6986.000000;0.456002
6985.000000;0.453645
6984.000000;0.450451
6983.000000;0.446682
6982.000000;0.443130
6981.000000;0.440293
6980.000000;0.437941
6979.000000;0.435608
6978.000000;0.433207
6977.000000;0.430942
6976.000000;0.428854
6975.000000;0.426736
6974.000000;0.424302
6973.000000;0.421264
6972.000000;0.417463
6971.000000;0.413176
6970.000000;0.409165
6969.000000;0.406158
6968.000000;0.404252
6967.000000;0.402883
6966.000000;0.401298
6965.000000;0.399063
6964.000000;0.396294
6963.000000;0.393474
6962.000000;0.390954
6961.000000;0.388596
6960.000000;0.386062
6959.000000;0.383336
6958.000000;0.380599
6957.000000;0.377678
6956.000000;0.374219
6955.000000;0.370501
6954.000000;0.367454
6953.000000;0.365516
6952.000000;0.363976
6951.000000;0.361900
6950.000000;0.359287
6949.000000;0.356838
6948.000000;0.354859
6947.000000;0.352974
6946.000000;0.350760
6945.000000;0.348192
6944.000000;0.345475
6943.000000;0.342805
6942.000000;0.340298
6941.000000;0.337879
6940.000000;0.335303
6939.000000;0.332514
6938.000000;0.329877
6937.000000;0.327807
6936.000000;0.326284
6935.000000;0.324936
6934.000000;0.323424
6933.000000;0.321507
6932.000000;0.318966
6931.000000;0.315797
6930.000000;0.312445
6929.000000;0.309583
6928.000000;0.307665
6927.000000;0.306713
6926.000000;0.306273
6925.000000;0.305496
6924.000000;0.303702
6923.000000;0.301105
6922.000000;0.298673
6921.000000;0.297001
6920.000000;0.295669
6919.000000;0.293938
6918.000000;0.291682
6917.000000;0.289317
6916.000000;0.287224
6915.000000;0.285631
6914.000000;0.284690
6913.000000;0.284152
6912.000000;0.283248
6911.000000;0.281435
6910.000000;0.279073
6909.000000;0.276872
6908.000000;0.274881
6907.000000;0.272573
6906.000000;0.269805
6905.000000;0.267174
6904.000000;0.265371
6903.000000;0.264505
6902.000000;0.264072
6901.000000;0.263357
6900.000000;0.261929
6899.000000;0.259968
6898.000000;0.258007
6897.000000;0.256248
6896.000000;0.254382
6895.000000;0.252287
6894.000000;0.250503
6893.000000;0.249577
6892.000000;0.249219
6891.000000;0.248596
6890.000000;0.247314
6889.000000;0.245679
6888.000000;0.244108
6887.000000;0.242702
6886.000000;0.241375
6885.000000;0.240081
6884.000000;0.238887
6883.000000;0.237988
6882.000000;0.237543
6881.000000;0.237312
6880.000000;0.236672
6879.000000;0.235206
6878.000000;0.233147
6877.000000;0.231110
6876.000000;0.229584
6875.000000;0.228772
6874.000000;0.228575
6873.000000;0.228575
6872.000000;0.228353
6871.000000;0.227960
6870.000000;0.227679
6869.000000;0.227251
6868.000000;0.225989
6867.000000;0.223902
6866.000000;0.222019
6865.000000;0.221163
6864.000000;0.221021
6863.000000;0.220941
6862.000000;0.220996
6861.000000;0.221550
6860.000000;0.222260
6859.000000;0.222310
6858.000000;0.221445
6857.000000;0.220138
6856.000000;0.218901
6855.000000;0.217930
6854.000000;0.217229
6853.000000;0.216553
6852.000000;0.215419
6851.000000;0.213673
6850.000000;0.211923
6849.000000;0.211021
6848.000000;0.211279
6847.000000;0.212443
6846.000000;0.214059
6845.000000;0.215406
6844.000000;0.215581
6843.000000;0.214328
6842.000000;0.212579
6841.000000;0.211613
6840.000000;0.211796
6839.000000;0.212552
6838.000000;0.213252
6837.000000;0.213546
6836.000000;0.213180
6835.000000;0.212220
6834.000000;0.211332
6833.000000;0.211208
6832.000000;0.211787
6831.000000;0.212507
6830.000000;0.213088
6829.000000;0.213510
6828.000000;0.213490
6827.000000;0.212744
6826.000000;0.211692
6825.000000;0.211157
6824.000000;0.211329
6823.000000;0.211625
6822.000000;0.211573
6821.000000;0.211308
6820.000000;0.211189
6819.000000;0.211465
6818.000000;0.212331
6817.000000;0.213783
6816.000000;0.215344
6815.000000;0.216404
6814.000000;0.216877
6813.000000;0.217128
6812.000000;0.217299
6811.000000;0.217212
6810.000000;0.216957
6809.000000;0.217014
6808.000000;0.217649
6807.000000;0.218585
6806.000000;0.219394
6805.000000;0.219885
6804.000000;0.220095
6803.000000;0.220255
6802.000000;0.220728
6801.000000;0.221601
6800.000000;0.222380
6799.000000;0.222542
6798.000000;0.222356
6797.000000;0.222614
6796.000000;0.223546
6795.000000;0.224570
6794.000000;0.225217
6793.000000;0.225706
6792.000000;0.226431
6791.000000;0.227409
6790.000000;0.228539
6789.000000;0.229893
6788.000000;0.231334
6787.000000;0.232223
6786.000000;0.232062
6785.000000;0.231250
6784.000000;0.230759
6783.000000;0.231101
6782.000000;0.231943
6781.000000;0.232709
6780.000000;0.233206
6779.000000;0.233560
6778.000000;0.233841
6777.000000;0.234028
6776.000000;0.234252
6775.000000;0.234818
6774.000000;0.235836
6773.000000;0.236922
6772.000000;0.237492
6771.000000;0.237404
6770.000000;0.237152
6769.000000;0.237327
6768.000000;0.238056
6767.000000;0.239114
6766.000000;0.240369
6765.000000;0.241831
6764.000000;0.243360
6763.000000;0.244646
6762.000000;0.245523
6761.000000;0.246084
6760.000000;0.246487
6759.000000;0.246859
6758.000000;0.247412
6757.000000;0.248346
6756.000000;0.249538
6755.000000;0.250537
6754.000000;0.251042
6753.000000;0.251248
6752.000000;0.251570
6751.000000;0.252133
6750.000000;0.252693
6749.000000;0.253037
6748.000000;0.253277
6747.000000;0.253711
6746.000000;0.254481
6745.000000;0.255447
6744.000000;0.256406
6743.000000;0.257353
6742.000000;0.258403
6741.000000;0.259490
6740.000000;0.260318
6739.000000;0.260695
6738.000000;0.260804
6737.000000;0.261019
6736.000000;0.261542
6735.000000;0.262330
6734.000000;0.263265
6733.000000;0.264242
6732.000000;0.265119
6731.000000;0.265790
6730.000000;0.266336
6729.000000;0.266970
6728.000000;0.267795
6727.000000;0.268697
6726.000000;0.269489
6725.000000;0.270093
6724.000000;0.270575
6723.000000;0.271036
6722.000000;0.271504
6721.000000;0.271943
6720.000000;0.272383
6719.000000;0.273019
6718.000000;0.274038
6717.000000;0.275313
6716.000000;0.276395
6715.000000;0.276956
6714.000000;0.277141
6713.000000;0.277381
6712.000000;0.277929
6711.000000;0.278713
6710.000000;0.279558
6709.000000;0.280360
6708.000000;0.281058
6707.000000;0.281614
6706.000000;0.282054
6705.000000;0.282465
6704.000000;0.282933
6703.000000;0.283521
6702.000000;0.284249
6701.000000;0.285018
6700.000000;0.285633
6699.000000;0.285992
6698.000000;0.286238
6697.000000;0.286610
6696.000000;0.287187
6695.000000;0.287931
6694.000000;0.288825
6693.000000;0.289858
6692.000000;0.290888
6691.000000;0.291717
6690.000000;0.292296
6689.000000;0.292746
6688.000000;0.293176
6687.000000;0.293616
6686.000000;0.294102
6685.000000;0.294696
6684.000000;0.295395
6683.000000;0.296136
6682.000000;0.296894
6681.000000;0.297672
6680.000000;0.298405
6679.000000;0.299011
6678.000000;0.299530
6677.000000;0.300091
6676.000000;0.300721
6675.000000;0.301321
6674.000000;0.301840
6673.000000;0.302331
6672.000000;0.302825
6671.000000;0.303306
6670.000000;0.303849
6669.000000;0.304602
6668.000000;0.305540
6667.000000;0.306381
6666.000000;0.306891
6665.000000;0.307188
6664.000000;0.307619
6663.000000;0.308379
6662.000000;0.309353
6661.000000;0.310296
6660.000000;0.311058
6659.000000;0.311629
6658.000000;0.312066
6657.000000;0.312430
6656.000000;0.312778
6655.000000;0.313166
6654.000000;0.313637
6653.000000;0.314206
6652.000000;0.314854
6651.000000;0.315556
6650.000000;0.316292
6649.000000;0.317017
6648.000000;0.317650
6647.000000;0.318151
6646.000000;0.318569
6645.000000;0.318965
6644.000000;0.319332
6643.000000;0.319652
6642.000000;0.320011
6641.000000;0.320560
6640.000000;0.321307
6639.000000;0.322064
6638.000000;0.322641
6637.000000;0.323037
6636.000000;0.323387
6635.000000;0.323800
6634.000000;0.324296
6633.000000;0.324874
6632.000000;0.325522
6631.000000;0.326201
6630.000000;0.326861
6629.000000;0.327509
6628.000000;0.328193
6627.000000;0.328916
6626.000000;0.329585
6625.000000;0.330084
6624.000000;0.330402
6623.000000;0.330654
6622.000000;0.330982
6621.000000;0.331429
6620.000000;0.331938
6619.000000;0.332455
6618.000000;0.332991
6617.000000;0.333564
6616.000000;0.334126
6615.000000;0.334602
6614.000000;0.334998
6613.000000;0.335400
6612.000000;0.335874
6611.000000;0.336400
6610.000000;0.336931
6609.000000;0.337473
6608.000000;0.338069
6607.000000;0.338732
6606.000000;0.339399
6605.000000;0.339971
6604.000000;0.340386
6603.000000;0.340666
6602.000000;0.340918
6601.000000;0.341258
6600.000000;0.341738
6599.000000;0.342322
6598.000000;0.342935
6597.000000;0.343530
6596.000000;0.344092
6595.000000;0.344622
6594.000000;0.345111
6593.000000;0.345550
6592.000000;0.345954
6591.000000;0.346368
6590.000000;0.346826
6589.000000;0.347311
6588.000000;0.347768
6587.000000;0.348167
6586.000000;0.348550
6585.000000;0.348990
6584.000000;0.349538
6583.000000;0.350180
6582.000000;0.350845
6581.000000;0.351435
6580.000000;0.351900
6579.000000;0.352292
6578.000000;0.352726
6577.000000;0.353267
6576.000000;0.353872
6575.000000;0.354432
6574.000000;0.354855
6573.000000;0.355092
6572.000000;0.355173
6571.000000;0.355228
6570.000000;0.355451
6569.000000;0.355959
6568.000000;0.356678
6567.000000;0.357402
6566.000000;0.357946
6565.000000;0.358263
6564.000000;0.358447
6563.000000;0.358665
6562.000000;0.359048
6561.000000;0.359613
6560.000000;0.360253
6559.000000;0.360845
6558.000000;0.361328
6557.000000;0.361713
6556.000000;0.362040
6555.000000;0.362374
6554.000000;0.362788
6553.000000;0.363283
6552.000000;0.363764
6551.000000;0.364128
6550.000000;0.364378
6549.000000;0.364612
6548.000000;0.364910
6547.000000;0.365291
6546.000000;0.365741
6545.000000;0.366241
6544.000000;0.366744
6543.000000;0.367193
6542.000000;0.367590
6541.000000;0.367998
6540.000000;0.368461
6539.000000;0.368941
6538.000000;0.369366
6537.000000;0.369708
6536.000000;0.370007
6535.000000;0.370326
6534.000000;0.370694
6533.000000;0.371101
6532.000000;0.371515
6531.000000;0.371921
6530.000000;0.372330
6529.000000;0.372752
6528.000000;0.373168
6527.000000;0.373543
6526.000000;0.373856
6525.000000;0.374126
6524.000000;0.374405
6523.000000;0.374727
6522.000000;0.375083
6521.000000;0.375444
6520.000000;0.375813
6519.000000;0.376234
6518.000000;0.376707
6517.000000;0.377143
6516.000000;0.377462
6515.000000;0.377712
6514.000000;0.378041
6513.000000;0.378507
6512.000000;0.379006
6511.000000;0.379413
6510.000000;0.379722
6509.000000;0.380014
6508.000000;0.380335
6507.000000;0.380675
6506.000000;0.381030
6505.000000;0.381406
6504.000000;0.381789
6503.000000;0.382165
6502.000000;0.382549
6501.000000;0.382948
6500.000000;0.383313
6499.000000;0.383585
6498.000000;0.383799
6497.000000;0.384039
6496.000000;0.384326
6495.000000;0.384585
6494.000000;0.384774
6493.000000;0.384954
6492.000000;0.385226
6491.000000;0.385617
6490.000000;0.386071
6489.000000;0.386524
6488.000000;0.386952
6487.000000;0.387361
6486.000000;0.387750
6485.000000;0.388087
6484.000000;0.388333
6483.000000;0.388492
6482.000000;0.388628
6481.000000;0.388805
6480.000000;0.389037
6479.000000;0.389322
6478.000000;0.389684
6477.000000;0.390136
6476.000000;0.390618
6475.000000;0.391034
6474.000000;0.391341
6473.000000;0.391580
6472.000000;0.391793
6471.000000;0.391986
6470.000000;0.392161
6469.000000;0.392362
6468.000000;0.392640
6467.000000;0.393006
6466.000000;0.393412
6465.000000;0.393782
6464.000000;0.394054
6463.000000;0.394243
6462.000000;0.394452
6461.000000;0.394791
6460.000000;0.395259
6459.000000;0.395743
6458.000000;0.396126
6457.000000;0.396390
6456.000000;0.396587
6455.000000;0.396775
6454.000000;0.396981
6453.000000;0.397214
6452.000000;0.397473
6451.000000;0.397742
6450.000000;0.398014
6449.000000;0.398296
6448.000000;0.398596
6447.000000;0.398902
6446.000000;0.399187
6445.000000;0.399427
6444.000000;0.399621
6443.000000;0.399795
6442.000000;0.399986
6441.000000;0.400222
6440.000000;0.400506
6439.000000;0.400817
6438.000000;0.401119
6437.000000;0.401375
6436.000000;0.401574
6435.000000;0.401746
6434.000000;0.401931
6433.000000;0.402126
6432.000000;0.402296
6431.000000;0.402455
6430.000000;0.402690
6429.000000;0.403062
6428.000000;0.403506
6427.000000;0.403880
6426.000000;0.404108
6425.000000;0.404243
6424.000000;0.404382
6423.000000;0.404570
6422.000000;0.404780
6421.000000;0.404954
6420.000000;0.405072
6419.000000;0.405184
6418.000000;0.405382
6417.000000;0.405699
6416.000000;0.406059
6415.000000;0.406344
6414.000000;0.406515
6413.000000;0.406630
6412.000000;0.406766
6411.000000;0.406957
6410.000000;0.407210
6409.000000;0.407514
6408.000000;0.407825
6407.000000;0.408086
6406.000000;0.408282
6405.000000;0.408444
6404.000000;0.408603
6403.000000;0.408759
6402.000000;0.408924
6401.000000;0.409146
6400.000000;0.409443
6399.000000;0.409762
6398.000000;0.410025
6397.000000;0.410217
6396.000000;0.410383
6395.000000;0.410553
6394.000000;0.410700
6393.000000;0.410782
6392.000000;0.410811
6391.000000;0.410865
6390.000000;0.411004
6389.000000;0.411217
6388.000000;0.411436
6387.000000;0.411620
6386.000000;0.411795
6385.000000;0.411999
6384.000000;0.412221
6383.000000;0.412421
6382.000000;0.412595
6381.000000;0.412783
6380.000000;0.413008
6379.000000;0.413245
6378.000000;0.413451
6377.000000;0.413604
6376.000000;0.413706
6375.000000;0.413776
6374.000000;0.413854
6373.000000;0.413977
6372.000000;0.414142
6371.000000;0.414321
6370.000000;0.414502
6369.000000;0.414691
6368.000000;0.414880
6367.000000;0.415042
6366.000000;0.415184
6365.000000;0.415346
6364.000000;0.415543
6363.000000;0.415719
6362.000000;0.415805
6361.000000;0.415809
6360.000000;0.415820
6359.000000;0.415922
6358.000000;0.416129
6357.000000;0.416387
6356.000000;0.416619
6355.000000;0.416781
6354.000000;0.416877
6353.000000;0.416952
6352.000000;0.417058
6351.000000;0.417220
6350.000000;0.417429
6349.000000;0.417649
6348.000000;0.417831
6347.000000;0.417945
6346.000000;0.418004
6345.000000;0.418053
6344.000000;0.418134
6343.000000;0.418251
6342.000000;0.418374
6341.000000;0.418461
6340.000000;0.418508
6339.000000;0.418558
6338.000000;0.418660
6337.000000;0.418813
6336.000000;0.418967
6335.000000;0.419087
6334.000000;0.419201
6333.000000;0.419347
6332.000000;0.419506
6331.000000;0.419619
6330.000000;0.419663
6329.000000;0.419669
6328.000000;0.419679
6327.000000;0.419722
6326.000000;0.419816
6325.000000;0.419965
6324.000000;0.420134
6323.000000;0.420285
6322.000000;0.420423
6321.000000;0.420576
6320.000000;0.420718
6319.000000;0.420776
6318.000000;0.420737
6317.000000;0.420691
6316.000000;0.420737
6315.000000;0.420883
6314.000000;0.421071
6313.000000;0.421254
6312.000000;0.421416
6311.000000;0.421534
6310.000000;0.421582
6309.000000;0.421570
6308.000000;0.421543
6307.000000;0.421547
6306.000000;0.421605
6305.000000;0.421721
6304.000000;0.421870
6303.000000;0.422002
6302.000000;0.422080
6301.000000;0.422113
6300.000000;0.422138
6299.000000;0.422173
6298.000000;0.422211
6297.000000;0.422253
6296.000000;0.422316
6295.000000;0.422407
6294.000000;0.422510
6293.000000;0.422609
6292.000000;0.422701
6291.000000;0.422790
6290.000000;0.422878
6289.000000;0.422965
6288.000000;0.423046
6287.000000;0.423100
6286.000000;0.423115
6285.000000;0.423110
6284.000000;0.423130
6283.000000;0.423199
6282.000000;0.423299
6281.000000;0.423387
6280.000000;0.423442
6279.000000;0.423472
6278.000000;0.423497
6277.000000;0.423542
6276.000000;0.423624
6275.000000;0.423729
6274.000000;0.423814
6273.000000;0.423838
6272.000000;0.423806
6271.000000;0.423770
6270.000000;0.423789
6269.000000;0.423874
6268.000000;0.423987
6267.000000;0.424074
6266.000000;0.424096
6265.000000;0.424054
6264.000000;0.423998
6263.000000;0.424003
6262.000000;0.424109
6261.000000;0.424275
6260.000000;0.424413
6259.000000;0.424470
6258.000000;0.424468
6257.000000;0.424453
6256.000000;0.424448
6255.000000;0.424456
6254.000000;0.424486
6253.000000;0.424539
6252.000000;0.424592
6251.000000;0.424628
6250.000000;0.424674
6249.000000;0.424758
6248.000000;0.424856
6247.000000;0.424900
6246.000000;0.424869
6245.000000;0.424811
6244.000000;0.424777
6243.000000;0.424758
6242.000000;0.424727
6241.000000;0.424705
6240.000000;0.424744
6239.000000;0.424850
6238.000000;0.424967
6237.000000;0.425036
6236.000000;0.425049
6235.000000;0.425044
6234.000000;0.425052
6233.000000;0.425084
6232.000000;0.425136
6231.000000;0.425197
6230.000000;0.425249
6229.000000;0.425276
6228.000000;0.425280
6227.000000;0.425280
6226.000000;0.425294
6225.000000;0.425322
6224.000000;0.425343
6223.000000;0.425337
6222.000000;0.425298
6221.000000;0.425239
6220.000000;0.425184
6219.000000;0.425162
6218.000000;0.425187
6217.000000;0.425249
6216.000000;0.425322
6215.000000;0.425379
6214.000000;0.425405
6213.000000;0.425399
6212.000000;0.425375
6211.000000;0.425375
6210.000000;0.425433
6209.000000;0.425542
6208.000000;0.425643
6207.000000;0.425675
6206.000000;0.425626
6205.000000;0.425539
6204.000000;0.425463
6203.000000;0.425426
6202.000000;0.425425
6201.000000;0.425446
6200.000000;0.425471
6199.000000;0.425492
6198.000000;0.425507
6197.000000;0.425519
6196.000000;0.425539
6195.000000;0.425586
6194.000000;0.425670
6193.000000;0.425760
6192.000000;0.425794
6191.000000;0.425741
6190.000000;0.425637
6189.000000;0.425544
6188.000000;0.425490
6187.000000;0.425470
6186.000000;0.425472
6185.000000;0.425488
6184.000000;0.425504
6183.000000;0.425494
6182.000000;0.425455
6181.000000;0.425411
6180.000000;0.425391
6179.000000;0.425401
6178.000000;0.425425
6177.000000;0.425430
6176.000000;0.425389
6175.000000;0.425311
6174.000000;0.425248
6173.000000;0.425257
6172.000000;0.425343
6171.000000;0.425456
6170.000000;0.425538
6169.000000;0.425560
6168.000000;0.425526
6167.000000;0.425456
6166.000000;0.425388
6165.000000;0.425360
6164.000000;0.425384
6163.000000;0.425434
6162.000000;0.425459
6161.000000;0.425418
6160.000000;0.425309
6159.000000;0.425182
6158.000000;0.425105
6157.000000;0.425105
6156.000000;0.425148
6155.000000;0.425183
6154.000000;0.425201
6153.000000;0.425220
6152.000000;0.425241
6151.000000;0.425240
6150.000000;0.425207
6149.000000;0.425167
6148.000000;0.425145
6147.000000;0.425133
6146.000000;0.425108
6145.000000;0.425070
6144.000000;0.425041
6143.000000;0.425039
6142.000000;0.425057
6141.000000;0.425066
6140.000000;0.425036
6139.000000;0.424962
6138.000000;0.424871
6137.000000;0.424812
6136.000000;0.424820
6135.000000;0.424892
6134.000000;0.424993
6133.000000;0.425072
6132.000000;0.425085
6131.000000;0.425032
6130.000000;0.424958
6129.000000;0.424908
6128.000000;0.424884
6127.000000;0.424851
6126.000000;0.424786
6125.000000;0.424709
6124.000000;0.424653
6123.000000;0.424630
6122.000000;0.424632
6121.000000;0.424648
6120.000000;0.424676
6119.000000;0.424726
6118.000000;0.424796
6117.000000;0.424853
6116.000000;0.424849
6115.000000;0.424770
6114.000000;0.424662
6113.000000;0.424591
6112.000000;0.424578
6111.000000;0.424592
6110.000000;0.424598
6109.000000;0.424590
6108.000000;0.424577
6107.000000;0.424557
6106.000000;0.424524
6105.000000;0.424478
6104.000000;0.424426
6103.000000;0.424381
6102.000000;0.424360
6101.000000;0.424366
6100.000000;0.424377
6099.000000;0.424366
6098.000000;0.424334
6097.000000;0.424311
6096.000000;0.424310
6095.000000;0.424311
6094.000000;0.424282
6093.000000;0.424219
6092.000000;0.424144
6091.000000;0.424089
6090.000000;0.424087
6089.000000;0.424150
6088.000000;0.424255
6087.000000;0.424347
6086.000000;0.424388
6085.000000;0.424375
6084.000000;0.424330
6083.000000;0.424279
6082.000000;0.424241
6081.000000;0.424227
6080.000000;0.424220
6079.000000;0.424187
6078.000000;0.424118
6077.000000;0.424041
6076.000000;0.423997
6075.000000;0.424003
6074.000000;0.424039
6073.000000;0.424070
6072.000000;0.424069
6071.000000;0.424022
6070.000000;0.423935
6069.000000;0.423833
6068.000000;0.423753
6067.000000;0.423722
6066.000000;0.423740
6065.000000;0.423769
6064.000000;0.423754
6063.000000;0.423676
6062.000000;0.423584
6061.000000;0.423555
6060.000000;0.423623
6059.000000;0.423742
6058.000000;0.423830
6057.000000;0.423837
6056.000000;0.423760
6055.000000;0.423638
6054.000000;0.423521
6053.000000;0.423447
6052.000000;0.423424
6051.000000;0.423441
6050.000000;0.423490
6049.000000;0.423568
6048.000000;0.423655
6047.000000;0.423718
6046.000000;0.423742
6045.000000;0.423745
6044.000000;0.423754
6043.000000;0.423765
6042.000000;0.423750
6041.000000;0.423697
6040.000000;0.423622
6039.000000;0.423555
6038.000000;0.423525
6037.000000;0.423536
6036.000000;0.423562
6035.000000;0.423560
6034.000000;0.423508
6033.000000;0.423424
6032.000000;0.423351
6031.000000;0.423321
6030.000000;0.423345
6029.000000;0.423410
6028.000000;0.423486
6027.000000;0.423537
6026.000000;0.423538
6025.000000;0.423493
6024.000000;0.423430
6023.000000;0.423375
6022.000000;0.423348
6021.000000;0.423350
6020.000000;0.423363
6019.000000;0.423364
6018.000000;0.423349
6017.000000;0.423337
6016.000000;0.423351
6015.000000;0.423387
6014.000000;0.423420
6013.000000;0.423429
6012.000000;0.423421
6011.000000;0.423418
6010.000000;0.423432
6009.000000;0.423461
6008.000000;0.423496
6007.000000;0.423533
6006.000000;0.423560
6005.000000;0.423549
6004.000000;0.423471
6003.000000;0.423341
6002.000000;0.423224
6001.000000;0.423186
6000.000000;0.423234
5999.000000;0.423322
5998.000000;0.423392
5997.000000;0.423416
5996.000000;0.423398
5995.000000;0.423365
5994.000000;0.423359
5993.000000;0.423401
5992.000000;0.423473
5991.000000;0.423518
5990.000000;0.423494
5989.000000;0.423410
5988.000000;0.423311
5987.000000;0.423253
5986.000000;0.423268
5985.000000;0.423356
5984.000000;0.423477
5983.000000;0.423568
5982.000000;0.423591
5981.000000;0.423555
5980.000000;0.423507
5979.000000;0.423488
5978.000000;0.423507
5977.000000;0.423537
5976.000000;0.423546
5975.000000;0.423524
5974.000000;0.423489
5973.000000;0.423477
5972.000000;0.423504
5971.000000;0.423562
5970.000000;0.423625
5969.000000;0.423665
5968.000000;0.423660
5967.000000;0.423616
5966.000000;0.423569
5965.000000;0.423556
5964.000000;0.423584
5963.000000;0.423631
5962.000000;0.423673
5961.000000;0.423698
5960.000000;0.423696
5959.000000;0.423664
5958.000000;0.423621
5957.000000;0.423596
5956.000000;0.423604
5955.000000;0.423630
5954.000000;0.423651
5953.000000;0.423662
5952.000000;0.423669
5951.000000;0.423675
5950.000000;0.423688
5949.000000;0.423716
5948.000000;0.423750
5947.000000;0.423761
5946.000000;0.423730
5945.000000;0.423679
5944.000000;0.423654
5943.000000;0.423678
5942.000000;0.423729
5941.000000;0.423768
5940.000000;0.423778
5939.000000;0.423774
5938.000000;0.423789
5937.000000;0.423849
5936.000000;0.423951
5935.000000;0.424064
5934.000000;0.424145
5933.000000;0.424174
5932.000000;0.424176
5931.000000;0.424192
5930.000000;0.424234
5929.000000;0.424280
5928.000000;0.424303
5927.000000;0.424310
5926.000000;0.424327
5925.000000;0.424358
5924.000000;0.424384
5923.000000;0.424390
5922.000000;0.424384
5921.000000;0.424379
5920.000000;0.424378
5919.000000;0.424385
5918.000000;0.424408
5917.000000;0.424436
5916.000000;0.424428
5915.000000;0.424359
5914.000000;0.424256
5913.000000;0.424183
5912.000000;0.424175
5911.000000;0.424219
5910.000000;0.424272
5909.000000;0.424301
5908.000000;0.424288
5907.000000;0.424243
5906.000000;0.424190
5905.000000;0.424152
5904.000000;0.424140
5903.000000;0.424157
5902.000000;0.424209
5901.000000;0.424280
5900.000000;0.424329
5899.000000;0.424329
5898.000000;0.424304
5897.000000;0.424303
5896.000000;0.424346
5895.000000;0.424409
5894.000000;0.424453
5893.000000;0.424453
5892.000000;0.424402
5891.000000;0.424318
5890.000000;0.424247
5889.000000;0.424230
5888.000000;0.424264
5887.000000;0.424310
5886.000000;0.424333
5885.000000;0.424328
5884.000000;0.424304
5883.000000;0.424268
5882.000000;0.424240
5881.000000;0.424238
5880.000000;0.424266
5879.000000;0.424305
5878.000000;0.424338
5877.000000;0.424361
5876.000000;0.424373
5875.000000;0.424382
5874.000000;0.424403
5873.000000;0.424441
5872.000000;0.424477
5871.000000;0.424479
5870.000000;0.424452
5869.000000;0.424432
5868.000000;0.424448
5867.000000;0.424484
5866.000000;0.424507
5865.000000;0.424498
5864.000000;0.424457
5863.000000;0.424402
5862.000000;0.424363
5861.000000;0.424366
5860.000000;0.424408
5859.000000;0.424453
5858.000000;0.424474
5857.000000;0.424479
5856.000000;0.424487
5855.000000;0.424501
5854.000000;0.424515
5853.000000;0.424531
5852.000000;0.424557
5851.000000;0.424596
5850.000000;0.424640
5849.000000;0.424686
5848.000000;0.424728
5847.000000;0.424757
5846.000000;0.424759
5845.000000;0.424732
5844.000000;0.424695
5843.000000;0.424684
5842.000000;0.424721
5841.000000;0.424794
5840.000000;0.424857
5839.000000;0.424873
5838.000000;0.424849
5837.000000;0.424820
5836.000000;0.424809
5835.000000;0.424817
5834.000000;0.424835
5833.000000;0.424849
5832.000000;0.424845
5831.000000;0.424823
5830.000000;0.424808
5829.000000;0.424831
5828.000000;0.424892
5827.000000;0.424964
5826.000000;0.425030
5825.000000;0.425092
5824.000000;0.425140
5823.000000;0.425155
5822.000000;0.425138
5821.000000;0.425119
5820.000000;0.425114
5819.000000;0.425107
5818.000000;0.425077
5817.000000;0.425036
5816.000000;0.425012
5815.000000;0.425019
5814.000000;0.425058
5813.000000;0.425126
5812.000000;0.425210
5811.000000;0.425282
5810.000000;0.425319
5809.000000;0.425315
5808.000000;0.425282
5807.000000;0.425241
5806.000000;0.425225
5805.000000;0.425267
5804.000000;0.425358
5803.000000;0.425437
5802.000000;0.425442
5801.000000;0.425376
5800.000000;0.425305
5799.000000;0.425290
5798.000000;0.425339
5797.000000;0.425415
5796.000000;0.425485
5795.000000;0.425540
5794.000000;0.425582
5793.000000;0.425604
5792.000000;0.425591
5791.000000;0.425552
5790.000000;0.425532
5789.000000;0.425560
5788.000000;0.425622
5787.000000;0.425674
5786.000000;0.425705
5785.000000;0.425741
5784.000000;0.425792
5783.000000;0.425831
5782.000000;0.425828
5781.000000;0.425793
5780.000000;0.425753
5779.000000;0.425717
5778.000000;0.425672
5777.000000;0.425613
5776.000000;0.425555
5775.000000;0.425528
5774.000000;0.425548
5773.000000;0.425601
5772.000000;0.425639
5771.000000;0.425623
5770.000000;0.425571
5769.000000;0.425552
5768.000000;0.425610
5767.000000;0.425716
5766.000000;0.425802
5765.000000;0.425828
5764.000000;0.425795
5763.000000;0.425716
5762.000000;0.425612
5761.000000;0.425515
5760.000000;0.425461
5759.000000;0.425456
5758.000000;0.425477
5757.000000;0.425493
5756.000000;0.425501
5755.000000;0.425513
5754.000000;0.425537
5753.000000;0.425571
5752.000000;0.425598
5751.000000;0.425596
5750.000000;0.425557
5749.000000;0.425496
5748.000000;0.425440
5747.000000;0.425399
5746.000000;0.425361
5745.000000;0.425314
5744.000000;0.425260
5743.000000;0.425217
5742.000000;0.425200
5741.000000;0.425215
5740.000000;0.425245
5739.000000;0.425269
5738.000000;0.425263
5737.000000;0.425220
5736.000000;0.425157
5735.000000;0.425108
5734.000000;0.425103
5733.000000;0.425134
5732.000000;0.425171
5731.000000;0.425189
5730.000000;0.425200
5729.000000;0.425224
5728.000000;0.425258
5727.000000;0.425283
5726.000000;0.425292
5725.000000;0.425292
5724.000000;0.425276
5723.000000;0.425222
5722.000000;0.425130
5721.000000;0.425033
5720.000000;0.424964
5719.000000;0.424918
5718.000000;0.424875
5717.000000;0.424827
5716.000000;0.424790
5715.000000;0.424778
5714.000000;0.424789
5713.000000;0.424809
5712.000000;0.424815
5711.000000;0.424785
5710.000000;0.424715
5709.000000;0.424636
5708.000000;0.424589
5707.000000;0.424589
5706.000000;0.424605
5705.000000;0.424589
5704.000000;0.424523
5703.000000;0.424438
5702.000000;0.424387
5701.000000;0.424392
5700.000000;0.424434
5699.000000;0.424481
5698.000000;0.424529
5697.000000;0.424581
5696.000000;0.424623
5695.000000;0.424630
5694.000000;0.424605
5693.000000;0.424584
5692.000000;0.424602
5691.000000;0.424652
5690.000000;0.424698
5689.000000;0.424707
5688.000000;0.424674
5687.000000;0.424610
5686.000000;0.424530
5685.000000;0.424450
5684.000000;0.424390
5683.000000;0.424373
5682.000000;0.424406
5681.000000;0.424449
5680.000000;0.424446
5679.000000;0.424388
5678.000000;0.424331
5677.000000;0.424333
5676.000000;0.424386
5675.000000;0.424434
5674.000000;0.424455
5673.000000;0.424472
5672.000000;0.424497
5671.000000;0.424506
5670.000000;0.424478
5669.000000;0.424440
5668.000000;0.424439
5667.000000;0.424500
5666.000000;0.424604
5665.000000;0.424701
5664.000000;0.424738
5663.000000;0.424692
5662.000000;0.424597
5661.000000;0.424523
5660.000000;0.424514
5659.000000;0.424565
5658.000000;0.424649
5657.000000;0.424742
5656.000000;0.424819
5655.000000;0.424859
5654.000000;0.424876
5653.000000;0.424920
5652.000000;0.425015
5651.000000;0.425132
5650.000000;0.425219
5649.000000;0.425265
5648.000000;0.425286
5647.000000;0.425298
5646.000000;0.425303
5645.000000;0.425313
5644.000000;0.425346
5643.000000;0.425410
5642.000000;0.425505
5641.000000;0.425629
5640.000000;0.425769
5639.000000;0.425895
5638.000000;0.425984
5637.000000;0.426047
5636.000000;0.426113
5635.000000;0.426186
5634.000000;0.426248
5633.000000;0.426281
5632.000000;0.426297
5631.000000;0.426327
5630.000000;0.426400
5629.000000;0.426521
5628.000000;0.426671
5627.000000;0.426816
5626.000000;0.426944
5625.000000;0.427065
5624.000000;0.427186
5623.000000;0.427298
5622.000000;0.427381
5621.000000;0.427439
5620.000000;0.427493
5619.000000;0.427570
5618.000000;0.427683
5617.000000;0.427831
5616.000000;0.427996
5615.000000;0.428154
5614.000000;0.428291
5613.000000;0.428409
5612.000000;0.428516
5611.000000;0.428621
5610.000000;0.428737
5609.000000;0.428873
5608.000000;0.429018
5607.000000;0.429155
5606.000000;0.429285
5605.000000;0.429429
5604.000000;0.429591
5603.000000;0.429739
5602.000000;0.429843
5601.000000;0.429916
5600.000000;0.430011
5599.000000;0.430158
5598.000000;0.430343
5597.000000;0.430527
5596.000000;0.430689
5595.000000;0.430834
5594.000000;0.430958
5593.000000;0.431043
5592.000000;0.431083
5591.000000;0.431113
5590.000000;0.431203
5589.000000;0.431387
5588.000000;0.431621
5587.000000;0.431827
5586.000000;0.431968
5585.000000;0.432073
5584.000000;0.432185
5583.000000;0.432307
5582.000000;0.432427
5581.000000;0.432550
5580.000000;0.432699
5579.000000;0.432879
5578.000000;0.433070
5577.000000;0.433247
5576.000000;0.433406
5575.000000;0.433555
5574.000000;0.433694
5573.000000;0.433815
5572.000000;0.433913
5571.000000;0.434001
5570.000000;0.434104
5569.000000;0.434229
5568.000000;0.434360
5567.000000;0.434479
5566.000000;0.434603
5565.000000;0.434762
5564.000000;0.434959
5563.000000;0.435151
5562.000000;0.435287
5561.000000;0.435357
5560.000000;0.435401
5559.000000;0.435475
5558.000000;0.435596
5557.000000;0.435739
5556.000000;0.435869
5555.000000;0.435989
5554.000000;0.436121
5553.000000;0.436262
5552.000000;0.436370
5551.000000;0.436434
5550.000000;0.436500
5549.000000;0.436616
5548.000000;0.436756
5547.000000;0.436850
5546.000000;0.436878
5545.000000;0.436904
5544.000000;0.436993
5543.000000;0.437147
5542.000000;0.437319
5541.000000;0.437470
5540.000000;0.437589
5539.000000;0.437680
5538.000000;0.437760
5537.000000;0.437851
5536.000000;0.437950
5535.000000;0.438037
5534.000000;0.438108
5533.000000;0.438201
5532.000000;0.438341
5531.000000;0.438498
5530.000000;0.438611
5529.000000;0.438665
5528.000000;0.438708
5527.000000;0.438798
5526.000000;0.438951
5525.000000;0.439135
5524.000000;0.439293
5523.000000;0.439377
5522.000000;0.439375
5521.000000;0.439324
5520.000000;0.439296
5519.000000;0.439358
5518.000000;0.439533
5517.000000;0.439780
5516.000000;0.440016
5515.000000;0.440158
5514.000000;0.440186
5513.000000;0.440152
5512.000000;0.440139
5511.000000;0.440209
5510.000000;0.440369
5509.000000;0.440579
5508.000000;0.440765
5507.000000;0.440868
5506.000000;0.440890
5505.000000;0.440890
5504.000000;0.440925
5503.000000;0.441008
5502.000000;0.441119
5501.000000;0.441242
5500.000000;0.441369
5499.000000;0.441484
5498.000000;0.441580
5497.000000;0.441683
5496.000000;0.441841
5495.000000;0.442067
5494.000000;0.442310
5493.000000;0.442497
5492.000000;0.442592
5491.000000;0.442621
5490.000000;0.442649
5489.000000;0.442729
5488.000000;0.442861
5487.000000;0.442995
5486.000000;0.443067
5485.000000;0.443070
5484.000000;0.443051
5483.000000;0.443073
5482.000000;0.443150
5481.000000;0.443257
5480.000000;0.443366
5479.000000;0.443477
5478.000000;0.443614
5477.000000;0.443782
5476.000000;0.443950
5475.000000;0.444068
5474.000000;0.444107
5473.000000;0.444097
5472.000000;0.444111
5471.000000;0.444210
5470.000000;0.444390
5469.000000;0.444580
5468.000000;0.444709
5467.000000;0.444780
5466.000000;0.444856
5465.000000;0.444990
5464.000000;0.445180
5463.000000;0.445393
5462.000000;0.445592
5461.000000;0.445751
5460.000000;0.445854
5459.000000;0.445914
5458.000000;0.445989
5457.000000;0.446134
5456.000000;0.446337
5455.000000;0.446515
5454.000000;0.446602
5453.000000;0.446624
5452.000000;0.446679
5451.000000;0.446840
5450.000000;0.447093
5449.000000;0.447357
5448.000000;0.447562
5447.000000;0.447707
5446.000000;0.447875
5445.000000;0.448143
5444.000000;0.448488
5443.000000;0.448796
5442.000000;0.448980
5441.000000;0.449061
5440.000000;0.449117
5439.000000;0.449184
5438.000000;0.449252
5437.000000;0.449337
5436.000000;0.449480
5435.000000;0.449677
5434.000000;0.449875
5433.000000;0.450052
5432.000000;0.450271
5431.000000;0.450627
5430.000000;0.451123
5429.000000;0.451600
5428.000000;0.451854
5427.000000;0.451845
5426.000000;0.451749
5425.000000;0.451788
5424.000000;0.452007
5423.000000;0.452254
5422.000000;0.452357
5421.000000;0.452296
5420.000000;0.452193
5419.000000;0.452186
5418.000000;0.452349
5417.000000;0.452680
5416.000000;0.453131
5415.000000;0.453646
5414.000000;0.454182
5413.000000;0.454704
5412.000000;0.455186
5411.000000;0.455637
5410.000000;0.456105
5409.000000;0.456604
5408.000000;0.457050
5407.000000;0.457323
5406.000000;0.457398
5405.000000;0.457378
5404.000000;0.457394
5403.000000;0.457509
5402.000000;0.457736
5401.000000;0.458064
5400.000000;0.458465
5399.000000;0.458905
5398.000000;0.459382
5397.000000;0.459907
5396.000000;0.460459
5395.000000;0.460980
5394.000000;0.461440
5393.000000;0.461864
5392.000000;0.462289
5391.000000;0.462742
5390.000000;0.463255
5389.000000;0.463836
5388.000000;0.464418
5387.000000;0.464890
5386.000000;0.465224
5385.000000;0.465524
5384.000000;0.465917
5383.000000;0.466441
5382.000000;0.467072
5381.000000;0.467774
5380.000000;0.468512
5379.000000;0.469261
5378.000000;0.470038
5377.000000;0.470894
5376.000000;0.471822
5375.000000;0.472721
5374.000000;0.473503
5373.000000;0.474181
5372.000000;0.474811
5371.000000;0.475419
5370.000000;0.476017
5369.000000;0.476655
5368.000000;0.477409
5367.000000;0.478306
5366.000000;0.479293
5365.000000;0.480268
5364.000000;0.481162
5363.000000;0.482004
5362.000000;0.482916
5361.000000;0.483998
5360.000000;0.485226
5359.000000;0.486477
5358.000000;0.487657
5357.000000;0.488789
5356.000000;0.489962
5355.000000;0.491242
5354.000000;0.492639
5353.000000;0.494114
5352.000000;0.495605
5351.000000;0.497070
5350.000000;0.498522
5349.000000;0.499988
5348.000000;0.501445
5347.000000;0.502858
5346.000000;0.504268
5345.000000;0.505796
5344.000000;0.507498
5343.000000;0.509275
5342.000000;0.510979
5341.000000;0.512562
5340.000000;0.514091
5339.000000;0.515679
5338.000000;0.517403
5337.000000;0.519245
5336.000000;0.521071
5335.000000;0.522761
5334.000000;0.524325
5333.000000;0.525854
5332.000000;0.527402
5331.000000;0.528966
5330.000000;0.530493
5329.000000;0.531868
5328.000000;0.532956
5327.000000;0.533734
5326.000000;0.534320
5325.000000;0.534777
5324.000000;0.535045
5323.000000;0.535189
5322.000000;0.535524
5321.000000;0.536207
5320.000000;0.536774
5319.000000;0.536385
5318.000000;0.534576
5317.000000;0.531622
5316.000000;0.528207
5315.000000;0.524899
5314.000000;0.521771
5313.000000;0.518302
5312.000000;0.513726
5311.000000;0.507627
5310.000000;0.499995
5309.000000;0.490652
5308.000000;0.479166
5307.000000;0.465723
5306.000000;0.451394
5305.000000;0.436965
5304.000000;0.422203
5303.000000;0.406620
5302.000000;0.390258
5301.000000;0.373606
5300.000000;0.357969
5299.000000;0.346835
5298.000000;0.345967
5297.000000;0.359841
5296.000000;0.386492
5295.000000;0.418951
5294.000000;0.454124
5293.000000;0.493868
5292.000000;0.536370
5291.000000;0.576186
5290.000000;0.612856
5289.000000;0.649680
5288.000000;0.685391
5287.000000;0.715968
5286.000000;0.742284
5285.000000;0.767315
5284.000000;0.789689
5283.000000;0.808640
5282.000000;0.829369
5281.000000;0.854105
5280.000000;0.874042
5279.000000;0.880661
5278.000000;0.879350
5277.000000;0.879741
5276.000000;0.881521
5275.000000;0.880725
5274.000000;0.881972
5273.000000;0.892719
5272.000000;0.910813
5271.000000;0.927294
5270.000000;0.938126
5269.000000;0.944549
5268.000000;0.946252
5267.000000;0.944492
5266.000000;0.946096
5265.000000;0.954407
5264.000000;0.961907
5263.000000;0.960909
5262.000000;0.955707
5261.000000;0.953218
5260.000000;0.950873
5259.000000;0.945066
5258.000000;0.942942
5257.000000;0.952793
5256.000000;0.968410
5255.000000;0.974283
5254.000000;0.966439
5253.000000;0.955982
5252.000000;0.952777
5251.000000;0.958538
5250.000000;0.971027
5249.000000;0.984335
5248.000000;0.988706
5247.000000;0.980788
5246.000000;0.970230
5245.000000;0.967116
5244.000000;0.969758
5243.000000;0.971594
5242.000000;0.973504
5241.000000;0.979361
5240.000000;0.984689
5239.000000;0.981022
5238.000000;0.969316
5237.000000;0.958206
5236.000000;0.951652
5235.000000;0.948540
5234.000000;0.949755
5233.000000;0.955702
5232.000000;0.960814
5231.000000;0.960068
5230.000000;0.957926
5229.000000;0.961640
5228.000000;0.969265
5227.000000;0.973012
5226.000000;0.971595
5225.000000;0.969063
5224.000000;0.964466
5223.000000;0.954338
5222.000000;0.942410
5221.000000;0.935421
5220.000000;0.933481
5219.000000;0.932741
5218.000000;0.933765
5217.000000;0.939666
5216.000000;0.947201
5215.000000;0.948620
5214.000000;0.943712
5213.000000;0.940992
5212.000000;0.945665
5211.000000;0.954660
5210.000000;0.963242
5209.000000;0.969692
5208.000000;0.972815
5207.000000;0.971038
5206.000000;0.965520
5205.000000;0.959482
5204.000000;0.954485
5203.000000;0.951286
5202.000000;0.952235
5201.000000;0.957589
5200.000000;0.961868
5199.000000;0.959643
5198.000000;0.952885
5197.000000;0.948130
5196.000000;0.948656
5195.000000;0.953562
5194.000000;0.962266
5193.000000;0.973775
5192.000000;0.982613
5191.000000;0.982175
5190.000000;0.972749
5189.000000;0.961002
5188.000000;0.952502
5187.000000;0.949765
5186.000000;0.954593
5185.000000;0.966229
5184.000000;0.978644
5183.000000;0.984727
5182.000000;0.983216
5181.000000;0.977397
5180.000000;0.968777
5179.000000;0.957954
5178.000000;0.948848
5177.000000;0.945519
5176.000000;0.946680
5175.000000;0.947585
5174.000000;0.946298
5173.000000;0.944787
5172.000000;0.945184
5171.000000;0.948755
5170.000000;0.956823
5169.000000;0.968705
5168.000000;0.979744
5167.000000;0.985013
5166.000000;0.984021
5165.000000;0.979487
5164.000000;0.974378
5163.000000;0.972077
5162.000000;0.975667
5161.000000;0.983244
5160.000000;0.986615
5159.000000;0.980110
5158.000000;0.968254
5157.000000;0.959261
5156.000000;0.956029
5155.000000;0.957516
5154.000000;0.962771
5153.000000;0.968927
5152.000000;0.970146
5151.000000;0.964552
5150.000000;0.958252
5149.000000;0.957091
5148.000000;0.958885
5147.000000;0.958490
5146.000000;0.956474
5145.000000;0.956243
5144.000000;0.957049
5143.000000;0.956484
5142.000000;0.954878
5141.000000;0.952669
5140.000000;0.948914
5139.000000;0.944872
5138.000000;0.944000
5137.000000;0.946456
5136.000000;0.947130
5135.000000;0.942184
5134.000000;0.934917
5133.000000;0.931319
5132.000000;0.933416
5131.000000;0.939782
5130.000000;0.948535
5129.000000;0.956745
5128.000000;0.960227
5127.000000;0.957442
5126.000000;0.951075
5125.000000;0.944182
5124.000000;0.938681
5123.000000;0.937512
5122.000000;0.942489
5121.000000;0.948904
5120.000000;0.948476
5119.000000;0.940858
5118.000000;0.935020
5117.000000;0.936458
5116.000000;0.940886
5115.000000;0.943162
5114.000000;0.945592
5113.000000;0.951585
5112.000000;0.957500
5111.000000;0.957855
5110.000000;0.954388
5109.000000;0.952604
5108.000000;0.953345
5107.000000;0.953961
5106.000000;0.954140
5105.000000;0.955185
5104.000000;0.955872
5103.000000;0.954434
5102.000000;0.953297
5101.000000;0.956174
5100.000000;0.961386
5099.000000;0.963408
5098.000000;0.960454
5097.000000;0.955268
5096.000000;0.949721
5095.000000;0.944378
5094.000000;0.941614
5093.000000;0.943834
5092.000000;0.949190
5091.000000;0.952906
5090.000000;0.952842
5089.000000;0.950783
5088.000000;0.949306
5087.000000;0.950922
5086.000000;0.957805
5085.000000;0.967887
5084.000000;0.973626
5083.000000;0.969685
5082.000000;0.959192
5081.000000;0.947824
5080.000000;0.937123
5079.000000;0.928103
5078.000000;0.925457
5077.000000;0.932045
5076.000000;0.942082
5075.000000;0.945649
5074.000000;0.940080
5073.000000;0.931445
5072.000000;0.925829
5071.000000;0.925710
5070.000000;0.932225
5069.000000;0.943219
5068.000000;0.951098
5067.000000;0.949872
5066.000000;0.942640
5065.000000;0.936481
5064.000000;0.932839
5063.000000;0.928658
5062.000000;0.924743
5061.000000;0.925901
5060.000000;0.933057
5059.000000;0.941280
5058.000000;0.945612
5057.000000;0.944069
5056.000000;0.936479
5055.000000;0.925919
5054.000000;0.918997
5053.000000;0.919831
5052.000000;0.925593
5051.000000;0.930882
5050.000000;0.933936
5049.000000;0.934487
5048.000000;0.929092
5047.000000;0.916464
5046.000000;0.904464
5045.000000;0.902596
5044.000000;0.911254
5043.000000;0.923133
5042.000000;0.931684
5041.000000;0.934246
5040.000000;0.928702
5039.000000;0.914211
5038.000000;0.896147
5037.000000;0.883057
5036.000000;0.878813
5035.000000;0.881619
5034.000000;0.887773
5033.000000;0.893442
5032.000000;0.894078
5031.000000;0.886078
5030.000000;0.872068
5029.000000;0.861331
5028.000000;0.861731
5027.000000;0.872575
5026.000000;0.884817
5025.000000;0.887158
5024.000000;0.875026
5023.000000;0.855276
5022.000000;0.840007
5021.000000;0.836089
5020.000000;0.840996
5019.000000;0.847245
5018.000000;0.849120
5017.000000;0.844833
5016.000000;0.834967
5015.000000;0.822084
5014.000000;0.811243
5013.000000;0.806812
5012.000000;0.808177
5011.000000;0.810645
5010.000000;0.810261
5009.000000;0.806295
5008.000000;0.799810
5007.000000;0.792293
5006.000000;0.786082
5005.000000;0.783223
5004.000000;0.782740
5003.000000;0.781125
5002.000000;0.776124
5001.000000;0.768583
5000.000000;0.760633
4999.000000;0.753782
4998.000000;0.748628
4997.000000;0.744798
4996.000000;0.741318
4995.000000;0.737872
4994.000000;0.735010
4993.000000;0.732679
4992.000000;0.729467
4991.000000;0.724231
4990.000000;0.718003
4989.000000;0.712893
4988.000000;0.709661
4987.000000;0.707462
4986.000000;0.704923
4985.000000;0.700543
4984.000000;0.693188
4983.000000;0.683172
4982.000000;0.671950
4981.000000;0.660300
4980.000000;0.648422
4979.000000;0.638204
4978.000000;0.632960
4977.000000;0.633507
4976.000000;0.636016
4975.000000;0.635317
4974.000000;0.629471
4973.000000;0.619762
4972.000000;0.608181
4971.000000;0.596969
4970.000000;0.588714
4969.000000;0.584591
4968.000000;0.583039
4967.000000;0.581117
4966.000000;0.576356
4965.000000;0.567012
4964.000000;0.552883
4963.000000;0.537131
4962.000000;0.525229
4961.000000;0.520435
4960.000000;0.520796
4959.000000;0.521108
4958.000000;0.517023
4957.000000;0.506970
4956.000000;0.492642
4955.000000;0.479051
4954.000000;0.471483
4953.000000;0.470264
4952.000000;0.469483
4951.000000;0.462767
4950.000000;0.449897
4949.000000;0.435952
4948.000000;0.425706
4947.000000;0.420839
4946.000000;0.420166
4945.000000;0.419806
4944.000000;0.414903
4943.000000;0.404150
4942.000000;0.391590
4941.000000;0.381865
4940.000000;0.375385
4939.000000;0.369831
4938.000000;0.364224
4937.000000;0.358985
4936.000000;0.353394
4935.000000;0.345710
4934.000000;0.335567
4933.000000;0.324574
4932.000000;0.314724
4931.000000;0.307170
4930.000000;0.301863
4929.000000;0.297182
4928.000000;0.290621
4927.000000;0.281124
4926.000000;0.270127
4925.000000;0.259490
4924.000000;0.249550
4923.000000;0.240151
4922.000000;0.232252
4921.000000;0.226811
4920.000000;0.222810
4919.000000;0.218014
4918.000000;0.211239
4917.000000;0.202768
4916.000000;0.193226
4915.000000;0.183079
4914.000000;0.172713
4913.000000;0.162170
4912.000000;0.151286
4911.000000;0.140767
4910.000000;0.132291
4909.000000;0.126458
4908.000000;0.121430
4907.000000;0.114912
4906.000000;0.106852
4905.000000;0.098787
4904.000000;0.091348
4903.000000;0.083960
4902.000000;0.076316
4901.000000;0.068682
4900.000000;0.060933
4899.000000;0.052605
4898.000000;0.043980
4897.000000;0.036074
4896.000000;0.029404
4895.000000;0.023527
4894.000000;0.017741
4893.000000;0.011513
4892.000000;0.004461
4891.000000;-0.003258
4890.000000;-0.010628
4889.000000;-0.016530
4888.000000;-0.020756
4887.000000;-0.023832
4886.000000;-0.026242
4885.000000;-0.028510
4884.000000;-0.031631
4883.000000;-0.036391
4882.000000;-0.042252
4881.000000;-0.047675
4880.000000;-0.051647
4879.000000;-0.054349
4878.000000;-0.056436
4877.000000;-0.058432
4876.000000;-0.061008
4875.000000;-0.064947
4874.000000;-0.070144
4873.000000;-0.075126
4872.000000;-0.078286
4871.000000;-0.079501
4870.000000;-0.080010
4869.000000;-0.080750
4868.000000;-0.081361
4867.000000;-0.081063
4866.000000;-0.080000
4865.000000;-0.079299
4864.000000;-0.080036
4863.000000;-0.082187
4862.000000;-0.084455
4861.000000;-0.085189
4860.000000;-0.083701
4859.000000;-0.080902
4858.000000;-0.078485
4857.000000;-0.077290
4856.000000;-0.076589
4855.000000;-0.075065
4854.000000;-0.072289
4853.000000;-0.069043
4852.000000;-0.066275
4851.000000;-0.064003
4850.000000;-0.061445
4849.000000;-0.058186
4848.000000;-0.054889
4847.000000;-0.052478
4846.000000;-0.050838
4845.000000;-0.048900
4844.000000;-0.046079
4843.000000;-0.042975
4842.000000;-0.040342
4841.000000;-0.037953
4840.000000;-0.035037
4839.000000;-0.031382
4838.000000;-0.027420
4837.000000;-0.023526
4836.000000;-0.019904
4835.000000;-0.016904
4834.000000;-0.014759
4833.000000;-0.013033
4832.000000;-0.010933
4831.000000;-0.008218
4830.000000;-0.005240
4829.000000;-0.002129
4828.000000;0.001402
4827.000000;0.005313
4826.000000;0.008913
4825.000000;0.011600
4824.000000;0.013552
4823.000000;0.015451
4822.000000;0.017898
4821.000000;0.021230
4820.000000;0.025481
4819.000000;0.030155
4818.000000;0.034331
4817.000000;0.037418
4816.000000;0.039747
4815.000000;0.042274
4814.000000;0.045715
4813.000000;0.049980
4812.000000;0.054310
4811.000000;0.057877
4810.000000;0.060408
4809.000000;0.062371
4808.000000;0.064586
4807.000000;0.067565
4806.000000;0.071161
4805.000000;0.074764
4804.000000;0.077825
4803.000000;0.080266
4802.000000;0.082454
4801.000000;0.084866
4800.000000;0.087716
4799.000000;0.090865
4798.000000;0.093970
4797.000000;0.096636
4796.000000;0.098596
4795.000000;0.100014
4794.000000;0.101615
4793.000000;0.104202
4792.000000;0.107850
4791.000000;0.111730
4790.000000;0.114885
4789.000000;0.117060
4788.000000;0.118699
4787.000000;0.120376
4786.000000;0.122436
4785.000000;0.124976
4784.000000;0.127841
4783.000000;0.130677
4782.000000;0.133196
4781.000000;0.135422
4780.000000;0.137586
4779.000000;0.139854
4778.000000;0.142244
4777.000000;0.144696
4776.000000;0.147063
4775.000000;0.149132
4774.000000;0.150837
4773.000000;0.152448
4772.000000;0.154406
4771.000000;0.156932
4770.000000;0.159829
4769.000000;0.162628
4768.000000;0.164911
4767.000000;0.166557
4766.000000;0.167775
4765.000000;0.168900
4764.000000;0.170177
4763.000000;0.171752
4762.000000;0.173740
4761.000000;0.176119
4760.000000;0.178619
4759.000000;0.180943
4758.000000;0.183084
4757.000000;0.185230
4756.000000;0.187386
4755.000000;0.189378
4754.000000;0.191248
4753.000000;0.193280
4752.000000;0.195509
4751.000000;0.197523
4750.000000;0.198975
4749.000000;0.200032
4748.000000;0.201125
4747.000000;0.202467
4746.000000;0.204011
4745.000000;0.205665
4744.000000;0.207325
4743.000000;0.208891
4742.000000;0.210475
4741.000000;0.212392
4740.000000;0.214694
4739.000000;0.216907
4738.000000;0.218550
4737.000000;0.219761
4736.000000;0.221115
4735.000000;0.222885
4734.000000;0.224816
4733.000000;0.226547
4732.000000;0.227956
4731.000000;0.229080
4730.000000;0.230031
4729.000000;0.231050
4728.000000;0.232389
4727.000000;0.234022
4726.000000;0.235632
4725.000000;0.236949
4724.000000;0.237984
4723.000000;0.238923
4722.000000;0.239943
4721.000000;0.241162
4720.000000;0.242604
4719.000000;0.244138
4718.000000;0.245540
4717.000000;0.246713
4716.000000;0.247793
4715.000000;0.249008
4714.000000;0.250461
4713.000000;0.252060
4712.000000;0.253577
4711.000000;0.254806
4710.000000;0.255708
4709.000000;0.256416
4708.000000;0.257093
4707.000000;0.257823
4706.000000;0.258665
4705.000000;0.259708
4704.000000;0.260954
4703.000000;0.262261
4702.000000;0.263492
4701.000000;0.264679
4700.000000;0.265947
4699.000000;0.267305
4698.000000;0.268641
4697.000000;0.269845
4696.000000;0.270859
4695.000000;0.271664
4694.000000;0.272355
4693.000000;0.273160
4692.000000;0.274250
4691.000000;0.275545
4690.000000;0.276802
4689.000000;0.277864
4688.000000;0.278731
4687.000000;0.279473
4686.000000;0.280221
4685.000000;0.281167
4684.000000;0.282384
4683.000000;0.283648
4682.000000;0.284606
4681.000000;0.285150
4680.000000;0.285504
4679.000000;0.285946
4678.000000;0.286596
4677.000000;0.287485
4676.000000;0.288635
4675.000000;0.289956
4674.000000;0.291212
4673.000000;0.292203
4672.000000;0.292944
4671.000000;0.293633
4670.000000;0.294461
4669.000000;0.295471
4668.000000;0.296526
4667.000000;0.297395
4666.000000;0.297944
4665.000000;0.298293
4664.000000;0.298715
4663.000000;0.299380
4662.000000;0.300257
4661.000000;0.301238
4660.000000;0.302244
4659.000000;0.303186
4658.000000;0.303942
4657.000000;0.304477
4656.000000;0.304903
4655.000000;0.305368
4654.000000;0.305929
4653.000000;0.306590
4652.000000;0.307379
4651.000000;0.308293
4650.000000;0.309213
4649.000000;0.309967
4648.000000;0.310510
4647.000000;0.310973
4646.000000;0.311527
4645.000000;0.312226
4644.000000;0.312981
4643.000000;0.313658
4642.000000;0.314212
4641.000000;0.314746
4640.000000;0.315446
4639.000000;0.316405
4638.000000;0.317490
4637.000000;0.318404
4636.000000;0.318929
4635.000000;0.319121
4634.000000;0.319260
4633.000000;0.319635
4632.000000;0.320358
4631.000000;0.321343
4630.000000;0.322387
4629.000000;0.323262
4628.000000;0.323803
4627.000000;0.323996
4626.000000;0.323990
4625.000000;0.323993
4624.000000;0.324177
4623.000000;0.324637
4622.000000;0.325370
4621.000000;0.326209
4620.000000;0.326855
4619.000000;0.327132
4618.000000;0.327226
4617.000000;0.327553
4616.000000;0.328322
4615.000000;0.329311
4614.000000;0.330128
4613.000000;0.330606
4612.000000;0.330866
4611.000000;0.331087
4610.000000;0.331347
4609.000000;0.331675
4608.000000;0.332119
4607.000000;0.332676
4606.000000;0.333215
4605.000000;0.333562
4604.000000;0.333665
4603.000000;0.333688
4602.000000;0.333891
4601.000000;0.334410
4600.000000;0.335145
4599.000000;0.335864
4598.000000;0.336403
4597.000000;0.336744
4596.000000;0.336943
4595.000000;0.337074
4594.000000;0.337264
4593.000000;0.337683
4592.000000;0.338394
4591.000000;0.339223
4590.000000;0.339852
4589.000000;0.340087
4588.000000;0.340037
4587.000000;0.340048
4586.000000;0.340419
4585.000000;0.341140
4584.000000;0.341862
4583.000000;0.342207
4582.000000;0.342132
4581.000000;0.341963
4580.000000;0.342056
4579.000000;0.342494
4578.000000;0.343108
4577.000000;0.343700
4576.000000;0.344141
4575.000000;0.344352
4574.000000;0.344317
4573.000000;0.344159
4572.000000;0.344125
4571.000000;0.344430
4570.000000;0.345101
4569.000000;0.345939
4568.000000;0.346631
4567.000000;0.346942
4566.000000;0.346869
4565.000000;0.346638
4564.000000;0.346532
4563.000000;0.346723
4562.000000;0.347223
4561.000000;0.347906
4560.000000;0.348549
4559.000000;0.348921
4558.000000;0.348942
4557.000000;0.348754
4556.000000;0.348609
4555.000000;0.348663
4554.000000;0.348889
4553.000000;0.349189
4552.000000;0.349528
4551.000000;0.349938
4550.000000;0.350403
4549.000000;0.350784
4548.000000;0.350932
4547.000000;0.350863
4546.000000;0.350770
4545.000000;0.350813
4544.000000;0.350971
4543.000000;0.351142
4542.000000;0.351338
4541.000000;0.351649
4540.000000;0.352022
4539.000000;0.352231
4538.000000;0.352134
4537.000000;0.351867
4536.000000;0.351709
4535.000000;0.351817
4534.000000;0.352130
4533.000000;0.352465
4532.000000;0.352621
4531.000000;0.352476
4530.000000;0.352101
4529.000000;0.351771
4528.000000;0.351792
4527.000000;0.352266
4526.000000;0.352995
4525.000000;0.353595
4524.000000;0.353730
4523.000000;0.353364
4522.000000;0.352826
4521.000000;0.352584
4520.000000;0.352871
4519.000000;0.353506
4518.000000;0.354076
4517.000000;0.354274
4516.000000;0.354071
4515.000000;0.353682
4514.000000;0.353393
4513.000000;0.353384
4512.000000;0.353632
4511.000000;0.353974
4510.000000;0.354274
4509.000000;0.354496
4508.000000;0.354633
4507.000000;0.354688
4506.000000;0.354748
4505.000000;0.354971
4504.000000;0.355386
4503.000000;0.355798
4502.000000;0.355948
4501.000000;0.355747
4500.000000;0.355329
4499.000000;0.354956
4498.000000;0.354911
4497.000000;0.355349
4496.000000;0.356103
4495.000000;0.356725
4494.000000;0.356865
4493.000000;0.356602
4492.000000;0.356329
4491.000000;0.356342
4490.000000;0.356609
4489.000000;0.356884
4488.000000;0.356936
4487.000000;0.356709
4486.000000;0.356387
4485.000000;0.356275
4484.000000;0.356501
4483.000000;0.356862
4482.000000;0.357052
4481.000000;0.357011
4480.000000;0.356919
4479.000000;0.356890
4478.000000;0.356855
4477.000000;0.356749
4476.000000;0.356647
4475.000000;0.356626
4474.000000;0.356638
4473.000000;0.356633
4472.000000;0.356692
4471.000000;0.356911
4470.000000;0.357217
4469.000000;0.357448
4468.000000;0.357590
4467.000000;0.357797
4466.000000;0.358111
4465.000000;0.358298
4464.000000;0.358062
4463.000000;0.357432
4462.000000;0.356830
4461.000000;0.356675
4460.000000;0.356962
4459.000000;0.357271
4458.000000;0.357235
4457.000000;0.356924
4456.000000;0.356735
4455.000000;0.356915
4454.000000;0.357263
4453.000000;0.357351
4452.000000;0.357021
4451.000000;0.356609
4450.000000;0.356620
4449.000000;0.357184
4448.000000;0.357906
4447.000000;0.358278
4446.000000;0.358181
4445.000000;0.357899
4444.000000;0.357717
4443.000000;0.357673
4442.000000;0.357689
4441.000000;0.357740
4440.000000;0.357782
4439.000000;0.357652
4438.000000;0.357210
4437.000000;0.356570
4436.000000;0.356077
4435.000000;0.356036
4434.000000;0.356495
4433.000000;0.357238
4432.000000;0.357947
4431.000000;0.358415
4430.000000;0.358646
4429.000000;0.358712
4428.000000;0.358511
4427.000000;0.357829
4426.000000;0.356771
4425.000000;0.355934
4424.000000;0.355885
4423.000000;0.356490
4422.000000;0.357011
4421.000000;0.356951
4420.000000;0.356539
4419.000000;0.356286
4418.000000;0.356310
4417.000000;0.356395
4416.000000;0.356499
4415.000000;0.356839
4414.000000;0.357401
4413.000000;0.357717
4412.000000;0.357355
4411.000000;0.356475
4410.000000;0.355682
4409.000000;0.355395
4408.000000;0.355521
4407.000000;0.355680
4406.000000;0.355556
4405.000000;0.355053
4404.000000;0.354311
4403.000000;0.353652
4402.000000;0.353351
4401.000000;0.353381
4400.000000;0.353470
4399.000000;0.353412
4398.000000;0.353188
4397.000000;0.352787
4396.000000;0.352139
4395.000000;0.351326
4394.000000;0.350618
4393.000000;0.350142
4392.000000;0.349707
4391.000000;0.349142
4390.000000;0.348594
4389.000000;0.348229
4388.000000;0.347861
4387.000000;0.347209
4386.000000;0.346373
4385.000000;0.345674
4384.000000;0.345110
4383.000000;0.344419
4382.000000;0.343663
4381.000000;0.343247
4380.000000;0.343217
4379.000000;0.343011
4378.000000;0.342118
4377.000000;0.340634
4376.000000;0.338926
4375.000000;0.337109
4374.000000;0.335213
4373.000000;0.333592
4372.000000;0.332688
4371.000000;0.332430
4370.000000;0.332183
4369.000000;0.331353
4368.000000;0.329915
4367.000000;0.328405
4366.000000;0.327504
4365.000000;0.327447
4364.000000;0.327654
4363.000000;0.327091
4362.000000;0.325262
4361.000000;0.322778
4360.000000;0.320737
4359.000000;0.319647
4358.000000;0.319178
4357.000000;0.318805
4356.000000;0.318351
4355.000000;0.317877
4354.000000;0.317330
4353.000000;0.316468
4352.000000;0.315088
4351.000000;0.313324
4350.000000;0.311724
4349.000000;0.310879
4348.000000;0.310824
4347.000000;0.310906
4346.000000;0.310408
4345.000000;0.309174
4344.000000;0.307498
4343.000000;0.305670
4342.000000;0.303928
4341.000000;0.302650
4340.000000;0.302082
4339.000000;0.301846
4338.000000;0.301113
4337.000000;0.299465
4336.000000;0.297339
4335.000000;0.295457
4334.000000;0.294040
4333.000000;0.292752
4332.000000;0.291210
4331.000000;0.289348
4330.000000;0.287383
4329.000000;0.285613
4328.000000;0.284230
4327.000000;0.283211
4326.000000;0.282342
4325.000000;0.281364
4324.000000;0.280114
4323.000000;0.278619
4322.000000;0.277094
4321.000000;0.275793
4320.000000;0.274786
4319.000000;0.273863
4318.000000;0.272728
4317.000000;0.271245
4316.000000;0.269494
4315.000000;0.267710
4314.000000;0.266238
4313.000000;0.265342
4312.000000;0.264804
4311.000000;0.263832
4310.000000;0.261702
4309.000000;0.258634
4308.000000;0.255890
4307.000000;0.254867
4306.000000;0.255958
4305.000000;0.258136
4304.000000;0.259682
4303.000000;0.259517
4302.000000;0.257890
4301.000000;0.255740
4300.000000;0.253677
4299.000000;0.251791
4298.000000;0.250178
4297.000000;0.249074
4296.000000;0.248293
4295.000000;0.247148
4294.000000;0.245489
4293.000000;0.244481
4292.000000;0.245698
4291.000000;0.249311
4290.000000;0.253585
4289.000000;0.256361
4288.000000;0.256854
4287.000000;0.256074
4286.000000;0.255733
4285.000000;0.256803
4284.000000;0.258920
4283.000000;0.261001
4282.000000;0.262404
4281.000000;0.263501
4280.000000;0.265132
4279.000000;0.267561
4278.000000;0.270145
4277.000000;0.272252
4276.000000;0.274380
4275.000000;0.277864
4274.000000;0.283182
4273.000000;0.288876
4272.000000;0.292842
4271.000000;0.294877
4270.000000;0.297228
4269.000000;0.302233
4268.000000;0.309932
4267.000000;0.318174
4266.000000;0.324637
4265.000000;0.328640
4264.000000;0.331367
4263.000000;0.334796
4262.000000;0.340143
4261.000000;0.346862
4260.000000;0.353491
4259.000000;0.359843
4258.000000;0.367594
4257.000000;0.377996
4256.000000;0.389864
4255.000000;0.400869
4254.000000;0.410060
4253.000000;0.417817
4252.000000;0.424295
4251.000000;0.429897
4250.000000;0.436718
4249.000000;0.447196
4248.000000;0.460573
4247.000000;0.472211
4246.000000;0.478103
4245.000000;0.479095
4244.000000;0.479911
4243.000000;0.485764
4242.000000;0.498948
4241.000000;0.516608
4240.000000;0.531684
4239.000000;0.539055
4238.000000;0.541540
4237.000000;0.546619
4236.000000;0.557916
4235.000000;0.572476
4234.000000;0.585518
4233.000000;0.595615
4232.000000;0.604249
4231.000000;0.612751
4230.000000;0.621704
4229.000000;0.631959
4228.000000;0.644212
4227.000000;0.657792
4226.000000;0.670713
4225.000000;0.680736
4224.000000;0.687067
4223.000000;0.692349
4222.000000;0.701786
4221.000000;0.717942
4220.000000;0.736367
4219.000000;0.748954
4218.000000;0.753806
4217.000000;0.758325
4216.000000;0.770190
4215.000000;0.789036
4214.000000;0.807434
4213.000000;0.818764
4212.000000;0.823411
4211.000000;0.826965
4210.000000;0.834830
4209.000000;0.849162
4208.000000;0.868512
4207.000000;0.888836
4206.000000;0.905207
4205.000000;0.913950
4204.000000;0.914635
4203.000000;0.911472
4202.000000;0.912275
4201.000000;0.923319
4200.000000;0.943392
4199.000000;0.963293
4198.000000;0.973979
4197.000000;0.975651
4196.000000;0.975900
4195.000000;0.982337
4194.000000;0.998703
4193.000000;1.022807
4192.000000;1.045853
4191.000000;1.057931
4190.000000;1.058324
4189.000000;1.055971
4188.000000;1.058520
4187.000000;1.068015
4186.000000;1.085815
4185.000000;1.113922
4184.000000;1.148259
4183.000000;1.175009
4182.000000;1.182934
4181.000000;1.178881
4180.000000;1.178359
4179.000000;1.187217
4178.000000;1.200344
4177.000000;1.211370
4176.000000;1.217690
4175.000000;1.218380
4174.000000;1.215920
4173.000000;1.217040
4172.000000;1.226014
4171.000000;1.241106
4170.000000;1.258051
4169.000000;1.272002
4168.000000;1.276386
4167.000000;1.267455
4166.000000;1.250868
4165.000000;1.238238
4164.000000;1.236485
4163.000000;1.245315
4162.000000;1.264147
4161.000000;1.294365
4160.000000;1.331088
4159.000000;1.357846
4158.000000;1.362317
4157.000000;1.356967
4156.000000;1.365172
4155.000000;1.393368
4154.000000;1.424663
4153.000000;1.435778
4152.000000;1.421891
4151.000000;1.399936
4150.000000;1.391305
4149.000000;1.405427
4148.000000;1.432994
4147.000000;1.453413
4146.000000;1.456649
4145.000000;1.455249
4144.000000;1.466254
4143.000000;1.487269
4142.000000;1.499139
4141.000000;1.499141
4140.000000;1.506452
4139.000000;1.532517
4138.000000;1.569980
4137.000000;1.604736
4136.000000;1.627697
4135.000000;1.624847
4134.000000;1.589631
4133.000000;1.546445
4132.000000;1.529248
4131.000000;1.553509
4130.000000;1.606080
4129.000000;1.654134
4128.000000;1.681192
4127.000000;1.700210
4126.000000;1.717522
4125.000000;1.717930
4124.000000;1.691719
4123.000000;1.658818
4122.000000;1.649478
4121.000000;1.678257
4120.000000;1.740005
4119.000000;1.811682
4118.000000;1.859726
4117.000000;1.868418
4116.000000;1.864397
4115.000000;1.879921
4114.000000;1.895192
4113.000000;1.873170
4112.000000;1.842393
4111.000000;1.840924
4110.000000;1.887937
4109.000000;1.985966
4108.000000;2.045802
4107.000000;1.984828
4106.000000;1.930608
4105.000000;1.943452
4104.000000;1.992988
4103.000000;2.072338
4102.000000;2.110322
4101.000000;1.991961
4100.000000;1.882877
4099.000000;1.868464
4098.000000;1.927100
4097.000000;2.000830
4096.000000;2.011183
4095.000000;2.001511
4094.000000;2.046785
4093.000000;2.151290
4092.000000;2.251265
4091.000000;2.261111
4090.000000;2.204265
4089.000000;2.116912
4088.000000;1.998327
4087.000000;1.893863
4086.000000;1.847435
4085.000000;1.880353
4084.000000;2.001232
4083.000000;2.141399
4082.000000;2.091381
4081.000000;1.933597
4080.000000;1.836501
4079.000000;1.824723
4078.000000;1.873857
4077.000000;1.955246
4076.000000;2.077626
4075.000000;2.371940
4074.000000;2.532653
4073.000000;2.202566
4072.000000;2.008877
4071.000000;1.912577
4070.000000;1.883238
4069.000000;1.917696
4068.000000;1.986268
4067.000000;2.001781
4066.000000;1.939016
4065.000000;1.869077
4064.000000;1.828244
4063.000000;1.829688
4062.000000;1.893386
4061.000000;2.044014
4060.000000;2.274549
4059.000000;2.386217
4058.000000;2.234454
4057.000000;2.112324
4056.000000;2.095755
4055.000000;2.172890
4054.000000;2.317062
4053.000000;2.696099
4052.000000;2.514366
4051.000000;2.075530
4050.000000;1.966867
4049.000000;1.983769
4048.000000;2.086931
4047.000000;2.198882
4046.000000;2.318082
4045.000000;2.428626
4044.000000;2.271642
4043.000000;2.046835
4042.000000;1.919804
4041.000000;1.879548
4040.000000;1.900680
4039.000000;1.943451
4038.000000;1.974695
4037.000000;1.994335
4036.000000;2.012519
4035.000000;2.032378
4034.000000;2.069546
4033.000000;2.113603
4032.000000;2.109116
4031.000000;2.047320
4030.000000;1.984548
4029.000000;1.963616
4028.000000;1.994440
4027.000000;2.074416
4026.000000;2.193173
4025.000000;2.283828
4024.000000;2.225002
4023.000000;2.113717
4022.000000;2.072322
4021.000000;2.076988
4020.000000;2.091861
4019.000000;2.181753
4018.000000;2.540393
4017.000000;2.507149
4016.000000;2.268246
4015.000000;2.285829
4014.000000;2.432563
4013.000000;2.778831
4012.000000;2.998756
4011.000000;2.422893
4010.000000;2.220480
4009.000000;2.277528
4008.000000;2.671171
4007.000000;2.591691
4006.000000;2.281895
4005.000000;2.153206
4004.000000;2.043825
4003.000000;1.977448
4002.000000;1.988871
4001.000000;2.142433
4000.000000;2.402484
3999.000000;2.227310
3998.000000;2.021617
3997.000000;2.014924
3996.000000;2.319145
3995.000000;2.547368
3994.000000;2.246380
3993.000000;2.416196
3992.000000;2.427161
3991.000000;2.141572
3990.000000;2.091019
3989.000000;2.206358
3988.000000;2.330197
3987.000000;2.384395
3986.000000;2.479293
3985.000000;2.675801
3984.000000;2.429772
3983.000000;2.138009
3982.000000;2.054558
3981.000000;2.257188
3980.000000;3.058757
3979.000000;2.280030
3978.000000;2.181885
3977.000000;2.344716
3976.000000;2.386231
3975.000000;2.158697
3974.000000;2.123782
3973.000000;2.309984
3972.000000;2.662195
3971.000000;2.562064
3970.000000;2.238359
3969.000000;2.068707
3968.000000;2.091792
3967.000000;2.260109
3966.000000;2.194673
3965.000000;2.099816
3964.000000;2.268375
3963.000000;2.822368
3962.000000;2.886728
3961.000000;2.814075
3960.000000;2.540446
3959.000000;2.568895
3958.000000;2.932430
3957.000000;2.387868
3956.000000;2.280607
3955.000000;2.451213
3954.000000;2.676194
3953.000000;2.491585
3952.000000;2.239562
3951.000000;2.141942
3950.000000;2.174182
3949.000000;2.276913
3948.000000;2.357656
3947.000000;2.386921
3946.000000;2.392267
3945.000000;2.332068
3944.000000;2.256688
3943.000000;2.312066
3942.000000;2.316850
3941.000000;2.211010
3940.000000;2.245100
3939.000000;2.532958
3938.000000;2.969800
3937.000000;2.761292
3936.000000;2.849815
3935.000000;3.399627
3934.000000;2.812559
3933.000000;2.425758
3932.000000;2.227134
3931.000000;2.127207
3930.000000;2.112587
3929.000000;2.153097
3928.000000;2.213908
3927.000000;2.234086
3926.000000;2.209812
3925.000000;2.265243
3924.000000;2.385335
3923.000000;2.407209
3922.000000;2.415533
3921.000000;2.471204
3920.000000;2.576799
3919.000000;2.668533
3918.000000;2.595099
3917.000000;2.529868
3916.000000;2.522264
3915.000000;2.471279
3914.000000;2.404597
3913.000000;2.413076
3912.000000;2.525329
3911.000000;2.478621
3910.000000;2.353961
3909.000000;2.443252
3908.000000;2.501989
3907.000000;2.266038
3906.000000;2.143342
3905.000000;2.201421
3904.000000;2.379261
3903.000000;2.643261
3902.000000;2.903820
3901.000000;2.688247
3900.000000;2.696851
3899.000000;2.493432
3898.000000;2.183977
3897.000000;2.118592
3896.000000;2.187681
3895.000000;2.279002
3894.000000;2.334299
3893.000000;2.555251
3892.000000;2.738376
3891.000000;2.371079
3890.000000;2.218321
3889.000000;2.176965
3888.000000;2.228046
3887.000000;2.332835
3886.000000;2.382407
3885.000000;2.836321
3884.000000;2.551843
3883.000000;2.201357
3882.000000;2.195203
3881.000000;2.325439
3880.000000;2.842432
3879.000000;2.932775
3878.000000;2.597907
3877.000000;2.499398
3876.000000;2.402892
3875.000000;2.249707
3874.000000;2.162494
3873.000000;2.259117
3872.000000;2.527559
3871.000000;2.964610
3870.000000;2.916891
3869.000000;2.477205
3868.000000;2.337175
3867.000000;2.376581
3866.000000;2.520557
3865.000000;2.741749
3864.000000;2.682298
3863.000000;2.481374
3862.000000;2.455930
3861.000000;2.501140
3860.000000;2.537060
3859.000000;2.536552
3858.000000;2.453142
3857.000000;2.329459
3856.000000;2.272153
3855.000000;2.266477
3854.000000;2.199580
3853.000000;2.120806
3852.000000;2.142913
3851.000000;2.227097
3850.000000;2.217219
3849.000000;2.115595
3848.000000;2.076444
3847.000000;2.183789
3846.000000;2.315948
3845.000000;2.257876
3844.000000;2.152810
3843.000000;2.069064
3842.000000;2.054982
3841.000000;2.144956
3840.000000;2.465398
3839.000000;2.644841
3838.000000;2.339207
3837.000000;2.345877
3836.000000;2.287537
3835.000000;2.128060
3834.000000;2.080784
3833.000000;2.221209
3832.000000;2.201393
3831.000000;2.009431
3830.000000;2.032239
3829.000000;2.161558
3828.000000;2.150271
3827.000000;2.133776
3826.000000;2.334754
3825.000000;2.346662
3824.000000;2.149240
3823.000000;2.082289
3822.000000;2.127653
3821.000000;2.276133
3820.000000;2.358220
3819.000000;2.531069
3818.000000;3.072402
3817.000000;2.663766
3816.000000;2.510796
3815.000000;2.814466
3814.000000;2.800040
3813.000000;2.553980
3812.000000;2.456532
3811.000000;2.546731
3810.000000;2.513517
3809.000000;2.186591
3808.000000;2.054244
3807.000000;2.114380
3806.000000;2.350969
3805.000000;2.427430
3804.000000;2.437705
3803.000000;2.936017
3802.000000;2.511368
3801.000000;2.248283
3800.000000;2.314918
3799.000000;2.344864
3798.000000;2.408387
3797.000000;2.602741
3796.000000;2.884285
3795.000000;2.686937
3794.000000;2.493939
3793.000000;2.392870
3792.000000;2.349757
3791.000000;2.347114
3790.000000;2.314782
3789.000000;2.252625
3788.000000;2.294604
3787.000000;2.440871
3786.000000;2.354537
3785.000000;2.228589
3784.000000;2.343959
3783.000000;2.633855
3782.000000;2.577249
3781.000000;2.410607
3780.000000;2.370783
3779.000000;2.311984
3778.000000;2.305160
3777.000000;2.353489
3776.000000;2.351771
3775.000000;2.267886
3774.000000;2.301120
3773.000000;2.725964
3772.000000;2.654682
3771.000000;2.314998
3770.000000;2.243732
3769.000000;2.302194
3768.000000;2.596985
3767.000000;2.852504
3766.000000;2.504599
3765.000000;2.370399
3764.000000;2.315497
3763.000000;2.212341
3762.000000;2.150007
3761.000000;2.230219
3760.000000;2.612772
3759.000000;2.616837
3758.000000;2.357211
3757.000000;2.692166
3756.000000;2.983050
3755.000000;2.379863
3754.000000;2.192563
3753.000000;2.159559
3752.000000;2.165528
3751.000000;2.171923
3750.000000;2.273914
3749.000000;2.439926
3748.000000;2.385824
3747.000000;2.271502
3746.000000;2.267677
3745.000000;2.340535
3744.000000;2.292525
3743.000000;2.302845
3742.000000;2.482832
3741.000000;2.443142
3740.000000;2.288426
3739.000000;2.294419
3738.000000;2.569971
3737.000000;2.919291
3736.000000;2.573691
3735.000000;2.436918
3734.000000;2.487820
3733.000000;2.678289
3732.000000;2.812016
3731.000000;2.545394
3730.000000;2.381298
3729.000000;2.435360
3728.000000;2.532937
3727.000000;2.394674
3726.000000;2.358919
3725.000000;2.477759
3724.000000;2.375359
3723.000000;2.229666
3722.000000;2.226552
3721.000000;2.398149
3720.000000;2.645295
3719.000000;2.520119
3718.000000;2.327568
3717.000000;2.260502
3716.000000;2.277122
3715.000000;2.370602
3714.000000;2.443193
3713.000000;2.364020
3712.000000;2.277153
3711.000000;2.436933
3710.000000;2.722482
3709.000000;2.460434
3708.000000;2.296669
3707.000000;2.226691
3706.000000;2.235848
3705.000000;2.332298
3704.000000;2.240131
3703.000000;2.044035
3702.000000;1.992407
3701.000000;2.053333
3700.000000;2.123284
3699.000000;2.108775
3698.000000;2.157488
3697.000000;2.283588
3696.000000;2.129243
3695.000000;1.973866
3694.000000;2.089238
3693.000000;2.593854
3692.000000;2.512030
3691.000000;2.180023
3690.000000;2.046106
3689.000000;1.987031
3688.000000;2.087481
3687.000000;2.236497
3686.000000;2.413678
3685.000000;2.899840
3684.000000;2.454317
3683.000000;2.137638
3682.000000;2.147098
3681.000000;2.186813
3680.000000;2.152966
3679.000000;2.232746
3678.000000;2.539882
3677.000000;2.575466
3676.000000;2.313069
3675.000000;2.104863
3674.000000;2.013376
3673.000000;2.019683
3672.000000;1.989555
3671.000000;1.994591
3670.000000;2.222559
3669.000000;2.692535
3668.000000;3.043911
3667.000000;2.892453
3666.000000;2.534445
3665.000000;2.442879
3664.000000;2.351783
3663.000000;2.210154
3662.000000;2.167313
3661.000000;2.340194
3660.000000;2.959819
3659.000000;2.634610
3658.000000;2.259319
3657.000000;2.097649
3656.000000;2.023984
3655.000000;2.079232
3654.000000;2.204606
3653.000000;2.424098
3652.000000;2.668651
3651.000000;2.486045
3650.000000;2.677014
3649.000000;2.678316
3648.000000;2.278534
3647.000000;2.236017
3646.000000;2.243188
3645.000000;2.255213
3644.000000;2.277199
3643.000000;2.472919
3642.000000;2.463084
3641.000000;2.319681
3640.000000;2.415985
3639.000000;2.279274
3638.000000;2.106017
3637.000000;2.089199
3636.000000;2.145229
3635.000000;2.285102
3634.000000;2.644223
3633.000000;2.724849
3632.000000;2.509281
3631.000000;2.438675
3630.000000;2.300617
3629.000000;2.188402
3628.000000;2.124328
3627.000000;2.191186
3626.000000;2.428238
3625.000000;2.220289
3624.000000;1.910025
3623.000000;1.909959
3622.000000;2.127079
3621.000000;2.175940
3620.000000;2.151140
3619.000000;2.281724
3618.000000;2.274333
3617.000000;2.195051
3616.000000;2.192937
3615.000000;2.203392
3614.000000;2.231243
3613.000000;2.330564
3612.000000;2.551700
3611.000000;2.474132
3610.000000;2.241524
3609.000000;2.172659
3608.000000;2.265730
3607.000000;2.293511
3606.000000;2.185320
3605.000000;2.171996
3604.000000;2.263858
3603.000000;2.362324
3602.000000;2.355796
3601.000000;2.616740
3600.000000;2.697091
3599.000000;2.276157
3598.000000;2.199485
3597.000000;2.348339
3596.000000;2.534272
3595.000000;2.465807
3594.000000;2.661089
3593.000000;2.672473
3592.000000;2.332364
3591.000000;2.261783
3590.000000;2.269987
3589.000000;2.184464
3588.000000;2.087022
3587.000000;2.216716
3586.000000;2.348759
3585.000000;2.205371
3584.000000;2.192707
3583.000000;2.318860
3582.000000;2.328018
3581.000000;2.295421
3580.000000;2.279648
3579.000000;2.177850
3578.000000;2.146655
3577.000000;2.254649
3576.000000;2.400166
3575.000000;2.293324
3574.000000;2.127521
3573.000000;2.047927
3572.000000;2.109347
3571.000000;2.173243
3570.000000;2.009500
3569.000000;1.904883
3568.000000;2.118646
3567.000000;2.555809
3566.000000;2.331216
3565.000000;2.274201
3564.000000;2.466138
3563.000000;2.873692
3562.000000;2.810206
3561.000000;2.426803
3560.000000;2.395590
3559.000000;2.439242
3558.000000;2.216256
3557.000000;1.996702
3556.000000;1.932389
3555.000000;2.007995
3554.000000;2.158549
3553.000000;2.352817
3552.000000;2.320207
3551.000000;2.096265
3550.000000;2.040798
3549.000000;2.267588
3548.000000;2.482354
3547.000000;2.140265
3546.000000;2.035502
3545.000000;2.008372
3544.000000;1.967714
3543.000000;1.983071
3542.000000;2.068880
3541.000000;2.194810
3540.000000;2.158723
3539.000000;2.276064
3538.000000;2.225065
3537.000000;1.906909
3536.000000;1.798013
3535.000000;1.786894
3534.000000;1.809599
3533.000000;1.867473
3532.000000;2.141450
3531.000000;2.385745
3530.000000;1.918076
3529.000000;1.739828
3528.000000;1.806895
3527.000000;2.013599
3526.000000;2.396480
3525.000000;3.156965
3524.000000;2.515566
3523.000000;2.246268
3522.000000;2.358224
3521.000000;2.498159
3520.000000;2.353918
3519.000000;2.255284
3518.000000;2.117899
3517.000000;1.967994
3516.000000;1.940894
3515.000000;2.190165
3514.000000;2.627973
3513.000000;2.224072
3512.000000;2.079832
3511.000000;2.016906
3510.000000;1.923002
3509.000000;1.970897
3508.000000;2.150549
3507.000000;2.456090
3506.000000;2.865168
3505.000000;2.769041
3504.000000;2.518966
3503.000000;2.445276
3502.000000;2.332558
3501.000000;2.377047
3500.000000;2.783107
3499.000000;2.472640
3498.000000;2.103504
3497.000000;1.988773
3496.000000;2.069848
3495.000000;2.298546
3494.000000;2.394246
3493.000000;2.287558
3492.000000;2.113684
3491.000000;2.028878
3490.000000;2.063457
3489.000000;2.152082
3488.000000;2.335271
3487.000000;2.563511
3486.000000;2.278366
3485.000000;2.032059
3484.000000;2.070996
3483.000000;2.472306
3482.000000;2.746966
3481.000000;2.411460
3480.000000;2.272195
3479.000000;2.064090
3478.000000;1.989003
3477.000000;2.014039
3476.000000;2.202967
3475.000000;2.645612
3474.000000;2.498644
3473.000000;2.515461
3472.000000;2.155624
3471.000000;1.809887
3470.000000;1.707108
3469.000000;1.760597
3468.000000;1.972041
3467.000000;2.446206
3466.000000;2.918528
3465.000000;2.635622
3464.000000;2.331955
3463.000000;1.884550
3462.000000;1.675059
3461.000000;1.640162
3460.000000;1.872402
3459.000000;2.342848
3458.000000;1.975848
3457.000000;1.828915
3456.000000;1.759944
3455.000000;1.632038
3454.000000;1.615409
3453.000000;1.830377
3452.000000;2.230019
3451.000000;1.875719
3450.000000;1.697384
3449.000000;1.778378
3448.000000;2.009382
3447.000000;2.167957
3446.000000;1.958072
3445.000000;1.853275
3444.000000;1.859829
3443.000000;1.962904
3442.000000;2.134258
3441.000000;2.124104
3440.000000;2.003617
3439.000000;1.860334
3438.000000;2.042520
3437.000000;2.316883
3436.000000;1.828624
3435.000000;1.751917
3434.000000;1.943401
3433.000000;2.214259
3432.000000;2.226078
3431.000000;1.980533
3430.000000;1.839285
3429.000000;1.748390
3428.000000;1.656955
3427.000000;1.590262
3426.000000;1.605697
3425.000000;1.697767
3424.000000;1.817161
3423.000000;1.903471
3422.000000;1.967797
3421.000000;2.068332
3420.000000;2.185584
3419.000000;2.323017
3418.000000;2.317147
3417.000000;2.104208
3416.000000;1.993766
3415.000000;1.866476
3414.000000;1.746419
3413.000000;1.755671
3412.000000;1.901316
3411.000000;2.088426
3410.000000;2.168661
3409.000000;2.037792
3408.000000;1.864025
3407.000000;1.796760
3406.000000;1.977887
3405.000000;2.471752
3404.000000;2.270430
3403.000000;2.494468
3402.000000;2.491535
3401.000000;1.893771
3400.000000;1.753863
3399.000000;1.763940
3398.000000;1.937563
3397.000000;2.086197
3396.000000;2.019209
3395.000000;1.933349
3394.000000;1.739213
3393.000000;1.617266
3392.000000;1.626806
3391.000000;1.718354
3390.000000;1.816625
3389.000000;1.826906
3388.000000;1.763849
3387.000000;1.761258
3386.000000;1.946691
3385.000000;2.039818
3384.000000;1.831712
3383.000000;1.978763
3382.000000;2.305492
3381.000000;1.965559
3380.000000;1.894431
3379.000000;1.964980
3378.000000;1.933334
3377.000000;2.011206
3376.000000;2.358104
3375.000000;2.386008
3374.000000;2.086182
3373.000000;2.011480
3372.000000;2.047748
3371.000000;1.940593
3370.000000;1.779093
3369.000000;1.687670
3368.000000;1.651202
3367.000000;1.685414
3366.000000;1.904975
3365.000000;2.493380
3364.000000;2.795907
3363.000000;2.706444
3362.000000;2.274942
3361.000000;1.993723
3360.000000;1.871036
3359.000000;1.826213
3358.000000;1.908002
3357.000000;2.160082
3356.000000;2.328272
3355.000000;2.398136
3354.000000;2.674803
3353.000000;2.181104
3352.000000;1.914356
3351.000000;1.896119
3350.000000;2.030506
3349.000000;2.189150
3348.000000;2.351303
3347.000000;2.343806
3346.000000;2.044902
3345.000000;1.961076
3344.000000;2.139845
3343.000000;2.506379
3342.000000;2.277216
3341.000000;2.056110
3340.000000;2.041018
3339.000000;2.274883
3338.000000;2.750364
3337.000000;2.279289
3336.000000;2.053652
3335.000000;1.912599
3334.000000;1.768655
3333.000000;1.688721
3332.000000;1.708159
3331.000000;1.921185
3330.000000;2.037924
3329.000000;1.896168
3328.000000;2.091910
3327.000000;2.116525
3326.000000;1.845248
3325.000000;1.902243
3324.000000;2.252937
3323.000000;2.308732
3322.000000;2.094236
3321.000000;2.293612
3320.000000;2.139588
3319.000000;1.795997
3318.000000;1.685419
3317.000000;1.691726
3316.000000;1.732980
3315.000000;1.739838
3314.000000;1.771194
3313.000000;1.979347
3312.000000;2.042131
3311.000000;1.732812
3310.000000;1.627110
3309.000000;1.725648
3308.000000;1.870960
3307.000000;1.882357
3306.000000;1.933721
3305.000000;1.904322
3304.000000;1.797193
3303.000000;1.839516
3302.000000;1.927698
3301.000000;1.860498
3300.000000;1.743884
3299.000000;1.723362
3298.000000;1.889798
3297.000000;2.376897
3296.000000;8.000000
3295.000000;2.666370
3294.000000;2.262456
3293.000000;2.597300
3292.000000;2.124431
3291.000000;1.710396
3290.000000;1.592681
3289.000000;1.542122
3288.000000;1.528385
3287.000000;1.551896
3286.000000;1.659005
3285.000000;1.830949
3284.000000;1.761466
3283.000000;1.626465
3282.000000;1.617604
3281.000000;1.687645
3280.000000;1.758882
3279.000000;1.772258
3278.000000;1.712641
3277.000000;1.641863
3276.000000;1.686231
3275.000000;1.884956
3274.000000;1.977430
3273.000000;1.932042
3272.000000;1.955659
3271.000000;1.885728
3270.000000;1.865222
3269.000000;1.964364
3268.000000;2.102798
3267.000000;2.127842
3266.000000;2.192797
3265.000000;2.540692
3264.000000;2.061218
3263.000000;1.775288
3262.000000;1.826854
3261.000000;1.879701
3260.000000;1.732496
3259.000000;1.658163
3258.000000;1.770711
3257.000000;2.185587
3256.000000;2.004094
3255.000000;1.691388
3254.000000;1.638338
3253.000000;1.851552
3252.000000;2.393067
3251.000000;1.979191
3250.000000;1.840822
3249.000000;1.867334
3248.000000;1.835565
3247.000000;1.824395
3246.000000;1.849897
3245.000000;1.808566
3244.000000;1.703469
3243.000000;1.625605
3242.000000;1.581460
3241.000000;1.609813
3240.000000;1.748145
3239.000000;1.989070
3238.000000;2.045507
3237.000000;1.763311
3236.000000;1.577013
3235.000000;1.576775
3234.000000;1.847304
3233.000000;2.183036
3232.000000;1.878469
3231.000000;1.858414
3230.000000;1.911979
3229.000000;1.779345
3228.000000;1.749864
3227.000000;1.900625
3226.000000;2.266531
3225.000000;2.175385
3224.000000;1.951181
3223.000000;1.940298
3222.000000;1.959941
3221.000000;1.965131
3220.000000;2.115162
3219.000000;2.246694
3218.000000;2.096963
3217.000000;2.468302
3216.000000;2.293022
3215.000000;1.755976
3214.000000;1.659378
3213.000000;1.753783
3212.000000;1.950589
3211.000000;1.928161
3210.000000;1.886732
3209.000000;1.959506
3208.000000;1.966905
3207.000000;1.989946
3206.000000;2.236668
3205.000000;2.696890
3204.000000;2.264409
3203.000000;2.187886
3202.000000;2.275745
3201.000000;2.188285
3200.000000;2.196663
3199.000000;2.394085
3198.000000;2.752247
3197.000000;2.801071
3196.000000;2.751919
3195.000000;2.960468
3194.000000;2.603652
3193.000000;2.199046
3192.000000;2.082458
3191.000000;2.336971
3190.000000;2.300182
3189.000000;1.953641
3188.000000;1.887273
3187.000000;1.828896
3186.000000;1.770280
3185.000000;1.780809
3184.000000;1.819615
3183.000000;1.880794
3182.000000;1.972404
3181.000000;1.909928
3180.000000;1.831561
3179.000000;1.981898
3178.000000;2.157369
3177.000000;1.894428
3176.000000;1.789915
3175.000000;1.831791
3174.000000;1.886087
3173.000000;2.052105
3172.000000;2.111394
3171.000000;1.816537
3170.000000;1.755161
3169.000000;1.859447
3168.000000;1.884447
3167.000000;1.847234
3166.000000;2.042199
3165.000000;2.174021
3164.000000;1.956442
3163.000000;2.128834
3162.000000;2.192804
3161.000000;1.844693
3160.000000;1.750278
3159.000000;1.862119
3158.000000;2.149999
3157.000000;2.161015
3156.000000;2.039841
3155.000000;2.051410
3154.000000;2.088163
3153.000000;2.125756
3152.000000;2.130204
3151.000000;2.107120
3150.000000;2.008554
3149.000000;1.911818
3148.000000;1.972198
3147.000000;2.304906
3146.000000;2.155407
3145.000000;1.823763
3144.000000;1.722565
3143.000000;1.709406
3142.000000;1.713686
3141.000000;1.763570
3140.000000;2.031137
3139.000000;2.540507
3138.000000;2.239313
3137.000000;2.078860
3136.000000;2.071396
3135.000000;2.158158
3134.000000;2.433520
3133.000000;2.386774
3132.000000;2.074865
3131.000000;1.945079
3130.000000;1.935663
3129.000000;2.025420
3128.000000;2.200949
3127.000000;2.497626
3126.000000;2.733211
3125.000000;2.329830
3124.000000;2.080307
3123.000000;2.015654
3122.000000;2.074559
3121.000000;2.181730
3120.000000;2.247507
3119.000000;2.193300
3118.000000;2.065171
3117.000000;1.992114
3116.000000;1.999260
3115.000000;2.093227
3114.000000;2.311456
3113.000000;2.433687
3112.000000;2.198940
3111.000000;2.056588
3110.000000;2.031980
3109.000000;2.139811
3108.000000;2.589315
3107.000000;2.600483
3106.000000;2.238233
3105.000000;2.126565
3104.000000;1.987350
3103.000000;1.917152
3102.000000;1.966605
3101.000000;2.183172
3100.000000;2.173555
3099.000000;1.933384
3098.000000;1.807172
3097.000000;1.761803
3096.000000;1.757057
3095.000000;1.783095
3094.000000;1.868899
3093.000000;2.132395
3092.000000;2.349814
3091.000000;1.960385
3090.000000;1.852722
3089.000000;1.871364
3088.000000;1.909092
3087.000000;1.914227
3086.000000;1.906320
3085.000000;1.918239
3084.000000;2.041249
3083.000000;2.461427
3082.000000;2.208281
3081.000000;1.861053
3080.000000;1.797366
3079.000000;1.793088
3078.000000;1.800132
3077.000000;1.818443
3076.000000;1.890252
3075.000000;2.023140
3074.000000;2.445715
3073.000000;2.146489
3072.000000;1.792690
3071.000000;1.674850
3070.000000;1.667494
3069.000000;1.749440
3068.000000;1.914660
3067.000000;2.228039
3066.000000;2.977218
3065.000000;2.651429
3064.000000;2.312657
3063.000000;2.076106
3062.000000;1.920801
3061.000000;1.842900
3060.000000;1.825675
3059.000000;1.851688
3058.000000;1.915944
3057.000000;2.034185
3056.000000;2.091752
3055.000000;1.997349
3054.000000;1.905618
3053.000000;1.846350
3052.000000;1.802970
3051.000000;1.778384
3050.000000;1.745934
3049.000000;1.695774
3048.000000;1.688861
3047.000000;1.780637
3046.000000;1.985184
3045.000000;2.027239
3044.000000;1.892561
3043.000000;1.805473
3042.000000;1.788493
3041.000000;1.872758
3040.000000;2.006857
3039.000000;2.081361
3038.000000;2.190897
3037.000000;2.344318
3036.000000;2.380601
3035.000000;2.259101
3034.000000;2.086497
3033.000000;1.931032
3032.000000;1.832599
3031.000000;1.815541
3030.000000;1.859424
3029.000000;1.897212
3028.000000;1.914282
3027.000000;1.955390
3026.000000;2.002145
3025.000000;2.075570
3024.000000;2.146819
3023.000000;2.042883
3022.000000;1.951522
3021.000000;2.007762
3020.000000;2.091214
3019.000000;2.064702
3018.000000;2.135366
3017.000000;2.853317
3016.000000;2.148410
3015.000000;1.848983
3014.000000;1.758841
3013.000000;1.770483
3012.000000;1.881333
3011.000000;2.018312
3010.000000;2.067573
3009.000000;2.042979
3008.000000;1.980621
3007.000000;1.996338
3006.000000;2.097315
3005.000000;2.167320
3004.000000;2.083098
3003.000000;1.940833
3002.000000;1.911680
3001.000000;2.013766
3000.000000;2.109504
2999.000000;2.453650
2998.000000;2.535878
2997.000000;2.126804
2996.000000;2.168122
2995.000000;2.263563
2994.000000;2.118702
2993.000000;2.071428
2992.000000;2.160376
2991.000000;2.264100
2990.000000;2.174179
2989.000000;2.021564
2988.000000;1.980528
2987.000000;2.050266
2986.000000;2.166487
2985.000000;2.215296
2984.000000;2.150172
2983.000000;2.107425
2982.000000;2.127318
2981.000000;2.070846
2980.000000;1.923672
2979.000000;1.819040
2978.000000;1.780485
2977.000000;1.810352
2976.000000;1.883046
2975.000000;2.266770
2974.000000;2.445060
2973.000000;1.928080
2972.000000;1.814055
2971.000000;1.753788
2970.000000;1.718624
2969.000000;1.739748
2968.000000;1.877508
2967.000000;2.040208
2966.000000;1.922681
2965.000000;1.820266
2964.000000;1.859515
2963.000000;1.981875
2962.000000;2.061329
2961.000000;2.127774
2960.000000;2.375912
2959.000000;3.143706
2958.000000;2.466389
2957.000000;2.459232
2956.000000;2.477220
2955.000000;1.997260
2954.000000;1.778115
2953.000000;1.723438
2952.000000;1.763980
2951.000000;1.810957
2950.000000;1.860942
2949.000000;1.976155
2948.000000;2.175094
2947.000000;2.209112
2946.000000;2.071389
2945.000000;2.017953
2944.000000;1.969665
2943.000000;1.910204
2942.000000;1.924278
2941.000000;2.038158
2940.000000;2.407502
2939.000000;2.422834
2938.000000;2.088663
2937.000000;1.997374
2936.000000;1.980609
2935.000000;1.966181
2934.000000;2.025648
2933.000000;2.133553
2932.000000;2.279314
2931.000000;2.676874
2930.000000;2.068775
2929.000000;1.811048
2928.000000;1.704792
2927.000000;1.654470
2926.000000;1.620627
2925.000000;1.638879
2924.000000;1.736708
2923.000000;1.873622
2922.000000;1.949780
2921.000000;2.085330
2920.000000;2.107380
2919.000000;1.900441
2918.000000;1.819881
2917.000000;1.769093
2916.000000;1.705709
2915.000000;1.715914
2914.000000;1.826540
2913.000000;1.954712
2912.000000;2.004096
2911.000000;2.009230
2910.000000;2.055842
2909.000000;2.087869
2908.000000;1.980003
2907.000000;1.879460
2906.000000;1.901850
2905.000000;2.106547
2904.000000;2.627140
2903.000000;2.598891
2902.000000;2.099404
2901.000000;1.944442
2900.000000;1.948513
2899.000000;2.035222
2898.000000;2.111796
2897.000000;2.369987
2896.000000;2.718225
2895.000000;2.298807
2894.000000;2.118237
2893.000000;1.962970
2892.000000;1.899167
2891.000000;1.952807
2890.000000;2.030445
2889.000000;1.983837
2888.000000;1.930783
2887.000000;2.054362
2886.000000;2.165859
2885.000000;2.017182
2884.000000;1.986759
2883.000000;2.071369
2882.000000;2.160376
2881.000000;2.264048
2880.000000;2.326156
2879.000000;2.168389
2878.000000;2.008551
2877.000000;2.001897
2876.000000;2.238887
2875.000000;2.975923
2874.000000;2.289019
2873.000000;2.142886
2872.000000;2.071788
2871.000000;2.080171
2870.000000;2.426595
2869.000000;3.036814
2868.000000;2.406252
2867.000000;2.903573
2866.000000;2.687710
2865.000000;2.329225
2864.000000;2.310783
2863.000000;2.231644
2862.000000;2.091428
2861.000000;1.971118
2860.000000;1.960772
2859.000000;2.168432
2858.000000;2.214342
2857.000000;1.974997
2856.000000;1.872115
2855.000000;1.831082
2854.000000;1.798701
2853.000000;1.771113
2852.000000;1.784792
2851.000000;1.902814
2850.000000;2.151483
2849.000000;2.354725
2848.000000;2.532323
2847.000000;2.349241
2846.000000;2.241088
2845.000000;2.285681
2844.000000;2.199033
2843.000000;2.250539
2842.000000;2.301773
2841.000000;2.324817
2840.000000;2.407816
2839.000000;2.074581
2838.000000;1.911699
2837.000000;2.045183
2836.000000;2.391542
2835.000000;2.440639
2834.000000;2.414297
2833.000000;2.347840
2832.000000;2.471295
2831.000000;2.394985
2830.000000;2.038899
2829.000000;1.802891
2828.000000;1.757998
2827.000000;1.949671
2826.000000;2.406513
2825.000000;2.330181
2824.000000;2.221460
2823.000000;1.951732
2822.000000;1.920208
2821.000000;2.260104
2820.000000;2.401216
2819.000000;1.959081
2818.000000;1.975760
2817.000000;2.200372
2816.000000;2.338541
2815.000000;1.959265
2814.000000;1.902807
2813.000000;1.986914
2812.000000;2.186088
2811.000000;2.474206
2810.000000;2.511827
2809.000000;2.316982
2808.000000;2.049352
2807.000000;1.881701
2806.000000;1.832025
2805.000000;1.832141
2804.000000;1.910996
2803.000000;1.958601
2802.000000;1.809746
2801.000000;1.751716
2800.000000;1.858048
2799.000000;2.094950
2798.000000;2.301329
2797.000000;2.495967
2796.000000;2.138174
2795.000000;1.777580
2794.000000;1.660725
2793.000000;1.726479
2792.000000;1.935340
2791.000000;2.241815
2790.000000;2.592063
2789.000000;2.184309
2788.000000;1.898259
2787.000000;1.815544
2786.000000;1.865114
2785.000000;2.110539
2784.000000;2.491960
2783.000000;2.378938
2782.000000;2.082557
2781.000000;1.832315
2780.000000;1.669986
2779.000000;1.592351
2778.000000;1.600453
2777.000000;1.708998
2776.000000;1.993430
2775.000000;2.346269
2774.000000;3.278686
2773.000000;2.037800
2772.000000;1.712842
2771.000000;1.639546
2770.000000;1.727251
2769.000000;1.959067
2768.000000;2.404691
2767.000000;3.209901
2766.000000;2.421083
2765.000000;2.098089
2764.000000;1.857790
2763.000000;1.740338
2762.000000;1.727347
2761.000000;1.818530
2760.000000;1.952059
2759.000000;2.098996
2758.000000;2.293479
2757.000000;2.020023
2756.000000;1.794624
2755.000000;1.782841
2754.000000;1.836401
2753.000000;1.890082
2752.000000;1.993738
2751.000000;2.251018
2750.000000;2.393342
2749.000000;2.116541
2748.000000;1.934486
2747.000000;1.865427
2746.000000;1.866126
2745.000000;1.931363
2744.000000;2.075646
2743.000000;2.179268
2742.000000;2.073009
2741.000000;1.930170
2740.000000;1.813581
2739.000000;1.772825
2738.000000;1.837850
2737.000000;2.010873
2736.000000;2.289532
2735.000000;2.267608
2734.000000;1.946545
2733.000000;1.792619
2732.000000;1.756800
2731.000000;1.825411
2730.000000;1.972607
2729.000000;2.160811
2728.000000;2.546243
2727.000000;2.586710
2726.000000;2.474450
2725.000000;2.263037
2724.000000;1.974148
2723.000000;1.828689
2722.000000;1.763746
2721.000000;1.727673
2720.000000;1.666857
2719.000000;1.640320
2718.000000;1.736954
2717.000000;2.009697
2716.000000;2.053300
2715.000000;1.834963
2714.000000;1.743648
2713.000000;1.733360
2712.000000;1.787424
2711.000000;1.843017
2710.000000;1.842199
2709.000000;1.863624
2708.000000;2.034734
2707.000000;2.473445
2706.000000;2.321800
2705.000000;2.113499
2704.000000;2.226801
2703.000000;2.050679
2702.000000;1.858949
2701.000000;1.823405
2700.000000;1.868209
2699.000000;2.052149
2698.000000;2.236307
2697.000000;2.004942
2696.000000;1.930130
2695.000000;2.167481
2694.000000;2.576755
2693.000000;2.209124
2692.000000;2.173823
2691.000000;2.134964
2690.000000;1.911720
2689.000000;1.766013
2688.000000;1.770925
2687.000000;1.987348
2686.000000;2.491996
2685.000000;2.668115
2684.000000;2.214925
2683.000000;1.969219
2682.000000;1.877539
2681.000000;1.835127
2680.000000;1.910301
2679.000000;2.339183
2678.000000;2.453814
2677.000000;2.093435
2676.000000;2.141170
2675.000000;2.089091
2674.000000;2.026969
2673.000000;2.102046
2672.000000;2.242704
2671.000000;2.162852
2670.000000;2.030569
2669.000000;2.035877
2668.000000;2.116744
2667.000000;2.039787
2666.000000;1.836096
2665.000000;1.760028
2664.000000;1.855966
2663.000000;1.845424
2662.000000;1.737593
2661.000000;1.782641
2660.000000;1.961394
2659.000000;2.195790
2658.000000;2.226229
2657.000000;2.060058
2656.000000;1.934894
2655.000000;1.882647
2654.000000;1.912903
2653.000000;1.952391
2652.000000;1.884903
2651.000000;1.796136
2650.000000;1.735865
2649.000000;1.713032
2648.000000;1.728621
2647.000000;1.730058
2646.000000;1.744842
2645.000000;1.777760
2644.000000;1.782985
2643.000000;1.885826
2642.000000;2.090625
2641.000000;1.719575
2640.000000;1.491311
2639.000000;1.452684
2638.000000;1.550534
2637.000000;1.701109
2636.000000;1.665488
2635.000000;1.587170
2634.000000;1.614118
2633.000000;1.715048
2632.000000;1.597608
2631.000000;1.447086
2630.000000;1.424402
2629.000000;1.453997
2628.000000;1.450296
2627.000000;1.406605
2626.000000;1.362019
2625.000000;1.357244
2624.000000;1.443065
2623.000000;1.595441
2622.000000;2.049638
2621.000000;2.174261
2620.000000;1.703681
2619.000000;1.705504
2618.000000;1.894197
2617.000000;1.736932
2616.000000;1.612860
2615.000000;1.622728
2614.000000;1.568600
2613.000000;1.420948
2612.000000;1.297348
2611.000000;1.268885
2610.000000;1.352732
2609.000000;1.502837
2608.000000;1.506995
2607.000000;1.442123
2606.000000;1.444238
2605.000000;1.473581
2604.000000;1.554811
2603.000000;1.617152
2602.000000;1.515463
2601.000000;1.478404
2600.000000;1.581377
2599.000000;1.859363
2598.000000;2.373052
2597.000000;2.152266
2596.000000;1.892511
2595.000000;1.843417
2594.000000;1.810427
2593.000000;1.772729
2592.000000;1.781430
2591.000000;1.961227
2590.000000;1.842482
2589.000000;1.611442
2588.000000;1.581000
2587.000000;1.716415
2586.000000;2.066145
2585.000000;2.597290
2584.000000;2.138449
2583.000000;2.227368
2582.000000;2.255689
2581.000000;1.701924
2580.000000;1.538764
2579.000000;1.566081
2578.000000;1.741794
2577.000000;2.060889
2576.000000;2.473885
2575.000000;2.787876
2574.000000;2.620070
2573.000000;2.114066
2572.000000;1.863018
2571.000000;1.816952
2570.000000;1.980266
2569.000000;2.131929
2568.000000;2.006901
2567.000000;1.957504
2566.000000;2.006421
2565.000000;2.050244
2564.000000;2.392768
2563.000000;2.378035
2562.000000;2.043506
2561.000000;2.181314
2560.000000;2.296359
2559.000000;1.967180
2558.000000;1.839417
2557.000000;1.841536
2556.000000;2.035664
2555.000000;2.238244
2554.000000;1.839177
2553.000000;1.811188
2552.000000;2.196619
2551.000000;2.368385
2550.000000;2.048788
2549.000000;1.923234
2548.000000;1.748015
2547.000000;1.688541
2546.000000;1.657506
2545.000000;1.641406
2544.000000;1.636974
2543.000000;1.638768
2542.000000;1.711124
2541.000000;1.991906
2540.000000;1.877829
2539.000000;1.568199
2538.000000;1.487954
2537.000000;1.532152
2536.000000;1.643822
2535.000000;1.688117
2534.000000;1.638096
2533.000000;1.629843
2532.000000;1.750399
2531.000000;1.896409
2530.000000;1.836608
2529.000000;1.835741
2528.000000;1.886666
2527.000000;1.890763
2526.000000;1.909576
2525.000000;1.896971
2524.000000;1.823000
2523.000000;1.749576
2522.000000;1.661200
2521.000000;1.572210
2520.000000;1.566979
2519.000000;1.680507
2518.000000;1.924455
2517.000000;2.472701
2516.000000;2.472836
2515.000000;2.115015
2514.000000;2.240541
2513.000000;2.375785
2512.000000;2.170308
2511.000000;2.055010
2510.000000;2.070181
2509.000000;2.136744
2508.000000;2.158401
2507.000000;2.005688
2506.000000;1.908621
2505.000000;1.977892
2504.000000;2.054331
2503.000000;2.013631
2502.000000;2.040087
2501.000000;2.163464
2500.000000;2.151801
2499.000000;1.948611
2498.000000;1.871788
2497.000000;1.976560
2496.000000;2.094267
2495.000000;2.149195
2494.000000;2.217991
2493.000000;1.894761
2492.000000;1.659935
2491.000000;1.567267
2490.000000;1.581806
2489.000000;1.770373
2488.000000;2.200018
2487.000000;2.314351
2486.000000;1.870286
2485.000000;1.606809
2484.000000;1.502357
2483.000000;1.496869
2482.000000;1.535171
2481.000000;1.552087
2480.000000;1.534248
2479.000000;1.564593
2478.000000;1.694915
2477.000000;1.937363
2476.000000;2.031626
2475.000000;1.760626
2474.000000;1.614179
2473.000000;1.615898
2472.000000;1.660077
2471.000000;1.666638
2470.000000;1.697848
2469.000000;1.897991
2468.000000;2.282177
2467.000000;1.970603
2466.000000;1.699318
2465.000000;1.664255
2464.000000;1.811269
2463.000000;2.082724
2462.000000;2.259153
2461.000000;2.526264
2460.000000;2.066368
2459.000000;1.728045
2458.000000;1.659796
2457.000000;1.594020
2456.000000;1.468034
2455.000000;1.414263
2454.000000;1.490885
2453.000000;1.661935
2452.000000;1.826400
2451.000000;2.146501
2450.000000;2.378331
2449.000000;1.947808
2448.000000;1.862449
2447.000000;1.900955
2446.000000;2.020164
2445.000000;2.254396
2444.000000;2.111608
2443.000000;2.010149
2442.000000;1.918121
2441.000000;1.735995
2440.000000;1.674664
2439.000000;1.773827
2438.000000;1.965747
2437.000000;2.121617
2436.000000;2.197325
2435.000000;1.908730
2434.000000;1.670140
2433.000000;1.646172
2432.000000;1.744714
2431.000000;1.857078
2430.000000;1.991186
2429.000000;1.953689
2428.000000;1.746275
2427.000000;1.666006
2426.000000;1.711036
2425.000000;1.844902
2424.000000;2.065924
2423.000000;1.996234
2422.000000;1.779986
2421.000000;1.722883
2420.000000;1.986318
2419.000000;2.372580
2418.000000;1.889097
2417.000000;1.928974
2416.000000;1.934494
2415.000000;1.711970
2414.000000;1.672875
2413.000000;1.753486
2412.000000;1.892747
2411.000000;2.286066
2410.000000;2.692467
2409.000000;2.287582
2408.000000;2.373309
2407.000000;1.949051
2406.000000;1.634402
2405.000000;1.583983
2404.000000;1.733954
2403.000000;1.787276
2402.000000;1.618397
2401.000000;1.577782
2400.000000;1.593806
2399.000000;1.620305
2398.000000;1.724421
2397.000000;1.814034
2396.000000;1.798708
2395.000000;1.676209
2394.000000;1.571676
2393.000000;1.555842
2392.000000;1.779472
2391.000000;2.204491
2390.000000;1.742217
2389.000000;1.589460
2388.000000;1.653221
2387.000000;1.744688
2386.000000;1.721401
2385.000000;1.653797
2384.000000;1.593723
2383.000000;1.518192
2382.000000;1.465642
2381.000000;1.438799
2380.000000;1.472458
2379.000000;1.698313
2378.000000;1.967827
2377.000000;1.606435
2376.000000;1.395323
2375.000000;1.366019
2374.000000;1.321127
2373.000000;1.237757
2372.000000;1.215919
2371.000000;1.346678
2370.000000;1.523781
2369.000000;1.539851
2368.000000;1.342517
2367.000000;1.374546
2366.000000;1.713464
2365.000000;1.852447
2364.000000;2.574146
2363.000000;1.696860
2362.000000;1.559140
2361.000000;1.578392
2360.000000;1.706854
2359.000000;2.220239
2358.000000;2.369949
2357.000000;1.893264
2356.000000;1.895625
2355.000000;2.177728
2354.000000;2.282538
2353.000000;1.918941
2352.000000;1.751572
2351.000000;1.777660
2350.000000;1.665945
2349.000000;1.823927
2348.000000;1.568082
2347.000000;1.178605
2346.000000;1.146339
2345.000000;1.181313
2344.000000;1.259626
2343.000000;1.259001
2342.000000;1.188532
2341.000000;1.102536
2340.000000;1.050109
2339.000000;1.038535
2338.000000;1.071273
2337.000000;1.172509
2336.000000;1.352883
2335.000000;1.661930
2334.000000;1.755497
2333.000000;1.394520
2332.000000;1.233986
2331.000000;1.236623
2330.000000;1.355646
2329.000000;1.553994
2328.000000;1.615337
2327.000000;1.476477
2326.000000;1.388522
2325.000000;1.428608
2324.000000;1.726651
2323.000000;1.962176
2322.000000;1.602218
2321.000000;1.459218
2320.000000;1.505298
2319.000000;1.640074
2318.000000;1.827654
2317.000000;2.243501
2316.000000;2.252092
2315.000000;1.692543
2314.000000;1.401601
2313.000000;1.282697
2312.000000;1.344083
2311.000000;1.554063
2310.000000;1.549312
2309.000000;1.432745
2308.000000;1.610225
2307.000000;1.894227
2306.000000;1.533258
2305.000000;1.349879
2304.000000;1.337879
2303.000000;1.470115
2302.000000;1.567346
2301.000000;1.506204
2300.000000;1.998201
2299.000000;1.937649
2298.000000;1.364380
2297.000000;1.268695
2296.000000;1.286173
2295.000000;1.409566
2294.000000;1.544945
2293.000000;1.600686
2292.000000;1.582482
2291.000000;1.678301
2290.000000;2.288898
2289.000000;1.856519
2288.000000;1.585210
2287.000000;1.701454
2286.000000;1.809991
2285.000000;1.739842
2284.000000;1.794401
2283.000000;1.601940
2282.000000;1.362267
2281.000000;1.328512
2280.000000;1.497788
2279.000000;1.868005
2278.000000;1.948635
2277.000000;1.963018
2276.000000;1.878772
2275.000000;1.568968
2274.000000;1.494691
2273.000000;1.845741
2272.000000;2.055752
2271.000000;1.636674
2270.000000;1.631454
2269.000000;1.567212
2268.000000;1.394480
2267.000000;1.339060
2266.000000;1.411733
2265.000000;1.645144
2264.000000;1.727143
2263.000000;1.553400
2262.000000;1.467811
2261.000000;1.476543
2260.000000;1.542549
2259.000000;1.739250
2258.000000;2.085892
2257.000000;1.861476
2256.000000;1.643724
2255.000000;1.560029
2254.000000;1.491729
2253.000000;1.547617
2252.000000;1.768436
2251.000000;1.707954
2250.000000;1.554252
2249.000000;1.902272
2248.000000;2.206228
2247.000000;1.652856
2246.000000;1.559519
2245.000000;1.795085
2244.000000;2.076980
2243.000000;1.676050
2242.000000;1.582300
2241.000000;1.788700
2240.000000;2.013540
2239.000000;1.947394
2238.000000;1.710148
2237.000000;1.627988
2236.000000;1.753719
2235.000000;2.048741
2234.000000;2.214049
2233.000000;2.086969
2232.000000;1.861596
2231.000000;1.909948
2230.000000;2.180944
2229.000000;2.162284
2228.000000;2.081461
2227.000000;1.866837
2226.000000;1.752269
2225.000000;1.998720
2224.000000;2.231520
2223.000000;1.811801
2222.000000;1.631612
2221.000000;1.569680
2220.000000;1.623545
2219.000000;1.783238
2218.000000;1.768444
2217.000000;1.712294
2216.000000;1.844600
2215.000000;2.013552
2214.000000;1.825192
2213.000000;1.656036
2212.000000;1.638416
2211.000000;1.690478
2210.000000;1.873290
2209.000000;2.108950
2208.000000;1.920254
2207.000000;1.893798
2206.000000;2.260725
2205.000000;2.202992
2204.000000;1.744515
2203.000000;1.520918
2202.000000;1.379719
2201.000000;1.305941
2200.000000;1.326846
2199.000000;1.531130
2198.000000;1.874203
2197.000000;1.759806
2196.000000;1.766042
2195.000000;1.877410
2194.000000;1.752226
2193.000000;1.832917
2192.000000;1.916968
2191.000000;1.651062
2190.000000;1.559832
2189.000000;1.646579
2188.000000;1.578142
2187.000000;1.416873
2186.000000;1.366014
2185.000000;1.376692
2184.000000;1.435879
2183.000000;1.478555
2182.000000;1.574584
2181.000000;1.928693
2180.000000;1.755726
2179.000000;1.477155
2178.000000;1.519897
2177.000000;1.674734
2176.000000;1.619514
2175.000000;1.557232
2174.000000;1.696528
2173.000000;1.864209
2172.000000;1.785482
2171.000000;1.809337
2170.000000;1.974512
2169.000000;1.926631
2168.000000;1.923475
2167.000000;2.047212
2166.000000;2.155931
2165.000000;2.297545
2164.000000;2.062557
2163.000000;1.876234
2162.000000;1.911016
2161.000000;1.967903
2160.000000;1.852647
2159.000000;1.739332
2158.000000;1.678396
2157.000000;1.793097
2156.000000;2.084550
2155.000000;1.813894
2154.000000;1.636338
2153.000000;1.740739
2152.000000;2.150668
2151.000000;2.087804
2150.000000;1.676324
2149.000000;1.530662
2148.000000;1.499086
2147.000000;1.565595
2146.000000;1.668794
2145.000000;1.836379
2144.000000;1.973473
2143.000000;1.733617
2142.000000;1.522748
2141.000000;1.432708
2140.000000;1.426913
2139.000000;1.533836
2138.000000;1.656486
2137.000000;1.652260
2136.000000;1.669093
2135.000000;1.582350
2134.000000;1.414800
2133.000000;1.400870
2132.000000;1.517265
2131.000000;1.597448
2130.000000;1.615494
2129.000000;1.864128
2128.000000;2.210589
2127.000000;1.801395
2126.000000;1.637266
2125.000000;1.652636
2124.000000;1.721904
2123.000000;1.638328
2122.000000;1.491951
2121.000000;1.509452
2120.000000;1.734638
2119.000000;2.122436
2118.000000;2.375008
2117.000000;2.197559
2116.000000;1.847038
2115.000000;1.770055
2114.000000;1.815385
2113.000000;1.753377
2112.000000;1.712316
2111.000000;1.785562
2110.000000;1.921058
2109.000000;1.943459
2108.000000;1.831331
2107.000000;1.729475
2106.000000;1.751954
2105.000000;2.050147
2104.000000;2.337308
2103.000000;1.975665
2102.000000;2.049240
2101.000000;2.353387
2100.000000;2.137621
2099.000000;2.230337
2098.000000;1.944431
2097.000000;1.649423
2096.000000;1.590772
2095.000000;1.859666
2094.000000;2.346962
2093.000000;1.808667
2092.000000;1.777227
2091.000000;2.135852
2090.000000;2.039005
2089.000000;1.739567
2088.000000;1.710705
2087.000000;1.956632
2086.000000;2.398095
2085.000000;2.085467
2084.000000;1.888644
2083.000000;1.866763
2082.000000;1.753508
2081.000000;1.650912
2080.000000;1.568640
2079.000000;1.520980
2078.000000;1.552585
2077.000000;1.683026
2076.000000;1.839117
2075.000000;2.149622
2074.000000;2.040834
2073.000000;1.581343
2072.000000;1.376340
2071.000000;1.308646
2070.000000;1.328274
2069.000000;1.486087
2068.000000;1.684321
2067.000000;1.536068
2066.000000;1.403517
2065.000000;1.416564
2064.000000;1.531708
2063.000000;1.647940
2062.000000;1.808925
2061.000000;1.909626
2060.000000;1.622308
2059.000000;1.455333
2058.000000;1.506417
2057.000000;1.858743
2056.000000;1.908508
2055.000000;1.607227
2054.000000;1.637917
2053.000000;2.088904
2052.000000;2.156479
2051.000000;1.905294
2050.000000;2.227418
2049.000000;2.188448
2048.000000;1.810154
2047.000000;1.866912
2046.000000;2.379195
2045.000000;1.844369
2044.000000;1.518059
2043.000000;1.450527
2042.000000;1.492580
2041.000000;1.626611
2040.000000;1.653094
2039.000000;1.568233
2038.000000;1.479167
2037.000000;1.413912
2036.000000;1.408157
2035.000000;1.483053
2034.000000;1.888147
2033.000000;2.181459
2032.000000;1.614648
2031.000000;1.473215
2030.000000;1.476667
2029.000000;1.569980
2028.000000;1.512033
2027.000000;1.372726
2026.000000;1.360712
2025.000000;1.527877
2024.000000;1.918760
2023.000000;1.778100
2022.000000;1.643354
2021.000000;1.659020
2020.000000;1.573472
2019.000000;1.532099
2018.000000;1.629711
2017.000000;2.039607
2016.000000;2.035551
2015.000000;1.594713
2014.000000;1.441187
2013.000000;1.381192
2012.000000;1.363450
2011.000000;1.400248
2010.000000;1.531105
2009.000000;1.722941
2008.000000;1.760758
2007.000000;1.712466
2006.000000;1.656530
2005.000000;1.569350
2004.000000;1.504138
2003.000000;1.519445
2002.000000;1.674652
2001.000000;1.831707
2000.000000;1.871695
1999.000000;1.821614
1998.000000;1.529658
1997.000000;1.359976
1996.000000;1.333467
1995.000000;1.343393
1994.000000;1.372585
1993.000000;1.563021
1992.000000;1.817279
1991.000000;1.711257
1990.000000;1.684135
1989.000000;1.470992
1988.000000;1.240572
1987.000000;1.165327
1986.000000;1.201888
1985.000000;1.324055
1984.000000;1.510093
1983.000000;1.726940
1982.000000;1.952091
1981.000000;2.299868
1980.000000;1.901369
1979.000000;1.561823
1978.000000;1.477244
1977.000000;1.482942
1976.000000;1.559484
1975.000000;1.588806
1974.000000;1.550134
1973.000000;1.629298
1972.000000;1.851253
1971.000000;2.115576
1970.000000;1.944944
1969.000000;1.643349
1968.000000;1.610073
1967.000000;1.651908
1966.000000;1.512556
1965.000000;1.451177
1964.000000;1.509507
1963.000000;1.554859
1962.000000;1.727424
1961.000000;2.125817
1960.000000;1.997511
1959.000000;1.767161
1958.000000;1.625687
1957.000000;1.565560
1956.000000;1.600595
1955.000000;1.652662
1954.000000;1.576393
1953.000000;1.433047
1952.000000;1.387876
1951.000000;1.442973
1950.000000;1.518910
1949.000000;1.540352
1948.000000;1.537952
1947.000000;1.642048
1946.000000;1.989815
1945.000000;2.239098
1944.000000;2.234359
1943.000000;2.731016
1942.000000;3.433802
1941.000000;2.017574
1940.000000;1.588444
1939.000000;1.435822
1938.000000;1.443686
1937.000000;1.488050
1936.000000;1.526378
1935.000000;1.659363
1934.000000;1.915034
1933.000000;2.223998
1932.000000;1.856128
1931.000000;1.539263
1930.000000;1.450013
1929.000000;1.468280
1928.000000;1.538549
1927.000000;1.619826
1926.000000;1.681989
1925.000000;1.636803
1924.000000;1.550950
1923.000000;1.563781
1922.000000;1.793142
1921.000000;2.086594
1920.000000;2.056120
1919.000000;2.010765
1918.000000;1.846781
1917.000000;1.731900
1916.000000;1.886927
1915.000000;2.506673
1914.000000;2.059247
1913.000000;1.800543
1912.000000;1.843968
1911.000000;1.949739
1910.000000;2.325408
1909.000000;2.520994
1908.000000;2.173268
1907.000000;2.380430
1906.000000;2.093929
1905.000000;1.669784
1904.000000;1.485282
1903.000000;1.431983
1902.000000;1.504374
1901.000000;1.699491
1900.000000;1.877082
1899.000000;1.747637
1898.000000;1.595905
1897.000000;1.571214
1896.000000;1.673063
1895.000000;1.813521
1894.000000;1.805370
1893.000000;1.710791
1892.000000;1.611643
1891.000000;1.537884
1890.000000;1.535098
1889.000000;1.630838
1888.000000;1.858671
1887.000000;2.127856
1886.000000;2.076695
1885.000000;1.965474
1884.000000;1.885803
1883.000000;1.860413
1882.000000;1.941909
1881.000000;2.191998
1880.000000;2.745879
1879.000000;2.206077
1878.000000;1.739391
1877.000000;1.517925
1876.000000;1.432236
1875.000000;1.449873
1874.000000;1.550755
1873.000000;1.823036
1872.000000;2.365017
1871.000000;2.122928
1870.000000;1.765867
1869.000000;1.633438
1868.000000;1.689082
1867.000000;1.828702
1866.000000;1.845026
1865.000000;1.887060
1864.000000;1.861960
1863.000000;1.767726
1862.000000;1.843997
1861.000000;2.217023
1860.000000;2.197662
1859.000000;1.833627
1858.000000;1.724078
1857.000000;1.784654
1856.000000;1.823838
1855.000000;1.675191
1854.000000;1.566710
1853.000000;1.555312
1852.000000;1.558840
1851.000000;1.507802
1850.000000;1.470952
1849.000000;1.514370
1848.000000;1.846858
1847.000000;2.191060
1846.000000;1.618214
1845.000000;1.619281
1844.000000;1.996698
1843.000000;1.652997
1842.000000;1.400647
1841.000000;1.391408
1840.000000;1.346220
1839.000000;1.270907
1838.000000;1.344679
1837.000000;1.747666
1836.000000;1.733897
1835.000000;1.419753
1834.000000;1.317170
1833.000000;1.279194
1832.000000;1.356356
1831.000000;1.614148
1830.000000;1.732474
1829.000000;1.530172
1828.000000;1.431744
1827.000000;1.411124
1826.000000;1.510833
1825.000000;1.678732
1824.000000;1.596969
1823.000000;1.614688
1822.000000;1.813307
1821.000000;1.642905
1820.000000;1.443263
1819.000000;1.455188
1818.000000;1.579175
1817.000000;1.572430
1816.000000;1.496713
1815.000000;1.733744
1814.000000;1.870319
1813.000000;1.485997
1812.000000;1.352564
1811.000000;1.363014
1810.000000;1.413104
1809.000000;1.460187
1808.000000;1.527660
1807.000000;1.625392
1806.000000;1.629487
1805.000000;1.511083
1804.000000;1.411225
1803.000000;1.389729
1802.000000;1.563092
1801.000000;2.134297
1800.000000;1.910952
1799.000000;1.636400
1798.000000;1.567875
1797.000000;1.603506
1796.000000;1.820015
1795.000000;1.823036
1794.000000;1.621399
1793.000000;1.898607
1792.000000;2.238006
1791.000000;1.807174
1790.000000;1.836832
1789.000000;2.075157
1788.000000;2.325145
1787.000000;2.101707
1786.000000;1.586000
1785.000000;1.303509
1784.000000;1.221053
1783.000000;1.279762
1782.000000;1.399253
1781.000000;1.379053
1780.000000;1.397416
1779.000000;1.694616
1778.000000;1.575576
1777.000000;1.299838
1776.000000;1.249054
1775.000000;1.330384
1774.000000;1.404460
1773.000000;1.359919
1772.000000;1.367513
1771.000000;1.518423
1770.000000;1.799312
1769.000000;1.721575
1768.000000;1.437700
1767.000000;1.382498
1766.000000;1.635290
1765.000000;2.063722
1764.000000;1.656826
1763.000000;1.598484
1762.000000;1.900950
1761.000000;1.736009
1760.000000;1.452350
1759.000000;1.381546
1758.000000;1.489350
1757.000000;1.615607
1756.000000;1.459646
1755.000000;1.433228
1754.000000;1.699333
1753.000000;2.244448
1752.000000;1.780641
1751.000000;1.646753
1750.000000;1.696050
1749.000000;1.718510
1748.000000;1.738996
1747.000000;1.700801
1746.000000;1.880441
1745.000000;2.362397
1744.000000;1.637470
1743.000000;1.431307
1742.000000;1.380894
1741.000000;1.393789
1740.000000;1.434651
1739.000000;1.439784
1738.000000;1.433509
1737.000000;1.470167
1736.000000;1.700165
1735.000000;2.243167
1734.000000;2.239563
1733.000000;2.127318
1732.000000;1.866137
1731.000000;1.614153
1730.000000;1.540360
1729.000000;1.610695
1728.000000;1.968933
1727.000000;2.257322
1726.000000;1.838686
1725.000000;1.737211
1724.000000;1.894039
1723.000000;2.418295
1722.000000;2.146266
1721.000000;1.954695
1720.000000;1.948810
1719.000000;1.741553
1718.000000;1.504959
1717.000000;1.380954
1716.000000;1.373907
1715.000000;1.463223
1714.000000;1.617881
1713.000000;1.962049
1712.000000;2.047769
1711.000000;1.662490
1710.000000;1.472788
1709.000000;1.323587
1708.000000;1.305173
1707.000000;1.554573
1706.000000;2.029081
1705.000000;1.685706
1704.000000;1.518721
1703.000000;1.544507
1702.000000;1.592328
1701.000000;1.642515
1700.000000;1.635825
1699.000000;1.652520
1698.000000;1.657057
1697.000000;1.736319
1696.000000;1.556689
1695.000000;1.330201
1694.000000;1.338003
1693.000000;1.433028
1692.000000;1.448652
1691.000000;1.396070
1690.000000;1.411130
1689.000000;1.534457
1688.000000;1.557939
1687.000000;1.421443
1686.000000;1.511273
1685.000000;1.877957
1684.000000;1.768178
1683.000000;1.921171
1682.000000;2.417036
1681.000000;1.952459
1680.000000;1.644367
1679.000000;1.585550
1678.000000;1.852394
1677.000000;2.062456
1676.000000;1.650345
1675.000000;1.543182
1674.000000;1.676587
1673.000000;2.043412
1672.000000;1.740989
1671.000000;1.487658
1670.000000;1.504184
1669.000000;1.646935
1668.000000;1.752721
1667.000000;1.746368
1666.000000;1.778718
1665.000000;1.891997
1664.000000;1.756272
1663.000000;1.568493
1662.000000;1.403595
1661.000000;1.345527
1660.000000;1.383494
1659.000000;1.403000
1658.000000;1.343399
1657.000000;1.327093
1656.000000;1.379538
1655.000000;1.581287
1654.000000;1.764609
1653.000000;1.506880
1652.000000;1.433641
1651.000000;1.418644
1650.000000;1.337902
1649.000000;1.331841
1648.000000;1.433407
1647.000000;1.594795
1646.000000;1.668209
1645.000000;1.546893
1644.000000;1.366288
1643.000000;1.235635
1642.000000;1.182639
1641.000000;1.182275
1640.000000;1.219726
1639.000000;1.281646
1638.000000;1.334419
1637.000000;1.391910
1636.000000;1.529471
1635.000000;1.764079
1634.000000;1.756701
1633.000000;1.550956
1632.000000;1.475382
1631.000000;1.563522
1630.000000;1.438104
1629.000000;1.247415
1628.000000;1.264710
1627.000000;1.401419
1626.000000;1.638028
1625.000000;1.945207
1624.000000;2.123791
1623.000000;2.111742
1622.000000;2.019541
1621.000000;1.873578
1620.000000;1.699417
1619.000000;1.557320
1618.000000;1.486997
1617.000000;1.503443
1616.000000;1.584929
1615.000000;1.687951
1614.000000;1.819459
1613.000000;2.059603
1612.000000;2.427179
1611.000000;2.246587
1610.000000;1.812230
1609.000000;1.605906
1608.000000;1.545420
1607.000000;1.427665
1606.000000;1.312865
1605.000000;1.332639
1604.000000;1.590631
1603.000000;1.738861
1602.000000;1.461659
1601.000000;1.557863
1600.000000;1.985857
1599.000000;1.664636
1598.000000;1.489463
1597.000000;1.505926
1596.000000;1.441764
1595.000000;1.472511
1594.000000;1.889448
1593.000000;1.943765
1592.000000;1.537998
1591.000000;1.459130
1590.000000;1.488836
1589.000000;1.507452
1588.000000;1.617347
1587.000000;1.948924
1586.000000;2.320526
1585.000000;1.960461
1584.000000;1.681839
1583.000000;1.638709
1582.000000;1.958623
1581.000000;1.872094
1580.000000;1.435260
1579.000000;1.398317
1578.000000;1.495943
1577.000000;1.512926
1576.000000;1.459662
1575.000000;1.612720
1574.000000;1.564580
1573.000000;1.369436
1572.000000;1.300999
1571.000000;1.310647
1570.000000;1.353737
1569.000000;1.423057
1568.000000;1.512228
1567.000000;1.586347
1566.000000;1.699758
1565.000000;1.900877
1564.000000;2.513696
1563.000000;1.782980
1562.000000;1.410641
1561.000000;1.317112
1560.000000;1.541228
1559.000000;1.516073
1558.000000;1.457799
1557.000000;1.513413
1556.000000;1.511986
1555.000000;1.496111
1554.000000;1.529265
1553.000000;1.563041
1552.000000;1.575756
1551.000000;1.560648
1550.000000;1.489978
1549.000000;1.397394
1548.000000;1.314608
1547.000000;1.285144
1546.000000;1.339080
1545.000000;1.637807
1544.000000;1.812521
1543.000000;1.529602
1542.000000;1.528731
1541.000000;1.701701
1540.000000;1.582334
1539.000000;1.509070
1538.000000;1.646128
1537.000000;1.956349
1536.000000;2.389622
1535.000000;2.020166
1534.000000;2.003823
1533.000000;1.822792
1532.000000;1.596612
1531.000000;1.501169
1530.000000;1.434750
1529.000000;1.384110
1528.000000;1.383717
1527.000000;1.338595
1526.000000;1.263012
1525.000000;1.275603
1524.000000;1.431197
1523.000000;1.782886
1522.000000;1.625404
1521.000000;1.337782
1520.000000;1.320174
1519.000000;1.439880
1518.000000;1.606260
1517.000000;1.601745
1516.000000;1.640937
1515.000000;1.851210
1514.000000;1.604795
1513.000000;1.361214
1512.000000;1.217820
1511.000000;1.103152
1510.000000;1.069453
1509.000000;1.140041
1508.000000;1.264321
1507.000000;1.258452
1506.000000;1.408923
1505.000000;1.938074
1504.000000;2.086364
1503.000000;1.804839
1502.000000;1.903537
1501.000000;1.957079
1500.000000;1.675494
1499.000000;1.504266
1498.000000;1.492204
1497.000000;1.641649
1496.000000;1.828193
1495.000000;1.956356
1494.000000;1.871694
1493.000000;1.877056
1492.000000;1.798297
1491.000000;1.488021
1490.000000;1.446271
1489.000000;1.513431
1488.000000;1.426173
1487.000000;1.338320
1486.000000;1.345319
1485.000000;1.364683
1484.000000;1.338147
1483.000000;1.337129
1482.000000;1.424650
1481.000000;1.563466
1480.000000;1.630150
1479.000000;1.618366
1478.000000;1.646130
1477.000000;1.723728
1476.000000;1.707939
1475.000000;1.485330
1474.000000;1.258451
1473.000000;1.182972
1472.000000;1.270292
1471.000000;1.518740
1470.000000;1.737529
1469.000000;1.558845
1468.000000;1.435296
1467.000000;1.485907
1466.000000;1.656150
1465.000000;1.740648
1464.000000;1.936593
1463.000000;1.652365
1462.000000;1.255834
1461.000000;1.067996
1460.000000;1.043219
1459.000000;1.155931
1458.000000;1.193767
1457.000000;1.149736
1456.000000;1.219584
1455.000000;1.364076
1454.000000;1.465049
1453.000000;1.516472
1452.000000;1.606927
1451.000000;1.734846
1450.000000;1.858734
1449.000000;1.940492
1448.000000;1.832514
1447.000000;1.630992
1446.000000;1.473331
1445.000000;1.324096
1444.000000;1.175506
1443.000000;1.115574
1442.000000;1.262286
1441.000000;1.606630
1440.000000;1.421146
1439.000000;1.252051
1438.000000;1.345962
1437.000000;1.472954
1436.000000;1.455662
1435.000000;1.419204
1434.000000;1.393706
1433.000000;1.328962
1432.000000;1.325245
1431.000000;1.531439
1430.000000;1.594743
1429.000000;1.412662
1428.000000;1.346107
1427.000000;1.330049
1426.000000;1.348208
1425.000000;1.453592
1424.000000;1.700540
1423.000000;1.975946
1422.000000;1.769859
1421.000000;1.453315
1420.000000;1.302565
1419.000000;1.331686
1418.000000;1.478972
1417.000000;1.648438
1416.000000;1.601404
1415.000000;1.314188
1414.000000;1.108636
1413.000000;1.028809
1412.000000;1.069497
1411.000000;1.234560
1410.000000;1.602283
1409.000000;2.119916
1408.000000;1.774141
1407.000000;1.533155
1406.000000;1.395611
1405.000000;1.246230
1404.000000;1.216482
1403.000000;1.317933
1402.000000;2.475557
1401.000000;1.415790
1400.000000;1.179776
1399.000000;1.222344
1398.000000;1.364579
1397.000000;1.313967
1396.000000;1.213149
1395.000000;1.246722
1394.000000;1.473348
1393.000000;1.890597
1392.000000;2.242963
1391.000000;1.738180
1390.000000;1.340438
1389.000000;1.313802
1388.000000;1.531530
1387.000000;1.465341
1386.000000;1.278618
1385.000000;1.337770
1384.000000;1.490355
1383.000000;1.430067
1382.000000;1.313473
1381.000000;1.439217
1380.000000;1.856982
1379.000000;1.404645
1378.000000;1.189551
1377.000000;1.173697
1376.000000;1.220279
1375.000000;1.383530
1374.000000;1.846626
1373.000000;1.806231
1372.000000;1.787148
1371.000000;3.164781
1370.000000;1.685638
1369.000000;1.586786
1368.000000;1.692049
1367.000000;1.654911
1366.000000;1.482282
1365.000000;1.424972
1364.000000;1.444767
1363.000000;1.475832
1362.000000;1.364993
1361.000000;1.204302
1360.000000;1.105084
1359.000000;1.053077
1358.000000;1.051645
1357.000000;1.138978
1356.000000;1.372779
1355.000000;1.777219
1354.000000;2.232035
1353.000000;1.874666
1352.000000;1.590084
1351.000000;1.409043
1350.000000;1.239594
1349.000000;1.136794
1348.000000;1.143564
1347.000000;1.239177
1346.000000;1.164870
1345.000000;1.076962
1344.000000;1.172683
1343.000000;1.579488
1342.000000;1.729850
1341.000000;1.376639
1340.000000;1.316063
1339.000000;1.204810
1338.000000;1.082603
1337.000000;1.045816
1336.000000;1.126813
1335.000000;1.369041
1334.000000;1.488333
1333.000000;1.316413
1332.000000;1.387586
1331.000000;1.302391
1330.000000;1.066349
1329.000000;0.997009
1328.000000;1.055140
1327.000000;1.199631
1326.000000;1.463275
1325.000000;1.969855
1324.000000;2.306959
1323.000000;2.021140
1322.000000;1.663932
1321.000000;1.695905
1320.000000;2.013633
1319.000000;1.498270
1318.000000;1.389497
1317.000000;1.623329
1316.000000;1.461809
1315.000000;1.173670
1314.000000;1.165129
1313.000000;1.253115
1312.000000;1.160962
1311.000000;1.083038
1310.000000;1.092717
1309.000000;1.071555
1308.000000;1.064137
1307.000000;1.132582
1306.000000;1.168543
1305.000000;1.104451
1304.000000;1.034313
1303.000000;1.028853
1302.000000;1.113078
1301.000000;1.398767
1300.000000;1.658204
1299.000000;1.345489
1298.000000;1.233239
1297.000000;1.274827
1296.000000;1.390416
1295.000000;1.640761
1294.000000;2.277009
1293.000000;2.240054
1292.000000;1.967539
1291.000000;1.927496
1290.000000;2.592485
1289.000000;1.415883
1288.000000;1.139340
1287.000000;1.155109
1286.000000;1.420842
1285.000000;1.241245
1284.000000;1.078027
1283.000000;1.334028
1282.000000;1.760724
1281.000000;1.331136
1280.000000;1.285665
1279.000000;1.178693
1278.000000;1.044855
1277.000000;0.980355
1276.000000;0.941627
1275.000000;0.946691
1274.000000;1.056890
1273.000000;1.410009
1272.000000;1.763478
1271.000000;1.438308
1270.000000;1.228750
1269.000000;1.086593
1268.000000;1.037813
1267.000000;1.091948
1266.000000;1.109555
1265.000000;1.070237
1264.000000;1.131791
1263.000000;1.274163
1262.000000;1.296518
1261.000000;1.435216
1260.000000;1.732448
1259.000000;1.271124
1258.000000;1.093646
1257.000000;1.036202
1256.000000;1.024749
1255.000000;1.071365
1254.000000;1.213142
1253.000000;1.248097
1252.000000;1.151885
1251.000000;1.175072
1250.000000;1.298915
1249.000000;1.534225
1248.000000;1.833930
1247.000000;1.420557
1246.000000;1.188370
1245.000000;1.202835
1244.000000;1.342450
1243.000000;1.472938
1242.000000;1.542589
1241.000000;1.486857
1240.000000;1.322668
1239.000000;1.198510
1238.000000;1.147369
1237.000000;1.122993
1236.000000;1.071667
1235.000000;1.042871
1234.000000;1.089550
1233.000000;1.224795
1232.000000;1.328743
1231.000000;1.465965
1230.000000;1.658257
1229.000000;1.243452
1228.000000;1.051420
1227.000000;1.051749
1226.000000;1.082249
1225.000000;1.056765
1224.000000;1.091471
1223.000000;1.247632
1222.000000;1.578111
1221.000000;1.654150
1220.000000;1.367319
1219.000000;1.166646
1218.000000;1.023604
1217.000000;0.979793
1216.000000;1.077720
1215.000000;1.360118
1214.000000;2.308665
1213.000000;1.775827
1212.000000;1.386017
1211.000000;1.180490
1210.000000;1.076964
1209.000000;1.075779
1208.000000;1.164853
1207.000000;1.342436
1206.000000;1.616002
1205.000000;1.788408
1204.000000;1.892169
1203.000000;1.975192
1202.000000;1.495154
1201.000000;1.308227
1200.000000;1.315836
