Criado como novo conjunto de dados;"2706_e01_daniel.spp","107827.2 Secs"
cm-1;Abs
10000.000000;0.865058
9999.000000;0.865355
9998.000000;0.865427
9997.000000;0.865172
9996.000000;0.865141
9995.000000;0.865832
9994.000000;0.866924
9993.000000;0.867546
9992.000000;0.867260
9991.000000;0.866495
9990.000000;0.866001
9989.000000;0.866082
9988.000000;0.866433
9987.000000;0.866550
9986.000000;0.866205
9985.000000;0.865590
9984.000000;0.865064
9983.000000;0.864794
9982.000000;0.864647
9981.000000;0.864432
9980.000000;0.864148
9979.000000;0.863934
9978.000000;0.863857
9977.000000;0.863812
9976.000000;0.863615
9975.000000;0.863184
9974.000000;0.862700
9973.000000;0.862582
9972.000000;0.863115
9971.000000;0.864070
9970.000000;0.864851
9969.000000;0.865120
9968.000000;0.865106
9967.000000;0.865185
9966.000000;0.865357
9965.000000;0.865343
9964.000000;0.864983
9963.000000;0.864320
9962.000000;0.863470
9961.000000;0.862714
9960.000000;0.862550
9959.000000;0.863239
9958.000000;0.864301
9957.000000;0.864850
9956.000000;0.864543
9955.000000;0.863884
9954.000000;0.863483
9953.000000;0.863364
9952.000000;0.863230
9951.000000;0.863083
9950.000000;0.863220
9949.000000;0.863747
9948.000000;0.864415
9947.000000;0.864931
9946.000000;0.865137
9945.000000;0.864881
9944.000000;0.864009
9943.000000;0.862657
9942.000000;0.861364
9941.000000;0.860684
9940.000000;0.860698
9939.000000;0.861004
9938.000000;0.861173
9937.000000;0.861123
9936.000000;0.861036
9935.000000;0.861027
9934.000000;0.861026
9933.000000;0.860948
9932.000000;0.860881
9931.000000;0.860983
9930.000000;0.861246
9929.000000;0.861416
9928.000000;0.861206
9927.000000;0.860583
9926.000000;0.859821
9925.000000;0.859233
9924.000000;0.858900
9923.000000;0.858729
9922.000000;0.858721
9921.000000;0.859012
9920.000000;0.859577
9919.000000;0.860075
9918.000000;0.860160
9917.000000;0.859885
9916.000000;0.859611
9915.000000;0.859555
9914.000000;0.859643
9913.000000;0.859807
9912.000000;0.860145
9911.000000;0.860670
9910.000000;0.861104
9909.000000;0.861099
9908.000000;0.860577
9907.000000;0.859722
9906.000000;0.858776
9905.000000;0.857965
9904.000000;0.857488
9903.000000;0.857408
9902.000000;0.857588
9901.000000;0.857875
9900.000000;0.858245
9899.000000;0.858643
9898.000000;0.858826
9897.000000;0.858590
9896.000000;0.858103
9895.000000;0.857784
9894.000000;0.857863
9893.000000;0.858197
9892.000000;0.858504
9891.000000;0.858620
9890.000000;0.858537
9889.000000;0.858373
9888.000000;0.858288
9887.000000;0.858284
9886.000000;0.858110
9885.000000;0.857550
9884.000000;0.856813
9883.000000;0.856424
9882.000000;0.856630
9881.000000;0.857081
9880.000000;0.857215
9879.000000;0.856852
9878.000000;0.856319
9877.000000;0.856090
9876.000000;0.856375
9875.000000;0.856974
9874.000000;0.857407
9873.000000;0.857261
9872.000000;0.856499
9871.000000;0.855471
9870.000000;0.854608
9869.000000;0.854125
9868.000000;0.853987
9867.000000;0.854059
9866.000000;0.854254
9865.000000;0.854576
9864.000000;0.855042
9863.000000;0.855539
9862.000000;0.855836
9861.000000;0.855814
9860.000000;0.855655
9859.000000;0.855671
9858.000000;0.855945
9857.000000;0.856253
9856.000000;0.856325
9855.000000;0.856056
9854.000000;0.855508
9853.000000;0.854875
9852.000000;0.854497
9851.000000;0.854667
9850.000000;0.855317
9849.000000;0.855994
9848.000000;0.856296
9847.000000;0.856273
9846.000000;0.856275
9845.000000;0.856500
9844.000000;0.856804
9843.000000;0.856902
9842.000000;0.856655
9841.000000;0.856179
9840.000000;0.855763
9839.000000;0.855625
9838.000000;0.855706
9837.000000;0.855711
9836.000000;0.855453
9835.000000;0.855097
9834.000000;0.854974
9833.000000;0.855164
9832.000000;0.855349
9831.000000;0.855102
9830.000000;0.854289
9829.000000;0.853188
9828.000000;0.852261
9827.000000;0.851814
9826.000000;0.851850
9825.000000;0.852175
9824.000000;0.852617
9823.000000;0.853106
9822.000000;0.853584
9821.000000;0.853930
9820.000000;0.854007
9819.000000;0.853768
9818.000000;0.853266
9817.000000;0.852596
9816.000000;0.851897
9815.000000;0.851352
9814.000000;0.851122
9813.000000;0.851236
9812.000000;0.851591
9811.000000;0.852040
9810.000000;0.852464
9809.000000;0.852766
9808.000000;0.852842
9807.000000;0.852645
9806.000000;0.852249
9805.000000;0.851818
9804.000000;0.851487
9803.000000;0.851288
9802.000000;0.851209
9801.000000;0.851254
9800.000000;0.851386
9799.000000;0.851475
9798.000000;0.851377
9797.000000;0.851063
9796.000000;0.850601
9795.000000;0.850066
9794.000000;0.849577
9793.000000;0.849390
9792.000000;0.849713
9791.000000;0.850404
9790.000000;0.851005
9789.000000;0.851208
9788.000000;0.851146
9787.000000;0.851116
9786.000000;0.851159
9785.000000;0.851113
9784.000000;0.850946
9783.000000;0.850836
9782.000000;0.850925
9781.000000;0.851173
9780.000000;0.851406
9779.000000;0.851369
9778.000000;0.850812
9777.000000;0.849772
9776.000000;0.848748
9775.000000;0.848349
9774.000000;0.848690
9773.000000;0.849289
9772.000000;0.849596
9771.000000;0.849485
9770.000000;0.849188
9769.000000;0.848982
9768.000000;0.849017
9767.000000;0.849295
9766.000000;0.849642
9765.000000;0.849801
9764.000000;0.849689
9763.000000;0.849523
9762.000000;0.849601
9761.000000;0.849976
9760.000000;0.850400
9759.000000;0.850535
9758.000000;0.850199
9757.000000;0.849505
9756.000000;0.848789
9755.000000;0.848335
9754.000000;0.848143
9753.000000;0.848025
9752.000000;0.847883
9751.000000;0.847776
9750.000000;0.847732
9749.000000;0.847652
9748.000000;0.847465
9747.000000;0.847240
9746.000000;0.847072
9745.000000;0.846979
9744.000000;0.846974
9743.000000;0.847113
9742.000000;0.847376
9741.000000;0.847610
9740.000000;0.847656
9739.000000;0.847461
9738.000000;0.847065
9737.000000;0.846626
9736.000000;0.846465
9735.000000;0.846820
9734.000000;0.847478
9733.000000;0.847876
9732.000000;0.847727
9731.000000;0.847348
9730.000000;0.847165
9729.000000;0.847141
9728.000000;0.846943
9727.000000;0.846525
9726.000000;0.846194
9725.000000;0.846135
9724.000000;0.846180
9723.000000;0.846102
9722.000000;0.845887
9721.000000;0.845655
9720.000000;0.845485
9719.000000;0.845407
9718.000000;0.845437
9717.000000;0.845524
9716.000000;0.845557
9715.000000;0.845464
9714.000000;0.845275
9713.000000;0.845066
9712.000000;0.844916
9711.000000;0.844872
9710.000000;0.844887
9709.000000;0.844822
9708.000000;0.844640
9707.000000;0.844525
9706.000000;0.844679
9705.000000;0.845016
9704.000000;0.845224
9703.000000;0.845137
9702.000000;0.844893
9701.000000;0.844709
9700.000000;0.844670
9699.000000;0.844740
9698.000000;0.844833
9697.000000;0.844807
9696.000000;0.844546
9695.000000;0.844138
9694.000000;0.843836
9693.000000;0.843775
9692.000000;0.843862
9691.000000;0.843988
9690.000000;0.844215
9689.000000;0.844610
9688.000000;0.845023
9687.000000;0.845164
9686.000000;0.844890
9685.000000;0.844339
9684.000000;0.843818
9683.000000;0.843602
9682.000000;0.843761
9681.000000;0.844098
9680.000000;0.844286
9679.000000;0.844118
9678.000000;0.843620
9677.000000;0.842950
9676.000000;0.842332
9675.000000;0.842033
9674.000000;0.842208
9673.000000;0.842651
9672.000000;0.842882
9671.000000;0.842626
9670.000000;0.842106
9669.000000;0.841736
9668.000000;0.841649
9667.000000;0.841737
9666.000000;0.841990
9665.000000;0.842509
9664.000000;0.843173
9663.000000;0.843569
9662.000000;0.843390
9661.000000;0.842748
9660.000000;0.841983
9659.000000;0.841310
9658.000000;0.840777
9657.000000;0.840416
9656.000000;0.840239
9655.000000;0.840129
9654.000000;0.839925
9653.000000;0.839669
9652.000000;0.839644
9651.000000;0.840080
9650.000000;0.840847
9649.000000;0.841511
9648.000000;0.841697
9647.000000;0.841387
9646.000000;0.840882
9645.000000;0.840516
9644.000000;0.840412
9643.000000;0.840468
9642.000000;0.840511
9641.000000;0.840440
9640.000000;0.840310
9639.000000;0.840300
9638.000000;0.840565
9637.000000;0.841016
9636.000000;0.841303
9635.000000;0.841115
9634.000000;0.840534
9633.000000;0.839987
9632.000000;0.839793
9631.000000;0.839822
9630.000000;0.839659
9629.000000;0.839081
9628.000000;0.838313
9627.000000;0.837823
9626.000000;0.837900
9625.000000;0.838437
9624.000000;0.839054
9623.000000;0.839431
9622.000000;0.839525
9621.000000;0.839498
9620.000000;0.839506
9619.000000;0.839596
9618.000000;0.839751
9617.000000;0.839939
9616.000000;0.840078
9615.000000;0.840061
9614.000000;0.839872
9613.000000;0.839618
9612.000000;0.839361
9611.000000;0.839007
9610.000000;0.838444
9609.000000;0.837769
9608.000000;0.837241
9607.000000;0.837029
9606.000000;0.837096
9605.000000;0.837319
9604.000000;0.837591
9603.000000;0.837798
9602.000000;0.837852
9601.000000;0.837824
9600.000000;0.837927
9599.000000;0.838221
9598.000000;0.838452
9597.000000;0.838309
9596.000000;0.837824
9595.000000;0.837363
9594.000000;0.837198
9593.000000;0.837214
9592.000000;0.837101
9591.000000;0.836748
9590.000000;0.836363
9589.000000;0.836216
9588.000000;0.836343
9587.000000;0.836543
9586.000000;0.836646
9585.000000;0.836714
9584.000000;0.836905
9583.000000;0.837186
9582.000000;0.837333
9581.000000;0.837246
9580.000000;0.837113
9579.000000;0.837131
9578.000000;0.837173
9577.000000;0.836943
9576.000000;0.836431
9575.000000;0.835995
9574.000000;0.835940
9573.000000;0.836204
9572.000000;0.836519
9571.000000;0.836700
9570.000000;0.836666
9569.000000;0.836352
9568.000000;0.835827
9567.000000;0.835410
9566.000000;0.835444
9565.000000;0.835949
9564.000000;0.836621
9563.000000;0.837158
9562.000000;0.837445
9561.000000;0.837430
9560.000000;0.837047
9559.000000;0.836360
9558.000000;0.835646
9557.000000;0.835205
9556.000000;0.835109
9555.000000;0.835213
9554.000000;0.835343
9553.000000;0.835434
9552.000000;0.835531
9551.000000;0.835708
9550.000000;0.835933
9549.000000;0.835984
9548.000000;0.835599
9547.000000;0.834784
9546.000000;0.833890
9545.000000;0.833293
9544.000000;0.833064
9543.000000;0.833044
9542.000000;0.833138
9541.000000;0.833379
9540.000000;0.833705
9539.000000;0.833883
9538.000000;0.833748
9537.000000;0.833412
9536.000000;0.833139
9535.000000;0.833080
9534.000000;0.833202
9533.000000;0.833412
9532.000000;0.833624
9531.000000;0.833738
9530.000000;0.833663
9529.000000;0.833400
9528.000000;0.833067
9527.000000;0.832829
9526.000000;0.832791
9525.000000;0.832932
9524.000000;0.833097
9523.000000;0.833103
9522.000000;0.832892
9521.000000;0.832573
9520.000000;0.832271
9519.000000;0.831980
9518.000000;0.831637
9517.000000;0.831317
9516.000000;0.831205
9515.000000;0.831355
9514.000000;0.831594
9513.000000;0.831710
9512.000000;0.831682
9511.000000;0.831621
9510.000000;0.831561
9509.000000;0.831416
9508.000000;0.831151
9507.000000;0.830888
9506.000000;0.830805
9505.000000;0.830962
9504.000000;0.831231
9503.000000;0.831392
9502.000000;0.831297
9501.000000;0.831015
9500.000000;0.830809
9499.000000;0.830899
9498.000000;0.831234
9497.000000;0.831546
9496.000000;0.831668
9495.000000;0.831687
9494.000000;0.831749
9493.000000;0.831791
9492.000000;0.831617
9491.000000;0.831222
9490.000000;0.830878
9489.000000;0.830842
9488.000000;0.831057
9487.000000;0.831250
9486.000000;0.831255
9485.000000;0.831150
9484.000000;0.831089
9483.000000;0.831106
9482.000000;0.831096
9481.000000;0.830945
9480.000000;0.830614
9479.000000;0.830171
9478.000000;0.829754
9477.000000;0.829486
9476.000000;0.829373
9475.000000;0.829292
9474.000000;0.829099
9473.000000;0.828760
9472.000000;0.828393
9471.000000;0.828221
9470.000000;0.828428
9469.000000;0.828988
9468.000000;0.829596
9467.000000;0.829868
9466.000000;0.829682
9465.000000;0.829289
9464.000000;0.829024
9463.000000;0.828986
9462.000000;0.829041
9461.000000;0.829079
9460.000000;0.829126
9459.000000;0.829223
9458.000000;0.829314
9457.000000;0.829285
9456.000000;0.829043
9455.000000;0.828588
9454.000000;0.828075
9453.000000;0.827794
9452.000000;0.827940
9451.000000;0.828344
9450.000000;0.828557
9449.000000;0.828284
9448.000000;0.827712
9447.000000;0.827327
9446.000000;0.827462
9445.000000;0.828042
9444.000000;0.828687
9443.000000;0.829003
9442.000000;0.828855
9441.000000;0.828445
9440.000000;0.828116
9439.000000;0.828017
9438.000000;0.827998
9437.000000;0.827851
9436.000000;0.827560
9435.000000;0.827244
9434.000000;0.826975
9433.000000;0.826773
9432.000000;0.826692
9431.000000;0.826736
9430.000000;0.826693
9429.000000;0.826276
9428.000000;0.825484
9427.000000;0.824724
9426.000000;0.824458
9425.000000;0.824761
9424.000000;0.825284
9423.000000;0.825592
9422.000000;0.825542
9421.000000;0.825363
9420.000000;0.825412
9419.000000;0.825803
9418.000000;0.826303
9417.000000;0.826592
9416.000000;0.826572
9415.000000;0.826356
9414.000000;0.826029
9413.000000;0.825596
9412.000000;0.825149
9411.000000;0.824879
9410.000000;0.824830
9409.000000;0.824804
9408.000000;0.824617
9407.000000;0.824354
9406.000000;0.824242
9405.000000;0.824343
9404.000000;0.824515
9403.000000;0.824637
9402.000000;0.824727
9401.000000;0.824851
9400.000000;0.825012
9399.000000;0.825166
9398.000000;0.825264
9397.000000;0.825282
9396.000000;0.825237
9395.000000;0.825174
9394.000000;0.825073
9393.000000;0.824850
9392.000000;0.824489
9391.000000;0.824150
9390.000000;0.824027
9389.000000;0.824138
9388.000000;0.824334
9387.000000;0.824480
9386.000000;0.824525
9385.000000;0.824417
9384.000000;0.824108
9383.000000;0.823645
9382.000000;0.823170
9381.000000;0.822805
9380.000000;0.822626
9379.000000;0.822729
9378.000000;0.823150
9377.000000;0.823681
9376.000000;0.823963
9375.000000;0.823852
9374.000000;0.823574
9373.000000;0.823407
9372.000000;0.823331
9371.000000;0.823147
9370.000000;0.822797
9369.000000;0.822399
9368.000000;0.822026
9367.000000;0.821692
9366.000000;0.821534
9365.000000;0.821766
9364.000000;0.822371
9363.000000;0.822998
9362.000000;0.823281
9361.000000;0.823173
9360.000000;0.822866
9359.000000;0.822504
9358.000000;0.822098
9357.000000;0.821654
9356.000000;0.821236
9355.000000;0.820916
9354.000000;0.820750
9353.000000;0.820808
9352.000000;0.821114
9351.000000;0.821543
9350.000000;0.821850
9349.000000;0.821844
9348.000000;0.821530
9347.000000;0.821082
9346.000000;0.820729
9345.000000;0.820634
9344.000000;0.820820
9343.000000;0.821144
9342.000000;0.821389
9341.000000;0.821416
9340.000000;0.821245
9339.000000;0.821012
9338.000000;0.820871
9337.000000;0.820893
9336.000000;0.821003
9335.000000;0.821021
9334.000000;0.820830
9333.000000;0.820525
9332.000000;0.820345
9331.000000;0.820423
9330.000000;0.820665
9329.000000;0.820886
9328.000000;0.820998
9327.000000;0.821026
9326.000000;0.820983
9325.000000;0.820846
9324.000000;0.820647
9323.000000;0.820497
9322.000000;0.820488
9321.000000;0.820586
9320.000000;0.820669
9319.000000;0.820648
9318.000000;0.820530
9317.000000;0.820386
9316.000000;0.820256
9315.000000;0.820118
9314.000000;0.819953
9313.000000;0.819832
9312.000000;0.819883
9311.000000;0.820122
9310.000000;0.820367
9309.000000;0.820378
9308.000000;0.820107
9307.000000;0.819730
9306.000000;0.819447
9305.000000;0.819295
9304.000000;0.819209
9303.000000;0.819187
9302.000000;0.819302
9301.000000;0.819539
9300.000000;0.819724
9299.000000;0.819681
9298.000000;0.819434
9297.000000;0.819173
9296.000000;0.819048
9295.000000;0.819020
9294.000000;0.818959
9293.000000;0.818805
9292.000000;0.818594
9291.000000;0.818349
9290.000000;0.818056
9289.000000;0.817777
9288.000000;0.817701
9287.000000;0.817972
9286.000000;0.818479
9285.000000;0.818879
9284.000000;0.818888
9283.000000;0.818513
9282.000000;0.817997
9281.000000;0.817590
9280.000000;0.817408
9279.000000;0.817430
9278.000000;0.817542
9277.000000;0.817590
9276.000000;0.817485
9275.000000;0.817302
9274.000000;0.817205
9273.000000;0.817239
9272.000000;0.817252
9271.000000;0.817070
9270.000000;0.816704
9269.000000;0.816323
9268.000000;0.816057
9267.000000;0.815927
9266.000000;0.815913
9265.000000;0.816004
9264.000000;0.816128
9263.000000;0.816160
9262.000000;0.816053
9261.000000;0.815911
9260.000000;0.815852
9259.000000;0.815856
9258.000000;0.815844
9257.000000;0.815855
9256.000000;0.816025
9255.000000;0.816355
9254.000000;0.816612
9253.000000;0.816527
9252.000000;0.816068
9251.000000;0.815468
9250.000000;0.815021
9249.000000;0.814886
9248.000000;0.815037
9247.000000;0.815304
9246.000000;0.815449
9245.000000;0.815309
9244.000000;0.814915
9243.000000;0.814501
9242.000000;0.814333
9241.000000;0.814512
9240.000000;0.814934
9239.000000;0.815404
9238.000000;0.815749
9237.000000;0.815824
9236.000000;0.815515
9235.000000;0.814845
9234.000000;0.814073
9233.000000;0.813578
9232.000000;0.813566
9231.000000;0.813941
9230.000000;0.814464
9229.000000;0.814973
9228.000000;0.815375
9227.000000;0.815533
9226.000000;0.815325
9225.000000;0.814827
9224.000000;0.814312
9223.000000;0.814003
9222.000000;0.813882
9221.000000;0.813764
9220.000000;0.813508
9219.000000;0.813127
9218.000000;0.812748
9217.000000;0.812518
9216.000000;0.812510
9215.000000;0.812680
9214.000000;0.812922
9213.000000;0.813150
9212.000000;0.813324
9211.000000;0.813420
9210.000000;0.813454
9209.000000;0.813493
9208.000000;0.813568
9207.000000;0.813553
9206.000000;0.813268
9205.000000;0.812750
9204.000000;0.812304
9203.000000;0.812205
9202.000000;0.812412
9201.000000;0.812664
9200.000000;0.812775
9199.000000;0.812730
9198.000000;0.812558
9197.000000;0.812258
9196.000000;0.811867
9195.000000;0.811503
9194.000000;0.811277
9193.000000;0.811211
9192.000000;0.811258
9191.000000;0.811341
9190.000000;0.811398
9189.000000;0.811434
9188.000000;0.811511
9187.000000;0.811650
9186.000000;0.811751
9185.000000;0.811694
9184.000000;0.811507
9183.000000;0.811361
9182.000000;0.811372
9181.000000;0.811490
9180.000000;0.811588
9179.000000;0.811582
9178.000000;0.811429
9177.000000;0.811104
9176.000000;0.810651
9175.000000;0.810232
9174.000000;0.810063
9173.000000;0.810278
9172.000000;0.810832
9171.000000;0.811483
9170.000000;0.811888
9169.000000;0.811812
9168.000000;0.811322
9167.000000;0.810731
9166.000000;0.810301
9165.000000;0.810043
9164.000000;0.809837
9163.000000;0.809679
9162.000000;0.809680
9161.000000;0.809850
9160.000000;0.810009
9159.000000;0.809979
9158.000000;0.809781
9157.000000;0.809567
9156.000000;0.809418
9155.000000;0.809297
9154.000000;0.809187
9153.000000;0.809145
9152.000000;0.809193
9151.000000;0.809258
9150.000000;0.809268
9149.000000;0.809251
9148.000000;0.809251
9147.000000;0.809192
9146.000000;0.808958
9145.000000;0.808595
9144.000000;0.808315
9143.000000;0.808254
9142.000000;0.808336
9141.000000;0.808402
9140.000000;0.808407
9139.000000;0.808403
9138.000000;0.808408
9137.000000;0.808406
9136.000000;0.808410
9135.000000;0.808448
9134.000000;0.808484
9133.000000;0.808460
9132.000000;0.808411
9131.000000;0.808431
9130.000000;0.808523
9129.000000;0.808554
9128.000000;0.808400
9127.000000;0.808080
9126.000000;0.807717
9125.000000;0.807428
9124.000000;0.807245
9123.000000;0.807121
9122.000000;0.807001
9121.000000;0.806923
9120.000000;0.807017
9119.000000;0.807336
9118.000000;0.807706
9117.000000;0.807851
9116.000000;0.807704
9115.000000;0.807473
9114.000000;0.807370
9113.000000;0.807370
9112.000000;0.807315
9111.000000;0.807150
9110.000000;0.806951
9109.000000;0.806768
9108.000000;0.806574
9107.000000;0.806372
9106.000000;0.806239
9105.000000;0.806228
9104.000000;0.806273
9103.000000;0.806242
9102.000000;0.806074
9101.000000;0.805874
9100.000000;0.805855
9099.000000;0.806162
9098.000000;0.806693
9097.000000;0.807129
9096.000000;0.807201
9095.000000;0.806931
9094.000000;0.806566
9093.000000;0.806306
9092.000000;0.806165
9091.000000;0.806080
9090.000000;0.806043
9089.000000;0.806055
9088.000000;0.806030
9087.000000;0.805862
9086.000000;0.805575
9085.000000;0.805350
9084.000000;0.805338
9083.000000;0.805488
9082.000000;0.805598
9081.000000;0.805535
9080.000000;0.805362
9079.000000;0.805235
9078.000000;0.805182
9077.000000;0.805043
9076.000000;0.804663
9075.000000;0.804137
9074.000000;0.803794
9073.000000;0.803891
9072.000000;0.804346
9071.000000;0.804792
9070.000000;0.804914
9069.000000;0.804688
9068.000000;0.804337
9067.000000;0.804109
9066.000000;0.804146
9065.000000;0.804439
9064.000000;0.804830
9063.000000;0.805056
9062.000000;0.804930
9061.000000;0.804510
9060.000000;0.804062
9059.000000;0.803814
9058.000000;0.803796
9057.000000;0.803910
9056.000000;0.804077
9055.000000;0.804232
9054.000000;0.804255
9053.000000;0.804037
9052.000000;0.803633
9051.000000;0.803263
9050.000000;0.803112
9049.000000;0.803140
9048.000000;0.803121
9047.000000;0.802861
9046.000000;0.802399
9045.000000;0.801996
9044.000000;0.801913
9043.000000;0.802160
9042.000000;0.802475
9041.000000;0.802559
9040.000000;0.802354
9039.000000;0.802054
9038.000000;0.801883
9037.000000;0.801879
9036.000000;0.801887
9035.000000;0.801716
9034.000000;0.801344
9033.000000;0.800990
9032.000000;0.800943
9031.000000;0.801249
9030.000000;0.801621
9029.000000;0.801738
9028.000000;0.801616
9027.000000;0.801565
9026.000000;0.801772
9025.000000;0.802075
9024.000000;0.802193
9023.000000;0.802044
9022.000000;0.801754
9021.000000;0.801461
9020.000000;0.801227
9019.000000;0.801096
9018.000000;0.801083
9017.000000;0.801102
9016.000000;0.801022
9015.000000;0.800822
9014.000000;0.800635
9013.000000;0.800609
9012.000000;0.800762
9011.000000;0.800984
9010.000000;0.801121
9009.000000;0.801063
9008.000000;0.800828
9007.000000;0.800597
9006.000000;0.800592
9005.000000;0.800859
9004.000000;0.801185
9003.000000;0.801300
9002.000000;0.801151
9001.000000;0.800931
9000.000000;0.800827
8999.000000;0.800783
8998.000000;0.800579
8997.000000;0.800127
8996.000000;0.799623
8995.000000;0.799369
8994.000000;0.799474
8993.000000;0.799766
8992.000000;0.799991
8991.000000;0.800040
8990.000000;0.799971
8989.000000;0.799872
8988.000000;0.799780
8987.000000;0.799695
8986.000000;0.799607
8985.000000;0.799475
8984.000000;0.799253
8983.000000;0.798961
8982.000000;0.798713
8981.000000;0.798634
8980.000000;0.798752
8979.000000;0.798979
8978.000000;0.799185
8977.000000;0.799266
8976.000000;0.799178
8975.000000;0.798958
8974.000000;0.798739
8973.000000;0.798672
8972.000000;0.798781
8971.000000;0.798905
8970.000000;0.798846
8969.000000;0.798584
8968.000000;0.798307
8967.000000;0.798207
8966.000000;0.798280
8965.000000;0.798369
8964.000000;0.798342
8963.000000;0.798214
8962.000000;0.798102
8961.000000;0.798098
8960.000000;0.798186
8959.000000;0.798228
8958.000000;0.798065
8957.000000;0.797682
8956.000000;0.797265
8955.000000;0.797049
8954.000000;0.797106
8953.000000;0.797310
8952.000000;0.797499
8951.000000;0.797607
8950.000000;0.797648
8949.000000;0.797634
8948.000000;0.797540
8947.000000;0.797323
8946.000000;0.796949
8945.000000;0.796454
8944.000000;0.795977
8943.000000;0.795671
8942.000000;0.795551
8941.000000;0.795491
8940.000000;0.795422
8939.000000;0.795448
8938.000000;0.795690
8937.000000;0.796078
8936.000000;0.796385
8935.000000;0.796473
8934.000000;0.796411
8933.000000;0.796337
8932.000000;0.796285
8931.000000;0.796200
8930.000000;0.796063
8929.000000;0.795928
8928.000000;0.795847
8927.000000;0.795795
8926.000000;0.795676
8925.000000;0.795402
8924.000000;0.794972
8923.000000;0.794488
8922.000000;0.794102
8921.000000;0.793925
8920.000000;0.794001
8919.000000;0.794323
8918.000000;0.794834
8917.000000;0.795384
8916.000000;0.795742
8915.000000;0.795745
8914.000000;0.795469
8913.000000;0.795189
8912.000000;0.795124
8911.000000;0.795216
8910.000000;0.795245
8909.000000;0.795109
8908.000000;0.794933
8907.000000;0.794862
8906.000000;0.794855
8905.000000;0.794754
8904.000000;0.794522
8903.000000;0.794294
8902.000000;0.794211
8901.000000;0.794275
8900.000000;0.794376
8899.000000;0.794411
8898.000000;0.794351
8897.000000;0.794241
8896.000000;0.794164
8895.000000;0.794158
8894.000000;0.794175
8893.000000;0.794144
8892.000000;0.794070
8891.000000;0.794009
8890.000000;0.793944
8889.000000;0.793785
8888.000000;0.793501
8887.000000;0.793188
8886.000000;0.792957
8885.000000;0.792831
8884.000000;0.792793
8883.000000;0.792843
8882.000000;0.792951
8881.000000;0.793007
8880.000000;0.792915
8879.000000;0.792715
8878.000000;0.792532
8877.000000;0.792426
8876.000000;0.792348
8875.000000;0.792231
8874.000000;0.792074
8873.000000;0.791934
8872.000000;0.791875
8871.000000;0.791906
8870.000000;0.791950
8869.000000;0.791913
8868.000000;0.791817
8867.000000;0.791801
8866.000000;0.791933
8865.000000;0.792094
8864.000000;0.792128
8863.000000;0.792065
8862.000000;0.792065
8861.000000;0.792145
8860.000000;0.792113
8859.000000;0.791814
8858.000000;0.791342
8857.000000;0.790957
8856.000000;0.790856
8855.000000;0.791056
8854.000000;0.791409
8853.000000;0.791701
8852.000000;0.791795
8851.000000;0.791728
8850.000000;0.791652
8849.000000;0.791635
8848.000000;0.791601
8847.000000;0.791471
8846.000000;0.791296
8845.000000;0.791169
8844.000000;0.791098
8843.000000;0.791039
8842.000000;0.791021
8841.000000;0.791128
8840.000000;0.791340
8839.000000;0.791505
8838.000000;0.791468
8837.000000;0.791207
8836.000000;0.790805
8835.000000;0.790355
8834.000000;0.789932
8833.000000;0.789617
8832.000000;0.789502
8831.000000;0.789612
8830.000000;0.789847
8829.000000;0.790015
8828.000000;0.789980
8827.000000;0.789775
8826.000000;0.789542
8825.000000;0.789385
8824.000000;0.789312
8823.000000;0.789324
8822.000000;0.789474
8821.000000;0.789756
8820.000000;0.790001
8819.000000;0.789976
8818.000000;0.789620
8817.000000;0.789129
8816.000000;0.788776
8815.000000;0.788669
8814.000000;0.788699
8813.000000;0.788684
8812.000000;0.788558
8811.000000;0.788431
8810.000000;0.788482
8809.000000;0.788759
8808.000000;0.789072
8807.000000;0.789127
8806.000000;0.788801
8805.000000;0.788268
8804.000000;0.787849
8803.000000;0.787739
8802.000000;0.787897
8801.000000;0.788168
8800.000000;0.788420
8799.000000;0.788589
8798.000000;0.788626
8797.000000;0.788519
8796.000000;0.788334
8795.000000;0.788187
8794.000000;0.788136
8793.000000;0.788115
8792.000000;0.788028
8791.000000;0.787881
8790.000000;0.787778
8789.000000;0.787758
8788.000000;0.787721
8787.000000;0.787540
8786.000000;0.787246
8785.000000;0.787001
8784.000000;0.786912
8783.000000;0.786928
8782.000000;0.786959
8781.000000;0.787011
8780.000000;0.787119
8779.000000;0.787204
8778.000000;0.787131
8777.000000;0.786923
8776.000000;0.786772
8775.000000;0.786771
8774.000000;0.786749
8773.000000;0.786504
8772.000000;0.786139
8771.000000;0.785987
8770.000000;0.786201
8769.000000;0.786565
8768.000000;0.786743
8767.000000;0.786600
8766.000000;0.786214
8765.000000;0.785715
8764.000000;0.785254
8763.000000;0.785002
8762.000000;0.785035
8761.000000;0.785204
8760.000000;0.785272
8759.000000;0.785178
8758.000000;0.785059
8757.000000;0.785028
8756.000000;0.785053
8755.000000;0.785090
8754.000000;0.785181
8753.000000;0.785360
8752.000000;0.785533
8751.000000;0.785558
8750.000000;0.785384
8749.000000;0.785076
8748.000000;0.784741
8747.000000;0.784480
8746.000000;0.784349
8745.000000;0.784302
8744.000000;0.784243
8743.000000;0.784164
8742.000000;0.784166
8741.000000;0.784297
8740.000000;0.784435
8739.000000;0.784430
8738.000000;0.784304
8737.000000;0.784190
8736.000000;0.784131
8735.000000;0.784036
8734.000000;0.783847
8733.000000;0.783617
8732.000000;0.783421
8731.000000;0.783274
8730.000000;0.783173
8729.000000;0.783122
8728.000000;0.783092
8727.000000;0.783029
8726.000000;0.782939
8725.000000;0.782901
8724.000000;0.782948
8723.000000;0.783028
8722.000000;0.783103
8721.000000;0.783219
8720.000000;0.783395
8719.000000;0.783515
8718.000000;0.783431
8717.000000;0.783160
8716.000000;0.782897
8715.000000;0.782804
8714.000000;0.782847
8713.000000;0.782856
8712.000000;0.782701
8711.000000;0.782393
8710.000000;0.782066
8709.000000;0.781883
8708.000000;0.781926
8707.000000;0.782132
8706.000000;0.782335
8705.000000;0.782393
8704.000000;0.782288
8703.000000;0.782108
8702.000000;0.781955
8701.000000;0.781862
8700.000000;0.781795
8699.000000;0.781715
8698.000000;0.781624
8697.000000;0.781561
8696.000000;0.781559
8695.000000;0.781619
8694.000000;0.781704
8693.000000;0.781768
8692.000000;0.781772
8691.000000;0.781699
8690.000000;0.781571
8689.000000;0.781446
8688.000000;0.781374
8687.000000;0.781358
8686.000000;0.781365
8685.000000;0.781373
8684.000000;0.781405
8683.000000;0.781490
8682.000000;0.781602
8681.000000;0.781641
8680.000000;0.781515
8679.000000;0.781258
8678.000000;0.781029
8677.000000;0.780962
8676.000000;0.781020
8675.000000;0.781041
8674.000000;0.780920
8673.000000;0.780705
8672.000000;0.780498
8671.000000;0.780336
8670.000000;0.780218
8669.000000;0.780179
8668.000000;0.780245
8667.000000;0.780321
8666.000000;0.780231
8665.000000;0.779920
8664.000000;0.779540
8663.000000;0.779283
8662.000000;0.779181
8661.000000;0.779149
8660.000000;0.779152
8659.000000;0.779246
8658.000000;0.779417
8657.000000;0.779531
8656.000000;0.779474
8655.000000;0.779300
8654.000000;0.779153
8653.000000;0.779106
8652.000000;0.779143
8651.000000;0.779251
8650.000000;0.779432
8649.000000;0.779619
8648.000000;0.779677
8647.000000;0.779550
8646.000000;0.779332
8645.000000;0.779146
8644.000000;0.779009
8643.000000;0.778869
8642.000000;0.778736
8641.000000;0.778681
8640.000000;0.778699
8639.000000;0.778650
8638.000000;0.778402
8637.000000;0.777990
8636.000000;0.777608
8635.000000;0.777442
8634.000000;0.777505
8633.000000;0.777608
8632.000000;0.777514
8631.000000;0.777155
8630.000000;0.776729
8629.000000;0.776540
8628.000000;0.776717
8627.000000;0.777106
8626.000000;0.777431
8625.000000;0.777534
8624.000000;0.777452
8623.000000;0.777295
8622.000000;0.777153
8621.000000;0.777074
8620.000000;0.777066
8619.000000;0.777068
8618.000000;0.776969
8617.000000;0.776710
8616.000000;0.776369
8615.000000;0.776100
8614.000000;0.775976
8613.000000;0.775924
8612.000000;0.775831
8611.000000;0.775690
8610.000000;0.775598
8609.000000;0.775617
8608.000000;0.775689
8607.000000;0.775715
8606.000000;0.775693
8605.000000;0.775710
8604.000000;0.775807
8603.000000;0.775901
8602.000000;0.775868
8601.000000;0.775673
8600.000000;0.775396
8599.000000;0.775160
8598.000000;0.775047
8597.000000;0.775067
8596.000000;0.775156
8595.000000;0.775201
8594.000000;0.775103
8593.000000;0.774844
8592.000000;0.774510
8591.000000;0.774227
8590.000000;0.774079
8589.000000;0.774055
8588.000000;0.774070
8587.000000;0.774035
8586.000000;0.773919
8585.000000;0.773755
8584.000000;0.773596
8583.000000;0.773486
8582.000000;0.773450
8581.000000;0.773480
8580.000000;0.773536
8579.000000;0.773592
8578.000000;0.773691
8577.000000;0.773900
8576.000000;0.774177
8575.000000;0.774327
8574.000000;0.774181
8573.000000;0.773797
8572.000000;0.773419
8571.000000;0.773221
8570.000000;0.773150
8569.000000;0.773051
8568.000000;0.772889
8567.000000;0.772768
8566.000000;0.772749
8565.000000;0.772739
8564.000000;0.772623
8563.000000;0.772456
8562.000000;0.772441
8561.000000;0.772681
8560.000000;0.773024
8559.000000;0.773199
8558.000000;0.773074
8557.000000;0.772729
8556.000000;0.772306
8555.000000;0.771893
8554.000000;0.771565
8553.000000;0.771421
8552.000000;0.771480
8551.000000;0.771601
8550.000000;0.771615
8549.000000;0.771527
8548.000000;0.771475
8547.000000;0.771496
8546.000000;0.771436
8545.000000;0.771166
8544.000000;0.770788
8543.000000;0.770546
8542.000000;0.770547
8541.000000;0.770681
8540.000000;0.770792
8539.000000;0.770844
8538.000000;0.770897
8537.000000;0.770973
8536.000000;0.771014
8535.000000;0.770952
8534.000000;0.770789
8533.000000;0.770599
8532.000000;0.770465
8531.000000;0.770409
8530.000000;0.770384
8529.000000;0.770325
8528.000000;0.770210
8527.000000;0.770080
8526.000000;0.769998
8525.000000;0.769984
8524.000000;0.769972
8523.000000;0.769835
8522.000000;0.769486
8521.000000;0.768986
8520.000000;0.768542
8519.000000;0.768360
8518.000000;0.768475
8517.000000;0.768736
8516.000000;0.768953
8515.000000;0.769029
8514.000000;0.768973
8513.000000;0.768827
8512.000000;0.768638
8511.000000;0.768475
8510.000000;0.768415
8509.000000;0.768494
8508.000000;0.768667
8507.000000;0.768820
8506.000000;0.768842
8505.000000;0.768712
8504.000000;0.768540
8503.000000;0.768475
8502.000000;0.768529
8501.000000;0.768515
8500.000000;0.768239
8499.000000;0.767756
8498.000000;0.767361
8497.000000;0.767285
8496.000000;0.767438
8495.000000;0.767528
8494.000000;0.767394
8493.000000;0.767163
8492.000000;0.767053
8491.000000;0.767104
8490.000000;0.767163
8489.000000;0.767108
8488.000000;0.767010
8487.000000;0.767046
8486.000000;0.767251
8485.000000;0.767435
8484.000000;0.767381
8483.000000;0.767085
8482.000000;0.766746
8481.000000;0.766514
8480.000000;0.766337
8479.000000;0.766096
8478.000000;0.765810
8477.000000;0.765607
8476.000000;0.765532
8475.000000;0.765493
8474.000000;0.765412
8473.000000;0.765333
8472.000000;0.765322
8471.000000;0.765350
8470.000000;0.765331
8469.000000;0.765235
8468.000000;0.765115
8467.000000;0.765029
8466.000000;0.764989
8465.000000;0.764966
8464.000000;0.764914
8463.000000;0.764797
8462.000000;0.764639
8461.000000;0.764515
8460.000000;0.764487
8459.000000;0.764522
8458.000000;0.764519
8457.000000;0.764402
8456.000000;0.764185
8455.000000;0.763971
8454.000000;0.763871
8453.000000;0.763904
8452.000000;0.763957
8451.000000;0.763902
8450.000000;0.763754
8449.000000;0.763657
8448.000000;0.763695
8447.000000;0.763797
8446.000000;0.763854
8445.000000;0.763882
8444.000000;0.763954
8443.000000;0.764045
8442.000000;0.764036
8441.000000;0.763844
8440.000000;0.763495
8439.000000;0.763079
8438.000000;0.762723
8437.000000;0.762569
8436.000000;0.762674
8435.000000;0.762918
8434.000000;0.763092
8433.000000;0.763085
8432.000000;0.762931
8431.000000;0.762693
8430.000000;0.762419
8429.000000;0.762201
8428.000000;0.762148
8427.000000;0.762228
8426.000000;0.762247
8425.000000;0.762080
8424.000000;0.761832
8423.000000;0.761711
8422.000000;0.761782
8421.000000;0.761934
8420.000000;0.762034
8419.000000;0.762020
8418.000000;0.761880
8417.000000;0.761635
8416.000000;0.761363
8415.000000;0.761166
8414.000000;0.761084
8413.000000;0.761068
8412.000000;0.761050
8411.000000;0.761019
8410.000000;0.761011
8409.000000;0.761042
8408.000000;0.761061
8407.000000;0.760983
8406.000000;0.760788
8405.000000;0.760560
8404.000000;0.760418
8403.000000;0.760401
8402.000000;0.760459
8401.000000;0.760537
8400.000000;0.760614
8399.000000;0.760640
8398.000000;0.760539
8397.000000;0.760318
8396.000000;0.760111
8395.000000;0.760053
8394.000000;0.760136
8393.000000;0.760229
8392.000000;0.760206
8391.000000;0.760024
8390.000000;0.759726
8389.000000;0.759427
8388.000000;0.759258
8387.000000;0.759240
8386.000000;0.759247
8385.000000;0.759154
8384.000000;0.758989
8383.000000;0.758875
8382.000000;0.758857
8381.000000;0.758863
8380.000000;0.758824
8379.000000;0.758745
8378.000000;0.758656
8377.000000;0.758574
8376.000000;0.758521
8375.000000;0.758513
8374.000000;0.758510
8373.000000;0.758446
8372.000000;0.758337
8371.000000;0.758287
8370.000000;0.758369
8369.000000;0.758542
8368.000000;0.758695
8367.000000;0.758729
8366.000000;0.758590
8365.000000;0.758292
8364.000000;0.757945
8363.000000;0.757690
8362.000000;0.757573
8361.000000;0.757504
8360.000000;0.757372
8359.000000;0.757171
8358.000000;0.756999
8357.000000;0.756962
8356.000000;0.757101
8355.000000;0.757327
8354.000000;0.757443
8353.000000;0.757287
8352.000000;0.756912
8351.000000;0.756574
8350.000000;0.756475
8349.000000;0.756562
8348.000000;0.756625
8347.000000;0.756553
8346.000000;0.756421
8345.000000;0.756350
8344.000000;0.756377
8343.000000;0.756460
8342.000000;0.756551
8341.000000;0.756611
8340.000000;0.756607
8339.000000;0.756534
8338.000000;0.756432
8337.000000;0.756346
8336.000000;0.756270
8335.000000;0.756153
8334.000000;0.755967
8333.000000;0.755748
8332.000000;0.755563
8331.000000;0.755429
8330.000000;0.755312
8329.000000;0.755199
8328.000000;0.755153
8327.000000;0.755236
8326.000000;0.755380
8325.000000;0.755405
8324.000000;0.755199
8323.000000;0.754853
8322.000000;0.754556
8321.000000;0.754397
8320.000000;0.754306
8319.000000;0.754190
8318.000000;0.754061
8317.000000;0.753996
8316.000000;0.754034
8315.000000;0.754135
8314.000000;0.754230
8313.000000;0.754272
8312.000000;0.754240
8311.000000;0.754112
8310.000000;0.753887
8309.000000;0.753628
8308.000000;0.753458
8307.000000;0.753464
8306.000000;0.753586
8305.000000;0.753644
8304.000000;0.753503
8303.000000;0.753210
8302.000000;0.752927
8301.000000;0.752752
8300.000000;0.752649
8299.000000;0.752543
8298.000000;0.752446
8297.000000;0.752434
8296.000000;0.752539
8295.000000;0.752689
8294.000000;0.752771
8293.000000;0.752722
8292.000000;0.752581
8291.000000;0.752454
8290.000000;0.752433
8289.000000;0.752518
8288.000000;0.752619
8287.000000;0.752641
8286.000000;0.752558
8285.000000;0.752413
8284.000000;0.752249
8283.000000;0.752076
8282.000000;0.751915
8281.000000;0.751809
8280.000000;0.751775
8279.000000;0.751747
8278.000000;0.751629
8277.000000;0.751389
8276.000000;0.751105
8275.000000;0.750884
8274.000000;0.750779
8273.000000;0.750779
8272.000000;0.750843
8271.000000;0.750907
8270.000000;0.750891
8269.000000;0.750739
8268.000000;0.750480
8267.000000;0.750231
8266.000000;0.750107
8265.000000;0.750136
8264.000000;0.750259
8263.000000;0.750378
8262.000000;0.750421
8261.000000;0.750367
8260.000000;0.750238
8259.000000;0.750075
8258.000000;0.749920
8257.000000;0.749812
8256.000000;0.749783
8255.000000;0.749822
8254.000000;0.749852
8253.000000;0.749783
8252.000000;0.749612
8251.000000;0.749444
8250.000000;0.749396
8249.000000;0.749487
8248.000000;0.749638
8247.000000;0.749750
8246.000000;0.749763
8245.000000;0.749643
8244.000000;0.749397
8243.000000;0.749120
8242.000000;0.748965
8241.000000;0.749008
8240.000000;0.749155
8239.000000;0.749220
8238.000000;0.749106
8237.000000;0.748871
8236.000000;0.748635
8235.000000;0.748466
8234.000000;0.748372
8233.000000;0.748338
8232.000000;0.748335
8231.000000;0.748307
8230.000000;0.748203
8229.000000;0.748028
8228.000000;0.747848
8227.000000;0.747736
8226.000000;0.747723
8225.000000;0.747775
8224.000000;0.747804
8223.000000;0.747724
8222.000000;0.747518
8221.000000;0.747267
8220.000000;0.747068
8219.000000;0.746966
8218.000000;0.746955
8217.000000;0.747030
8216.000000;0.747164
8215.000000;0.747288
8214.000000;0.747333
8213.000000;0.747305
8212.000000;0.747269
8211.000000;0.747235
8210.000000;0.747131
8209.000000;0.746903
8208.000000;0.746599
8207.000000;0.746306
8206.000000;0.746065
8205.000000;0.745869
8204.000000;0.745733
8203.000000;0.745685
8202.000000;0.745724
8201.000000;0.745819
8200.000000;0.745936
8199.000000;0.746042
8198.000000;0.746089
8197.000000;0.746038
8196.000000;0.745909
8195.000000;0.745765
8194.000000;0.745659
8193.000000;0.745598
8192.000000;0.745543
8191.000000;0.745428
8190.000000;0.745216
8189.000000;0.744983
8188.000000;0.744906
8187.000000;0.745078
8186.000000;0.745358
8185.000000;0.745447
8184.000000;0.745183
8183.000000;0.744701
8182.000000;0.744296
8181.000000;0.744151
8180.000000;0.744226
8179.000000;0.744358
8178.000000;0.744415
8177.000000;0.744379
8176.000000;0.744295
8175.000000;0.744204
8174.000000;0.744109
8173.000000;0.744018
8172.000000;0.743981
8171.000000;0.744041
8170.000000;0.744167
8169.000000;0.744266
8168.000000;0.744258
8167.000000;0.744135
8166.000000;0.743935
8165.000000;0.743706
8164.000000;0.743509
8163.000000;0.743401
8162.000000;0.743397
8161.000000;0.743454
8160.000000;0.743533
8159.000000;0.743625
8158.000000;0.743701
8157.000000;0.743678
8156.000000;0.743492
8155.000000;0.743192
8154.000000;0.742906
8153.000000;0.742704
8152.000000;0.742541
8151.000000;0.742363
8150.000000;0.742202
8149.000000;0.742134
8148.000000;0.742143
8147.000000;0.742107
8146.000000;0.741934
8145.000000;0.741687
8144.000000;0.741534
8143.000000;0.741576
8142.000000;0.741761
8141.000000;0.741937
8140.000000;0.741987
8139.000000;0.741899
8138.000000;0.741743
8137.000000;0.741600
8136.000000;0.741499
8135.000000;0.741407
8134.000000;0.741297
8133.000000;0.741215
8132.000000;0.741258
8131.000000;0.741439
8130.000000;0.741625
8129.000000;0.741636
8128.000000;0.741433
8127.000000;0.741151
8126.000000;0.740942
8125.000000;0.740836
8124.000000;0.740755
8123.000000;0.740650
8122.000000;0.740541
8121.000000;0.740466
8120.000000;0.740422
8119.000000;0.740391
8118.000000;0.740388
8117.000000;0.740438
8116.000000;0.740521
8115.000000;0.740579
8114.000000;0.740573
8113.000000;0.740507
8112.000000;0.740380
8111.000000;0.740163
8110.000000;0.739862
8109.000000;0.739595
8108.000000;0.739530
8107.000000;0.739707
8106.000000;0.739963
8105.000000;0.740069
8104.000000;0.739941
8103.000000;0.739683
8102.000000;0.739462
8101.000000;0.739359
8100.000000;0.739334
8099.000000;0.739288
8098.000000;0.739173
8097.000000;0.739035
8096.000000;0.738965
8095.000000;0.738980
8094.000000;0.738986
8093.000000;0.738883
8092.000000;0.738693
8091.000000;0.738532
8090.000000;0.738462
8089.000000;0.738431
8088.000000;0.738355
8087.000000;0.738218
8086.000000;0.738053
8085.000000;0.737888
8084.000000;0.737741
8083.000000;0.737655
8082.000000;0.737677
8081.000000;0.737788
8080.000000;0.737903
8079.000000;0.737947
8078.000000;0.737933
8077.000000;0.737923
8076.000000;0.737937
8075.000000;0.737915
8074.000000;0.737793
8073.000000;0.737604
8072.000000;0.737457
8071.000000;0.737431
8070.000000;0.737497
8069.000000;0.737569
8068.000000;0.737597
8067.000000;0.737579
8066.000000;0.737528
8065.000000;0.737451
8064.000000;0.737367
8063.000000;0.737295
8062.000000;0.737225
8061.000000;0.737135
8060.000000;0.737026
8059.000000;0.736910
8058.000000;0.736769
8057.000000;0.736572
8056.000000;0.736352
8055.000000;0.736223
8054.000000;0.736264
8053.000000;0.736420
8052.000000;0.736549
8051.000000;0.736563
8050.000000;0.736495
8049.000000;0.736415
8048.000000;0.736314
8047.000000;0.736131
8046.000000;0.735858
8045.000000;0.735600
8044.000000;0.735486
8043.000000;0.735533
8042.000000;0.735626
8041.000000;0.735635
8040.000000;0.735524
8039.000000;0.735352
8038.000000;0.735194
8037.000000;0.735100
8036.000000;0.735080
8035.000000;0.735089
8034.000000;0.735055
8033.000000;0.734952
8032.000000;0.734836
8031.000000;0.734776
8030.000000;0.734757
8029.000000;0.734697
8028.000000;0.734548
8027.000000;0.734343
8026.000000;0.734153
8025.000000;0.734032
8024.000000;0.734004
8023.000000;0.734052
8022.000000;0.734102
8021.000000;0.734068
8020.000000;0.733938
8019.000000;0.733775
8018.000000;0.733641
8017.000000;0.733540
8016.000000;0.733469
8015.000000;0.733447
8014.000000;0.733488
8013.000000;0.733552
8012.000000;0.733567
8011.000000;0.733505
8010.000000;0.733399
8009.000000;0.733328
8008.000000;0.733350
8007.000000;0.733436
8006.000000;0.733464
8005.000000;0.733334
8004.000000;0.733088
8003.000000;0.732869
8002.000000;0.732762
8001.000000;0.732732
8000.000000;0.732731
7999.000000;0.732775
7998.000000;0.732877
7997.000000;0.732958
7996.000000;0.732929
7995.000000;0.732810
7994.000000;0.732697
7993.000000;0.732635
7992.000000;0.732572
7991.000000;0.732456
7990.000000;0.732299
7989.000000;0.732153
7988.000000;0.732068
7987.000000;0.732068
7986.000000;0.732139
7985.000000;0.732220
7984.000000;0.732244
7983.000000;0.732197
7982.000000;0.732100
7981.000000;0.731970
7980.000000;0.731826
7979.000000;0.731721
7978.000000;0.731698
7977.000000;0.731721
7976.000000;0.731688
7975.000000;0.731552
7974.000000;0.731365
7973.000000;0.731211
7972.000000;0.731134
7971.000000;0.731130
7970.000000;0.731168
7969.000000;0.731186
7968.000000;0.731127
7967.000000;0.730999
7966.000000;0.730864
7965.000000;0.730761
7964.000000;0.730662
7963.000000;0.730548
7962.000000;0.730469
7961.000000;0.730464
7960.000000;0.730466
7959.000000;0.730350
7958.000000;0.730108
7957.000000;0.729889
7956.000000;0.729842
7955.000000;0.729945
7954.000000;0.730024
7953.000000;0.729940
7952.000000;0.729708
7951.000000;0.729451
7950.000000;0.729267
7949.000000;0.729179
7948.000000;0.729172
7947.000000;0.729234
7946.000000;0.729341
7945.000000;0.729428
7944.000000;0.729433
7943.000000;0.729347
7942.000000;0.729217
7941.000000;0.729086
7940.000000;0.728965
7939.000000;0.728847
7938.000000;0.728727
7937.000000;0.728598
7936.000000;0.728447
7935.000000;0.728281
7934.000000;0.728139
7933.000000;0.728060
7932.000000;0.728046
7931.000000;0.728075
7930.000000;0.728118
7929.000000;0.728152
7928.000000;0.728159
7927.000000;0.728137
7926.000000;0.728100
7925.000000;0.728056
7924.000000;0.727994
7923.000000;0.727905
7922.000000;0.727820
7921.000000;0.727787
7920.000000;0.727802
7919.000000;0.727796
7918.000000;0.727699
7917.000000;0.727520
7916.000000;0.727331
7915.000000;0.727185
7914.000000;0.727067
7913.000000;0.726927
7912.000000;0.726762
7911.000000;0.726639
7910.000000;0.726636
7909.000000;0.726767
7908.000000;0.726959
7907.000000;0.727112
7906.000000;0.727176
7905.000000;0.727159
7904.000000;0.727092
7903.000000;0.726995
7902.000000;0.726891
7901.000000;0.726820
7900.000000;0.726820
7899.000000;0.726870
7898.000000;0.726882
7897.000000;0.726765
7896.000000;0.726519
7895.000000;0.726247
7894.000000;0.726067
7893.000000;0.726015
7892.000000;0.726024
7891.000000;0.725995
7890.000000;0.725872
7889.000000;0.725674
7888.000000;0.725468
7887.000000;0.725333
7886.000000;0.725317
7885.000000;0.725394
7884.000000;0.725473
7883.000000;0.725475
7882.000000;0.725402
7881.000000;0.725308
7880.000000;0.725207
7879.000000;0.725063
7878.000000;0.724865
7877.000000;0.724682
7876.000000;0.724598
7875.000000;0.724618
7874.000000;0.724673
7873.000000;0.724697
7872.000000;0.724666
7871.000000;0.724582
7870.000000;0.724454
7869.000000;0.724298
7868.000000;0.724134
7867.000000;0.723960
7866.000000;0.723785
7865.000000;0.723652
7864.000000;0.723613
7863.000000;0.723664
7862.000000;0.723741
7861.000000;0.723778
7860.000000;0.723751
7859.000000;0.723672
7858.000000;0.723595
7857.000000;0.723605
7856.000000;0.723730
7855.000000;0.723849
7854.000000;0.723769
7853.000000;0.723450
7852.000000;0.723093
7851.000000;0.722934
7850.000000;0.723001
7849.000000;0.723138
7848.000000;0.723207
7847.000000;0.723187
7846.000000;0.723097
7845.000000;0.722941
7844.000000;0.722747
7843.000000;0.722584
7842.000000;0.722487
7841.000000;0.722440
7840.000000;0.722420
7839.000000;0.722425
7838.000000;0.722430
7837.000000;0.722381
7836.000000;0.722284
7835.000000;0.722212
7834.000000;0.722201
7833.000000;0.722193
7832.000000;0.722121
7831.000000;0.722014
7830.000000;0.721949
7829.000000;0.721934
7828.000000;0.721903
7827.000000;0.721814
7826.000000;0.721692
7825.000000;0.721593
7824.000000;0.721558
7823.000000;0.721589
7822.000000;0.721638
7821.000000;0.721617
7820.000000;0.721467
7819.000000;0.721226
7818.000000;0.720981
7817.000000;0.720801
7816.000000;0.720708
7815.000000;0.720707
7814.000000;0.720763
7813.000000;0.720782
7812.000000;0.720681
7811.000000;0.720482
7810.000000;0.720296
7809.000000;0.720184
7808.000000;0.720121
7807.000000;0.720089
7806.000000;0.720145
7805.000000;0.720325
7804.000000;0.720551
7803.000000;0.720682
7802.000000;0.720650
7801.000000;0.720498
7800.000000;0.720294
7799.000000;0.720072
7798.000000;0.719849
7797.000000;0.719666
7796.000000;0.719566
7795.000000;0.719551
7794.000000;0.719579
7793.000000;0.719582
7792.000000;0.719499
7791.000000;0.719329
7790.000000;0.719143
7789.000000;0.719037
7788.000000;0.719037
7787.000000;0.719069
7786.000000;0.719025
7785.000000;0.718862
7784.000000;0.718627
7783.000000;0.718407
7782.000000;0.718276
7781.000000;0.718261
7780.000000;0.718333
7779.000000;0.718421
7778.000000;0.718458
7777.000000;0.718413
7776.000000;0.718289
7775.000000;0.718106
7774.000000;0.717901
7773.000000;0.717740
7772.000000;0.717675
7771.000000;0.717678
7770.000000;0.717666
7769.000000;0.717606
7768.000000;0.717556
7767.000000;0.717583
7766.000000;0.717662
7765.000000;0.717715
7764.000000;0.717705
7763.000000;0.717659
7762.000000;0.717601
7761.000000;0.717528
7760.000000;0.717444
7759.000000;0.717368
7758.000000;0.717291
7757.000000;0.717171
7756.000000;0.716982
7755.000000;0.716747
7754.000000;0.716504
7753.000000;0.716295
7752.000000;0.716170
7751.000000;0.716149
7750.000000;0.716160
7749.000000;0.716082
7748.000000;0.715904
7747.000000;0.715771
7746.000000;0.715817
7745.000000;0.715984
7744.000000;0.716072
7743.000000;0.715969
7742.000000;0.715747
7741.000000;0.715552
7740.000000;0.715469
7739.000000;0.715500
7738.000000;0.715597
7737.000000;0.715681
7736.000000;0.715688
7735.000000;0.715620
7734.000000;0.715538
7733.000000;0.715475
7732.000000;0.715393
7731.000000;0.715263
7730.000000;0.715129
7729.000000;0.715041
7728.000000;0.714967
7727.000000;0.714828
7726.000000;0.714622
7725.000000;0.714453
7724.000000;0.714422
7723.000000;0.714508
7722.000000;0.714582
7721.000000;0.714534
7720.000000;0.714359
7719.000000;0.714143
7718.000000;0.713971
7717.000000;0.713857
7716.000000;0.713762
7715.000000;0.713654
7714.000000;0.713561
7713.000000;0.713535
7712.000000;0.713595
7711.000000;0.713694
7710.000000;0.713756
7709.000000;0.713714
7708.000000;0.713559
7707.000000;0.713342
7706.000000;0.713151
7705.000000;0.713045
7704.000000;0.713022
7703.000000;0.713033
7702.000000;0.713025
7701.000000;0.712961
7700.000000;0.712831
7699.000000;0.712670
7698.000000;0.712554
7697.000000;0.712541
7696.000000;0.712613
7695.000000;0.712695
7694.000000;0.712722
7693.000000;0.712689
7692.000000;0.712611
7691.000000;0.712499
7690.000000;0.712371
7689.000000;0.712260
7688.000000;0.712176
7687.000000;0.712087
7686.000000;0.711956
7685.000000;0.711812
7684.000000;0.711717
7683.000000;0.711691
7682.000000;0.711687
7681.000000;0.711646
7680.000000;0.711560
7679.000000;0.711450
7678.000000;0.711335
7677.000000;0.711222
7676.000000;0.711120
7675.000000;0.711038
7674.000000;0.710993
7673.000000;0.711005
7672.000000;0.711081
7671.000000;0.711176
7670.000000;0.711201
7669.000000;0.711087
7668.000000;0.710846
7667.000000;0.710565
7666.000000;0.710345
7665.000000;0.710255
7664.000000;0.710305
7663.000000;0.710441
7662.000000;0.710569
7661.000000;0.710620
7660.000000;0.710582
7659.000000;0.710472
7658.000000;0.710302
7657.000000;0.710092
7656.000000;0.709896
7655.000000;0.709774
7654.000000;0.709729
7653.000000;0.709700
7652.000000;0.709638
7651.000000;0.709546
7650.000000;0.709446
7649.000000;0.709349
7648.000000;0.709255
7647.000000;0.709176
7646.000000;0.709122
7645.000000;0.709087
7644.000000;0.709060
7643.000000;0.709031
7642.000000;0.708982
7641.000000;0.708890
7640.000000;0.708769
7639.000000;0.708682
7638.000000;0.708680
7637.000000;0.708723
7636.000000;0.708698
7635.000000;0.708539
7634.000000;0.708296
7633.000000;0.708091
7632.000000;0.708014
7631.000000;0.708064
7630.000000;0.708169
7629.000000;0.708232
7628.000000;0.708186
7627.000000;0.708023
7626.000000;0.707799
7625.000000;0.707594
7624.000000;0.707468
7623.000000;0.707418
7622.000000;0.707391
7621.000000;0.707323
7620.000000;0.707191
7619.000000;0.707024
7618.000000;0.706877
7617.000000;0.706787
7616.000000;0.706762
7615.000000;0.706792
7614.000000;0.706857
7613.000000;0.706909
7612.000000;0.706883
7611.000000;0.706752
7610.000000;0.706569
7609.000000;0.706430
7608.000000;0.706383
7607.000000;0.706389
7606.000000;0.706392
7605.000000;0.706388
7604.000000;0.706395
7603.000000;0.706396
7602.000000;0.706344
7601.000000;0.706228
7600.000000;0.706089
7599.000000;0.705947
7598.000000;0.705770
7597.000000;0.705532
7596.000000;0.705282
7595.000000;0.705096
7594.000000;0.704991
7593.000000;0.704914
7592.000000;0.704829
7591.000000;0.704756
7590.000000;0.704731
7589.000000;0.704760
7588.000000;0.704814
7587.000000;0.704848
7586.000000;0.704813
7585.000000;0.704694
7584.000000;0.704540
7583.000000;0.704432
7582.000000;0.704410
7581.000000;0.704429
7580.000000;0.704427
7579.000000;0.704387
7578.000000;0.704319
7577.000000;0.704215
7576.000000;0.704071
7575.000000;0.703933
7574.000000;0.703879
7573.000000;0.703926
7572.000000;0.703988
7571.000000;0.703953
7570.000000;0.703797
7569.000000;0.703596
7568.000000;0.703438
7567.000000;0.703353
7566.000000;0.703321
7565.000000;0.703316
7564.000000;0.703320
7563.000000;0.703310
7562.000000;0.703258
7561.000000;0.703170
7560.000000;0.703074
7559.000000;0.702981
7558.000000;0.702874
7557.000000;0.702746
7556.000000;0.702635
7555.000000;0.702592
7554.000000;0.702614
7553.000000;0.702639
7552.000000;0.702604
7551.000000;0.702491
7550.000000;0.702339
7549.000000;0.702199
7548.000000;0.702099
7547.000000;0.702019
7546.000000;0.701927
7545.000000;0.701831
7544.000000;0.701766
7543.000000;0.701735
7542.000000;0.701685
7541.000000;0.701575
7540.000000;0.701447
7539.000000;0.701374
7538.000000;0.701352
7537.000000;0.701308
7536.000000;0.701205
7535.000000;0.701090
7534.000000;0.701018
7533.000000;0.700978
7532.000000;0.700914
7531.000000;0.700806
7530.000000;0.700690
7529.000000;0.700625
7528.000000;0.700641
7527.000000;0.700706
7526.000000;0.700742
7525.000000;0.700687
7524.000000;0.700566
7523.000000;0.700460
7522.000000;0.700418
7521.000000;0.700407
7520.000000;0.700373
7519.000000;0.700312
7518.000000;0.700244
7517.000000;0.700150
7516.000000;0.699989
7515.000000;0.699769
7514.000000;0.699570
7513.000000;0.699478
7512.000000;0.699509
7511.000000;0.699598
7510.000000;0.699659
7509.000000;0.699647
7508.000000;0.699577
7507.000000;0.699493
7506.000000;0.699417
7505.000000;0.699327
7504.000000;0.699201
7503.000000;0.699055
7502.000000;0.698940
7501.000000;0.698887
7500.000000;0.698878
7499.000000;0.698865
7498.000000;0.698807
7497.000000;0.698695
7496.000000;0.698543
7495.000000;0.698379
7494.000000;0.698228
7493.000000;0.698120
7492.000000;0.698074
7491.000000;0.698074
7490.000000;0.698080
7489.000000;0.698063
7488.000000;0.698037
7487.000000;0.698022
7486.000000;0.698004
7485.000000;0.697950
7484.000000;0.697860
7483.000000;0.697762
7482.000000;0.697669
7481.000000;0.697573
7480.000000;0.697473
7479.000000;0.697390
7478.000000;0.697318
7477.000000;0.697218
7476.000000;0.697064
7475.000000;0.696881
7474.000000;0.696708
7473.000000;0.696565
7472.000000;0.696472
7471.000000;0.696458
7470.000000;0.696523
7469.000000;0.696612
7468.000000;0.696659
7467.000000;0.696654
7466.000000;0.696633
7465.000000;0.696604
7464.000000;0.696530
7463.000000;0.696390
7462.000000;0.696220
7461.000000;0.696081
7460.000000;0.695997
7459.000000;0.695944
7458.000000;0.695889
7457.000000;0.695842
7456.000000;0.695840
7455.000000;0.695882
7454.000000;0.695911
7453.000000;0.695871
7452.000000;0.695775
7451.000000;0.695674
7450.000000;0.695574
7449.000000;0.695438
7448.000000;0.695264
7447.000000;0.695128
7446.000000;0.695090
7445.000000;0.695124
7444.000000;0.695145
7443.000000;0.695117
7442.000000;0.695061
7441.000000;0.695010
7440.000000;0.694971
7439.000000;0.694930
7438.000000;0.694867
7437.000000;0.694753
7436.000000;0.694586
7435.000000;0.694417
7434.000000;0.694313
7433.000000;0.694289
7432.000000;0.694300
7431.000000;0.694302
7430.000000;0.694288
7429.000000;0.694270
7428.000000;0.694240
7427.000000;0.694173
7426.000000;0.694061
7425.000000;0.693929
7424.000000;0.693828
7423.000000;0.693788
7422.000000;0.693772
7421.000000;0.693711
7420.000000;0.693590
7419.000000;0.693481
7418.000000;0.693466
7417.000000;0.693550
7416.000000;0.693656
7415.000000;0.693700
7414.000000;0.693647
7413.000000;0.693508
7412.000000;0.693322
7411.000000;0.693134
7410.000000;0.692975
7409.000000;0.692858
7408.000000;0.692793
7407.000000;0.692773
7406.000000;0.692749
7405.000000;0.692651
7404.000000;0.692470
7403.000000;0.692299
7402.000000;0.692240
7401.000000;0.692291
7400.000000;0.692350
7399.000000;0.692322
7398.000000;0.692200
7397.000000;0.692017
7396.000000;0.691790
7395.000000;0.691556
7394.000000;0.691416
7393.000000;0.691475
7392.000000;0.691709
7391.000000;0.691966
7390.000000;0.692092
7389.000000;0.692041
7388.000000;0.691863
7387.000000;0.691646
7386.000000;0.691480
7385.000000;0.691421
7384.000000;0.691435
7383.000000;0.691400
7382.000000;0.691214
7381.000000;0.690941
7380.000000;0.690787
7379.000000;0.690887
7378.000000;0.691109
7377.000000;0.691160
7376.000000;0.690893
7375.000000;0.690474
7374.000000;0.690210
7373.000000;0.690259
7372.000000;0.690528
7371.000000;0.690808
7370.000000;0.690938
7369.000000;0.690877
7368.000000;0.690683
7367.000000;0.690475
7366.000000;0.690373
7365.000000;0.690408
7364.000000;0.690486
7363.000000;0.690470
7362.000000;0.690286
7361.000000;0.690002
7360.000000;0.689802
7359.000000;0.689830
7358.000000;0.690027
7357.000000;0.690147
7356.000000;0.690012
7355.000000;0.689699
7354.000000;0.689462
7353.000000;0.689462
7352.000000;0.689650
7351.000000;0.689854
7350.000000;0.689920
7349.000000;0.689804
7348.000000;0.689584
7347.000000;0.689383
7346.000000;0.689252
7345.000000;0.689163
7344.000000;0.689089
7343.000000;0.689034
7342.000000;0.688947
7341.000000;0.688732
7340.000000;0.688438
7339.000000;0.688337
7338.000000;0.688635
7337.000000;0.689166
7336.000000;0.689532
7335.000000;0.689522
7334.000000;0.689262
7333.000000;0.688992
7332.000000;0.688832
7331.000000;0.688748
7330.000000;0.688618
7329.000000;0.688333
7328.000000;0.687961
7327.000000;0.687747
7326.000000;0.687842
7325.000000;0.688118
7324.000000;0.688325
7323.000000;0.688384
7322.000000;0.688412
7321.000000;0.688486
7320.000000;0.688521
7319.000000;0.688417
7318.000000;0.688216
7317.000000;0.688045
7316.000000;0.687971
7315.000000;0.687955
7314.000000;0.687883
7313.000000;0.687636
7312.000000;0.687259
7311.000000;0.687025
7310.000000;0.687166
7309.000000;0.687536
7308.000000;0.687717
7307.000000;0.687497
7306.000000;0.687110
7305.000000;0.686943
7304.000000;0.687124
7303.000000;0.687456
7302.000000;0.687651
7301.000000;0.687529
7300.000000;0.687117
7299.000000;0.686691
7298.000000;0.686595
7297.000000;0.686889
7296.000000;0.687230
7295.000000;0.687222
7294.000000;0.686856
7293.000000;0.686470
7292.000000;0.686318
7291.000000;0.686339
7290.000000;0.686314
7289.000000;0.686136
7288.000000;0.685896
7287.000000;0.685784
7286.000000;0.685910
7285.000000;0.686208
7284.000000;0.686494
7283.000000;0.686612
7282.000000;0.686541
7281.000000;0.686367
7280.000000;0.686181
7279.000000;0.686055
7278.000000;0.686014
7277.000000;0.686004
7276.000000;0.685918
7275.000000;0.685716
7274.000000;0.685484
7273.000000;0.685344
7272.000000;0.685331
7271.000000;0.685391
7270.000000;0.685449
7269.000000;0.685448
7268.000000;0.685352
7267.000000;0.685181
7266.000000;0.685014
7265.000000;0.684915
7264.000000;0.684868
7263.000000;0.684839
7262.000000;0.684849
7261.000000;0.684934
7260.000000;0.685046
7259.000000;0.685079
7258.000000;0.685001
7257.000000;0.684894
7256.000000;0.684829
7255.000000;0.684760
7254.000000;0.684624
7253.000000;0.684464
7252.000000;0.684385
7251.000000;0.684428
7250.000000;0.684503
7249.000000;0.684474
7248.000000;0.684308
7247.000000;0.684116
7246.000000;0.684004
7245.000000;0.683904
7244.000000;0.683656
7243.000000;0.683269
7242.000000;0.682976
7241.000000;0.682954
7240.000000;0.683089
7239.000000;0.683118
7238.000000;0.682962
7237.000000;0.682811
7236.000000;0.682859
7235.000000;0.683019
7234.000000;0.682992
7233.000000;0.682612
7232.000000;0.682063
7231.000000;0.681746
7230.000000;0.681880
7229.000000;0.682280
7228.000000;0.682546
7227.000000;0.682445
7226.000000;0.682083
7225.000000;0.681735
7224.000000;0.681586
7223.000000;0.681618
7222.000000;0.681676
7221.000000;0.681614
7220.000000;0.681439
7219.000000;0.681302
7218.000000;0.681323
7217.000000;0.681444
7216.000000;0.681513
7215.000000;0.681468
7214.000000;0.681365
7213.000000;0.681224
7212.000000;0.680967
7211.000000;0.680567
7210.000000;0.680158
7209.000000;0.679884
7208.000000;0.679716
7207.000000;0.679525
7206.000000;0.679279
7205.000000;0.679088
7204.000000;0.679047
7203.000000;0.679127
7202.000000;0.679223
7201.000000;0.679250
7200.000000;0.679182
7199.000000;0.679044
7198.000000;0.678894
7197.000000;0.678758
7196.000000;0.678568
7195.000000;0.678213
7194.000000;0.677702
7193.000000;0.677231
7192.000000;0.677030
7191.000000;0.677123
7190.000000;0.677276
7189.000000;0.677201
7188.000000;0.676793
7187.000000;0.676216
7186.000000;0.675751
7185.000000;0.675558
7184.000000;0.675529
7183.000000;0.675400
7182.000000;0.674993
7181.000000;0.674376
7180.000000;0.673791
7179.000000;0.673448
7178.000000;0.673373
7177.000000;0.673412
7176.000000;0.673372
7175.000000;0.673183
7174.000000;0.672937
7173.000000;0.672784
7172.000000;0.672757
7171.000000;0.672727
7170.000000;0.672531
7169.000000;0.672139
7168.000000;0.671646
7167.000000;0.671126
7166.000000;0.670628
7165.000000;0.670265
7164.000000;0.670158
7163.000000;0.670235
7162.000000;0.670215
7161.000000;0.669904
7160.000000;0.669425
7159.000000;0.669039
7158.000000;0.668774
7157.000000;0.668425
7156.000000;0.667897
7155.000000;0.667385
7154.000000;0.667146
7153.000000;0.667207
7152.000000;0.667363
7151.000000;0.667406
7150.000000;0.667262
7149.000000;0.666956
7148.000000;0.666513
7147.000000;0.665949
7146.000000;0.665297
7145.000000;0.664619
7144.000000;0.664017
7143.000000;0.663581
7142.000000;0.663249
7141.000000;0.662787
7140.000000;0.662042
7139.000000;0.661210
7138.000000;0.660678
7137.000000;0.660548
7136.000000;0.660491
7135.000000;0.660153
7134.000000;0.659576
7133.000000;0.659097
7132.000000;0.658893
7131.000000;0.658785
7130.000000;0.658482
7129.000000;0.657892
7128.000000;0.657163
7127.000000;0.656506
7126.000000;0.656009
7125.000000;0.655569
7124.000000;0.654996
7123.000000;0.654198
7122.000000;0.653294
7121.000000;0.652508
7120.000000;0.651944
7119.000000;0.651488
7118.000000;0.650953
7117.000000;0.650315
7116.000000;0.649754
7115.000000;0.649428
7114.000000;0.649232
7113.000000;0.648868
7112.000000;0.648216
7111.000000;0.647525
7110.000000;0.647083
7109.000000;0.646772
7108.000000;0.646139
7107.000000;0.644929
7106.000000;0.643393
7105.000000;0.642013
7104.000000;0.641039
7103.000000;0.640401
7102.000000;0.639918
7101.000000;0.639442
7100.000000;0.638878
7099.000000;0.638199
7098.000000;0.637390
7097.000000;0.636374
7096.000000;0.635139
7095.000000;0.633942
7094.000000;0.633184
7093.000000;0.632936
7092.000000;0.632791
7091.000000;0.632305
7090.000000;0.631373
7089.000000;0.630097
7088.000000;0.628583
7087.000000;0.627102
7086.000000;0.626155
7085.000000;0.625951
7084.000000;0.625953
7083.000000;0.625360
7082.000000;0.624031
7081.000000;0.622572
7080.000000;0.621523
7079.000000;0.620808
7078.000000;0.620045
7077.000000;0.619076
7076.000000;0.617992
7075.000000;0.616875
7074.000000;0.615747
7073.000000;0.614661
7072.000000;0.613671
7071.000000;0.612730
7070.000000;0.611727
7069.000000;0.610636
7068.000000;0.609616
7067.000000;0.608925
7066.000000;0.608633
7065.000000;0.608376
7064.000000;0.607546
7063.000000;0.605889
7062.000000;0.603832
7061.000000;0.602059
7060.000000;0.600859
7059.000000;0.600034
7058.000000;0.599290
7057.000000;0.598432
7056.000000;0.597274
7055.000000;0.595639
7054.000000;0.593557
7053.000000;0.591312
7052.000000;0.589230
7051.000000;0.587524
7050.000000;0.586290
7049.000000;0.585440
7048.000000;0.584656
7047.000000;0.583624
7046.000000;0.582373
7045.000000;0.581171
7044.000000;0.580076
7043.000000;0.578805
7042.000000;0.577127
7041.000000;0.575170
7040.000000;0.573237
7039.000000;0.571496
7038.000000;0.569938
7037.000000;0.568486
7036.000000;0.567062
7035.000000;0.565660
7034.000000;0.564430
7033.000000;0.563556
7032.000000;0.562969
7031.000000;0.562298
7030.000000;0.561223
7029.000000;0.559832
7028.000000;0.558505
7027.000000;0.557466
7026.000000;0.556510
7025.000000;0.555196
7024.000000;0.553222
7023.000000;0.550659
7022.000000;0.547897
7021.000000;0.545457
7020.000000;0.543766
7019.000000;0.542959
7018.000000;0.542745
7017.000000;0.542568
7016.000000;0.542011
7015.000000;0.541037
7014.000000;0.539748
7013.000000;0.538066
7012.000000;0.535885
7011.000000;0.533426
7010.000000;0.531120
7009.000000;0.529111
7008.000000;0.527200
7007.000000;0.525341
7006.000000;0.523821
7005.000000;0.522765
7004.000000;0.521801
7003.000000;0.520481
7002.000000;0.518797
7001.000000;0.517011
7000.000000;0.515210
6999.000000;0.513333
6998.000000;0.511466
6997.000000;0.509782
6996.000000;0.508275
6995.000000;0.506758
6994.000000;0.505086
6993.000000;0.503260
6992.000000;0.501447
6991.000000;0.499917
6990.000000;0.498754
6989.000000;0.497588
6988.000000;0.495955
6987.000000;0.494054
6986.000000;0.492689
6985.000000;0.492169
6984.000000;0.491664
6983.000000;0.490116
6982.000000;0.487527
6981.000000;0.484840
6980.000000;0.482775
6979.000000;0.481286
6978.000000;0.479984
6977.000000;0.478553
6976.000000;0.476806
6975.000000;0.474888
6974.000000;0.473381
6973.000000;0.472701
6972.000000;0.472321
6971.000000;0.471126
6970.000000;0.468724
6969.000000;0.465997
6968.000000;0.464121
6967.000000;0.463374
6966.000000;0.463113
6965.000000;0.462619
6964.000000;0.461666
6963.000000;0.460334
6962.000000;0.458564
6961.000000;0.456103
6960.000000;0.452914
6959.000000;0.449481
6958.000000;0.446524
6957.000000;0.444419
6956.000000;0.443104
6955.000000;0.442501
6954.000000;0.442563
6953.000000;0.442784
6952.000000;0.442231
6951.000000;0.440535
6950.000000;0.438482
6949.000000;0.437124
6948.000000;0.436483
6947.000000;0.435632
6946.000000;0.433931
6945.000000;0.431661
6944.000000;0.429487
6943.000000;0.427765
6942.000000;0.426458
6941.000000;0.425315
6940.000000;0.424011
6939.000000;0.422453
6938.000000;0.421044
6937.000000;0.420338
6936.000000;0.420323
6935.000000;0.420267
6934.000000;0.419425
6933.000000;0.417743
6932.000000;0.415777
6931.000000;0.414082
6930.000000;0.412824
6929.000000;0.411869
6928.000000;0.411076
6927.000000;0.410389
6926.000000;0.409678
6925.000000;0.408717
6924.000000;0.407459
6923.000000;0.406175
6922.000000;0.405137
6921.000000;0.404221
6920.000000;0.403126
6919.000000;0.401888
6918.000000;0.400779
6917.000000;0.399737
6916.000000;0.398402
6915.000000;0.396848
6914.000000;0.395785
6913.000000;0.395747
6912.000000;0.396434
6911.000000;0.397098
6910.000000;0.397213
6909.000000;0.396560
6908.000000;0.395097
6907.000000;0.393102
6906.000000;0.391155
6905.000000;0.389653
6904.000000;0.388500
6903.000000;0.387503
6902.000000;0.386765
6901.000000;0.386411
6900.000000;0.386225
6899.000000;0.385842
6898.000000;0.385005
6897.000000;0.383433
6896.000000;0.380906
6895.000000;0.377864
6894.000000;0.375513
6893.000000;0.374811
6892.000000;0.375570
6891.000000;0.376874
6890.000000;0.378021
6889.000000;0.378634
6888.000000;0.378302
6887.000000;0.376904
6886.000000;0.375196
6885.000000;0.374343
6884.000000;0.374721
6883.000000;0.375615
6882.000000;0.376084
6881.000000;0.375732
6880.000000;0.374629
6879.000000;0.372991
6878.000000;0.371173
6877.000000;0.369711
6876.000000;0.369064
6875.000000;0.369285
6874.000000;0.369990
6873.000000;0.370705
6872.000000;0.371306
6871.000000;0.371974
6870.000000;0.372585
6869.000000;0.372404
6868.000000;0.370864
6867.000000;0.368630
6866.000000;0.367274
6865.000000;0.367675
6864.000000;0.369187
6863.000000;0.370612
6862.000000;0.371440
6861.000000;0.371786
6860.000000;0.371704
6859.000000;0.371147
6858.000000;0.370272
6857.000000;0.369341
6856.000000;0.368506
6855.000000;0.367977
6854.000000;0.368029
6853.000000;0.368504
6852.000000;0.368708
6851.000000;0.368218
6850.000000;0.367509
6849.000000;0.367394
6848.000000;0.368126
6847.000000;0.369392
6846.000000;0.370794
6845.000000;0.371855
6844.000000;0.371999
6843.000000;0.371178
6842.000000;0.370283
6841.000000;0.370357
6840.000000;0.371458
6839.000000;0.372716
6838.000000;0.373383
6837.000000;0.373360
6836.000000;0.372967
6835.000000;0.372745
6834.000000;0.373314
6833.000000;0.374847
6832.000000;0.376719
6831.000000;0.378063
6830.000000;0.378599
6829.000000;0.378593
6828.000000;0.378299
6827.000000;0.377937
6826.000000;0.377994
6825.000000;0.378840
6824.000000;0.380082
6823.000000;0.380883
6822.000000;0.381010
6821.000000;0.381120
6820.000000;0.381986
6819.000000;0.383814
6818.000000;0.386241
6817.000000;0.388524
6816.000000;0.389829
6815.000000;0.389923
6814.000000;0.389678
6813.000000;0.390362
6812.000000;0.392224
6811.000000;0.394215
6810.000000;0.395274
6809.000000;0.395500
6808.000000;0.395772
6807.000000;0.396569
6806.000000;0.397527
6805.000000;0.398057
6804.000000;0.398085
6803.000000;0.398118
6802.000000;0.398658
6801.000000;0.399646
6800.000000;0.400616
6799.000000;0.401438
6798.000000;0.402598
6797.000000;0.404478
6796.000000;0.406587
6795.000000;0.408014
6794.000000;0.408575
6793.000000;0.409040
6792.000000;0.410152
6791.000000;0.411866
6790.000000;0.413701
6789.000000;0.415371
6788.000000;0.416738
6787.000000;0.417532
6786.000000;0.417662
6785.000000;0.417661
6784.000000;0.418344
6783.000000;0.419917
6782.000000;0.421721
6781.000000;0.422999
6780.000000;0.423625
6779.000000;0.423943
6778.000000;0.424180
6777.000000;0.424378
6776.000000;0.424766
6775.000000;0.425735
6774.000000;0.427270
6773.000000;0.428720
6772.000000;0.429469
6771.000000;0.429697
6770.000000;0.430124
6769.000000;0.431073
6768.000000;0.432158
6767.000000;0.432997
6766.000000;0.433819
6765.000000;0.435077
6764.000000;0.436753
6763.000000;0.438354
6762.000000;0.439491
6761.000000;0.440193
6760.000000;0.440741
6759.000000;0.441489
6758.000000;0.442769
6757.000000;0.444641
6756.000000;0.446651
6755.000000;0.448129
6754.000000;0.448873
6753.000000;0.449379
6752.000000;0.450240
6751.000000;0.451485
6750.000000;0.452641
6749.000000;0.453333
6748.000000;0.453651
6747.000000;0.453950
6746.000000;0.454452
6745.000000;0.455119
6744.000000;0.455867
6743.000000;0.456773
6742.000000;0.457996
6741.000000;0.459487
6740.000000;0.460864
6739.000000;0.461689
6738.000000;0.461899
6737.000000;0.461939
6736.000000;0.462401
6735.000000;0.463499
6734.000000;0.464877
6733.000000;0.465961
6732.000000;0.466519
6731.000000;0.466883
6730.000000;0.467595
6729.000000;0.468844
6728.000000;0.470280
6727.000000;0.471377
6726.000000;0.471930
6725.000000;0.472198
6724.000000;0.472599
6723.000000;0.473312
6722.000000;0.474158
6721.000000;0.474839
6720.000000;0.475272
6719.000000;0.475666
6718.000000;0.476288
6717.000000;0.477226
6716.000000;0.478394
6715.000000;0.479676
6714.000000;0.480956
6713.000000;0.482067
6712.000000;0.482897
6711.000000;0.483519
6710.000000;0.484127
6709.000000;0.484817
6708.000000;0.485534
6707.000000;0.486167
6706.000000;0.486689
6705.000000;0.487101
6704.000000;0.487389
6703.000000;0.487607
6702.000000;0.487890
6701.000000;0.488385
6700.000000;0.489206
6699.000000;0.490432
6698.000000;0.491973
6697.000000;0.493454
6696.000000;0.494424
6695.000000;0.494776
6694.000000;0.494846
6693.000000;0.495042
6692.000000;0.495509
6691.000000;0.496194
6690.000000;0.497028
6689.000000;0.497895
6688.000000;0.498590
6687.000000;0.499005
6686.000000;0.499316
6685.000000;0.499792
6684.000000;0.500469
6683.000000;0.501155
6682.000000;0.501719
6681.000000;0.502227
6680.000000;0.502800
6679.000000;0.503467
6678.000000;0.504203
6677.000000;0.504994
6676.000000;0.505830
6675.000000;0.506689
6674.000000;0.507555
6673.000000;0.508404
6672.000000;0.509187
6671.000000;0.509855
6670.000000;0.510394
6669.000000;0.510813
6668.000000;0.511117
6667.000000;0.511364
6666.000000;0.511668
6665.000000;0.512105
6664.000000;0.512637
6663.000000;0.513189
6662.000000;0.513753
6661.000000;0.514332
6660.000000;0.514852
6659.000000;0.515245
6658.000000;0.515584
6657.000000;0.516033
6656.000000;0.516659
6655.000000;0.517390
6654.000000;0.518152
6653.000000;0.518926
6652.000000;0.519658
6651.000000;0.520237
6650.000000;0.520635
6649.000000;0.520980
6648.000000;0.521425
6647.000000;0.521972
6646.000000;0.522487
6645.000000;0.522850
6644.000000;0.523066
6643.000000;0.523260
6642.000000;0.523585
6641.000000;0.524126
6640.000000;0.524836
6639.000000;0.525564
6638.000000;0.526151
6637.000000;0.526513
6636.000000;0.526679
6635.000000;0.526774
6634.000000;0.526950
6633.000000;0.527260
6632.000000;0.527614
6631.000000;0.527903
6630.000000;0.528181
6629.000000;0.528654
6628.000000;0.529445
6627.000000;0.530416
6626.000000;0.531248
6625.000000;0.531722
6624.000000;0.531877
6623.000000;0.531927
6622.000000;0.532050
6621.000000;0.532286
6620.000000;0.532605
6619.000000;0.533014
6618.000000;0.533551
6617.000000;0.534166
6616.000000;0.534705
6615.000000;0.535042
6614.000000;0.535231
6613.000000;0.535461
6612.000000;0.535859
6611.000000;0.536393
6610.000000;0.536959
6609.000000;0.537511
6608.000000;0.538064
6607.000000;0.538591
6606.000000;0.538982
6605.000000;0.539144
6604.000000;0.539131
6603.000000;0.539133
6602.000000;0.539323
6601.000000;0.539701
6600.000000;0.540128
6599.000000;0.540509
6598.000000;0.540899
6597.000000;0.541411
6596.000000;0.542037
6595.000000;0.542634
6594.000000;0.543057
6593.000000;0.543283
6592.000000;0.543403
6591.000000;0.543535
6590.000000;0.543763
6589.000000;0.544117
6588.000000;0.544565
6587.000000;0.545027
6586.000000;0.545428
6585.000000;0.545759
6584.000000;0.546067
6583.000000;0.546406
6582.000000;0.546789
6581.000000;0.547188
6580.000000;0.547576
6579.000000;0.547959
6578.000000;0.548370
6577.000000;0.548819
6576.000000;0.549256
6575.000000;0.549595
6574.000000;0.549784
6573.000000;0.549838
6572.000000;0.549822
6571.000000;0.549811
6570.000000;0.549872
6569.000000;0.550068
6568.000000;0.550438
6567.000000;0.550950
6566.000000;0.551490
6565.000000;0.551916
6564.000000;0.552155
6563.000000;0.552245
6562.000000;0.552293
6561.000000;0.552412
6560.000000;0.552670
6559.000000;0.553082
6558.000000;0.553590
6557.000000;0.554089
6556.000000;0.554484
6555.000000;0.554747
6554.000000;0.554918
6553.000000;0.555069
6552.000000;0.555273
6551.000000;0.555577
6550.000000;0.555948
6549.000000;0.556286
6548.000000;0.556513
6547.000000;0.556663
6546.000000;0.556825
6545.000000;0.557021
6544.000000;0.557188
6543.000000;0.557288
6542.000000;0.557377
6541.000000;0.557535
6540.000000;0.557777
6539.000000;0.558071
6538.000000;0.558399
6537.000000;0.558757
6536.000000;0.559110
6535.000000;0.559394
6534.000000;0.559570
6533.000000;0.559678
6532.000000;0.559808
6531.000000;0.560033
6530.000000;0.560342
6529.000000;0.560660
6528.000000;0.560916
6527.000000;0.561109
6526.000000;0.561280
6525.000000;0.561474
6524.000000;0.561719
6523.000000;0.562029
6522.000000;0.562380
6521.000000;0.562706
6520.000000;0.562976
6519.000000;0.563240
6518.000000;0.563542
6517.000000;0.563815
6516.000000;0.563938
6515.000000;0.563914
6514.000000;0.563888
6513.000000;0.563977
6512.000000;0.564162
6511.000000;0.564383
6510.000000;0.564645
6509.000000;0.564968
6508.000000;0.565291
6507.000000;0.565519
6506.000000;0.565647
6505.000000;0.565766
6504.000000;0.565958
6503.000000;0.566235
6502.000000;0.566538
6501.000000;0.566764
6500.000000;0.566828
6499.000000;0.566757
6498.000000;0.566704
6497.000000;0.566813
6496.000000;0.567079
6495.000000;0.567384
6494.000000;0.567643
6493.000000;0.567845
6492.000000;0.568004
6491.000000;0.568134
6490.000000;0.568282
6489.000000;0.568499
6488.000000;0.568772
6487.000000;0.569045
6486.000000;0.569294
6485.000000;0.569538
6484.000000;0.569763
6483.000000;0.569927
6482.000000;0.570047
6481.000000;0.570203
6480.000000;0.570439
6479.000000;0.570696
6478.000000;0.570896
6477.000000;0.571030
6476.000000;0.571135
6475.000000;0.571212
6474.000000;0.571238
6473.000000;0.571227
6472.000000;0.571241
6471.000000;0.571336
6470.000000;0.571509
6469.000000;0.571704
6468.000000;0.571871
6467.000000;0.572018
6466.000000;0.572205
6465.000000;0.572467
6464.000000;0.572762
6463.000000;0.573019
6462.000000;0.573230
6461.000000;0.573458
6460.000000;0.573747
6459.000000;0.574056
6458.000000;0.574302
6457.000000;0.574452
6456.000000;0.574535
6455.000000;0.574590
6454.000000;0.574621
6453.000000;0.574602
6452.000000;0.574532
6451.000000;0.574477
6450.000000;0.574527
6449.000000;0.574707
6448.000000;0.574945
6447.000000;0.575140
6446.000000;0.575264
6445.000000;0.575357
6444.000000;0.575463
6443.000000;0.575595
6442.000000;0.575755
6441.000000;0.575936
6440.000000;0.576097
6439.000000;0.576200
6438.000000;0.576268
6437.000000;0.576369
6436.000000;0.576530
6435.000000;0.576704
6434.000000;0.576837
6433.000000;0.576920
6432.000000;0.576977
6431.000000;0.577026
6430.000000;0.577070
6429.000000;0.577120
6428.000000;0.577181
6427.000000;0.577261
6426.000000;0.577375
6425.000000;0.577540
6424.000000;0.577737
6423.000000;0.577922
6422.000000;0.578069
6421.000000;0.578183
6420.000000;0.578260
6419.000000;0.578287
6418.000000;0.578292
6417.000000;0.578337
6416.000000;0.578447
6415.000000;0.578583
6414.000000;0.578707
6413.000000;0.578837
6412.000000;0.578992
6411.000000;0.579137
6410.000000;0.579223
6409.000000;0.579262
6408.000000;0.579301
6407.000000;0.579347
6406.000000;0.579369
6405.000000;0.579370
6404.000000;0.579392
6403.000000;0.579463
6402.000000;0.579578
6401.000000;0.579734
6400.000000;0.579937
6399.000000;0.580159
6398.000000;0.580325
6397.000000;0.580392
6396.000000;0.580391
6395.000000;0.580389
6394.000000;0.580416
6393.000000;0.580456
6392.000000;0.580493
6391.000000;0.580539
6390.000000;0.580616
6389.000000;0.580734
6388.000000;0.580874
6387.000000;0.580997
6386.000000;0.581064
6385.000000;0.581063
6384.000000;0.581028
6383.000000;0.581024
6382.000000;0.581091
6381.000000;0.581210
6380.000000;0.581329
6379.000000;0.581420
6378.000000;0.581499
6377.000000;0.581587
6376.000000;0.581667
6375.000000;0.581708
6374.000000;0.581721
6373.000000;0.581744
6372.000000;0.581795
6371.000000;0.581843
6370.000000;0.581864
6369.000000;0.581879
6368.000000;0.581917
6367.000000;0.581970
6366.000000;0.582006
6365.000000;0.582013
6364.000000;0.582019
6363.000000;0.582056
6362.000000;0.582143
6361.000000;0.582271
6360.000000;0.582400
6359.000000;0.582480
6358.000000;0.582493
6357.000000;0.582473
6356.000000;0.582468
6355.000000;0.582489
6354.000000;0.582522
6353.000000;0.582576
6352.000000;0.582674
6351.000000;0.582807
6350.000000;0.582921
6349.000000;0.582972
6348.000000;0.582967
6347.000000;0.582945
6346.000000;0.582947
6345.000000;0.582999
6344.000000;0.583101
6343.000000;0.583208
6342.000000;0.583255
6341.000000;0.583217
6340.000000;0.583140
6339.000000;0.583090
6338.000000;0.583086
6337.000000;0.583097
6336.000000;0.583106
6335.000000;0.583124
6334.000000;0.583170
6333.000000;0.583236
6332.000000;0.583310
6331.000000;0.583389
6330.000000;0.583466
6329.000000;0.583502
6328.000000;0.583460
6327.000000;0.583359
6326.000000;0.583271
6325.000000;0.583244
6324.000000;0.583258
6323.000000;0.583273
6322.000000;0.583289
6321.000000;0.583337
6320.000000;0.583418
6319.000000;0.583489
6318.000000;0.583522
6317.000000;0.583545
6316.000000;0.583598
6315.000000;0.583683
6314.000000;0.583772
6313.000000;0.583854
6312.000000;0.583938
6311.000000;0.584010
6310.000000;0.584029
6309.000000;0.583964
6308.000000;0.583837
6307.000000;0.583709
6306.000000;0.583646
6305.000000;0.583666
6304.000000;0.583730
6303.000000;0.583774
6302.000000;0.583769
6301.000000;0.583740
6300.000000;0.583727
6299.000000;0.583739
6298.000000;0.583756
6297.000000;0.583776
6296.000000;0.583812
6295.000000;0.583862
6294.000000;0.583904
6293.000000;0.583910
6292.000000;0.583866
6291.000000;0.583768
6290.000000;0.583636
6289.000000;0.583522
6288.000000;0.583490
6287.000000;0.583552
6286.000000;0.583665
6285.000000;0.583776
6284.000000;0.583854
6283.000000;0.583871
6282.000000;0.583805
6281.000000;0.583674
6280.000000;0.583550
6279.000000;0.583499
6278.000000;0.583525
6277.000000;0.583578
6276.000000;0.583614
6275.000000;0.583607
6274.000000;0.583547
6273.000000;0.583453
6272.000000;0.583382
6271.000000;0.583389
6270.000000;0.583473
6269.000000;0.583575
6268.000000;0.583641
6267.000000;0.583660
6266.000000;0.583647
6265.000000;0.583609
6264.000000;0.583555
6263.000000;0.583509
6262.000000;0.583492
6261.000000;0.583504
6260.000000;0.583529
6259.000000;0.583551
6258.000000;0.583565
6257.000000;0.583566
6256.000000;0.583543
6255.000000;0.583495
6254.000000;0.583433
6253.000000;0.583370
6252.000000;0.583317
6251.000000;0.583277
6250.000000;0.583256
6249.000000;0.583252
6248.000000;0.583250
6247.000000;0.583228
6246.000000;0.583183
6245.000000;0.583142
6244.000000;0.583137
6243.000000;0.583167
6242.000000;0.583195
6241.000000;0.583188
6240.000000;0.583145
6239.000000;0.583084
6238.000000;0.583021
6237.000000;0.582964
6236.000000;0.582920
6235.000000;0.582891
6234.000000;0.582869
6233.000000;0.582848
6232.000000;0.582843
6231.000000;0.582868
6230.000000;0.582912
6229.000000;0.582941
6228.000000;0.582944
6227.000000;0.582935
6226.000000;0.582918
6225.000000;0.582863
6224.000000;0.582739
6223.000000;0.582563
6222.000000;0.582402
6221.000000;0.582318
6220.000000;0.582323
6219.000000;0.582378
6218.000000;0.582435
6217.000000;0.582469
6216.000000;0.582488
6215.000000;0.582505
6214.000000;0.582510
6213.000000;0.582477
6212.000000;0.582394
6211.000000;0.582282
6210.000000;0.582180
6209.000000;0.582122
6208.000000;0.582107
6207.000000;0.582108
6206.000000;0.582082
6205.000000;0.582016
6204.000000;0.581935
6203.000000;0.581878
6202.000000;0.581846
6201.000000;0.581811
6200.000000;0.581762
6199.000000;0.581723
6198.000000;0.581715
6197.000000;0.581722
6196.000000;0.581709
6195.000000;0.581668
6194.000000;0.581610
6193.000000;0.581547
6192.000000;0.581480
6191.000000;0.581418
6190.000000;0.581373
6189.000000;0.581335
6188.000000;0.581277
6187.000000;0.581191
6186.000000;0.581104
6185.000000;0.581046
6184.000000;0.581022
6183.000000;0.581021
6182.000000;0.581041
6181.000000;0.581089
6180.000000;0.581153
6179.000000;0.581188
6178.000000;0.581138
6177.000000;0.580992
6176.000000;0.580807
6175.000000;0.580674
6174.000000;0.580640
6173.000000;0.580672
6172.000000;0.580700
6171.000000;0.580690
6170.000000;0.580651
6169.000000;0.580596
6168.000000;0.580519
6167.000000;0.580417
6166.000000;0.580310
6165.000000;0.580223
6164.000000;0.580167
6163.000000;0.580137
6162.000000;0.580125
6161.000000;0.580119
6160.000000;0.580104
6159.000000;0.580082
6158.000000;0.580069
6157.000000;0.580072
6156.000000;0.580074
6155.000000;0.580045
6154.000000;0.579983
6153.000000;0.579909
6152.000000;0.579849
6151.000000;0.579810
6150.000000;0.579786
6149.000000;0.579759
6148.000000;0.579706
6147.000000;0.579618
6146.000000;0.579525
6145.000000;0.579471
6144.000000;0.579480
6143.000000;0.579518
6142.000000;0.579520
6141.000000;0.579444
6140.000000;0.579314
6139.000000;0.579196
6138.000000;0.579146
6137.000000;0.579156
6136.000000;0.579171
6135.000000;0.579144
6134.000000;0.579080
6133.000000;0.579009
6132.000000;0.578944
6131.000000;0.578870
6130.000000;0.578776
6129.000000;0.578676
6128.000000;0.578588
6127.000000;0.578512
6126.000000;0.578434
6125.000000;0.578354
6124.000000;0.578288
6123.000000;0.578241
6122.000000;0.578196
6121.000000;0.578140
6120.000000;0.578092
6119.000000;0.578081
6118.000000;0.578097
6117.000000;0.578097
6116.000000;0.578043
6115.000000;0.577948
6114.000000;0.577858
6113.000000;0.577790
6112.000000;0.577729
6111.000000;0.577664
6110.000000;0.577613
6109.000000;0.577599
6108.000000;0.577607
6107.000000;0.577593
6106.000000;0.577527
6105.000000;0.577414
6104.000000;0.577280
6103.000000;0.577159
6102.000000;0.577089
6101.000000;0.577085
6100.000000;0.577125
6099.000000;0.577155
6098.000000;0.577146
6097.000000;0.577117
6096.000000;0.577103
6095.000000;0.577113
6094.000000;0.577113
6093.000000;0.577066
6092.000000;0.576957
6091.000000;0.576802
6090.000000;0.576638
6089.000000;0.576506
6088.000000;0.576433
6087.000000;0.576418
6086.000000;0.576439
6085.000000;0.576464
6084.000000;0.576467
6083.000000;0.576423
6082.000000;0.576337
6081.000000;0.576242
6080.000000;0.576175
6079.000000;0.576133
6078.000000;0.576075
6077.000000;0.575981
6076.000000;0.575877
6075.000000;0.575808
6074.000000;0.575781
6073.000000;0.575773
6072.000000;0.575764
6071.000000;0.575754
6070.000000;0.575739
6069.000000;0.575689
6068.000000;0.575582
6067.000000;0.575431
6066.000000;0.575284
6065.000000;0.575185
6064.000000;0.575143
6063.000000;0.575134
6062.000000;0.575123
6061.000000;0.575090
6060.000000;0.575049
6059.000000;0.575020
6058.000000;0.575002
6057.000000;0.574974
6056.000000;0.574923
6055.000000;0.574864
6054.000000;0.574815
6053.000000;0.574765
6052.000000;0.574695
6051.000000;0.574611
6050.000000;0.574547
6049.000000;0.574526
6048.000000;0.574534
6047.000000;0.574543
6046.000000;0.574535
6045.000000;0.574506
6044.000000;0.574465
6043.000000;0.574424
6042.000000;0.574395
6041.000000;0.574377
6040.000000;0.574360
6039.000000;0.574336
6038.000000;0.574304
6037.000000;0.574259
6036.000000;0.574191
6035.000000;0.574104
6034.000000;0.574025
6033.000000;0.573970
6032.000000;0.573925
6031.000000;0.573857
6030.000000;0.573758
6029.000000;0.573661
6028.000000;0.573602
6027.000000;0.573583
6026.000000;0.573564
6025.000000;0.573500
6024.000000;0.573387
6023.000000;0.573274
6022.000000;0.573216
6021.000000;0.573216
6020.000000;0.573222
6019.000000;0.573174
6018.000000;0.573063
6017.000000;0.572932
6016.000000;0.572836
6015.000000;0.572809
6014.000000;0.572854
6013.000000;0.572942
6012.000000;0.573029
6011.000000;0.573070
6010.000000;0.573051
6009.000000;0.572989
6008.000000;0.572910
6007.000000;0.572825
6006.000000;0.572735
6005.000000;0.572646
6004.000000;0.572568
6003.000000;0.572509
6002.000000;0.572459
6001.000000;0.572400
6000.000000;0.572326
5999.000000;0.572257
5998.000000;0.572213
5997.000000;0.572184
5996.000000;0.572135
5995.000000;0.572044
5994.000000;0.571935
5993.000000;0.571852
5992.000000;0.571820
5991.000000;0.571818
5990.000000;0.571805
5989.000000;0.571757
5988.000000;0.571683
5987.000000;0.571620
5986.000000;0.571594
5985.000000;0.571604
5984.000000;0.571630
5983.000000;0.571656
5982.000000;0.571677
5981.000000;0.571684
5980.000000;0.571652
5979.000000;0.571574
5978.000000;0.571478
5977.000000;0.571406
5976.000000;0.571368
5975.000000;0.571339
5974.000000;0.571297
5973.000000;0.571254
5972.000000;0.571238
5971.000000;0.571259
5970.000000;0.571296
5969.000000;0.571311
5968.000000;0.571278
5967.000000;0.571194
5966.000000;0.571079
5965.000000;0.570963
5964.000000;0.570872
5963.000000;0.570815
5962.000000;0.570785
5961.000000;0.570760
5960.000000;0.570723
5959.000000;0.570676
5958.000000;0.570641
5957.000000;0.570626
5956.000000;0.570607
5955.000000;0.570551
5954.000000;0.570460
5953.000000;0.570375
5952.000000;0.570342
5951.000000;0.570370
5950.000000;0.570426
5949.000000;0.570459
5948.000000;0.570437
5947.000000;0.570364
5946.000000;0.570287
5945.000000;0.570259
5944.000000;0.570294
5943.000000;0.570348
5942.000000;0.570364
5941.000000;0.570323
5940.000000;0.570254
5939.000000;0.570189
5938.000000;0.570142
5937.000000;0.570109
5936.000000;0.570094
5935.000000;0.570094
5934.000000;0.570089
5933.000000;0.570052
5932.000000;0.569982
5931.000000;0.569906
5930.000000;0.569848
5929.000000;0.569814
5928.000000;0.569795
5927.000000;0.569785
5926.000000;0.569772
5925.000000;0.569744
5924.000000;0.569707
5923.000000;0.569680
5922.000000;0.569669
5921.000000;0.569648
5920.000000;0.569587
5919.000000;0.569489
5918.000000;0.569390
5917.000000;0.569313
5916.000000;0.569253
5915.000000;0.569197
5914.000000;0.569144
5913.000000;0.569090
5912.000000;0.569026
5911.000000;0.568946
5910.000000;0.568870
5909.000000;0.568824
5908.000000;0.568817
5907.000000;0.568828
5906.000000;0.568830
5905.000000;0.568813
5904.000000;0.568788
5903.000000;0.568780
5902.000000;0.568794
5901.000000;0.568796
5900.000000;0.568730
5899.000000;0.568579
5898.000000;0.568396
5897.000000;0.568266
5896.000000;0.568224
5895.000000;0.568222
5894.000000;0.568183
5893.000000;0.568070
5892.000000;0.567909
5891.000000;0.567751
5890.000000;0.567636
5889.000000;0.567569
5888.000000;0.567534
5887.000000;0.567513
5886.000000;0.567492
5885.000000;0.567451
5884.000000;0.567378
5883.000000;0.567280
5882.000000;0.567188
5881.000000;0.567139
5880.000000;0.567143
5879.000000;0.567180
5878.000000;0.567215
5877.000000;0.567211
5876.000000;0.567149
5875.000000;0.567046
5874.000000;0.566945
5873.000000;0.566881
5872.000000;0.566846
5871.000000;0.566807
5870.000000;0.566745
5869.000000;0.566670
5868.000000;0.566600
5867.000000;0.566545
5866.000000;0.566510
5865.000000;0.566501
5864.000000;0.566506
5863.000000;0.566501
5862.000000;0.566468
5861.000000;0.566415
5860.000000;0.566354
5859.000000;0.566291
5858.000000;0.566229
5857.000000;0.566177
5856.000000;0.566137
5855.000000;0.566090
5854.000000;0.566007
5853.000000;0.565883
5852.000000;0.565745
5851.000000;0.565629
5850.000000;0.565556
5849.000000;0.565526
5848.000000;0.565535
5847.000000;0.565576
5846.000000;0.565628
5845.000000;0.565649
5844.000000;0.565602
5843.000000;0.565507
5842.000000;0.565422
5841.000000;0.565386
5840.000000;0.565378
5839.000000;0.565344
5838.000000;0.565267
5837.000000;0.565181
5836.000000;0.565130
5835.000000;0.565116
5834.000000;0.565111
5833.000000;0.565088
5832.000000;0.565036
5831.000000;0.564970
5830.000000;0.564916
5829.000000;0.564896
5828.000000;0.564911
5827.000000;0.564939
5826.000000;0.564955
5825.000000;0.564943
5824.000000;0.564892
5823.000000;0.564807
5822.000000;0.564724
5821.000000;0.564691
5820.000000;0.564720
5819.000000;0.564765
5818.000000;0.564776
5817.000000;0.564741
5816.000000;0.564676
5815.000000;0.564591
5814.000000;0.564485
5813.000000;0.564372
5812.000000;0.564284
5811.000000;0.564228
5810.000000;0.564179
5809.000000;0.564111
5808.000000;0.564024
5807.000000;0.563934
5806.000000;0.563854
5805.000000;0.563781
5804.000000;0.563706
5803.000000;0.563623
5802.000000;0.563544
5801.000000;0.563499
5800.000000;0.563509
5799.000000;0.563549
5798.000000;0.563560
5797.000000;0.563512
5796.000000;0.563438
5795.000000;0.563395
5794.000000;0.563395
5793.000000;0.563399
5792.000000;0.563365
5791.000000;0.563294
5790.000000;0.563219
5789.000000;0.563173
5788.000000;0.563161
5787.000000;0.563166
5786.000000;0.563161
5785.000000;0.563128
5784.000000;0.563068
5783.000000;0.562995
5782.000000;0.562915
5781.000000;0.562825
5780.000000;0.562729
5779.000000;0.562642
5778.000000;0.562575
5777.000000;0.562515
5776.000000;0.562436
5775.000000;0.562334
5774.000000;0.562230
5773.000000;0.562138
5772.000000;0.562036
5771.000000;0.561900
5770.000000;0.561740
5769.000000;0.561605
5768.000000;0.561540
5767.000000;0.561536
5766.000000;0.561545
5765.000000;0.561518
5764.000000;0.561442
5763.000000;0.561339
5762.000000;0.561249
5761.000000;0.561201
5760.000000;0.561188
5759.000000;0.561176
5758.000000;0.561126
5757.000000;0.561017
5756.000000;0.560867
5755.000000;0.560715
5754.000000;0.560606
5753.000000;0.560563
5752.000000;0.560569
5751.000000;0.560586
5750.000000;0.560576
5749.000000;0.560523
5748.000000;0.560423
5747.000000;0.560278
5746.000000;0.560097
5745.000000;0.559912
5744.000000;0.559762
5743.000000;0.559667
5742.000000;0.559610
5741.000000;0.559558
5740.000000;0.559489
5739.000000;0.559408
5738.000000;0.559335
5737.000000;0.559285
5736.000000;0.559256
5735.000000;0.559228
5734.000000;0.559175
5733.000000;0.559089
5732.000000;0.558991
5731.000000;0.558909
5730.000000;0.558849
5729.000000;0.558784
5728.000000;0.558684
5727.000000;0.558552
5726.000000;0.558421
5725.000000;0.558309
5724.000000;0.558202
5723.000000;0.558090
5722.000000;0.557993
5721.000000;0.557939
5720.000000;0.557905
5719.000000;0.557834
5718.000000;0.557706
5717.000000;0.557573
5716.000000;0.557493
5715.000000;0.557459
5714.000000;0.557412
5713.000000;0.557326
5712.000000;0.557221
5711.000000;0.557114
5710.000000;0.556987
5709.000000;0.556834
5708.000000;0.556692
5707.000000;0.556599
5706.000000;0.556548
5705.000000;0.556499
5704.000000;0.556435
5703.000000;0.556373
5702.000000;0.556321
5701.000000;0.556265
5700.000000;0.556196
5699.000000;0.556132
5698.000000;0.556093
5697.000000;0.556066
5696.000000;0.556011
5695.000000;0.555901
5694.000000;0.555753
5693.000000;0.555614
5692.000000;0.555520
5691.000000;0.555457
5690.000000;0.555377
5689.000000;0.555257
5688.000000;0.555123
5687.000000;0.555019
5686.000000;0.554941
5685.000000;0.554845
5684.000000;0.554711
5683.000000;0.554575
5682.000000;0.554476
5681.000000;0.554402
5680.000000;0.554307
5679.000000;0.554174
5678.000000;0.554034
5677.000000;0.553932
5676.000000;0.553889
5675.000000;0.553894
5674.000000;0.553922
5673.000000;0.553943
5672.000000;0.553936
5671.000000;0.553886
5670.000000;0.553781
5669.000000;0.553623
5668.000000;0.553443
5667.000000;0.553300
5666.000000;0.553232
5665.000000;0.553213
5664.000000;0.553174
5663.000000;0.553066
5662.000000;0.552897
5661.000000;0.552722
5660.000000;0.552596
5659.000000;0.552552
5658.000000;0.552570
5657.000000;0.552582
5656.000000;0.552528
5655.000000;0.552410
5654.000000;0.552287
5653.000000;0.552203
5652.000000;0.552142
5651.000000;0.552065
5650.000000;0.551963
5649.000000;0.551860
5648.000000;0.551770
5647.000000;0.551678
5646.000000;0.551569
5645.000000;0.551448
5644.000000;0.551340
5643.000000;0.551272
5642.000000;0.551255
5641.000000;0.551279
5640.000000;0.551324
5639.000000;0.551361
5638.000000;0.551359
5637.000000;0.551303
5636.000000;0.551209
5635.000000;0.551114
5634.000000;0.551037
5633.000000;0.550957
5632.000000;0.550851
5631.000000;0.550734
5630.000000;0.550650
5629.000000;0.550614
5628.000000;0.550602
5627.000000;0.550594
5626.000000;0.550600
5625.000000;0.550631
5624.000000;0.550669
5623.000000;0.550689
5622.000000;0.550678
5621.000000;0.550625
5620.000000;0.550507
5619.000000;0.550340
5618.000000;0.550197
5617.000000;0.550144
5616.000000;0.550163
5615.000000;0.550173
5614.000000;0.550135
5613.000000;0.550080
5612.000000;0.550047
5611.000000;0.550023
5610.000000;0.549987
5609.000000;0.549955
5608.000000;0.549965
5607.000000;0.550013
5606.000000;0.550047
5605.000000;0.550018
5604.000000;0.549921
5603.000000;0.549790
5602.000000;0.549665
5601.000000;0.549574
5600.000000;0.549519
5599.000000;0.549494
5598.000000;0.549492
5597.000000;0.549513
5596.000000;0.549557
5595.000000;0.549610
5594.000000;0.549651
5593.000000;0.549669
5592.000000;0.549666
5591.000000;0.549654
5590.000000;0.549634
5589.000000;0.549601
5588.000000;0.549550
5587.000000;0.549487
5586.000000;0.549430
5585.000000;0.549397
5584.000000;0.549389
5583.000000;0.549393
5582.000000;0.549395
5581.000000;0.549382
5580.000000;0.549340
5579.000000;0.549270
5578.000000;0.549194
5577.000000;0.549152
5576.000000;0.549152
5575.000000;0.549164
5574.000000;0.549147
5573.000000;0.549090
5572.000000;0.549017
5571.000000;0.548951
5570.000000;0.548893
5569.000000;0.548841
5568.000000;0.548806
5567.000000;0.548815
5566.000000;0.548876
5565.000000;0.548968
5564.000000;0.549047
5563.000000;0.549068
5562.000000;0.549016
5561.000000;0.548911
5560.000000;0.548794
5559.000000;0.548704
5558.000000;0.548655
5557.000000;0.548631
5556.000000;0.548614
5555.000000;0.548594
5554.000000;0.548573
5553.000000;0.548543
5552.000000;0.548499
5551.000000;0.548446
5550.000000;0.548399
5549.000000;0.548358
5548.000000;0.548308
5547.000000;0.548241
5546.000000;0.548171
5545.000000;0.548122
5544.000000;0.548101
5543.000000;0.548090
5542.000000;0.548072
5541.000000;0.548040
5540.000000;0.548004
5539.000000;0.547977
5538.000000;0.547963
5537.000000;0.547953
5536.000000;0.547931
5535.000000;0.547883
5534.000000;0.547807
5533.000000;0.547723
5532.000000;0.547673
5531.000000;0.547696
5530.000000;0.547773
5529.000000;0.547837
5528.000000;0.547823
5527.000000;0.547731
5526.000000;0.547627
5525.000000;0.547554
5524.000000;0.547490
5523.000000;0.547384
5522.000000;0.547232
5521.000000;0.547099
5520.000000;0.547055
5519.000000;0.547108
5518.000000;0.547196
5517.000000;0.547247
5516.000000;0.547235
5515.000000;0.547171
5514.000000;0.547060
5513.000000;0.546899
5512.000000;0.546724
5511.000000;0.546621
5510.000000;0.546641
5509.000000;0.546733
5508.000000;0.546788
5507.000000;0.546762
5506.000000;0.546710
5505.000000;0.546692
5504.000000;0.546699
5503.000000;0.546719
5502.000000;0.546778
5501.000000;0.546882
5500.000000;0.546937
5499.000000;0.546810
5498.000000;0.546518
5497.000000;0.546261
5496.000000;0.546195
5495.000000;0.546237
5494.000000;0.546167
5493.000000;0.545922
5492.000000;0.545683
5491.000000;0.545633
5490.000000;0.545749
5489.000000;0.545869
5488.000000;0.545902
5487.000000;0.545877
5486.000000;0.545860
5485.000000;0.545888
5484.000000;0.545964
5483.000000;0.546051
5482.000000;0.546042
5481.000000;0.545832
5480.000000;0.545486
5479.000000;0.545233
5478.000000;0.545224
5477.000000;0.545346
5476.000000;0.545368
5475.000000;0.545233
5474.000000;0.545091
5473.000000;0.545072
5472.000000;0.545149
5471.000000;0.545217
5470.000000;0.545203
5469.000000;0.545110
5468.000000;0.544980
5467.000000;0.544838
5466.000000;0.544685
5465.000000;0.544542
5464.000000;0.544463
5463.000000;0.544484
5462.000000;0.544552
5461.000000;0.544563
5460.000000;0.544503
5459.000000;0.544486
5458.000000;0.544574
5457.000000;0.544662
5456.000000;0.544598
5455.000000;0.544390
5454.000000;0.544208
5453.000000;0.544155
5452.000000;0.544129
5451.000000;0.543989
5450.000000;0.543778
5449.000000;0.543671
5448.000000;0.543711
5447.000000;0.543696
5446.000000;0.543456
5445.000000;0.543155
5444.000000;0.543115
5443.000000;0.543374
5442.000000;0.543611
5441.000000;0.543527
5440.000000;0.543201
5439.000000;0.542985
5438.000000;0.543073
5437.000000;0.543295
5436.000000;0.543322
5435.000000;0.543028
5434.000000;0.542623
5433.000000;0.542418
5432.000000;0.542517
5431.000000;0.542729
5430.000000;0.542781
5429.000000;0.542623
5428.000000;0.542475
5427.000000;0.542535
5426.000000;0.542749
5425.000000;0.542912
5424.000000;0.542906
5423.000000;0.542806
5422.000000;0.542750
5421.000000;0.542735
5420.000000;0.542613
5419.000000;0.542324
5418.000000;0.542022
5417.000000;0.541885
5416.000000;0.541854
5415.000000;0.541729
5414.000000;0.541490
5413.000000;0.541341
5412.000000;0.541393
5411.000000;0.541505
5410.000000;0.541513
5409.000000;0.541450
5408.000000;0.541443
5407.000000;0.541530
5406.000000;0.541632
5405.000000;0.541662
5404.000000;0.541618
5403.000000;0.541543
5402.000000;0.541477
5401.000000;0.541443
5400.000000;0.541379
5399.000000;0.541192
5398.000000;0.540909
5397.000000;0.540689
5396.000000;0.540630
5395.000000;0.540629
5394.000000;0.540536
5393.000000;0.540362
5392.000000;0.540206
5391.000000;0.540105
5390.000000;0.540060
5389.000000;0.540097
5388.000000;0.540182
5387.000000;0.540185
5386.000000;0.540026
5385.000000;0.539810
5384.000000;0.539685
5383.000000;0.539602
5382.000000;0.539412
5381.000000;0.539155
5380.000000;0.539019
5379.000000;0.539034
5378.000000;0.539013
5377.000000;0.538848
5376.000000;0.538673
5375.000000;0.538621
5374.000000;0.538630
5373.000000;0.538574
5372.000000;0.538415
5371.000000;0.538173
5370.000000;0.537860
5369.000000;0.537523
5368.000000;0.537266
5367.000000;0.537156
5366.000000;0.537097
5365.000000;0.536946
5364.000000;0.536703
5363.000000;0.536496
5362.000000;0.536414
5361.000000;0.536387
5360.000000;0.536252
5359.000000;0.535908
5358.000000;0.535435
5357.000000;0.535025
5356.000000;0.534734
5355.000000;0.534403
5354.000000;0.533913
5353.000000;0.533429
5352.000000;0.533201
5351.000000;0.533130
5350.000000;0.532840
5349.000000;0.532199
5348.000000;0.531512
5347.000000;0.531044
5346.000000;0.530605
5345.000000;0.529853
5344.000000;0.528882
5343.000000;0.528121
5342.000000;0.527714
5341.000000;0.527339
5340.000000;0.526588
5339.000000;0.525379
5338.000000;0.524024
5337.000000;0.522915
5336.000000;0.522184
5335.000000;0.521610
5334.000000;0.520741
5333.000000;0.519244
5332.000000;0.517263
5331.000000;0.515300
5330.000000;0.513633
5329.000000;0.512041
5328.000000;0.510127
5327.000000;0.507731
5326.000000;0.504934
5325.000000;0.501828
5324.000000;0.498501
5323.000000;0.495081
5322.000000;0.491596
5321.000000;0.487871
5320.000000;0.483688
5319.000000;0.478982
5318.000000;0.473782
5317.000000;0.468061
5316.000000;0.461728
5315.000000;0.454643
5314.000000;0.446579
5313.000000;0.437372
5312.000000;0.427178
5311.000000;0.416221
5310.000000;0.404164
5309.000000;0.390204
5308.000000;0.374073
5307.000000;0.356481
5306.000000;0.338175
5305.000000;0.319187
5304.000000;0.299431
5303.000000;0.279342
5302.000000;0.259674
5301.000000;0.241697
5300.000000;0.227774
5299.000000;0.220532
5298.000000;0.221848
5297.000000;0.233219
5296.000000;0.254817
5295.000000;0.284624
5294.000000;0.321234
5293.000000;0.364367
5292.000000;0.410801
5291.000000;0.455131
5290.000000;0.495480
5289.000000;0.533238
5288.000000;0.568365
5287.000000;0.600017
5286.000000;0.629698
5285.000000;0.658881
5284.000000;0.685630
5283.000000;0.708229
5282.000000;0.729501
5281.000000;0.752534
5280.000000;0.775073
5279.000000;0.793139
5278.000000;0.807241
5277.000000;0.819912
5276.000000;0.830907
5275.000000;0.840040
5274.000000;0.850098
5273.000000;0.862014
5272.000000;0.872201
5271.000000;0.878735
5270.000000;0.885009
5269.000000;0.893432
5268.000000;0.901059
5267.000000;0.905790
5266.000000;0.911069
5265.000000;0.919024
5264.000000;0.925233
5263.000000;0.926169
5262.000000;0.925745
5261.000000;0.928183
5260.000000;0.930677
5259.000000;0.929029
5258.000000;0.925356
5257.000000;0.923717
5256.000000;0.923316
5255.000000;0.922476
5254.000000;0.923534
5253.000000;0.927269
5252.000000;0.928638
5251.000000;0.924898
5250.000000;0.922029
5249.000000;0.925806
5248.000000;0.932841
5247.000000;0.936562
5246.000000;0.937077
5245.000000;0.937708
5244.000000;0.936720
5243.000000;0.931608
5242.000000;0.926949
5241.000000;0.928882
5240.000000;0.935753
5239.000000;0.940885
5238.000000;0.942272
5237.000000;0.943195
5236.000000;0.944937
5235.000000;0.945592
5234.000000;0.944510
5233.000000;0.942085
5232.000000;0.936898
5231.000000;0.928462
5230.000000;0.921055
5229.000000;0.919788
5228.000000;0.924310
5227.000000;0.930139
5226.000000;0.934206
5225.000000;0.935549
5224.000000;0.933405
5223.000000;0.928901
5222.000000;0.926096
5221.000000;0.927436
5220.000000;0.930420
5219.000000;0.932103
5218.000000;0.933853
5217.000000;0.937572
5216.000000;0.940595
5215.000000;0.939054
5214.000000;0.933876
5213.000000;0.928695
5212.000000;0.924821
5211.000000;0.922580
5210.000000;0.923622
5209.000000;0.927363
5208.000000;0.928671
5207.000000;0.924180
5206.000000;0.918151
5205.000000;0.917288
5204.000000;0.922781
5203.000000;0.930506
5202.000000;0.936123
5201.000000;0.937266
5200.000000;0.933963
5199.000000;0.930413
5198.000000;0.932780
5197.000000;0.941551
5196.000000;0.948947
5195.000000;0.948114
5194.000000;0.942174
5193.000000;0.938548
5192.000000;0.938515
5191.000000;0.938047
5190.000000;0.935684
5189.000000;0.934006
5188.000000;0.934751
5187.000000;0.936965
5186.000000;0.938866
5185.000000;0.938325
5184.000000;0.933447
5183.000000;0.925792
5182.000000;0.920385
5181.000000;0.919801
5180.000000;0.921139
5179.000000;0.921236
5178.000000;0.921517
5177.000000;0.924228
5176.000000;0.927835
5175.000000;0.930549
5174.000000;0.934848
5173.000000;0.942928
5172.000000;0.950242
5171.000000;0.949637
5170.000000;0.941228
5169.000000;0.932132
5168.000000;0.927605
5167.000000;0.927932
5166.000000;0.931860
5165.000000;0.938022
5164.000000;0.943713
5163.000000;0.946385
5162.000000;0.946471
5161.000000;0.945799
5160.000000;0.944133
5159.000000;0.940415
5158.000000;0.936106
5157.000000;0.933760
5156.000000;0.933502
5155.000000;0.934018
5154.000000;0.935636
5153.000000;0.939459
5152.000000;0.944315
5151.000000;0.947432
5150.000000;0.947659
5149.000000;0.945774
5148.000000;0.942653
5147.000000;0.939378
5146.000000;0.937476
5145.000000;0.936675
5144.000000;0.934547
5143.000000;0.930710
5142.000000;0.928812
5141.000000;0.931382
5140.000000;0.934950
5139.000000;0.933962
5138.000000;0.928431
5137.000000;0.923649
5136.000000;0.923651
5135.000000;0.928071
5134.000000;0.933664
5133.000000;0.936777
5132.000000;0.935858
5131.000000;0.933217
5130.000000;0.932847
5129.000000;0.935345
5128.000000;0.937165
5127.000000;0.936303
5126.000000;0.935607
5125.000000;0.937787
5124.000000;0.940469
5123.000000;0.939635
5122.000000;0.935686
5121.000000;0.932108
5120.000000;0.929803
5119.000000;0.927089
5118.000000;0.924307
5117.000000;0.924298
5116.000000;0.928389
5115.000000;0.934600
5114.000000;0.939858
5113.000000;0.942336
5112.000000;0.941913
5111.000000;0.939957
5110.000000;0.938265
5109.000000;0.937002
5108.000000;0.934151
5107.000000;0.928353
5106.000000;0.921833
5105.000000;0.918356
5104.000000;0.919040
5103.000000;0.921897
5102.000000;0.924333
5101.000000;0.924904
5100.000000;0.923706
5099.000000;0.922398
5098.000000;0.922959
5097.000000;0.925438
5096.000000;0.927968
5095.000000;0.929205
5094.000000;0.929240
5093.000000;0.928107
5092.000000;0.925344
5091.000000;0.921953
5090.000000;0.921055
5089.000000;0.924788
5088.000000;0.931322
5087.000000;0.936136
5086.000000;0.936035
5085.000000;0.931895
5084.000000;0.927953
5083.000000;0.928108
5082.000000;0.932001
5081.000000;0.935238
5080.000000;0.934972
5079.000000;0.933892
5078.000000;0.936099
5077.000000;0.940524
5076.000000;0.941825
5075.000000;0.937922
5074.000000;0.932586
5073.000000;0.929800
5072.000000;0.929858
5071.000000;0.931734
5070.000000;0.935161
5069.000000;0.938766
5068.000000;0.939873
5067.000000;0.938106
5066.000000;0.935963
5065.000000;0.934532
5064.000000;0.932191
5063.000000;0.928691
5062.000000;0.926758
5061.000000;0.927896
5060.000000;0.930185
5059.000000;0.932083
5058.000000;0.934794
5057.000000;0.938296
5056.000000;0.938826
5055.000000;0.934076
5054.000000;0.927710
5053.000000;0.924812
5052.000000;0.925818
5051.000000;0.927541
5050.000000;0.927771
5049.000000;0.926551
5048.000000;0.924610
5047.000000;0.922825
5046.000000;0.921869
5045.000000;0.921308
5044.000000;0.920201
5043.000000;0.918760
5042.000000;0.917623
5041.000000;0.914916
5040.000000;0.907642
5039.000000;0.897389
5038.000000;0.890412
5037.000000;0.890706
5036.000000;0.896185
5035.000000;0.902736
5034.000000;0.909184
5033.000000;0.915787
5032.000000;0.920819
5031.000000;0.921989
5030.000000;0.919459
5029.000000;0.915276
5028.000000;0.911159
5027.000000;0.908178
5026.000000;0.907104
5025.000000;0.907036
5024.000000;0.905335
5023.000000;0.901404
5022.000000;0.898234
5021.000000;0.897679
5020.000000;0.896903
5019.000000;0.892416
5018.000000;0.885491
5017.000000;0.880246
5016.000000;0.878433
5015.000000;0.878569
5014.000000;0.878087
5013.000000;0.874754
5012.000000;0.867949
5011.000000;0.860155
5010.000000;0.855353
5009.000000;0.854524
5008.000000;0.854450
5007.000000;0.852323
5006.000000;0.849398
5005.000000;0.848010
5004.000000;0.847507
5003.000000;0.845734
5002.000000;0.842791
5001.000000;0.840570
5000.000000;0.839429
4999.000000;0.838000
4998.000000;0.835862
4997.000000;0.833793
4996.000000;0.831730
4995.000000;0.828766
4994.000000;0.824806
4993.000000;0.820716
4992.000000;0.817299
4991.000000;0.815092
4990.000000;0.814262
4989.000000;0.813834
4988.000000;0.812139
4987.000000;0.808982
4986.000000;0.806036
4985.000000;0.804113
4984.000000;0.801529
4983.000000;0.796197
4982.000000;0.788051
4981.000000;0.778443
4980.000000;0.768546
4979.000000;0.759465
4978.000000;0.752659
4977.000000;0.748980
4976.000000;0.747839
4975.000000;0.747906
4974.000000;0.747666
4973.000000;0.745326
4972.000000;0.740007
4971.000000;0.733262
4970.000000;0.727540
4969.000000;0.722925
4968.000000;0.717511
4967.000000;0.711305
4966.000000;0.706907
4965.000000;0.705103
4964.000000;0.702686
4963.000000;0.696630
4962.000000;0.688238
4961.000000;0.680932
4960.000000;0.676144
4959.000000;0.673426
4958.000000;0.672290
4957.000000;0.671481
4956.000000;0.668228
4955.000000;0.661024
4954.000000;0.652124
4953.000000;0.645020
4952.000000;0.640499
4951.000000;0.636784
4950.000000;0.632215
4949.000000;0.626102
4948.000000;0.618165
4947.000000;0.609002
4946.000000;0.600286
4945.000000;0.592982
4944.000000;0.586207
4943.000000;0.579018
4942.000000;0.572231
4941.000000;0.567047
4940.000000;0.562821
4939.000000;0.557780
4938.000000;0.551367
4937.000000;0.544512
4936.000000;0.538143
4935.000000;0.532383
4934.000000;0.526521
4933.000000;0.519113
4932.000000;0.509191
4931.000000;0.498193
4930.000000;0.489473
4929.000000;0.484848
4928.000000;0.482583
4927.000000;0.479491
4926.000000;0.473862
4925.000000;0.465598
4924.000000;0.455319
4923.000000;0.444827
4922.000000;0.436798
4921.000000;0.431976
4920.000000;0.427734
4919.000000;0.421060
4918.000000;0.412106
4917.000000;0.403255
4916.000000;0.395690
4915.000000;0.388581
4914.000000;0.381107
4913.000000;0.373506
4912.000000;0.366101
4911.000000;0.358756
4910.000000;0.351521
4909.000000;0.344662
4908.000000;0.337980
4907.000000;0.330989
4906.000000;0.323688
4905.000000;0.316453
4904.000000;0.309355
4903.000000;0.302231
4902.000000;0.295163
4901.000000;0.288227
4900.000000;0.281031
4899.000000;0.273266
4898.000000;0.265574
4897.000000;0.259075
4896.000000;0.253899
4895.000000;0.248838
4894.000000;0.242665
4893.000000;0.235327
4892.000000;0.227787
4891.000000;0.221058
4890.000000;0.215482
4889.000000;0.210822
4888.000000;0.206908
4887.000000;0.203883
4886.000000;0.201597
4885.000000;0.199081
4884.000000;0.195226
4883.000000;0.190049
4882.000000;0.184726
4881.000000;0.180264
4880.000000;0.176601
4879.000000;0.173086
4878.000000;0.169256
4877.000000;0.164879
4876.000000;0.159790
4875.000000;0.154191
4874.000000;0.148902
4873.000000;0.144878
4872.000000;0.142398
4871.000000;0.140935
4870.000000;0.139912
4869.000000;0.139400
4868.000000;0.139838
4867.000000;0.141106
4866.000000;0.142255
4865.000000;0.142309
4864.000000;0.141110
4863.000000;0.139358
4862.000000;0.137991
4861.000000;0.137632
4860.000000;0.138428
4859.000000;0.139955
4858.000000;0.141354
4857.000000;0.142002
4856.000000;0.142226
4855.000000;0.143188
4854.000000;0.145735
4853.000000;0.149363
4852.000000;0.152602
4851.000000;0.154581
4850.000000;0.156012
4849.000000;0.158281
4848.000000;0.161681
4847.000000;0.165046
4846.000000;0.167222
4845.000000;0.168326
4844.000000;0.169261
4843.000000;0.170573
4842.000000;0.172395
4841.000000;0.175035
4840.000000;0.178778
4839.000000;0.183190
4838.000000;0.187293
4837.000000;0.190470
4836.000000;0.192720
4835.000000;0.194207
4834.000000;0.195208
4833.000000;0.196436
4832.000000;0.198625
4831.000000;0.201586
4830.000000;0.204320
4829.000000;0.206294
4828.000000;0.208057
4827.000000;0.210408
4826.000000;0.213470
4825.000000;0.216852
4824.000000;0.220184
4823.000000;0.223201
4822.000000;0.225803
4821.000000;0.228410
4820.000000;0.231788
4819.000000;0.236056
4818.000000;0.240221
4817.000000;0.243221
4816.000000;0.245159
4815.000000;0.247078
4814.000000;0.249698
4813.000000;0.252814
4812.000000;0.255820
4811.000000;0.258397
4810.000000;0.260659
4809.000000;0.262923
4808.000000;0.265443
4807.000000;0.268190
4806.000000;0.270827
4805.000000;0.273020
4804.000000;0.274790
4803.000000;0.276460
4802.000000;0.278324
4801.000000;0.280457
4800.000000;0.282784
4799.000000;0.285170
4798.000000;0.287445
4797.000000;0.289478
4796.000000;0.291300
4795.000000;0.293126
4794.000000;0.295254
4793.000000;0.297850
4792.000000;0.300731
4791.000000;0.303409
4790.000000;0.305480
4789.000000;0.307021
4788.000000;0.308457
4787.000000;0.310064
4786.000000;0.311741
4785.000000;0.313328
4784.000000;0.314917
4783.000000;0.316709
4782.000000;0.318714
4781.000000;0.320783
4780.000000;0.322859
4779.000000;0.324997
4778.000000;0.327165
4777.000000;0.329187
4776.000000;0.330926
4775.000000;0.332444
4774.000000;0.333957
4773.000000;0.335672
4772.000000;0.337656
4771.000000;0.339772
4770.000000;0.341748
4769.000000;0.343371
4768.000000;0.344650
4767.000000;0.345775
4766.000000;0.346922
4765.000000;0.348125
4764.000000;0.349358
4763.000000;0.350671
4762.000000;0.352152
4761.000000;0.353756
4760.000000;0.355280
4759.000000;0.356590
4758.000000;0.357811
4757.000000;0.359155
4756.000000;0.360607
4755.000000;0.361949
4754.000000;0.363125
4753.000000;0.364367
4752.000000;0.365855
4751.000000;0.367405
4750.000000;0.368682
4749.000000;0.369622
4748.000000;0.370471
4747.000000;0.371454
4746.000000;0.372570
4745.000000;0.373701
4744.000000;0.374780
4743.000000;0.375849
4742.000000;0.377065
4741.000000;0.378570
4740.000000;0.380231
4739.000000;0.381624
4738.000000;0.382490
4737.000000;0.383149
4736.000000;0.384202
4735.000000;0.385805
4734.000000;0.387485
4733.000000;0.388721
4732.000000;0.389443
4731.000000;0.389882
4730.000000;0.390237
4729.000000;0.390665
4728.000000;0.391388
4727.000000;0.392531
4726.000000;0.393926
4725.000000;0.395270
4724.000000;0.396403
4723.000000;0.397306
4722.000000;0.397935
4721.000000;0.398294
4720.000000;0.398592
4719.000000;0.399093
4718.000000;0.399787
4717.000000;0.400422
4716.000000;0.400894
4715.000000;0.401441
4714.000000;0.402336
4713.000000;0.403542
4712.000000;0.404770
4711.000000;0.405808
4710.000000;0.406652
4709.000000;0.407374
4708.000000;0.407982
4707.000000;0.408454
4706.000000;0.408841
4705.000000;0.409266
4704.000000;0.409816
4703.000000;0.410481
4702.000000;0.411201
4701.000000;0.411949
4700.000000;0.412748
4699.000000;0.413610
4698.000000;0.414491
4697.000000;0.415301
4696.000000;0.415951
4695.000000;0.416415
4694.000000;0.416799
4693.000000;0.417312
4692.000000;0.418098
4691.000000;0.419064
4690.000000;0.419927
4689.000000;0.420478
4688.000000;0.420767
4687.000000;0.421012
4686.000000;0.421400
4685.000000;0.421957
4684.000000;0.422580
4683.000000;0.423115
4682.000000;0.423488
4681.000000;0.423770
4680.000000;0.424084
4679.000000;0.424433
4678.000000;0.424687
4677.000000;0.424794
4676.000000;0.424938
4675.000000;0.425385
4674.000000;0.426222
4673.000000;0.427273
4672.000000;0.428258
4671.000000;0.428970
4670.000000;0.429368
4669.000000;0.429578
4668.000000;0.429795
4667.000000;0.430129
4666.000000;0.430527
4665.000000;0.430889
4664.000000;0.431217
4663.000000;0.431589
4662.000000;0.432012
4661.000000;0.432388
4660.000000;0.432635
4659.000000;0.432800
4658.000000;0.433007
4657.000000;0.433337
4656.000000;0.433762
4655.000000;0.434166
4654.000000;0.434448
4653.000000;0.434621
4652.000000;0.434825
4651.000000;0.435204
4650.000000;0.435772
4649.000000;0.436407
4648.000000;0.436948
4647.000000;0.437299
4646.000000;0.437471
4645.000000;0.437580
4644.000000;0.437768
4643.000000;0.438065
4642.000000;0.438351
4641.000000;0.438505
4640.000000;0.438569
4639.000000;0.438718
4638.000000;0.439071
4637.000000;0.439564
4636.000000;0.440023
4635.000000;0.440323
4634.000000;0.440487
4633.000000;0.440669
4632.000000;0.441001
4631.000000;0.441438
4630.000000;0.441795
4629.000000;0.441976
4628.000000;0.442109
4627.000000;0.442359
4626.000000;0.442661
4625.000000;0.442781
4624.000000;0.442645
4623.000000;0.442472
4622.000000;0.442522
4621.000000;0.442809
4620.000000;0.443157
4619.000000;0.443444
4618.000000;0.443671
4617.000000;0.443843
4616.000000;0.443929
4615.000000;0.443970
4614.000000;0.444124
4613.000000;0.444503
4612.000000;0.445011
4611.000000;0.445384
4610.000000;0.445420
4609.000000;0.445150
4608.000000;0.444782
4607.000000;0.444532
4606.000000;0.444510
4605.000000;0.444708
4604.000000;0.445029
4603.000000;0.445339
4602.000000;0.445551
4601.000000;0.445688
4600.000000;0.445832
4599.000000;0.446013
4598.000000;0.446177
4597.000000;0.446292
4596.000000;0.446408
4595.000000;0.446579
4594.000000;0.446790
4593.000000;0.447002
4592.000000;0.447216
4591.000000;0.447413
4590.000000;0.447494
4589.000000;0.447390
4588.000000;0.447204
4587.000000;0.447123
4586.000000;0.447189
4585.000000;0.447258
4584.000000;0.447213
4583.000000;0.447115
4582.000000;0.447114
4581.000000;0.447264
4580.000000;0.447502
4579.000000;0.447724
4578.000000;0.447815
4577.000000;0.447689
4576.000000;0.447372
4575.000000;0.447051
4574.000000;0.446937
4573.000000;0.447072
4572.000000;0.447293
4571.000000;0.447406
4570.000000;0.447369
4569.000000;0.447297
4568.000000;0.447304
4567.000000;0.447379
4566.000000;0.447426
4565.000000;0.447413
4564.000000;0.447429
4563.000000;0.447549
4562.000000;0.447701
4561.000000;0.447750
4560.000000;0.447688
4559.000000;0.447629
4558.000000;0.447610
4557.000000;0.447511
4556.000000;0.447237
4555.000000;0.446897
4554.000000;0.446693
4553.000000;0.446708
4552.000000;0.446852
4551.000000;0.446998
4550.000000;0.447061
4549.000000;0.446982
4548.000000;0.446747
4547.000000;0.446440
4546.000000;0.446200
4545.000000;0.446111
4544.000000;0.446146
4543.000000;0.446230
4542.000000;0.446314
4541.000000;0.446368
4540.000000;0.446378
4539.000000;0.446352
4538.000000;0.446326
4537.000000;0.446315
4536.000000;0.446282
4535.000000;0.446163
4534.000000;0.445915
4533.000000;0.445558
4532.000000;0.445188
4531.000000;0.444934
4530.000000;0.444850
4529.000000;0.444860
4528.000000;0.444846
4527.000000;0.444785
4526.000000;0.444763
4525.000000;0.444824
4524.000000;0.444862
4523.000000;0.444709
4522.000000;0.444325
4521.000000;0.443875
4520.000000;0.443585
4519.000000;0.443536
4518.000000;0.443616
4517.000000;0.443655
4516.000000;0.443592
4515.000000;0.443471
4514.000000;0.443319
4513.000000;0.443104
4512.000000;0.442828
4511.000000;0.442582
4510.000000;0.442461
4509.000000;0.442480
4508.000000;0.442601
4507.000000;0.442790
4506.000000;0.442986
4505.000000;0.443073
4504.000000;0.442976
4503.000000;0.442759
4502.000000;0.442538
4501.000000;0.442298
4500.000000;0.441927
4499.000000;0.441442
4498.000000;0.441071
4497.000000;0.441029
4496.000000;0.441281
4495.000000;0.441587
4494.000000;0.441717
4493.000000;0.441583
4492.000000;0.441218
4491.000000;0.440753
4490.000000;0.440367
4489.000000;0.440157
4488.000000;0.440051
4487.000000;0.439902
4486.000000;0.439670
4485.000000;0.439446
4484.000000;0.439294
4483.000000;0.439187
4482.000000;0.439099
4481.000000;0.439071
4480.000000;0.439108
4479.000000;0.439098
4478.000000;0.438933
4477.000000;0.438656
4476.000000;0.438393
4475.000000;0.438161
4474.000000;0.437882
4473.000000;0.437589
4472.000000;0.437485
4471.000000;0.437696
4470.000000;0.438054
4469.000000;0.438236
4468.000000;0.438094
4467.000000;0.437758
4466.000000;0.437429
4465.000000;0.437169
4464.000000;0.436918
4463.000000;0.436619
4462.000000;0.436278
4461.000000;0.435938
4460.000000;0.435643
4459.000000;0.435414
4458.000000;0.435230
4457.000000;0.435067
4456.000000;0.434954
4455.000000;0.434937
4454.000000;0.434976
4453.000000;0.434941
4452.000000;0.434760
4451.000000;0.434494
4450.000000;0.434232
4449.000000;0.433971
4448.000000;0.433696
4447.000000;0.433493
4446.000000;0.433474
4445.000000;0.433590
4444.000000;0.433640
4443.000000;0.433509
4442.000000;0.433288
4441.000000;0.433122
4440.000000;0.433010
4439.000000;0.432829
4438.000000;0.432519
4437.000000;0.432156
4436.000000;0.431871
4435.000000;0.431736
4434.000000;0.431727
4433.000000;0.431721
4432.000000;0.431556
4431.000000;0.431164
4430.000000;0.430681
4429.000000;0.430362
4428.000000;0.430330
4427.000000;0.430454
4426.000000;0.430525
4425.000000;0.430500
4424.000000;0.430494
4423.000000;0.430527
4422.000000;0.430417
4421.000000;0.430012
4420.000000;0.429446
4419.000000;0.429039
4418.000000;0.428935
4417.000000;0.428950
4416.000000;0.428804
4415.000000;0.428419
4414.000000;0.427917
4413.000000;0.427441
4412.000000;0.427058
4411.000000;0.426786
4410.000000;0.426579
4409.000000;0.426299
4408.000000;0.425826
4407.000000;0.425242
4406.000000;0.424790
4405.000000;0.424622
4404.000000;0.424630
4403.000000;0.424586
4402.000000;0.424374
4401.000000;0.424017
4400.000000;0.423548
4399.000000;0.422931
4398.000000;0.422149
4397.000000;0.421263
4396.000000;0.420377
4395.000000;0.419546
4394.000000;0.418757
4393.000000;0.417999
4392.000000;0.417354
4391.000000;0.416958
4390.000000;0.416846
4389.000000;0.416823
4388.000000;0.416557
4387.000000;0.415841
4386.000000;0.414710
4385.000000;0.413353
4384.000000;0.411978
4383.000000;0.410819
4382.000000;0.410098
4381.000000;0.409816
4380.000000;0.409613
4379.000000;0.409064
4378.000000;0.408143
4377.000000;0.407230
4376.000000;0.406591
4375.000000;0.405997
4374.000000;0.405001
4373.000000;0.403498
4372.000000;0.401826
4371.000000;0.400362
4370.000000;0.399193
4369.000000;0.398197
4368.000000;0.397294
4367.000000;0.396510
4366.000000;0.395895
4365.000000;0.395419
4364.000000;0.394893
4363.000000;0.393984
4362.000000;0.392435
4361.000000;0.390356
4360.000000;0.388236
4359.000000;0.386565
4358.000000;0.385460
4357.000000;0.384664
4356.000000;0.383804
4355.000000;0.382639
4354.000000;0.381232
4353.000000;0.379952
4352.000000;0.379157
4351.000000;0.378744
4350.000000;0.378149
4349.000000;0.376959
4348.000000;0.375419
4347.000000;0.374112
4346.000000;0.373224
4345.000000;0.372388
4344.000000;0.371223
4343.000000;0.369739
4342.000000;0.368141
4341.000000;0.366488
4340.000000;0.364730
4339.000000;0.362917
4338.000000;0.361220
4337.000000;0.359767
4336.000000;0.358525
4335.000000;0.357280
4334.000000;0.355743
4333.000000;0.353814
4332.000000;0.351735
4331.000000;0.349822
4330.000000;0.348070
4329.000000;0.346296
4328.000000;0.344689
4327.000000;0.343847
4326.000000;0.344013
4325.000000;0.344564
4324.000000;0.344548
4323.000000;0.343612
4322.000000;0.342134
4321.000000;0.340558
4320.000000;0.338957
4319.000000;0.337216
4318.000000;0.335304
4317.000000;0.333244
4316.000000;0.331022
4315.000000;0.328679
4314.000000;0.326418
4313.000000;0.324552
4312.000000;0.323349
4311.000000;0.322828
4310.000000;0.322587
4309.000000;0.321948
4308.000000;0.320522
4307.000000;0.318676
4306.000000;0.317241
4305.000000;0.316721
4304.000000;0.316935
4303.000000;0.317353
4302.000000;0.317531
4301.000000;0.317183
4300.000000;0.316177
4299.000000;0.314664
4298.000000;0.313044
4297.000000;0.311556
4296.000000;0.309921
4295.000000;0.307641
4294.000000;0.304759
4293.000000;0.302213
4292.000000;0.301286
4291.000000;0.302524
4290.000000;0.305134
4289.000000;0.307557
4288.000000;0.308761
4287.000000;0.309093
4286.000000;0.309805
4285.000000;0.311754
4284.000000;0.314611
4283.000000;0.317237
4282.000000;0.318849
4281.000000;0.319983
4280.000000;0.322222
4279.000000;0.326514
4278.000000;0.331695
4277.000000;0.335293
4276.000000;0.336240
4275.000000;0.336287
4274.000000;0.338013
4273.000000;0.341955
4272.000000;0.346700
4271.000000;0.351345
4270.000000;0.356429
4269.000000;0.362338
4268.000000;0.368329
4267.000000;0.373732
4266.000000;0.378871
4265.000000;0.384008
4264.000000;0.388685
4263.000000;0.393148
4262.000000;0.399137
4261.000000;0.407790
4260.000000;0.417532
4259.000000;0.425530
4258.000000;0.431105
4257.000000;0.436355
4256.000000;0.443367
4255.000000;0.452178
4254.000000;0.461493
4253.000000;0.470083
4252.000000;0.477391
4251.000000;0.483743
4250.000000;0.490236
4249.000000;0.497669
4248.000000;0.505920
4247.000000;0.514758
4246.000000;0.524833
4245.000000;0.536506
4244.000000;0.547948
4243.000000;0.556219
4242.000000;0.560835
4241.000000;0.564758
4240.000000;0.571273
4239.000000;0.581189
4238.000000;0.593441
4237.000000;0.607077
4236.000000;0.621607
4235.000000;0.636114
4234.000000;0.649267
4233.000000;0.660083
4232.000000;0.668196
4231.000000;0.674164
4230.000000;0.679981
4229.000000;0.688050
4228.000000;0.698730
4227.000000;0.709602
4226.000000;0.718119
4225.000000;0.724689
4224.000000;0.732126
4223.000000;0.742421
4222.000000;0.755108
4221.000000;0.768399
4220.000000;0.780790
4219.000000;0.791229
4218.000000;0.799119
4217.000000;0.805601
4216.000000;0.813623
4215.000000;0.824994
4214.000000;0.837815
4213.000000;0.848410
4212.000000;0.856139
4211.000000;0.864363
4210.000000;0.875838
4209.000000;0.889307
4208.000000;0.902055
4207.000000;0.914065
4206.000000;0.927191
4205.000000;0.941298
4204.000000;0.954039
4203.000000;0.964331
4202.000000;0.973487
4201.000000;0.982392
4200.000000;0.990092
4199.000000;0.996163
4198.000000;1.002452
4197.000000;1.010986
4196.000000;1.021537
4195.000000;1.032714
4194.000000;1.043881
4193.000000;1.054939
4192.000000;1.065686
4191.000000;1.076348
4190.000000;1.087392
4189.000000;1.098126
4188.000000;1.107281
4187.000000;1.115926
4186.000000;1.127483
4185.000000;1.143064
4184.000000;1.158756
4183.000000;1.169898
4182.000000;1.177099
4181.000000;1.185370
4180.000000;1.197786
4179.000000;1.212506
4178.000000;1.225603
4177.000000;1.234775
4176.000000;1.240240
4175.000000;1.243655
4174.000000;1.246707
4173.000000;1.249826
4172.000000;1.252126
4171.000000;1.253304
4170.000000;1.255367
4169.000000;1.261547
4168.000000;1.273477
4167.000000;1.290548
4166.000000;1.310882
4165.000000;1.329968
4164.000000;1.341757
4163.000000;1.345554
4162.000000;1.347145
4161.000000;1.351165
4160.000000;1.357009
4159.000000;1.362726
4158.000000;1.370274
4157.000000;1.383674
4156.000000;1.402224
4155.000000;1.420985
4154.000000;1.437441
4153.000000;1.452206
4152.000000;1.465751
4151.000000;1.479430
4150.000000;1.497191
4149.000000;1.521217
4148.000000;1.545755
4147.000000;1.559775
4146.000000;1.557571
4145.000000;1.542315
4144.000000;1.520678
4143.000000;1.501382
4142.000000;1.497052
4141.000000;1.518813
4140.000000;1.564101
4139.000000;1.608652
4138.000000;1.621538
4137.000000;1.602391
4136.000000;1.580099
4135.000000;1.575176
4134.000000;1.584600
4133.000000;1.591736
4132.000000;1.586354
4131.000000;1.575030
4130.000000;1.570297
4129.000000;1.577550
4128.000000;1.594644
4127.000000;1.618219
4126.000000;1.647941
4125.000000;1.682865
4124.000000;1.714315
4123.000000;1.731320
4122.000000;1.734948
4121.000000;1.736763
4120.000000;1.744455
4119.000000;1.753214
4118.000000;1.750700
4117.000000;1.733270
4116.000000;1.712308
4115.000000;1.700903
4114.000000;1.703213
4113.000000;1.717499
4112.000000;1.742605
4111.000000;1.776659
4110.000000;1.808396
4109.000000;1.815801
4108.000000;1.799584
4107.000000;1.797922
4106.000000;1.831772
4105.000000;1.874451
4104.000000;1.881721
4103.000000;1.857211
4102.000000;1.841360
4101.000000;1.848106
4100.000000;1.855961
4099.000000;1.841131
4098.000000;1.808431
4097.000000;1.775905
4096.000000;1.751339
4095.000000;1.742736
4094.000000;1.767076
4093.000000;1.835550
4092.000000;1.939117
4091.000000;2.046855
4090.000000;2.110587
4089.000000;2.094501
4088.000000;2.034226
4087.000000;1.985217
4086.000000;1.962900
4085.000000;1.950876
4084.000000;1.932913
4083.000000;1.921050
4082.000000;1.939219
4081.000000;1.992605
4080.000000;2.057362
4079.000000;2.090175
4078.000000;2.074555
4077.000000;2.053618
4076.000000;2.061767
4075.000000;2.085947
4074.000000;2.107473
4073.000000;2.142807
4072.000000;2.218598
4071.000000;2.341639
4070.000000;2.494460
4069.000000;2.718799
4068.000000;2.805016
4067.000000;2.499768
4066.000000;2.286799
4065.000000;2.161336
4064.000000;2.069083
4063.000000;1.999836
4062.000000;1.957416
4061.000000;1.942351
4060.000000;1.944594
4059.000000;1.952773
4058.000000;1.969243
4057.000000;2.000422
4056.000000;2.034947
4055.000000;2.064135
4054.000000;2.103088
4053.000000;2.152373
4052.000000;2.181811
4051.000000;2.166863
4050.000000;2.120527
4049.000000;2.084642
4048.000000;2.086887
4047.000000;2.124271
4046.000000;2.188624
4045.000000;2.267932
4044.000000;2.301368
4043.000000;2.266334
4042.000000;2.243196
4041.000000;2.298576
4040.000000;2.424132
4039.000000;2.510072
4038.000000;2.570260
4037.000000;2.535733
4036.000000;2.400463
4035.000000;2.351275
4034.000000;2.359411
4033.000000;2.313412
4032.000000;2.195294
4031.000000;2.085367
4030.000000;2.028051
4029.000000;2.022878
4028.000000;2.057676
4027.000000;2.121043
4026.000000;2.191324
4025.000000;2.234440
4024.000000;2.246205
4023.000000;2.254156
4022.000000;2.262245
4021.000000;2.244409
4020.000000;2.215374
4019.000000;2.224731
4018.000000;2.299447
4017.000000;2.417907
4016.000000;2.469458
4015.000000;2.440209
4014.000000;2.382423
4013.000000;2.267679
4012.000000;2.164849
4011.000000;2.149718
4010.000000;2.248341
4009.000000;2.451579
4008.000000;2.676136
4007.000000;2.691956
4006.000000;2.512385
4005.000000;2.431470
4004.000000;2.504597
4003.000000;2.584588
4002.000000;2.547558
4001.000000;2.580694
4000.000000;2.606214
3999.000000;2.559103
3998.000000;2.556642
3997.000000;2.607104
3996.000000;2.566122
3995.000000;2.452250
3994.000000;2.445092
3993.000000;2.593788
3992.000000;2.747697
3991.000000;2.596823
3990.000000;2.406568
3989.000000;2.307773
3988.000000;2.250682
3987.000000;2.193497
3986.000000;2.162612
3985.000000;2.209842
3984.000000;2.337586
3983.000000;2.461262
3982.000000;2.506657
3981.000000;2.544225
3980.000000;2.689986
3979.000000;3.090789
3978.000000;3.082716
3977.000000;2.629549
3976.000000;2.424479
3975.000000;2.334705
3974.000000;2.337764
3973.000000;2.418453
3972.000000;2.564848
3971.000000;2.748338
3970.000000;2.965270
3969.000000;2.893927
3968.000000;2.645479
3967.000000;2.558758
3966.000000;2.508214
3965.000000;2.368098
3964.000000;2.213131
3963.000000;2.115882
3962.000000;2.083385
3961.000000;2.106680
3960.000000;2.167533
3959.000000;2.238220
3958.000000;2.309888
3957.000000;2.383643
3956.000000;2.403672
3955.000000;2.364450
3954.000000;2.333708
3953.000000;2.340473
3952.000000;2.388904
3951.000000;2.476246
3950.000000;2.583234
3949.000000;2.663798
3948.000000;2.699002
3947.000000;2.743593
3946.000000;2.942263
3945.000000;3.356212
3944.000000;3.087746
3943.000000;2.765897
3942.000000;2.601028
3941.000000;2.552935
3940.000000;2.905513
3939.000000;2.957717
3938.000000;2.578429
3937.000000;2.477765
3936.000000;2.312738
3935.000000;2.189801
3934.000000;2.233725
3933.000000;2.475685
3932.000000;2.738962
3931.000000;2.708498
3930.000000;2.622544
3929.000000;2.518031
3928.000000;2.467494
3927.000000;2.534592
3926.000000;2.704292
3925.000000;2.809418
3924.000000;2.768945
3923.000000;2.683007
3922.000000;2.549129
3921.000000;2.421622
3920.000000;2.345968
3919.000000;2.355244
3918.000000;2.474220
3917.000000;2.679286
3916.000000;2.823104
3915.000000;2.712399
3914.000000;2.506677
3913.000000;2.370068
3912.000000;2.327115
3911.000000;2.353964
3910.000000;2.403797
3909.000000;2.467751
3908.000000;2.560510
3907.000000;2.575695
3906.000000;2.557357
3905.000000;2.656663
3904.000000;2.869859
3903.000000;3.183260
3902.000000;3.331394
3901.000000;2.945176
3900.000000;2.834030
3899.000000;3.007326
3898.000000;3.158430
3897.000000;2.839579
3896.000000;2.649721
3895.000000;2.715169
3894.000000;2.866737
3893.000000;2.626306
3892.000000;2.593336
3891.000000;2.729587
3890.000000;3.019042
3889.000000;3.344204
3888.000000;2.778056
3887.000000;2.595107
3886.000000;2.583541
3885.000000;2.592652
3884.000000;2.644048
3883.000000;2.608145
3882.000000;2.514979
3881.000000;2.509828
3880.000000;2.551197
3879.000000;2.638706
3878.000000;2.798006
3877.000000;2.767945
3876.000000;2.724391
3875.000000;2.822110
3874.000000;2.875052
3873.000000;2.666133
3872.000000;2.604171
3871.000000;2.848656
3870.000000;3.275337
3869.000000;2.953041
3868.000000;2.551317
3867.000000;2.375629
3866.000000;2.393593
3865.000000;2.534950
3864.000000;2.654937
3863.000000;2.656203
3862.000000;2.583514
3861.000000;2.501005
3860.000000;2.498248
3859.000000;2.605843
3858.000000;2.789131
3857.000000;2.948101
3856.000000;2.649569
3855.000000;2.518250
3854.000000;2.657635
3853.000000;2.840984
3852.000000;2.784767
3851.000000;2.643080
3850.000000;2.693579
3849.000000;2.962431
3848.000000;3.173727
3847.000000;2.854467
3846.000000;2.451225
3845.000000;2.294447
3844.000000;2.289232
3843.000000;2.333834
3842.000000;2.418719
3841.000000;2.495790
3840.000000;2.398774
3839.000000;2.325820
3838.000000;2.367158
3837.000000;2.468123
3836.000000;2.635651
3835.000000;2.789370
3834.000000;2.763080
3833.000000;2.775078
3832.000000;2.764378
3831.000000;2.565669
3830.000000;2.358081
3829.000000;2.243376
3828.000000;2.258735
3827.000000;2.351100
3826.000000;2.413280
3825.000000;2.398015
3824.000000;2.376957
3823.000000;2.417804
3822.000000;2.531990
3821.000000;2.655139
3820.000000;2.730738
3819.000000;2.788587
3818.000000;3.031864
3817.000000;3.061266
3816.000000;2.919994
3815.000000;3.064975
3814.000000;3.502075
3813.000000;3.639936
3812.000000;3.235487
3811.000000;3.043637
3810.000000;2.849866
3809.000000;2.663993
3808.000000;2.628054
3807.000000;2.602501
3806.000000;2.449596
3805.000000;2.205728
3804.000000;2.052681
3803.000000;2.118443
3802.000000;2.318540
3801.000000;2.451956
3800.000000;2.509817
3799.000000;2.557036
3798.000000;2.523376
3797.000000;2.410315
3796.000000;2.307666
3795.000000;2.283686
3794.000000;2.367861
3793.000000;2.680250
3792.000000;3.350999
3791.000000;2.896198
3790.000000;2.696305
3789.000000;2.587263
3788.000000;2.490844
3787.000000;2.409112
3786.000000;2.397006
3785.000000;2.525615
3784.000000;2.734126
3783.000000;2.878733
3782.000000;3.044824
3781.000000;2.836001
3780.000000;2.637200
3779.000000;2.613375
3778.000000;2.698329
3777.000000;3.382261
3776.000000;3.041882
3775.000000;2.588947
3774.000000;2.517034
3773.000000;2.524084
3772.000000;2.591401
3771.000000;2.676597
3770.000000;2.893338
3769.000000;3.038644
3768.000000;2.951249
3767.000000;3.096101
3766.000000;3.192224
3765.000000;3.104192
3764.000000;2.973686
3763.000000;2.853876
3762.000000;2.811671
3761.000000;2.863273
3760.000000;3.006207
3759.000000;3.016802
3758.000000;2.867770
3757.000000;2.774411
3756.000000;2.778160
3755.000000;2.787461
3754.000000;2.975060
3753.000000;2.714272
3752.000000;2.407524
3751.000000;2.411166
3750.000000;2.506865
3749.000000;2.522678
3748.000000;2.399621
3747.000000;2.275130
3746.000000;2.339431
3745.000000;2.560700
3744.000000;2.811143
3743.000000;2.959214
3742.000000;2.815613
3741.000000;2.778786
3740.000000;3.014870
3739.000000;3.385746
3738.000000;3.074038
3737.000000;2.981402
3736.000000;3.052554
3735.000000;2.893561
3734.000000;2.689179
3733.000000;2.596915
3732.000000;2.573351
3731.000000;2.520412
3730.000000;2.420046
3729.000000;2.329166
3728.000000;2.329882
3727.000000;2.414568
3726.000000;2.470140
3725.000000;2.442590
3724.000000;2.597470
3723.000000;2.925823
3722.000000;2.636609
3721.000000;2.474376
3720.000000;2.509643
3719.000000;2.523046
3718.000000;2.530186
3717.000000;2.615513
3716.000000;2.672744
3715.000000;2.389683
3714.000000;2.209675
3713.000000;2.233183
3712.000000;2.350150
3711.000000;2.458987
3710.000000;2.528421
3709.000000;2.553499
3708.000000;2.565980
3707.000000;2.676506
3706.000000;3.110468
3705.000000;4.180271
3704.000000;2.891881
3703.000000;2.505341
3702.000000;2.388009
3701.000000;2.399783
3700.000000;2.475403
3699.000000;2.502517
3698.000000;2.464979
3697.000000;2.472902
3696.000000;2.610350
3695.000000;2.697418
3694.000000;2.600394
3693.000000;2.679338
3692.000000;2.536343
3691.000000;2.393584
3690.000000;2.584170
3689.000000;2.724081
3688.000000;2.734858
3687.000000;3.031248
3686.000000;2.663090
3685.000000;2.409720
3684.000000;2.448089
3683.000000;2.582375
3682.000000;2.677772
3681.000000;2.773236
3680.000000;2.859542
3679.000000;2.607758
3678.000000;2.345905
3677.000000;2.345420
3676.000000;2.493998
3675.000000;2.527284
3674.000000;2.415959
3673.000000;2.299597
3672.000000;2.349188
3671.000000;2.525685
3670.000000;2.616701
3669.000000;2.582426
3668.000000;2.499589
3667.000000;2.481859
3666.000000;2.529589
3665.000000;2.511936
3664.000000;2.459220
3663.000000;2.499423
3662.000000;2.568064
3661.000000;2.485454
3660.000000;2.327896
3659.000000;2.299919
3658.000000;2.399738
3657.000000;2.691305
3656.000000;3.349664
3655.000000;2.826754
3654.000000;2.460094
3653.000000;2.273202
3652.000000;2.172814
3651.000000;2.196412
3650.000000;2.356047
3649.000000;2.638336
3648.000000;2.908044
3647.000000;2.971043
3646.000000;2.904984
3645.000000;2.892407
3644.000000;2.845756
3643.000000;2.863916
3642.000000;3.156930
3641.000000;3.189961
3640.000000;2.877524
3639.000000;2.596319
3638.000000;2.453181
3637.000000;2.443478
3636.000000;2.661837
3635.000000;3.433468
3634.000000;3.051819
3633.000000;2.995192
3632.000000;3.112881
3631.000000;2.626618
3630.000000;2.703352
3629.000000;3.120628
3628.000000;2.938360
3627.000000;2.795146
3626.000000;2.628510
3625.000000;2.436921
3624.000000;2.357358
3623.000000;2.428453
3622.000000;2.661764
3621.000000;2.885479
3620.000000;2.827633
3619.000000;2.661468
3618.000000;2.500247
3617.000000;2.401446
3616.000000;2.401591
3615.000000;2.470045
3614.000000;2.465487
3613.000000;2.377281
3612.000000;2.298823
3611.000000;2.289529
3610.000000;2.364826
3609.000000;2.463929
3608.000000;2.556641
3607.000000;2.646666
3606.000000;2.665916
3605.000000;2.652414
3604.000000;2.496964
3603.000000;2.243407
3602.000000;2.099327
3601.000000;2.062911
3600.000000;2.102489
3599.000000;2.221367
3598.000000;2.451087
3597.000000;2.968977
3596.000000;3.281675
3595.000000;3.003524
3594.000000;3.081450
3593.000000;3.117983
3592.000000;3.420052
3591.000000;3.291345
3590.000000;3.258347
3589.000000;3.468361
3588.000000;2.946653
3587.000000;2.709692
3586.000000;2.536473
3585.000000;2.361782
3584.000000;2.282605
3583.000000;2.347859
3582.000000;2.610834
3581.000000;3.097293
3580.000000;3.425846
3579.000000;2.875831
3578.000000;2.428964
3577.000000;2.232224
3576.000000;2.207727
3575.000000;2.324177
3574.000000;2.514118
3573.000000;2.629010
3572.000000;2.681234
3571.000000;2.631784
3570.000000;2.502812
3569.000000;2.422583
3568.000000;2.391323
3567.000000;2.397593
3566.000000;2.452284
3565.000000;2.608891
3564.000000;2.882594
3563.000000;3.205970
3562.000000;3.539480
3561.000000;3.033880
3560.000000;2.699273
3559.000000;2.552015
3558.000000;2.431577
3557.000000;2.330964
3556.000000;2.249723
3555.000000;2.197385
3554.000000;2.185928
3553.000000;2.220721
3552.000000;2.291462
3551.000000;2.379508
3550.000000;2.471140
3549.000000;2.578511
3548.000000;2.725477
3547.000000;2.875656
3546.000000;2.984832
3545.000000;2.849909
3544.000000;2.690051
3543.000000;2.661246
3542.000000;2.537158
3541.000000;2.382889
3540.000000;2.329845
3539.000000;2.336167
3538.000000;2.361726
3537.000000;2.359172
3536.000000;2.294940
3535.000000;2.240078
3534.000000;2.268409
3533.000000;2.371248
3532.000000;2.399520
3531.000000;2.415861
3530.000000;2.511792
3529.000000;2.436881
3528.000000;2.309447
3527.000000;2.280579
3526.000000;2.309232
3525.000000;2.333098
3524.000000;2.318031
3523.000000;2.303171
3522.000000;2.297113
3521.000000;2.281773
3520.000000;2.270990
3519.000000;2.287765
3518.000000;2.311293
3517.000000;2.338267
3516.000000;2.419145
3515.000000;2.566955
3514.000000;2.698991
3513.000000;2.742188
3512.000000;2.748729
3511.000000;2.751055
3510.000000;2.756924
3509.000000;2.773413
3508.000000;2.780239
3507.000000;2.756215
3506.000000;2.635917
3505.000000;2.472825
3504.000000;2.376892
3503.000000;2.348579
3502.000000;2.345457
3501.000000;2.402812
3500.000000;2.541389
3499.000000;2.806085
3498.000000;3.272700
3497.000000;2.974026
3496.000000;2.797039
3495.000000;3.076458
3494.000000;2.781553
3493.000000;2.352065
3492.000000;2.223829
3491.000000;2.271267
3490.000000;2.470751
3489.000000;2.775532
3488.000000;2.950973
3487.000000;2.838843
3486.000000;2.633847
3485.000000;2.480558
3484.000000;2.462093
3483.000000;2.644863
3482.000000;2.554228
3481.000000;2.301546
3480.000000;2.215150
3479.000000;2.209461
3478.000000;2.253895
3477.000000;2.312832
3476.000000;2.350702
3475.000000;2.350399
3474.000000;2.337221
3473.000000;2.376482
3472.000000;2.548053
3471.000000;3.000122
3470.000000;3.054858
3469.000000;2.749836
3468.000000;2.695245
3467.000000;2.707419
3466.000000;2.834564
3465.000000;2.980458
3464.000000;3.033480
3463.000000;2.854333
3462.000000;2.523466
3461.000000;2.354668
3460.000000;2.307896
3459.000000;2.331027
3458.000000;2.399708
3457.000000;2.504175
3456.000000;2.561222
3455.000000;2.477435
3454.000000;2.375490
3453.000000;2.321203
3452.000000;2.340746
3451.000000;2.460550
3450.000000;2.616702
3449.000000;2.480461
3448.000000;2.353287
3447.000000;2.368775
3446.000000;2.570696
3445.000000;3.187333
3444.000000;2.758507
3443.000000;2.419656
3442.000000;2.332438
3441.000000;2.359284
3440.000000;2.468719
3439.000000;2.508661
3438.000000;2.491959
3437.000000;2.489380
3436.000000;2.522146
3435.000000;2.536189
3434.000000;2.487969
3433.000000;2.421981
3432.000000;2.375054
3431.000000;2.357131
3430.000000;2.374253
3429.000000;2.454927
3428.000000;2.608395
3427.000000;2.624903
3426.000000;2.530600
3425.000000;2.553827
3424.000000;2.705990
3423.000000;2.867028
3422.000000;2.779449
3421.000000;2.614702
3420.000000;2.547558
3419.000000;2.566858
3418.000000;2.603237
3417.000000;2.618667
3416.000000;2.608080
3415.000000;2.546505
3414.000000;2.490935
3413.000000;2.442020
3412.000000;2.406955
3411.000000;2.410059
3410.000000;2.395612
3409.000000;2.376023
3408.000000;2.418630
3407.000000;2.527281
3406.000000;2.683546
3405.000000;2.925406
3404.000000;3.333392
3403.000000;3.166462
3402.000000;2.768787
3401.000000;2.627280
3400.000000;2.659474
3399.000000;2.797276
3398.000000;2.813823
3397.000000;2.896709
3396.000000;3.270832
3395.000000;3.000280
3394.000000;2.640730
3393.000000;2.459853
3392.000000;2.427764
3391.000000;2.548714
3390.000000;2.743300
3389.000000;2.856901
3388.000000;2.790830
3387.000000;2.728162
3386.000000;2.719017
3385.000000;2.544948
3384.000000;2.347757
3383.000000;2.282854
3382.000000;2.354365
3381.000000;2.571575
3380.000000;2.640261
3379.000000;2.465830
3378.000000;2.413802
3377.000000;2.387515
3376.000000;2.321096
3375.000000;2.265556
3374.000000;2.322488
3373.000000;2.518373
3372.000000;2.671863
3371.000000;2.820258
3370.000000;2.530138
3369.000000;2.263787
3368.000000;2.230645
3367.000000;2.395917
3366.000000;2.795723
3365.000000;2.682819
3364.000000;2.451476
3363.000000;2.397395
3362.000000;2.423461
3361.000000;2.506094
3360.000000;2.615200
3359.000000;2.910282
3358.000000;2.783595
3357.000000;2.431538
3356.000000;2.330810
3355.000000;2.319303
3354.000000;2.338391
3353.000000;2.394602
3352.000000;2.583354
3351.000000;2.910569
3350.000000;2.788088
3349.000000;2.609295
3348.000000;2.514672
3347.000000;2.402526
3346.000000;2.360299
3345.000000;2.409931
3344.000000;2.498674
3343.000000;2.531353
3342.000000;2.529214
3341.000000;2.513962
3340.000000;2.553157
3339.000000;2.615523
3338.000000;2.829562
3337.000000;3.507931
3336.000000;2.811447
3335.000000;2.508456
3334.000000;2.398774
3333.000000;2.377925
3332.000000;2.515811
3331.000000;2.841075
3330.000000;2.777880
3329.000000;2.461227
3328.000000;2.369514
3327.000000;2.391399
3326.000000;2.543324
3325.000000;2.716320
3324.000000;2.578627
3323.000000;2.433982
3322.000000;2.449850
3321.000000;2.579113
3320.000000;2.649292
3319.000000;2.672433
3318.000000;2.795701
3317.000000;2.878695
3316.000000;2.648199
3315.000000;2.416660
3314.000000;2.348126
3313.000000;2.447764
3312.000000;2.761582
3311.000000;2.816906
3310.000000;2.529611
3309.000000;2.447109
3308.000000;2.566327
3307.000000;2.927101
3306.000000;2.995110
3305.000000;2.785343
3304.000000;2.793915
3303.000000;2.841577
3302.000000;2.857509
3301.000000;2.795671
3300.000000;2.663002
3299.000000;2.573774
3298.000000;2.540288
3297.000000;2.538061
3296.000000;2.534322
3295.000000;2.581533
3294.000000;2.905904
3293.000000;3.091707
3292.000000;2.801623
3291.000000;2.846276
3290.000000;2.875618
3289.000000;2.657776
3288.000000;2.547969
3287.000000;2.601586
3286.000000;2.880821
3285.000000;3.172796
3284.000000;2.791059
3283.000000;2.569900
3282.000000;2.467032
3281.000000;2.440153
3280.000000;2.493804
3279.000000;2.649842
3278.000000;2.782226
3277.000000;2.628830
3276.000000;2.601351
3275.000000;2.813400
3274.000000;3.096815
3273.000000;2.976618
3272.000000;2.790607
3271.000000;2.899921
3270.000000;2.846892
3269.000000;2.598697
3268.000000;2.784669
3267.000000;3.064188
3266.000000;2.637517
3265.000000;2.504666
3264.000000;2.591597
3263.000000;2.723038
3262.000000;2.727828
3261.000000;2.622622
3260.000000;2.485732
3259.000000;2.334239
3258.000000;2.216003
3257.000000;2.164357
3256.000000;2.188589
3255.000000;2.269923
3254.000000;2.358426
3253.000000;2.415401
3252.000000;2.447004
3251.000000;2.455232
3250.000000;2.431266
3249.000000;2.433400
3248.000000;2.549976
3247.000000;2.613534
3246.000000;2.470481
3245.000000;2.397598
3244.000000;2.412526
3243.000000;2.468567
3242.000000;2.508111
3241.000000;2.505622
3240.000000;2.526020
3239.000000;2.476120
3238.000000;2.375128
3237.000000;2.395416
3236.000000;2.620955
3235.000000;3.004068
3234.000000;3.127508
3233.000000;3.068703
3232.000000;3.001979
3231.000000;3.003997
3230.000000;2.938375
3229.000000;2.825545
3228.000000;2.780712
3227.000000;2.725838
3226.000000;2.652005
3225.000000;2.670488
3224.000000;2.946616
3223.000000;3.570942
3222.000000;3.124557
3221.000000;2.854713
3220.000000;2.682909
3219.000000;2.552867
3218.000000;2.570736
3217.000000;2.865474
3216.000000;3.393233
3215.000000;3.604860
3214.000000;3.054742
3213.000000;2.649912
3212.000000;2.520377
3211.000000;2.447258
3210.000000;2.404705
3209.000000;2.409743
3208.000000;2.430580
3207.000000;2.440914
3206.000000;2.390087
3205.000000;2.292107
3204.000000;2.238298
3203.000000;2.296805
3202.000000;2.541743
3201.000000;2.674482
3200.000000;2.451082
3199.000000;2.490150
3198.000000;2.794839
3197.000000;2.722305
3196.000000;2.498958
3195.000000;2.502238
3194.000000;2.654582
3193.000000;2.853847
3192.000000;2.922508
3191.000000;2.947501
3190.000000;2.978912
3189.000000;2.763305
3188.000000;2.472417
3187.000000;2.301955
3186.000000;2.273801
3185.000000;2.399787
3184.000000;2.632208
3183.000000;2.693250
3182.000000;2.572786
3181.000000;2.447324
3180.000000;2.351158
3179.000000;2.319703
3178.000000;2.372877
3177.000000;2.480630
3176.000000;2.572861
3175.000000;2.646161
3174.000000;2.685919
3173.000000;2.728327
3172.000000;2.810904
3171.000000;2.797037
3170.000000;2.659363
3169.000000;2.564096
3168.000000;2.586110
3167.000000;2.644551
3166.000000;2.595757
3165.000000;2.582683
3164.000000;2.622796
3163.000000;2.518909
3162.000000;2.405732
3161.000000;2.411239
3160.000000;2.526108
3159.000000;2.653030
3158.000000;2.566124
3157.000000;2.407171
3156.000000;2.319245
3155.000000;2.286137
3154.000000;2.268896
3153.000000;2.254012
3152.000000;2.270529
3151.000000;2.332113
3150.000000;2.414319
3149.000000;2.466489
3148.000000;2.497838
3147.000000;2.577916
3146.000000;2.636894
3145.000000;2.620746
3144.000000;2.732771
3143.000000;2.905883
3142.000000;2.976224
3141.000000;2.872921
3140.000000;2.574013
3139.000000;2.488616
3138.000000;2.567021
3137.000000;2.586866
3136.000000;2.441243
3135.000000;2.320202
3134.000000;2.281325
3133.000000;2.288751
3132.000000;2.302294
3131.000000;2.324267
3130.000000;2.422094
3129.000000;3.063294
3128.000000;2.900491
3127.000000;2.619612
3126.000000;2.700040
3125.000000;2.567749
3124.000000;2.599361
3123.000000;2.742463
3122.000000;2.615284
3121.000000;2.547381
3120.000000;2.555406
3119.000000;2.559623
3118.000000;2.620842
3117.000000;2.789829
3116.000000;3.178733
3115.000000;3.997795
3114.000000;3.194610
3113.000000;3.278232
3112.000000;3.363987
3111.000000;2.740432
3110.000000;2.501877
3109.000000;2.466654
3108.000000;2.564472
3107.000000;2.586505
3106.000000;2.492923
3105.000000;2.458242
3104.000000;2.438139
3103.000000;2.360798
3102.000000;2.281598
3101.000000;2.257840
3100.000000;2.292985
3099.000000;2.387836
3098.000000;2.552738
3097.000000;2.830372
3096.000000;3.091294
3095.000000;2.742988
3094.000000;2.524083
3093.000000;2.493098
3092.000000;2.674874
3091.000000;2.819518
3090.000000;2.590708
3089.000000;2.692515
3088.000000;3.045772
3087.000000;2.781417
3086.000000;2.717656
3085.000000;2.848913
3084.000000;3.101928
3083.000000;3.322428
3082.000000;2.792797
3081.000000;2.533187
3080.000000;2.481421
3079.000000;2.479374
3078.000000;2.455408
3077.000000;2.444135
3076.000000;2.462958
3075.000000;2.489764
3074.000000;2.550582
3073.000000;2.696296
3072.000000;2.962803
3071.000000;3.177008
3070.000000;2.956705
3069.000000;2.725004
3068.000000;2.503781
3067.000000;2.329920
3066.000000;2.265160
3065.000000;2.287765
3064.000000;2.336761
3063.000000;2.415337
3062.000000;2.662646
3061.000000;3.209967
3060.000000;3.077200
3059.000000;3.308220
3058.000000;3.209781
3057.000000;2.540756
3056.000000;2.316155
3055.000000;2.264984
3054.000000;2.400424
3053.000000;2.810334
3052.000000;3.078975
3051.000000;3.009051
3050.000000;3.108266
3049.000000;2.842938
3048.000000;2.585506
3047.000000;2.399095
3046.000000;2.289085
3045.000000;2.274147
3044.000000;2.373346
3043.000000;2.636835
3042.000000;3.156246
3041.000000;3.021108
3040.000000;2.910215
3039.000000;2.774557
3038.000000;2.525357
3037.000000;2.358494
3036.000000;2.302770
3035.000000;2.356142
3034.000000;2.534164
3033.000000;2.793284
3032.000000;2.931328
3031.000000;3.047509
3030.000000;3.045417
3029.000000;2.954677
3028.000000;2.915170
3027.000000;2.864066
3026.000000;3.134461
3025.000000;3.295331
3024.000000;2.891248
3023.000000;2.776047
3022.000000;2.795931
3021.000000;2.964458
3020.000000;3.046181
3019.000000;2.812352
3018.000000;2.726477
3017.000000;2.884693
3016.000000;2.966643
3015.000000;2.720295
3014.000000;2.643495
3013.000000;2.646237
3012.000000;2.562818
3011.000000;2.451595
3010.000000;2.414147
3009.000000;2.473675
3008.000000;2.599949
3007.000000;2.717317
3006.000000;2.791493
3005.000000;2.980065
3004.000000;3.289314
3003.000000;2.882981
3002.000000;2.589772
3001.000000;2.505222
3000.000000;2.592928
2999.000000;2.708213
2998.000000;2.545294
2997.000000;2.398005
2996.000000;2.356618
2995.000000;2.397878
2994.000000;2.543543
2993.000000;2.872861
2992.000000;2.971609
2991.000000;2.723061
2990.000000;2.569502
2989.000000;2.523538
2988.000000;2.616785
2987.000000;2.715875
2986.000000;2.540632
2985.000000;2.428486
2984.000000;2.451848
2983.000000;2.569867
2982.000000;2.823101
2981.000000;2.873867
2980.000000;2.431504
2979.000000;2.249878
2978.000000;2.173783
2977.000000;2.181591
2976.000000;2.292153
2975.000000;2.582718
2974.000000;2.857167
2973.000000;2.822546
2972.000000;2.908015
2971.000000;2.789544
2970.000000;2.543300
2969.000000;2.382848
2968.000000;2.384063
2967.000000;2.518313
2966.000000;3.293493
2965.000000;2.808455
2964.000000;2.424405
2963.000000;2.368084
2962.000000;2.488595
2961.000000;2.985007
2960.000000;2.960775
2959.000000;2.555518
2958.000000;2.422557
2957.000000;2.434686
2956.000000;2.596876
2955.000000;2.848719
2954.000000;2.779710
2953.000000;2.641537
2952.000000;2.687768
2951.000000;2.982643
2950.000000;2.869364
2949.000000;2.537397
2948.000000;2.503190
2947.000000;2.564202
2946.000000;3.057494
2945.000000;3.131585
2944.000000;2.608403
2943.000000;2.577616
2942.000000;2.948712
2941.000000;2.829782
2940.000000;2.496648
2939.000000;2.423991
2938.000000;2.445475
2937.000000;2.520717
2936.000000;2.502294
2935.000000;2.380453
2934.000000;2.302581
2933.000000;2.314555
2932.000000;2.379014
2931.000000;2.400688
2930.000000;2.365706
2929.000000;2.338824
2928.000000;2.321989
2927.000000;2.297186
2926.000000;2.309650
2925.000000;2.403773
2924.000000;2.567731
2923.000000;2.698918
2922.000000;2.658468
2921.000000;2.532193
2920.000000;2.461789
2919.000000;2.510204
2918.000000;2.662532
2917.000000;2.610785
2916.000000;2.506465
2915.000000;2.594711
2914.000000;2.726902
2913.000000;2.642443
2912.000000;2.566873
2911.000000;2.513054
2910.000000;2.411744
2909.000000;2.369675
2908.000000;2.447615
2907.000000;2.863308
2906.000000;2.836069
2905.000000;2.440624
2904.000000;2.390972
2903.000000;2.518856
2902.000000;2.777582
2901.000000;3.104416
2900.000000;3.037870
2899.000000;2.740171
2898.000000;2.646070
2897.000000;2.590706
2896.000000;2.539125
2895.000000;2.518060
2894.000000;2.840232
2893.000000;3.054185
2892.000000;2.587616
2891.000000;2.550877
2890.000000;2.885424
2889.000000;2.925278
2888.000000;2.619359
2887.000000;2.567573
2886.000000;2.600413
2885.000000;2.736875
2884.000000;3.221777
2883.000000;2.689460
2882.000000;2.447145
2881.000000;2.450406
2880.000000;2.595010
2879.000000;2.824589
2878.000000;2.943557
2877.000000;3.020398
2876.000000;2.913208
2875.000000;2.692893
2874.000000;2.702530
2873.000000;2.956428
2872.000000;3.076690
2871.000000;2.839738
2870.000000;2.766808
2869.000000;2.680418
2868.000000;2.600294
2867.000000;2.536091
2866.000000;2.475774
2865.000000;2.440299
2864.000000;2.484203
2863.000000;2.663727
2862.000000;2.850899
2861.000000;2.769443
2860.000000;2.531150
2859.000000;2.335656
2858.000000;2.271139
2857.000000;2.327522
2856.000000;2.399947
2855.000000;2.444691
2854.000000;2.606890
2853.000000;3.048078
2852.000000;2.922132
2851.000000;2.950682
2850.000000;3.310759
2849.000000;3.060034
2848.000000;2.789788
2847.000000;2.709046
2846.000000;2.832950
2845.000000;3.037981
2844.000000;3.043460
2843.000000;3.332465
2842.000000;3.441636
2841.000000;2.854526
2840.000000;2.690199
2839.000000;2.706927
2838.000000;3.058003
2837.000000;2.744529
2836.000000;2.428441
2835.000000;2.403040
2834.000000;2.490246
2833.000000;2.555517
2832.000000;2.567879
2831.000000;2.663094
2830.000000;2.653486
2829.000000;2.519255
2828.000000;2.452480
2827.000000;2.471454
2826.000000;2.557305
2825.000000;2.670744
2824.000000;2.742505
2823.000000;2.756620
2822.000000;2.703547
2821.000000;2.572915
2820.000000;2.451883
2819.000000;2.424783
2818.000000;2.430412
2817.000000;2.351831
2816.000000;2.311471
2815.000000;2.400616
2814.000000;2.630836
2813.000000;2.759146
2812.000000;2.795234
2811.000000;3.169839
2810.000000;2.856989
2809.000000;2.584795
2808.000000;2.449239
2807.000000;2.307718
2806.000000;2.280384
2805.000000;2.387649
2804.000000;2.757165
2803.000000;2.909673
2802.000000;2.606188
2801.000000;2.496080
2800.000000;2.488993
2799.000000;2.573820
2798.000000;2.873069
2797.000000;2.696847
2796.000000;2.396924
2795.000000;2.302799
2794.000000;2.313591
2793.000000;2.381102
2792.000000;2.464496
2791.000000;2.665798
2790.000000;2.936724
2789.000000;2.612713
2788.000000;2.440849
2787.000000;2.438518
2786.000000;2.554809
2785.000000;2.846823
2784.000000;3.052460
2783.000000;2.950601
2782.000000;3.141152
2781.000000;3.134979
2780.000000;3.044729
2779.000000;3.152806
2778.000000;3.892812
2777.000000;3.458735
2776.000000;3.087165
2775.000000;3.085147
2774.000000;3.342316
2773.000000;3.182803
2772.000000;2.804270
2771.000000;2.608054
2770.000000;2.527873
2769.000000;2.557866
2768.000000;2.804471
2767.000000;3.533687
2766.000000;2.658748
2765.000000;2.409123
2764.000000;2.314529
2763.000000;2.365982
2762.000000;2.461151
2761.000000;2.497319
2760.000000;2.585393
2759.000000;2.819175
2758.000000;2.982311
2757.000000;2.864947
2756.000000;2.763125
2755.000000;2.770779
2754.000000;2.849149
2753.000000;2.882990
2752.000000;2.840657
2751.000000;2.729646
2750.000000;2.690438
2749.000000;2.789431
2748.000000;2.691487
2747.000000;2.530184
2746.000000;2.480652
2745.000000;2.494952
2744.000000;2.545731
2743.000000;2.656983
2742.000000;2.912168
2741.000000;3.555866
2740.000000;2.891274
2739.000000;2.541198
2738.000000;2.371335
2737.000000;2.316683
2736.000000;2.341609
2735.000000;2.416144
2734.000000;2.498874
2733.000000;2.596333
2732.000000;2.757404
2731.000000;3.049476
2730.000000;3.420174
2729.000000;3.052880
2728.000000;2.851218
2727.000000;2.839093
2726.000000;2.707569
2725.000000;2.578332
2724.000000;2.573389
2723.000000;2.836104
2722.000000;3.002536
2721.000000;2.578768
2720.000000;2.467291
2719.000000;2.605556
2718.000000;2.976871
2717.000000;2.692493
2716.000000;2.612869
2715.000000;2.788326
2714.000000;2.754961
2713.000000;2.487600
2712.000000;2.381494
2711.000000;2.342621
2710.000000;2.359074
2709.000000;2.453688
2708.000000;2.645448
2707.000000;2.903648
2706.000000;2.977469
2705.000000;2.864096
2704.000000;2.995999
2703.000000;3.159588
2702.000000;3.075672
2701.000000;3.203086
2700.000000;2.941642
2699.000000;2.669225
2698.000000;2.545380
2697.000000;2.550553
2696.000000;2.726656
2695.000000;2.803171
2694.000000;2.717702
2693.000000;2.654214
2692.000000;2.583045
2691.000000;2.567655
2690.000000;2.654930
2689.000000;2.874017
2688.000000;2.962980
2687.000000;2.687730
2686.000000;2.546589
2685.000000;2.540376
2684.000000;2.615436
2683.000000;2.621270
2682.000000;2.588020
2681.000000;2.646723
2680.000000;2.771041
2679.000000;2.767341
2678.000000;2.684693
2677.000000;2.735783
2676.000000;3.022871
2675.000000;2.853772
2674.000000;2.590933
2673.000000;2.567303
2672.000000;2.640208
2671.000000;2.854503
2670.000000;3.131113
2669.000000;2.671975
2668.000000;2.454709
2667.000000;2.480140
2666.000000;2.686998
2665.000000;2.776816
2664.000000;2.819843
2663.000000;3.254629
2662.000000;3.240314
2661.000000;3.202749
2660.000000;3.065924
2659.000000;2.634768
2658.000000;2.470017
2657.000000;2.459559
2656.000000;2.677312
2655.000000;3.092245
2654.000000;2.749258
2653.000000;2.572394
2652.000000;2.568320
2651.000000;3.064315
2650.000000;2.854018
2649.000000;2.297519
2648.000000;2.139090
2647.000000;2.103888
2646.000000;2.214171
2645.000000;2.501133
2644.000000;2.863225
2643.000000;2.622465
2642.000000;2.415233
2641.000000;2.397905
2640.000000;2.567571
2639.000000;3.037386
2638.000000;2.923959
2637.000000;2.798878
2636.000000;2.877567
2635.000000;3.095694
2634.000000;3.530301
2633.000000;2.980018
2632.000000;2.666764
2631.000000;2.522161
2630.000000;2.478845
2629.000000;2.574899
2628.000000;2.773078
2627.000000;2.657950
2626.000000;2.456891
2625.000000;2.388519
2624.000000;2.413445
2623.000000;2.572545
2622.000000;2.901702
2621.000000;2.720950
2620.000000;2.436716
2619.000000;2.329494
2618.000000;2.327012
2617.000000;2.442405
2616.000000;2.565281
2615.000000;2.586752
2614.000000;2.603030
2613.000000;2.568335
2612.000000;2.502375
2611.000000;2.519488
2610.000000;2.556716
2609.000000;2.474847
2608.000000;2.416569
2607.000000;2.434723
2606.000000;2.426362
2605.000000;2.350711
2604.000000;2.313085
2603.000000;2.355266
2602.000000;2.387958
2601.000000;2.350264
2600.000000;2.377622
2599.000000;2.502965
2598.000000;2.556582
2597.000000;2.519537
2596.000000;2.517573
2595.000000;2.506878
2594.000000;2.487003
2593.000000;2.494089
2592.000000;2.542666
2591.000000;2.742499
2590.000000;2.995902
2589.000000;2.696128
2588.000000;2.587029
2587.000000;2.791463
2586.000000;3.262492
2585.000000;2.858192
2584.000000;2.858094
2583.000000;3.274483
2582.000000;2.950612
2581.000000;2.837068
2580.000000;2.914449
2579.000000;2.981490
2578.000000;3.162864
2577.000000;3.538888
2576.000000;2.827568
2575.000000;2.542879
2574.000000;2.454620
2573.000000;2.477088
2572.000000;2.551228
2571.000000;2.575520
2570.000000;2.628798
2569.000000;3.032103
2568.000000;3.319192
2567.000000;3.407022
2566.000000;2.750569
2565.000000;2.335499
2564.000000;2.222716
2563.000000;2.248277
2562.000000;2.384677
2561.000000;2.582723
2560.000000;2.692719
2559.000000;2.581697
2558.000000;2.503401
2557.000000;2.636869
2556.000000;2.810743
2555.000000;2.509671
2554.000000;2.384440
2553.000000;2.404639
2552.000000;2.469366
2551.000000;2.510425
2550.000000;2.515189
2549.000000;2.502892
2548.000000;2.468919
2547.000000;2.456309
2546.000000;2.510654
2545.000000;2.638612
2544.000000;2.962246
2543.000000;3.118153
2542.000000;2.773814
2541.000000;2.658579
2540.000000;2.771055
2539.000000;2.910229
2538.000000;2.652305
2537.000000;2.500435
2536.000000;2.513143
2535.000000;2.571605
2534.000000;2.546171
2533.000000;2.432352
2532.000000;2.356021
2531.000000;2.369137
2530.000000;2.498991
2529.000000;2.757455
2528.000000;2.985123
2527.000000;2.954141
2526.000000;2.824402
2525.000000;2.824339
2524.000000;3.158188
2523.000000;3.287061
2522.000000;2.864912
2521.000000;2.780588
2520.000000;2.736777
2519.000000;2.665070
2518.000000;2.551512
2517.000000;2.447888
2516.000000;2.419466
2515.000000;2.491580
2514.000000;2.641113
2513.000000;2.703162
2512.000000;2.575711
2511.000000;2.444133
2510.000000;2.415144
2509.000000;2.481665
2508.000000;2.605765
2507.000000;2.728154
2506.000000;2.605194
2505.000000;2.432079
2504.000000;2.376451
2503.000000;2.416096
2502.000000;2.510281
2501.000000;2.533557
2500.000000;2.477631
2499.000000;2.483059
2498.000000;2.564049
2497.000000;2.713223
2496.000000;2.817696
2495.000000;2.798575
2494.000000;3.101401
2493.000000;3.157614
2492.000000;2.649757
2491.000000;2.460523
2490.000000;2.313904
2489.000000;2.224835
2488.000000;2.194413
2487.000000;2.220678
2486.000000;2.306123
2485.000000;2.537196
2484.000000;3.101008
2483.000000;2.680286
2482.000000;2.460722
2481.000000;2.567482
2480.000000;2.810029
2479.000000;2.889518
2478.000000;2.788822
2477.000000;2.900903
2476.000000;3.168174
2475.000000;3.228276
2474.000000;3.471210
2473.000000;3.041446
2472.000000;2.652678
2471.000000;2.486911
2470.000000;2.435650
2469.000000;2.478582
2468.000000;2.628954
2467.000000;2.675253
2466.000000;2.468895
2465.000000;2.339206
2464.000000;2.320352
2463.000000;2.382170
2462.000000;2.385527
2461.000000;2.284359
2460.000000;2.254977
2459.000000;2.352012
2458.000000;2.607829
2457.000000;3.089008
2456.000000;2.997102
2455.000000;2.782835
2454.000000;2.735564
2453.000000;2.708647
2452.000000;2.718623
2451.000000;2.889138
2450.000000;3.147353
2449.000000;2.717837
2448.000000;2.483099
2447.000000;2.404118
2446.000000;2.401190
2445.000000;2.462479
2444.000000;2.576524
2443.000000;2.734786
2442.000000;3.081174
2441.000000;3.226159
2440.000000;2.781988
2439.000000;2.704918
2438.000000;2.731860
2437.000000;2.786477
2436.000000;3.047277
2435.000000;3.053010
2434.000000;2.708325
2433.000000;2.596300
2432.000000;2.599352
2431.000000;2.556962
2430.000000;2.414834
2429.000000;2.296997
2428.000000;2.256719
2427.000000;2.303215
2426.000000;2.410117
2425.000000;2.584457
2424.000000;3.003841
2423.000000;2.850943
2422.000000;2.583769
2421.000000;2.576023
2420.000000;2.675078
2419.000000;2.770880
2418.000000;2.945016
2417.000000;3.389872
2416.000000;2.880166
2415.000000;2.546495
2414.000000;2.475814
2413.000000;2.657411
2412.000000;2.977297
2411.000000;2.677477
2410.000000;2.484196
2409.000000;2.458498
2408.000000;2.536514
2407.000000;2.635887
2406.000000;2.502733
2405.000000;2.376579
2404.000000;2.396609
2403.000000;2.594356
2402.000000;2.824627
2401.000000;2.680913
2400.000000;2.586479
2399.000000;2.768713
2398.000000;3.344234
2397.000000;2.853780
2396.000000;2.626835
2395.000000;2.612983
2394.000000;2.778167
2393.000000;3.117971
2392.000000;2.706063
2391.000000;2.513482
2390.000000;2.484687
2389.000000;2.463905
2388.000000;2.376435
2387.000000;2.284987
2386.000000;2.267356
2385.000000;2.303001
2384.000000;2.334941
2383.000000;2.413659
2382.000000;2.620845
2381.000000;2.483259
2380.000000;2.424638
2379.000000;2.788137
2378.000000;2.455664
2377.000000;2.178699
2376.000000;2.159588
2375.000000;2.235219
2374.000000;2.359989
2373.000000;2.332091
2372.000000;2.293300
2371.000000;2.459404
2370.000000;2.667279
2369.000000;2.430449
2368.000000;2.373732
2367.000000;2.350804
2366.000000;2.638746
2365.000000;2.755284
2364.000000;2.570947
2363.000000;2.692724
2362.000000;2.898914
2361.000000;2.951985
2360.000000;2.801791
2359.000000;2.816150
2358.000000;2.718928
2357.000000;2.538596
2356.000000;2.602482
2355.000000;2.448025
2354.000000;2.371310
2353.000000;2.309389
2352.000000;2.213776
2351.000000;2.257647
2350.000000;2.396377
2349.000000;2.587198
2348.000000;2.665538
2347.000000;2.545792
2346.000000;2.336487
2345.000000;2.184665
2344.000000;2.129706
2343.000000;2.132435
2342.000000;2.170600
2341.000000;2.327668
2340.000000;2.511720
2339.000000;2.510851
2338.000000;2.813523
2337.000000;2.655653
2336.000000;2.279900
2335.000000;2.240522
2334.000000;2.306904
2333.000000;2.310701
2332.000000;2.185676
2331.000000;2.064938
2330.000000;2.035783
2329.000000;2.114708
2328.000000;2.260596
2327.000000;2.389651
2326.000000;2.604129
2325.000000;2.692917
2324.000000;2.430704
2323.000000;2.279317
2322.000000;2.230391
2321.000000;2.200733
2320.000000;2.190341
2319.000000;2.221338
2318.000000;2.245842
2317.000000;2.207578
2316.000000;2.176381
2315.000000;2.185434
2314.000000;2.237708
2313.000000;2.326343
2312.000000;2.450548
2311.000000;2.578809
2310.000000;2.630529
2309.000000;2.712876
2308.000000;2.696547
2307.000000;2.503107
2306.000000;2.512991
2305.000000;2.828805
2304.000000;2.778851
2303.000000;2.517941
2302.000000;2.521352
2301.000000;2.517885
2300.000000;2.458254
2299.000000;2.427817
2298.000000;2.533855
2297.000000;2.977524
2296.000000;2.840162
2295.000000;2.505524
2294.000000;2.437580
2293.000000;2.485456
2292.000000;2.592281
2291.000000;2.561364
2290.000000;2.511107
2289.000000;2.508767
2288.000000;2.439469
2287.000000;2.392179
2286.000000;2.431229
2285.000000;2.515429
2284.000000;2.597227
2283.000000;2.709787
2282.000000;2.858880
2281.000000;2.929884
2280.000000;2.872398
2279.000000;2.780801
2278.000000;2.663718
2277.000000;2.494829
2276.000000;2.362040
2275.000000;2.355203
2274.000000;2.489964
2273.000000;2.634567
2272.000000;2.621800
2271.000000;2.492841
2270.000000;2.367743
2269.000000;2.345402
2268.000000;2.440930
2267.000000;2.588782
2266.000000;2.601605
2265.000000;2.525753
2264.000000;2.488968
2263.000000;2.493784
2262.000000;2.539676
2261.000000;2.700422
2260.000000;3.064776
2259.000000;3.414986
2258.000000;3.146842
2257.000000;2.737131
2256.000000;2.586121
2255.000000;2.695685
2254.000000;2.883673
2253.000000;2.835857
2252.000000;3.048887
2251.000000;3.462974
2250.000000;2.843208
2249.000000;2.480050
2248.000000;2.264574
2247.000000;2.182776
2246.000000;2.215638
2245.000000;2.326600
2244.000000;2.419486
2243.000000;2.369140
2242.000000;2.317737
2241.000000;2.365019
2240.000000;2.525799
2239.000000;2.695006
2238.000000;2.798210
2237.000000;3.013219
2236.000000;2.937045
2235.000000;2.692489
2234.000000;2.716684
2233.000000;3.031704
2232.000000;2.945412
2231.000000;2.803554
2230.000000;2.803258
2229.000000;2.612798
2228.000000;2.513172
2227.000000;2.629498
2226.000000;3.013494
2225.000000;2.929859
2224.000000;2.526460
2223.000000;2.395062
2222.000000;2.376255
2221.000000;2.477302
2220.000000;3.102562
2219.000000;3.226173
2218.000000;2.650360
2217.000000;2.591902
2216.000000;2.473620
2215.000000;2.435626
2214.000000;2.513704
2213.000000;2.599463
2212.000000;2.631477
2211.000000;2.841707
2210.000000;3.342745
2209.000000;2.813755
2208.000000;2.658139
2207.000000;2.849291
2206.000000;2.948394
2205.000000;2.703373
2204.000000;2.590029
2203.000000;2.585535
2202.000000;2.591783
2201.000000;2.564072
2200.000000;2.504688
2199.000000;2.474286
2198.000000;2.437352
2197.000000;2.373567
2196.000000;2.312787
2195.000000;2.295656
2194.000000;2.358560
2193.000000;2.580438
2192.000000;2.633427
2191.000000;2.383891
2190.000000;2.291442
2189.000000;2.351029
2188.000000;2.503309
2187.000000;2.627889
2186.000000;2.643630
2185.000000;2.590622
2184.000000;2.597302
2183.000000;2.792634
2182.000000;3.101208
2181.000000;3.181872
2180.000000;2.863588
2179.000000;2.602954
2178.000000;2.509355
2177.000000;2.550497
2176.000000;2.663554
2175.000000;2.602957
2174.000000;2.460963
2173.000000;2.442980
2172.000000;2.613888
2171.000000;2.760438
2170.000000;2.583836
2169.000000;2.541816
2168.000000;2.604405
2167.000000;2.622047
2166.000000;2.625554
2165.000000;2.594806
2164.000000;2.582761
2163.000000;2.573176
2162.000000;2.475782
2161.000000;2.341323
2160.000000;2.258186
2159.000000;2.288479
2158.000000;2.472992
2157.000000;2.591938
2156.000000;2.429429
2155.000000;2.307100
2154.000000;2.290201
2153.000000;2.383168
2152.000000;2.709343
2151.000000;2.892061
2150.000000;2.571822
2149.000000;2.519115
2148.000000;2.654300
2147.000000;2.849229
2146.000000;2.854770
2145.000000;2.719428
2144.000000;2.622623
2143.000000;2.706326
2142.000000;2.941068
2141.000000;2.740977
2140.000000;2.587522
2139.000000;2.608561
2138.000000;2.814518
2137.000000;2.722074
2136.000000;2.454767
2135.000000;2.364664
2134.000000;2.518486
2133.000000;3.209362
2132.000000;2.752608
2131.000000;2.457158
2130.000000;2.455830
2129.000000;2.455081
2128.000000;2.551117
2127.000000;2.790929
2126.000000;2.712022
2125.000000;2.496100
2124.000000;2.435007
2123.000000;2.714134
2122.000000;3.596270
2121.000000;2.741589
2120.000000;2.616223
2119.000000;2.641361
2118.000000;2.628084
2117.000000;2.746817
2116.000000;3.012029
2115.000000;2.906981
2114.000000;2.572129
2113.000000;2.501225
2112.000000;2.535067
2111.000000;2.653744
2110.000000;2.806969
2109.000000;2.880690
2108.000000;2.917596
2107.000000;2.941647
2106.000000;2.834738
2105.000000;2.635823
2104.000000;2.513075
2103.000000;2.466942
2102.000000;2.425518
2101.000000;2.372215
2100.000000;2.393698
2099.000000;2.529972
2098.000000;2.895887
2097.000000;3.422863
2096.000000;2.918086
2095.000000;2.712988
2094.000000;2.641938
2093.000000;2.640689
2092.000000;2.592237
2091.000000;2.463140
2090.000000;2.408255
2089.000000;2.492657
2088.000000;2.997875
2087.000000;2.962295
2086.000000;2.536495
2085.000000;2.501415
2084.000000;2.415909
2083.000000;2.302871
2082.000000;2.270991
2081.000000;2.334052
2080.000000;2.609000
2079.000000;2.984066
2078.000000;2.713863
2077.000000;2.575589
2076.000000;2.689886
2075.000000;2.949076
2074.000000;2.926594
2073.000000;2.719164
2072.000000;2.698150
2071.000000;2.782920
2070.000000;2.814922
2069.000000;2.688303
2068.000000;2.566173
2067.000000;2.499112
2066.000000;2.490202
2065.000000;2.522567
2064.000000;2.551136
2063.000000;2.560348
2062.000000;2.564217
2061.000000;2.594264
2060.000000;2.662341
2059.000000;2.739359
2058.000000;2.787833
2057.000000;2.815415
2056.000000;2.855003
2055.000000;2.859261
2054.000000;2.794887
2053.000000;2.734657
2052.000000;2.685911
2051.000000;2.608911
2050.000000;2.537053
2049.000000;2.479020
2048.000000;2.393250
2047.000000;2.299613
2046.000000;2.303054
2045.000000;2.422476
2044.000000;2.763795
2043.000000;3.294154
2042.000000;2.804453
2041.000000;2.628036
2040.000000;2.553464
2039.000000;2.471971
2038.000000;2.457430
2037.000000;2.529752
2036.000000;2.750792
2035.000000;2.678419
2034.000000;2.398481
2033.000000;2.283921
2032.000000;2.287405
2031.000000;2.360591
2030.000000;2.479354
2029.000000;2.633958
2028.000000;2.667064
2027.000000;2.547802
2026.000000;2.495971
2025.000000;2.522743
2024.000000;2.543084
2023.000000;2.509710
2022.000000;2.487113
2021.000000;2.565163
2020.000000;2.829741
2019.000000;2.980125
2018.000000;2.919533
2017.000000;3.253530
2016.000000;3.416176
2015.000000;3.052755
2014.000000;3.082347
2013.000000;3.236800
2012.000000;3.154113
2011.000000;3.032003
2010.000000;3.067574
2009.000000;3.113161
2008.000000;3.072203
2007.000000;3.130692
2006.000000;3.253194
2005.000000;3.494643
2004.000000;3.552247
2003.000000;2.995382
2002.000000;2.688820
2001.000000;2.560455
2000.000000;2.555311
1999.000000;2.633690
1998.000000;2.704436
1997.000000;2.740026
1996.000000;2.646571
1995.000000;2.506892
1994.000000;2.467146
1993.000000;2.556445
1992.000000;2.812713
1991.000000;2.896699
1990.000000;2.619135
1989.000000;2.479572
1988.000000;2.460478
1987.000000;2.565075
1986.000000;2.643852
1985.000000;2.479025
1984.000000;2.364923
1983.000000;2.447690
1982.000000;2.839864
1981.000000;2.895052
1980.000000;2.625708
1979.000000;2.592879
1978.000000;2.467630
1977.000000;2.356389
1976.000000;2.326712
1975.000000;2.388573
1974.000000;2.499097
1973.000000;2.571321
1972.000000;2.637209
1971.000000;2.596535
1970.000000;2.541857
1969.000000;2.713810
1968.000000;2.794833
1967.000000;2.437090
1966.000000;2.266804
1965.000000;2.260026
1964.000000;2.386203
1963.000000;2.649073
1962.000000;2.730570
1961.000000;2.604058
1960.000000;2.538323
1959.000000;2.515733
1958.000000;2.517687
1957.000000;2.511083
1956.000000;2.514886
1955.000000;2.587708
1954.000000;2.745413
1953.000000;2.988785
1952.000000;3.242914
1951.000000;3.346375
1950.000000;3.594433
1949.000000;3.594860
1948.000000;2.928202
1947.000000;2.650876
1946.000000;2.617733
1945.000000;2.803088
1944.000000;3.184657
1943.000000;2.961235
1942.000000;2.761650
1941.000000;2.667730
1940.000000;2.471017
1939.000000;2.350906
1938.000000;2.359874
1937.000000;2.457481
1936.000000;2.572805
1935.000000;2.656416
1934.000000;2.840188
1933.000000;2.994605
1932.000000;2.719092
1931.000000;2.564586
1930.000000;2.560223
1929.000000;2.669991
1928.000000;2.757142
1927.000000;2.611508
1926.000000;2.487700
1925.000000;2.511578
1924.000000;2.558978
1923.000000;2.469931
1922.000000;2.382831
1921.000000;2.314701
1920.000000;2.253219
1919.000000;2.222721
1918.000000;2.252770
1917.000000;2.358787
1916.000000;2.648482
1915.000000;3.206003
1914.000000;2.796925
1913.000000;2.581813
1912.000000;2.512156
1911.000000;2.447550
1910.000000;2.448511
1909.000000;2.460689
1908.000000;2.481745
1907.000000;2.546772
1906.000000;2.831232
1905.000000;3.060963
1904.000000;2.718390
1903.000000;2.539725
1902.000000;2.403703
1901.000000;2.339802
1900.000000;2.326088
1899.000000;2.330693
1898.000000;2.368254
1897.000000;2.393381
1896.000000;2.384461
1895.000000;2.388269
1894.000000;2.458065
1893.000000;2.713841
1892.000000;2.921379
1891.000000;2.629512
1890.000000;2.531243
1889.000000;2.718307
1888.000000;3.169512
1887.000000;2.905721
1886.000000;2.553398
1885.000000;2.356154
1884.000000;2.258800
1883.000000;2.288132
1882.000000;2.425298
1881.000000;2.432245
1880.000000;2.255199
1879.000000;2.173061
1878.000000;2.213516
1877.000000;2.382048
1876.000000;2.652885
1875.000000;2.760593
1874.000000;2.902946
1873.000000;3.416538
1872.000000;3.189534
1871.000000;3.183939
1870.000000;2.960089
1869.000000;2.520514
1868.000000;2.411938
1867.000000;2.487608
1866.000000;2.636934
1865.000000;2.741736
1864.000000;2.778960
1863.000000;2.682958
1862.000000;2.545495
1861.000000;2.492029
1860.000000;2.514550
1859.000000;2.599917
1858.000000;2.808002
1857.000000;2.935667
1856.000000;2.676030
1855.000000;2.559342
1854.000000;2.596636
1853.000000;2.691461
1852.000000;2.761865
1851.000000;2.644997
1850.000000;2.377569
1849.000000;2.225641
1848.000000;2.220106
1847.000000;2.342839
1846.000000;2.825972
1845.000000;3.066485
1844.000000;2.595611
1843.000000;2.726382
1842.000000;3.051613
1841.000000;2.852640
1840.000000;2.640384
1839.000000;2.648925
1838.000000;2.734068
1837.000000;2.817378
1836.000000;2.885503
1835.000000;3.173313
1834.000000;3.118478
1833.000000;2.609527
1832.000000;2.357885
1831.000000;2.255201
1830.000000;2.255680
1829.000000;2.298993
1828.000000;2.343168
1827.000000;2.461536
1826.000000;2.612913
1825.000000;2.503128
1824.000000;2.374751
1823.000000;2.277615
1822.000000;2.213940
1821.000000;2.238812
1820.000000;2.373742
1819.000000;2.707897
1818.000000;3.115040
1817.000000;3.255856
1816.000000;2.946169
1815.000000;2.569763
1814.000000;2.569962
1813.000000;3.009010
1812.000000;2.961937
1811.000000;2.613994
1810.000000;2.453569
1809.000000;2.326628
1808.000000;2.282957
1807.000000;2.301191
1806.000000;2.411231
1805.000000;2.615520
1804.000000;2.666667
1803.000000;2.630127
1802.000000;2.768806
1801.000000;3.133525
1800.000000;3.004104
1799.000000;2.526541
1798.000000;2.284647
1797.000000;2.219762
1796.000000;2.328015
1795.000000;2.564640
1794.000000;2.554304
1793.000000;2.319163
1792.000000;2.226478
1791.000000;2.271633
1790.000000;2.449614
1789.000000;3.037195
1788.000000;3.039062
1787.000000;2.574194
1786.000000;2.477515
1785.000000;2.442704
1784.000000;2.467559
1783.000000;2.536476
1782.000000;2.689810
1781.000000;2.821323
1780.000000;2.793824
1779.000000;2.792608
1778.000000;2.661665
1777.000000;2.461161
1776.000000;2.349892
1775.000000;2.329568
1774.000000;2.396196
1773.000000;2.488891
1772.000000;2.508255
1771.000000;2.624133
1770.000000;3.043180
1769.000000;3.731022
1768.000000;3.437293
1767.000000;3.530040
1766.000000;3.081839
1765.000000;2.822890
1764.000000;2.805594
1763.000000;3.355033
1762.000000;3.163374
1761.000000;2.556773
1760.000000;2.425884
1759.000000;2.477025
1758.000000;2.890804
1757.000000;3.085662
1756.000000;2.654541
1755.000000;2.486522
1754.000000;2.432684
1753.000000;2.491133
1752.000000;2.667117
1751.000000;2.665108
1750.000000;2.658300
1749.000000;3.043712
1748.000000;2.924938
1747.000000;2.700118
1746.000000;2.938380
1745.000000;3.582715
1744.000000;2.813647
1743.000000;2.617271
1742.000000;2.477767
1741.000000;2.388867
1740.000000;2.433324
1739.000000;2.590746
1738.000000;2.605760
1737.000000;2.542620
1736.000000;2.605581
1735.000000;2.812543
1734.000000;2.773212
1733.000000;2.581252
1732.000000;2.439963
1731.000000;2.277089
1730.000000;2.154400
1729.000000;2.086988
1728.000000;2.090432
1727.000000;2.174457
1726.000000;2.381477
1725.000000;2.858134
1724.000000;3.168286
1723.000000;2.929433
1722.000000;2.856696
1721.000000;2.741769
1720.000000;2.635178
1719.000000;2.461173
1718.000000;2.256736
1717.000000;2.177733
1716.000000;2.226821
1715.000000;2.362121
1714.000000;2.493389
1713.000000;2.421626
1712.000000;2.298759
1711.000000;2.262469
1710.000000;2.287337
1709.000000;2.314849
1708.000000;2.314973
1707.000000;2.306750
1706.000000;2.374426
1705.000000;2.815279
1704.000000;3.068994
1703.000000;2.667943
1702.000000;2.507562
1701.000000;2.424256
1700.000000;2.449099
1699.000000;2.589950
1698.000000;2.699519
1697.000000;2.533746
1696.000000;2.406121
1695.000000;2.421106
1694.000000;2.503229
1693.000000;2.583424
1692.000000;2.637373
1691.000000;2.661738
1690.000000;2.528500
1689.000000;2.381125
1688.000000;2.344881
1687.000000;2.372198
1686.000000;2.408039
1685.000000;2.449053
1684.000000;2.491741
1683.000000;2.491896
1682.000000;2.554524
1681.000000;2.606654
1680.000000;2.420341
1679.000000;2.341608
1678.000000;2.394162
1677.000000;2.547476
1676.000000;2.719015
1675.000000;2.459484
1674.000000;2.284903
1673.000000;2.283565
1672.000000;2.386686
1671.000000;2.619945
1670.000000;3.152974
1669.000000;3.088123
1668.000000;2.706848
1667.000000;2.622984
1666.000000;2.630559
1665.000000;2.632317
1664.000000;2.644976
1663.000000;2.612964
1662.000000;2.575629
1661.000000;2.643383
1660.000000;2.715568
1659.000000;2.656526
1658.000000;2.550536
1657.000000;2.527857
1656.000000;2.557706
1655.000000;2.671818
1654.000000;2.989853
1653.000000;2.741208
1652.000000;2.567311
1651.000000;2.631952
1650.000000;2.690322
1649.000000;2.715270
1648.000000;2.595847
1647.000000;2.401516
1646.000000;2.355871
1645.000000;2.407515
1644.000000;2.526468
1643.000000;2.731080
1642.000000;3.266377
1641.000000;3.094585
1640.000000;2.744747
1639.000000;2.565361
1638.000000;2.382905
1637.000000;2.253695
1636.000000;2.253341
1635.000000;2.373112
1634.000000;2.545375
1633.000000;2.711489
1632.000000;2.773112
1631.000000;2.664287
1630.000000;2.482638
1629.000000;2.384557
1628.000000;2.437713
1627.000000;2.647640
1626.000000;3.145389
1625.000000;3.023930
1624.000000;2.782882
1623.000000;2.712665
1622.000000;2.523272
1621.000000;2.456084
1620.000000;2.486124
1619.000000;2.509254
1618.000000;2.461314
1617.000000;2.471189
1616.000000;2.698807
1615.000000;2.986368
1614.000000;2.656620
1613.000000;2.572365
1612.000000;2.801469
1611.000000;3.566343
1610.000000;2.765166
1609.000000;2.607059
1608.000000;2.522908
1607.000000;2.492366
1606.000000;2.509070
1605.000000;2.530084
1604.000000;2.511579
1603.000000;2.474807
1602.000000;2.497148
1601.000000;2.649091
1600.000000;2.910928
1599.000000;2.933884
1598.000000;2.953433
1597.000000;2.832710
1596.000000;2.532266
1595.000000;2.440931
1594.000000;2.573637
1593.000000;2.997033
1592.000000;2.801205
1591.000000;2.670472
1590.000000;2.804750
1589.000000;2.673384
1588.000000;2.521433
1587.000000;2.556182
1586.000000;2.497818
1585.000000;2.296365
1584.000000;2.249750
1583.000000;2.421986
1582.000000;2.909287
1581.000000;2.907457
1580.000000;2.893838
1579.000000;3.260717
1578.000000;3.003731
1577.000000;2.774798
1576.000000;2.797977
1575.000000;2.840981
1574.000000;2.789834
1573.000000;2.764460
1572.000000;2.517630
1571.000000;2.258572
1570.000000;2.170515
1569.000000;2.245372
1568.000000;2.451212
1567.000000;2.731708
1566.000000;2.581598
1565.000000;2.461605
1564.000000;2.524612
1563.000000;2.613953
1562.000000;2.668794
1561.000000;2.676104
1560.000000;2.644923
1559.000000;2.674900
1558.000000;2.694223
1557.000000;2.694714
1556.000000;2.751635
1555.000000;2.598546
1554.000000;2.305098
1553.000000;2.208039
1552.000000;2.265350
1551.000000;2.692583
1550.000000;2.965733
1549.000000;2.509246
1548.000000;2.515396
1547.000000;2.493414
1546.000000;2.392673
1545.000000;2.260477
1544.000000;2.247290
1543.000000;2.307105
1542.000000;2.350946
1541.000000;2.372550
1540.000000;2.398764
1539.000000;2.360002
1538.000000;2.267608
1537.000000;2.194981
1536.000000;2.147739
1535.000000;2.118492
1534.000000;2.157407
1533.000000;2.286568
1532.000000;2.430631
1531.000000;2.534999
1530.000000;2.610855
1529.000000;2.444525
1528.000000;2.225136
1527.000000;2.188033
1526.000000;2.425388
1525.000000;2.564870
1524.000000;2.191442
1523.000000;2.014109
1522.000000;2.003043
1521.000000;2.180995
1520.000000;2.391490
1519.000000;2.381467
1518.000000;2.422664
1517.000000;2.471773
1516.000000;2.246086
1515.000000;2.151741
1514.000000;2.109425
1513.000000;2.039157
1512.000000;2.015675
1511.000000;2.130356
1510.000000;2.557507
1509.000000;2.354766
1508.000000;2.223975
1507.000000;2.718541
1506.000000;2.656604
1505.000000;2.546940
1504.000000;2.690184
1503.000000;3.124924
1502.000000;2.675317
1501.000000;2.520790
1500.000000;2.534334
1499.000000;2.650735
1498.000000;2.984732
1497.000000;3.391012
1496.000000;2.929869
1495.000000;2.717243
1494.000000;2.655128
1493.000000;2.855030
1492.000000;2.863535
1491.000000;2.785322
1490.000000;2.405858
1489.000000;2.181996
1488.000000;2.272106
1487.000000;2.821346
1486.000000;2.597164
1485.000000;2.337551
1484.000000;2.285598
1483.000000;2.272933
1482.000000;2.292359
1481.000000;2.339416
1480.000000;2.430539
1479.000000;2.599471
1478.000000;2.976851
1477.000000;3.092353
1476.000000;2.695245
1475.000000;2.528919
1474.000000;2.438503
1473.000000;2.677033
1472.000000;2.889870
1471.000000;2.425485
1470.000000;2.395885
1469.000000;2.609065
1468.000000;3.000121
1467.000000;3.096039
1466.000000;3.281566
1465.000000;2.862274
1464.000000;2.659696
1463.000000;2.616273
1462.000000;2.613517
1461.000000;2.708222
1460.000000;2.773061
1459.000000;2.826449
1458.000000;2.888689
1457.000000;2.772516
1456.000000;2.743180
1455.000000;2.686887
1454.000000;2.641271
1453.000000;2.666577
1452.000000;2.753800
1451.000000;2.834534
1450.000000;2.879666
1449.000000;2.910176
1448.000000;2.885084
1447.000000;2.822271
1446.000000;2.727668
1445.000000;2.673617
1444.000000;2.646915
1443.000000;2.662600
1442.000000;2.748940
1441.000000;3.050249
1440.000000;3.433479
1439.000000;2.961155
1438.000000;2.710560
1437.000000;2.694275
1436.000000;2.845749
1435.000000;2.707984
1434.000000;2.464017
1433.000000;2.323206
1432.000000;2.254061
1431.000000;2.259083
1430.000000;2.318213
1429.000000;2.352981
1428.000000;2.356594
1427.000000;2.413172
1426.000000;2.628484
1425.000000;2.950694
1424.000000;2.563873
1423.000000;2.573106
1422.000000;2.792502
1421.000000;2.593989
1420.000000;2.280715
1419.000000;2.252387
1418.000000;2.514847
1417.000000;2.703294
1416.000000;2.561918
1415.000000;2.866918
1414.000000;3.019859
1413.000000;2.646212
1412.000000;2.625258
1411.000000;2.698758
1410.000000;2.806534
1409.000000;2.862643
1408.000000;2.898022
1407.000000;3.122554
1406.000000;2.747698
1405.000000;2.535789
1404.000000;2.533872
1403.000000;2.586947
1402.000000;2.690430
1401.000000;3.318963
1400.000000;2.683273
1399.000000;2.375752
1398.000000;2.274756
1397.000000;2.240885
1396.000000;2.236465
1395.000000;2.245956
1394.000000;2.266638
1393.000000;2.346612
1392.000000;2.556407
1391.000000;2.874277
1390.000000;3.193767
1389.000000;3.167436
1388.000000;2.631192
1387.000000;2.448401
1386.000000;2.438565
1385.000000;2.535034
1384.000000;2.840577
1383.000000;2.878565
1382.000000;2.614407
1381.000000;2.586451
1380.000000;2.681422
1379.000000;2.764261
1378.000000;2.743139
1377.000000;2.745899
1376.000000;2.834078
1375.000000;2.804640
1374.000000;2.790393
1373.000000;2.982020
1372.000000;3.322479
1371.000000;2.708309
1370.000000;2.452950
1369.000000;2.326282
1368.000000;2.276431
1367.000000;2.259734
1366.000000;2.226879
1365.000000;2.184730
1364.000000;2.208771
1363.000000;2.351676
1362.000000;2.554056
1361.000000;2.665412
1360.000000;2.649882
1359.000000;2.613266
1358.000000;2.690241
1357.000000;2.814684
1356.000000;3.186055
1355.000000;3.120738
1354.000000;2.618770
1353.000000;2.414330
1352.000000;2.322128
1351.000000;2.285754
1350.000000;2.300399
1349.000000;2.342774
1348.000000;2.322235
1347.000000;2.255494
1346.000000;2.209761
1345.000000;2.197478
1344.000000;2.220214
1343.000000;2.255820
1342.000000;2.242716
1341.000000;2.169966
1340.000000;2.144868
1339.000000;2.249652
1338.000000;2.470433
1337.000000;2.854962
1336.000000;3.015258
1335.000000;2.642976
1334.000000;2.515911
1333.000000;2.422605
1332.000000;2.394130
1331.000000;2.450847
1330.000000;2.925467
1329.000000;3.051111
1328.000000;2.625171
1327.000000;2.556734
1326.000000;2.465622
1325.000000;2.418047
1324.000000;2.495646
1323.000000;2.963581
1322.000000;2.796901
1321.000000;2.467814
1320.000000;2.339431
1319.000000;2.252958
1318.000000;2.179265
1317.000000;2.203966
1316.000000;2.337303
1315.000000;2.334757
1314.000000;2.268384
1313.000000;2.353841
1312.000000;2.507458
1311.000000;2.602236
1310.000000;2.713280
1309.000000;2.793479
1308.000000;2.732997
1307.000000;2.670663
1306.000000;2.669581
1305.000000;2.684698
1304.000000;2.614735
1303.000000;2.578581
1302.000000;2.673395
1301.000000;3.226193
1300.000000;2.885581
1299.000000;2.566173
1298.000000;2.509521
1297.000000;2.474392
1296.000000;2.496794
1295.000000;2.574967
1294.000000;2.622385
1293.000000;2.692253
1292.000000;2.804052
1291.000000;2.710878
1290.000000;2.496934
1289.000000;2.304892
1288.000000;2.205827
1287.000000;2.215015
1286.000000;2.347136
1285.000000;2.652104
1284.000000;3.022467
1283.000000;3.011835
1282.000000;2.720196
1281.000000;2.456055
1280.000000;2.423838
1279.000000;2.544498
1278.000000;2.989824
1277.000000;3.158922
1276.000000;2.762955
1275.000000;2.741727
1274.000000;2.850705
1273.000000;2.712182
1272.000000;2.567746
1271.000000;2.627592
1270.000000;2.790846
1269.000000;2.697909
1268.000000;2.609238
1267.000000;2.717870
1266.000000;3.358055
1265.000000;2.943250
1264.000000;2.687743
1263.000000;2.713252
1262.000000;2.972365
1261.000000;3.009241
1260.000000;2.742446
1259.000000;2.805644
1258.000000;3.180169
1257.000000;2.911147
1256.000000;2.610662
1255.000000;2.542891
1254.000000;2.528054
1253.000000;2.539024
1252.000000;2.615814
1251.000000;2.737675
1250.000000;2.704529
1249.000000;2.641753
1248.000000;2.709029
1247.000000;2.893414
1246.000000;3.139759
1245.000000;3.100848
1244.000000;2.822554
1243.000000;2.640521
1242.000000;2.594151
1241.000000;2.664353
1240.000000;2.652706
1239.000000;2.535510
1238.000000;2.543860
1237.000000;2.666122
1236.000000;2.649436
1235.000000;2.528573
1234.000000;2.447806
1233.000000;2.476942
1232.000000;2.605468
1231.000000;2.592653
1230.000000;2.527487
1229.000000;2.617544
1228.000000;2.860798
1227.000000;3.359621
1226.000000;3.105552
1225.000000;2.649244
1224.000000;2.504054
1223.000000;2.474666
1222.000000;2.412127
1221.000000;2.311067
1220.000000;2.300839
1219.000000;2.407301
1218.000000;2.586490
1217.000000;2.801705
1216.000000;2.786416
1215.000000;2.543396
1214.000000;2.437668
1213.000000;2.481230
1212.000000;2.627001
1211.000000;2.793579
1210.000000;2.946309
1209.000000;2.974358
1208.000000;2.690160
1207.000000;2.465040
1206.000000;2.350816
1205.000000;2.337958
1204.000000;2.429110
1203.000000;2.597094
1202.000000;2.690083
1201.000000;2.652334
1200.000000;2.608825
