Criado como novo conjunto de dados;"2706_e01_daniel.spp","64625.4 Secs"
cm-1;Abs
10000.000000;0.715797
9999.000000;0.714603
9998.000000;0.713425
9997.000000;0.712596
9996.000000;0.712500
9995.000000;0.712983
9994.000000;0.713400
9993.000000;0.713383
9992.000000;0.713192
9991.000000;0.713110
9990.000000;0.713039
9989.000000;0.712899
9988.000000;0.712923
9987.000000;0.713179
9986.000000;0.713262
9985.000000;0.712850
9984.000000;0.712223
9983.000000;0.711864
9982.000000;0.711821
9981.000000;0.711781
9980.000000;0.711551
9979.000000;0.711169
9978.000000;0.710738
9977.000000;0.710437
9976.000000;0.710476
9975.000000;0.710798
9974.000000;0.711029
9973.000000;0.710948
9972.000000;0.710816
9971.000000;0.710985
9970.000000;0.711392
9969.000000;0.711642
9968.000000;0.711470
9967.000000;0.710941
9966.000000;0.710334
9965.000000;0.710013
9964.000000;0.710222
9963.000000;0.710853
9962.000000;0.711497
9961.000000;0.711798
9960.000000;0.711654
9959.000000;0.711120
9958.000000;0.710381
9957.000000;0.709833
9956.000000;0.709819
9955.000000;0.710164
9954.000000;0.710271
9953.000000;0.709829
9952.000000;0.709165
9951.000000;0.708751
9950.000000;0.708652
9949.000000;0.708610
9948.000000;0.708427
9947.000000;0.708113
9946.000000;0.707850
9945.000000;0.707904
9944.000000;0.708338
9943.000000;0.708784
9942.000000;0.708768
9941.000000;0.708319
9940.000000;0.707922
9939.000000;0.707818
9938.000000;0.707736
9937.000000;0.707439
9936.000000;0.707123
9935.000000;0.707027
9934.000000;0.707038
9933.000000;0.706930
9932.000000;0.706692
9931.000000;0.706363
9930.000000;0.705844
9929.000000;0.705176
9928.000000;0.704755
9927.000000;0.704945
9926.000000;0.705610
9925.000000;0.706284
9924.000000;0.706658
9923.000000;0.706737
9922.000000;0.706653
9921.000000;0.706524
9920.000000;0.706408
9919.000000;0.706244
9918.000000;0.705965
9917.000000;0.705702
9916.000000;0.705659
9915.000000;0.705746
9914.000000;0.705624
9913.000000;0.705249
9912.000000;0.705047
9911.000000;0.705342
9910.000000;0.705864
9909.000000;0.706051
9908.000000;0.705626
9907.000000;0.704713
9906.000000;0.703661
9905.000000;0.702946
9904.000000;0.702950
9903.000000;0.703525
9902.000000;0.703999
9901.000000;0.703877
9900.000000;0.703387
9899.000000;0.703072
9898.000000;0.703037
9897.000000;0.702963
9896.000000;0.702675
9895.000000;0.702335
9894.000000;0.702090
9893.000000;0.701879
9892.000000;0.701658
9891.000000;0.701535
9890.000000;0.701611
9889.000000;0.701853
9888.000000;0.702194
9887.000000;0.702622
9886.000000;0.703106
9885.000000;0.703531
9884.000000;0.703764
9883.000000;0.703749
9882.000000;0.703520
9881.000000;0.703157
9880.000000;0.702726
9879.000000;0.702258
9878.000000;0.701737
9877.000000;0.701142
9876.000000;0.700513
9875.000000;0.700028
9874.000000;0.699964
9873.000000;0.700443
9872.000000;0.701175
9871.000000;0.701620
9870.000000;0.701548
9869.000000;0.701296
9868.000000;0.701278
9867.000000;0.701413
9866.000000;0.701314
9865.000000;0.700927
9864.000000;0.700618
9863.000000;0.700616
9862.000000;0.700718
9861.000000;0.700662
9860.000000;0.700490
9859.000000;0.700393
9858.000000;0.700388
9857.000000;0.700333
9856.000000;0.700137
9855.000000;0.699820
9854.000000;0.699433
9853.000000;0.699036
9852.000000;0.698710
9851.000000;0.698558
9850.000000;0.698675
9849.000000;0.699046
9848.000000;0.699441
9847.000000;0.699519
9846.000000;0.699166
9845.000000;0.698634
9844.000000;0.698221
9843.000000;0.697949
9842.000000;0.697713
9841.000000;0.697560
9840.000000;0.697588
9839.000000;0.697686
9838.000000;0.697679
9837.000000;0.697615
9836.000000;0.697631
9835.000000;0.697617
9834.000000;0.697373
9833.000000;0.697013
9832.000000;0.696843
9831.000000;0.696855
9830.000000;0.696717
9829.000000;0.696299
9828.000000;0.695863
9827.000000;0.695651
9826.000000;0.695625
9825.000000;0.695692
9824.000000;0.695860
9823.000000;0.696056
9822.000000;0.696118
9821.000000;0.696070
9820.000000;0.696131
9819.000000;0.696313
9818.000000;0.696279
9817.000000;0.695774
9816.000000;0.694952
9815.000000;0.694159
9814.000000;0.693585
9813.000000;0.693298
9812.000000;0.693398
9811.000000;0.693927
9810.000000;0.694697
9809.000000;0.695364
9808.000000;0.695677
9807.000000;0.695665
9806.000000;0.695596
9805.000000;0.695666
9804.000000;0.695671
9803.000000;0.695175
9802.000000;0.694155
9801.000000;0.693221
9800.000000;0.692915
9799.000000;0.693029
9798.000000;0.692993
9797.000000;0.692744
9796.000000;0.692716
9795.000000;0.693044
9794.000000;0.693354
9793.000000;0.693361
9792.000000;0.693178
9791.000000;0.692926
9790.000000;0.692533
9789.000000;0.692094
9788.000000;0.691964
9787.000000;0.692257
9786.000000;0.692644
9785.000000;0.692831
9784.000000;0.692881
9783.000000;0.692892
9782.000000;0.692748
9781.000000;0.692442
9780.000000;0.692237
9779.000000;0.692257
9778.000000;0.692250
9777.000000;0.692054
9776.000000;0.691943
9775.000000;0.692195
9774.000000;0.692586
9773.000000;0.692673
9772.000000;0.692363
9771.000000;0.691907
9770.000000;0.691546
9769.000000;0.691426
9768.000000;0.691640
9767.000000;0.692028
9766.000000;0.692108
9765.000000;0.691565
9764.000000;0.690697
9763.000000;0.690063
9762.000000;0.689819
9761.000000;0.689695
9760.000000;0.689520
9759.000000;0.689415
9758.000000;0.689460
9757.000000;0.689497
9756.000000;0.689372
9755.000000;0.689162
9754.000000;0.689062
9753.000000;0.689158
9752.000000;0.689397
9751.000000;0.689707
9750.000000;0.690059
9749.000000;0.690424
9748.000000;0.690684
9747.000000;0.690645
9746.000000;0.690211
9745.000000;0.689534
9744.000000;0.688910
9743.000000;0.688528
9742.000000;0.688411
9741.000000;0.688531
9740.000000;0.688818
9739.000000;0.689052
9738.000000;0.688957
9737.000000;0.688487
9736.000000;0.687902
9735.000000;0.687498
9734.000000;0.687340
9733.000000;0.687290
9732.000000;0.687159
9731.000000;0.686855
9730.000000;0.686472
9729.000000;0.686257
9728.000000;0.686347
9727.000000;0.686579
9726.000000;0.686699
9725.000000;0.686695
9724.000000;0.686716
9723.000000;0.686752
9722.000000;0.686660
9721.000000;0.686513
9720.000000;0.686568
9719.000000;0.686826
9718.000000;0.686945
9717.000000;0.686705
9716.000000;0.686311
9715.000000;0.686050
9714.000000;0.685894
9713.000000;0.685640
9712.000000;0.685280
9711.000000;0.685024
9710.000000;0.685031
9709.000000;0.685253
9708.000000;0.685475
9707.000000;0.685476
9706.000000;0.685231
9705.000000;0.684981
9704.000000;0.684992
9703.000000;0.685220
9702.000000;0.685374
9701.000000;0.685293
9700.000000;0.685069
9699.000000;0.684783
9698.000000;0.684377
9697.000000;0.683864
9696.000000;0.683456
9695.000000;0.683345
9694.000000;0.683516
9693.000000;0.683841
9692.000000;0.684192
9691.000000;0.684397
9690.000000;0.684290
9689.000000;0.683934
9688.000000;0.683653
9687.000000;0.683730
9686.000000;0.684158
9685.000000;0.684705
9684.000000;0.685069
9683.000000;0.684973
9682.000000;0.684345
9681.000000;0.683503
9680.000000;0.682978
9679.000000;0.683008
9678.000000;0.683321
9677.000000;0.683478
9676.000000;0.683281
9675.000000;0.682818
9674.000000;0.682295
9673.000000;0.681921
9672.000000;0.681829
9671.000000;0.681988
9670.000000;0.682274
9669.000000;0.682632
9668.000000;0.683040
9667.000000;0.683311
9666.000000;0.683150
9665.000000;0.682474
9664.000000;0.681546
9663.000000;0.680763
9662.000000;0.680423
9661.000000;0.680643
9660.000000;0.681252
9659.000000;0.681781
9658.000000;0.681804
9657.000000;0.681409
9656.000000;0.681106
9655.000000;0.681222
9654.000000;0.681605
9653.000000;0.681962
9652.000000;0.682228
9651.000000;0.682413
9650.000000;0.682354
9649.000000;0.681843
9648.000000;0.680952
9647.000000;0.680080
9646.000000;0.679672
9645.000000;0.679885
9644.000000;0.680410
9643.000000;0.680662
9642.000000;0.680352
9641.000000;0.679864
9640.000000;0.679859
9639.000000;0.680462
9638.000000;0.681073
9637.000000;0.681062
9636.000000;0.680414
9635.000000;0.679586
9634.000000;0.678938
9633.000000;0.678508
9632.000000;0.678197
9631.000000;0.677976
9630.000000;0.677925
9629.000000;0.678119
9628.000000;0.678444
9627.000000;0.678582
9626.000000;0.678350
9625.000000;0.677995
9624.000000;0.677937
9623.000000;0.678213
9622.000000;0.678446
9621.000000;0.678405
9620.000000;0.678295
9619.000000;0.678376
9618.000000;0.678575
9617.000000;0.678655
9616.000000;0.678553
9615.000000;0.678337
9614.000000;0.678015
9613.000000;0.677602
9612.000000;0.677273
9611.000000;0.677191
9610.000000;0.677220
9609.000000;0.676996
9608.000000;0.676304
9607.000000;0.675337
9606.000000;0.674559
9605.000000;0.674337
9604.000000;0.674652
9603.000000;0.675149
9602.000000;0.675496
9601.000000;0.675678
9600.000000;0.675847
9599.000000;0.675986
9598.000000;0.675914
9597.000000;0.675611
9596.000000;0.675318
9595.000000;0.675239
9594.000000;0.675338
9593.000000;0.675488
9592.000000;0.675646
9591.000000;0.675820
9590.000000;0.675989
9589.000000;0.676133
9588.000000;0.676203
9587.000000;0.676063
9586.000000;0.675631
9585.000000;0.675116
9584.000000;0.674891
9583.000000;0.675025
9582.000000;0.675140
9581.000000;0.674857
9580.000000;0.674272
9579.000000;0.673850
9578.000000;0.673937
9577.000000;0.674456
9576.000000;0.674989
9575.000000;0.675109
9574.000000;0.674718
9573.000000;0.674139
9572.000000;0.673805
9571.000000;0.673827
9570.000000;0.673933
9569.000000;0.673818
9568.000000;0.673461
9567.000000;0.673080
9566.000000;0.672905
9565.000000;0.673003
9564.000000;0.673210
9563.000000;0.673243
9562.000000;0.672989
9561.000000;0.672664
9560.000000;0.672579
9559.000000;0.672789
9558.000000;0.673115
9557.000000;0.673445
9556.000000;0.673810
9555.000000;0.674174
9554.000000;0.674361
9553.000000;0.674257
9552.000000;0.673925
9551.000000;0.673493
9550.000000;0.673068
9549.000000;0.672753
9548.000000;0.672587
9547.000000;0.672465
9546.000000;0.672264
9545.000000;0.672028
9544.000000;0.671874
9543.000000;0.671764
9542.000000;0.671576
9541.000000;0.671375
9540.000000;0.671361
9539.000000;0.671519
9538.000000;0.671572
9537.000000;0.671327
9536.000000;0.670877
9535.000000;0.670434
9534.000000;0.670160
9533.000000;0.670172
9532.000000;0.670480
9531.000000;0.670860
9530.000000;0.670982
9529.000000;0.670749
9528.000000;0.670366
9527.000000;0.670074
9526.000000;0.670004
9525.000000;0.670223
9524.000000;0.670661
9523.000000;0.671000
9522.000000;0.670934
9521.000000;0.670570
9520.000000;0.670297
9519.000000;0.670204
9518.000000;0.669955
9517.000000;0.669352
9516.000000;0.668675
9515.000000;0.668309
9514.000000;0.668290
9513.000000;0.668393
9512.000000;0.668448
9511.000000;0.668384
9510.000000;0.668171
9509.000000;0.667895
9508.000000;0.667741
9507.000000;0.667762
9506.000000;0.667827
9505.000000;0.667867
9504.000000;0.667970
9503.000000;0.668121
9502.000000;0.668110
9501.000000;0.667873
9500.000000;0.667691
9499.000000;0.667819
9498.000000;0.668116
9497.000000;0.668282
9496.000000;0.668289
9495.000000;0.668343
9494.000000;0.668481
9493.000000;0.668482
9492.000000;0.668172
9491.000000;0.667644
9490.000000;0.667186
9489.000000;0.667062
9488.000000;0.667312
9487.000000;0.667672
9486.000000;0.667755
9485.000000;0.667421
9484.000000;0.666899
9483.000000;0.666491
9482.000000;0.666269
9481.000000;0.666151
9480.000000;0.666124
9479.000000;0.666221
9478.000000;0.666345
9477.000000;0.666322
9476.000000;0.666114
9475.000000;0.665877
9474.000000;0.665762
9473.000000;0.665754
9472.000000;0.665714
9471.000000;0.665574
9470.000000;0.665447
9469.000000;0.665514
9468.000000;0.665771
9467.000000;0.665951
9466.000000;0.665800
9465.000000;0.665396
9464.000000;0.665090
9463.000000;0.665132
9462.000000;0.665476
9461.000000;0.665890
9460.000000;0.666151
9459.000000;0.666125
9458.000000;0.665829
9457.000000;0.665448
9456.000000;0.665180
9455.000000;0.665058
9454.000000;0.664983
9453.000000;0.664894
9452.000000;0.664768
9451.000000;0.664525
9450.000000;0.664122
9449.000000;0.663719
9448.000000;0.663537
9447.000000;0.663538
9446.000000;0.663472
9445.000000;0.663233
9444.000000;0.662972
9443.000000;0.662815
9442.000000;0.662723
9441.000000;0.662691
9440.000000;0.662829
9439.000000;0.663143
9438.000000;0.663427
9437.000000;0.663498
9436.000000;0.663339
9435.000000;0.662951
9434.000000;0.662303
9433.000000;0.661557
9432.000000;0.661103
9431.000000;0.661163
9430.000000;0.661512
9429.000000;0.661788
9428.000000;0.661929
9427.000000;0.662114
9426.000000;0.662368
9425.000000;0.662485
9424.000000;0.662315
9423.000000;0.661963
9422.000000;0.661677
9421.000000;0.661622
9420.000000;0.661756
9419.000000;0.661861
9418.000000;0.661710
9417.000000;0.661274
9416.000000;0.660743
9415.000000;0.660347
9414.000000;0.660203
9413.000000;0.660321
9412.000000;0.660623
9411.000000;0.660940
9410.000000;0.661102
9409.000000;0.661119
9408.000000;0.661147
9407.000000;0.661225
9406.000000;0.661172
9405.000000;0.660837
9404.000000;0.660348
9403.000000;0.659991
9402.000000;0.659914
9401.000000;0.660057
9400.000000;0.660274
9399.000000;0.660410
9398.000000;0.660311
9397.000000;0.659914
9396.000000;0.659374
9395.000000;0.659001
9394.000000;0.658983
9393.000000;0.659192
9392.000000;0.659289
9391.000000;0.659055
9390.000000;0.658627
9389.000000;0.658350
9388.000000;0.658413
9387.000000;0.658691
9386.000000;0.658936
9385.000000;0.659029
9384.000000;0.658974
9383.000000;0.658787
9382.000000;0.658518
9381.000000;0.658294
9380.000000;0.658177
9379.000000;0.658036
9378.000000;0.657722
9377.000000;0.657328
9376.000000;0.657085
9375.000000;0.657054
9374.000000;0.657100
9373.000000;0.657177
9372.000000;0.657402
9371.000000;0.657815
9370.000000;0.658244
9369.000000;0.658502
9368.000000;0.658583
9367.000000;0.658557
9366.000000;0.658414
9365.000000;0.658105
9364.000000;0.657644
9363.000000;0.657098
9362.000000;0.656532
9361.000000;0.656010
9360.000000;0.655619
9359.000000;0.655420
9358.000000;0.655428
9357.000000;0.655615
9356.000000;0.655881
9355.000000;0.656073
9354.000000;0.656124
9353.000000;0.656152
9352.000000;0.656336
9351.000000;0.656686
9350.000000;0.657020
9349.000000;0.657126
9348.000000;0.656864
9347.000000;0.656213
9346.000000;0.655372
9345.000000;0.654742
9344.000000;0.654633
9343.000000;0.654950
9342.000000;0.655312
9341.000000;0.655461
9340.000000;0.655428
9339.000000;0.655348
9338.000000;0.655279
9337.000000;0.655213
9336.000000;0.655101
9335.000000;0.654869
9334.000000;0.654538
9333.000000;0.654299
9332.000000;0.654295
9331.000000;0.654359
9330.000000;0.654185
9329.000000;0.653759
9328.000000;0.653401
9327.000000;0.653326
9326.000000;0.653392
9325.000000;0.653344
9324.000000;0.653118
9323.000000;0.652828
9322.000000;0.652621
9321.000000;0.652640
9320.000000;0.652955
9319.000000;0.653429
9318.000000;0.653773
9317.000000;0.653815
9316.000000;0.653618
9315.000000;0.653289
9314.000000;0.652854
9313.000000;0.652400
9312.000000;0.652151
9311.000000;0.652245
9310.000000;0.652524
9309.000000;0.652682
9308.000000;0.652591
9307.000000;0.652388
9306.000000;0.652307
9305.000000;0.652473
9304.000000;0.652808
9303.000000;0.653071
9302.000000;0.653079
9301.000000;0.652902
9300.000000;0.652773
9299.000000;0.652789
9298.000000;0.652789
9297.000000;0.652581
9296.000000;0.652186
9295.000000;0.651785
9294.000000;0.651506
9293.000000;0.651324
9292.000000;0.651129
9291.000000;0.650856
9290.000000;0.650569
9289.000000;0.650434
9288.000000;0.650565
9287.000000;0.650884
9286.000000;0.651188
9285.000000;0.651325
9284.000000;0.651270
9283.000000;0.651049
9282.000000;0.650702
9281.000000;0.650328
9280.000000;0.650067
9279.000000;0.649990
9278.000000;0.650046
9277.000000;0.650099
9276.000000;0.650013
9275.000000;0.649761
9274.000000;0.649496
9273.000000;0.649463
9272.000000;0.649717
9271.000000;0.649988
9270.000000;0.649955
9269.000000;0.649629
9268.000000;0.649356
9267.000000;0.649428
9266.000000;0.649799
9265.000000;0.650172
9264.000000;0.650261
9263.000000;0.649988
9262.000000;0.649508
9261.000000;0.649082
9260.000000;0.648858
9259.000000;0.648806
9258.000000;0.648852
9257.000000;0.648984
9256.000000;0.649155
9255.000000;0.649200
9254.000000;0.648978
9253.000000;0.648548
9252.000000;0.648090
9251.000000;0.647707
9250.000000;0.647392
9249.000000;0.647137
9248.000000;0.646940
9247.000000;0.646782
9246.000000;0.646676
9245.000000;0.646692
9244.000000;0.646820
9243.000000;0.646934
9242.000000;0.646977
9241.000000;0.647064
9240.000000;0.647275
9239.000000;0.647472
9238.000000;0.647503
9237.000000;0.647439
9236.000000;0.647415
9235.000000;0.647378
9234.000000;0.647206
9233.000000;0.646977
9232.000000;0.646854
9231.000000;0.646775
9230.000000;0.646543
9229.000000;0.646189
9228.000000;0.645962
9227.000000;0.645966
9226.000000;0.646045
9225.000000;0.646054
9224.000000;0.646026
9223.000000;0.646027
9222.000000;0.646038
9221.000000;0.646014
9220.000000;0.645915
9219.000000;0.645678
9218.000000;0.645324
9217.000000;0.645030
9216.000000;0.644935
9215.000000;0.644909
9214.000000;0.644713
9213.000000;0.644343
9212.000000;0.644039
9211.000000;0.643987
9210.000000;0.644207
9209.000000;0.644624
9208.000000;0.645029
9207.000000;0.645056
9206.000000;0.644532
9205.000000;0.643801
9204.000000;0.643392
9203.000000;0.643385
9202.000000;0.643406
9201.000000;0.643252
9200.000000;0.643145
9199.000000;0.643294
9198.000000;0.643564
9197.000000;0.643715
9196.000000;0.643695
9195.000000;0.643538
9194.000000;0.643232
9193.000000;0.642855
9192.000000;0.642626
9191.000000;0.642657
9190.000000;0.642794
9189.000000;0.642843
9188.000000;0.642786
9187.000000;0.642659
9186.000000;0.642414
9185.000000;0.642028
9184.000000;0.641628
9183.000000;0.641401
9182.000000;0.641451
9181.000000;0.641783
9180.000000;0.642270
9179.000000;0.642611
9178.000000;0.642534
9177.000000;0.642119
9176.000000;0.641745
9175.000000;0.641657
9174.000000;0.641747
9173.000000;0.641815
9172.000000;0.641809
9171.000000;0.641729
9170.000000;0.641508
9169.000000;0.641147
9168.000000;0.640806
9167.000000;0.640631
9166.000000;0.640614
9165.000000;0.640694
9164.000000;0.640849
9163.000000;0.640992
9162.000000;0.640959
9161.000000;0.640708
9160.000000;0.640398
9159.000000;0.640176
9158.000000;0.640024
9157.000000;0.639902
9156.000000;0.639882
9155.000000;0.640016
9154.000000;0.640200
9153.000000;0.640280
9152.000000;0.640219
9151.000000;0.640068
9150.000000;0.639878
9149.000000;0.639722
9148.000000;0.639680
9147.000000;0.639757
9146.000000;0.639880
9145.000000;0.640020
9144.000000;0.640189
9143.000000;0.640303
9142.000000;0.640230
9141.000000;0.639982
9140.000000;0.639709
9139.000000;0.639453
9138.000000;0.639108
9137.000000;0.638698
9136.000000;0.638476
9135.000000;0.638601
9134.000000;0.638888
9133.000000;0.639025
9132.000000;0.638905
9131.000000;0.638632
9130.000000;0.638343
9129.000000;0.638151
9128.000000;0.638146
9127.000000;0.638277
9126.000000;0.638330
9125.000000;0.638159
9124.000000;0.637872
9123.000000;0.637666
9122.000000;0.637572
9121.000000;0.637479
9120.000000;0.637356
9119.000000;0.637295
9118.000000;0.637348
9117.000000;0.637425
9116.000000;0.637375
9115.000000;0.637139
9114.000000;0.636824
9113.000000;0.636609
9112.000000;0.636568
9111.000000;0.636585
9110.000000;0.636509
9109.000000;0.636357
9108.000000;0.636259
9107.000000;0.636242
9106.000000;0.636193
9105.000000;0.636051
9104.000000;0.635869
9103.000000;0.635682
9102.000000;0.635453
9101.000000;0.635197
9100.000000;0.635039
9099.000000;0.635078
9098.000000;0.635286
9097.000000;0.635571
9096.000000;0.635827
9095.000000;0.635926
9094.000000;0.635777
9093.000000;0.635480
9092.000000;0.635274
9091.000000;0.635309
9090.000000;0.635504
9089.000000;0.635666
9088.000000;0.635643
9087.000000;0.635388
9086.000000;0.634990
9085.000000;0.634650
9084.000000;0.634500
9083.000000;0.634422
9082.000000;0.634200
9081.000000;0.633839
9080.000000;0.633588
9079.000000;0.633622
9078.000000;0.633861
9077.000000;0.634121
9076.000000;0.634279
9075.000000;0.634263
9074.000000;0.634045
9073.000000;0.633725
9072.000000;0.633458
9071.000000;0.633246
9070.000000;0.632956
9069.000000;0.632583
9068.000000;0.632328
9067.000000;0.632345
9066.000000;0.632555
9065.000000;0.632792
9064.000000;0.632981
9063.000000;0.633101
9062.000000;0.633108
9061.000000;0.633028
9060.000000;0.633001
9059.000000;0.633118
9058.000000;0.633281
9057.000000;0.633317
9056.000000;0.633160
9055.000000;0.632880
9054.000000;0.632603
9053.000000;0.632427
9052.000000;0.632343
9051.000000;0.632216
9050.000000;0.631939
9049.000000;0.631613
9048.000000;0.631455
9047.000000;0.631519
9046.000000;0.631645
9045.000000;0.631711
9044.000000;0.631754
9043.000000;0.631802
9042.000000;0.631770
9041.000000;0.631601
9040.000000;0.631369
9039.000000;0.631125
9038.000000;0.630790
9037.000000;0.630320
9036.000000;0.629887
9035.000000;0.629759
9034.000000;0.630036
9033.000000;0.630561
9032.000000;0.631042
9031.000000;0.631225
9030.000000;0.631040
9029.000000;0.630668
9028.000000;0.630391
9027.000000;0.630332
9026.000000;0.630361
9025.000000;0.630270
9024.000000;0.629999
9023.000000;0.629677
9022.000000;0.629506
9021.000000;0.629600
9020.000000;0.629875
9019.000000;0.630092
9018.000000;0.630084
9017.000000;0.629901
9016.000000;0.629692
9015.000000;0.629518
9014.000000;0.629379
9013.000000;0.629327
9012.000000;0.629372
9011.000000;0.629343
9010.000000;0.629051
9009.000000;0.628576
9008.000000;0.628211
9007.000000;0.628111
9006.000000;0.628191
9005.000000;0.628345
9004.000000;0.628543
9003.000000;0.628685
9002.000000;0.628628
9001.000000;0.628414
9000.000000;0.628293
8999.000000;0.628386
8998.000000;0.628516
8997.000000;0.628457
8996.000000;0.628204
8995.000000;0.627897
8994.000000;0.627631
8993.000000;0.627440
8992.000000;0.627347
8991.000000;0.627328
8990.000000;0.627320
8989.000000;0.627319
8988.000000;0.627384
8987.000000;0.627494
8986.000000;0.627533
8985.000000;0.627457
8984.000000;0.627348
8983.000000;0.627247
8982.000000;0.627096
8981.000000;0.626885
8980.000000;0.626737
8979.000000;0.626748
8978.000000;0.626860
8977.000000;0.626947
8976.000000;0.626936
8975.000000;0.626797
8974.000000;0.626525
8973.000000;0.626179
8972.000000;0.625845
8971.000000;0.625547
8970.000000;0.625279
8969.000000;0.625092
8968.000000;0.625012
8967.000000;0.624906
8966.000000;0.624638
8965.000000;0.624362
8964.000000;0.624414
8963.000000;0.624864
8962.000000;0.625376
8961.000000;0.625607
8960.000000;0.625552
8959.000000;0.625390
8958.000000;0.625212
8957.000000;0.625037
8956.000000;0.624933
8955.000000;0.624935
8954.000000;0.624954
8953.000000;0.624902
8952.000000;0.624820
8951.000000;0.624784
8950.000000;0.624781
8949.000000;0.624761
8948.000000;0.624721
8947.000000;0.624644
8946.000000;0.624486
8945.000000;0.624285
8944.000000;0.624162
8943.000000;0.624135
8942.000000;0.624056
8941.000000;0.623831
8940.000000;0.623584
8939.000000;0.623492
8938.000000;0.623565
8937.000000;0.623702
8936.000000;0.623853
8935.000000;0.624008
8934.000000;0.624095
8933.000000;0.624006
8932.000000;0.623701
8931.000000;0.623251
8930.000000;0.622823
8929.000000;0.622631
8928.000000;0.622751
8927.000000;0.622960
8926.000000;0.622890
8925.000000;0.622448
8924.000000;0.621948
8923.000000;0.621755
8922.000000;0.621899
8921.000000;0.622136
8920.000000;0.622256
8919.000000;0.622215
8918.000000;0.622068
8917.000000;0.621894
8916.000000;0.621761
8915.000000;0.621683
8914.000000;0.621642
8913.000000;0.621642
8912.000000;0.621684
8911.000000;0.621687
8910.000000;0.621569
8909.000000;0.621420
8908.000000;0.621438
8907.000000;0.621640
8906.000000;0.621788
8905.000000;0.621676
8904.000000;0.621349
8903.000000;0.620981
8902.000000;0.620705
8901.000000;0.620632
8900.000000;0.620837
8899.000000;0.621196
8898.000000;0.621386
8897.000000;0.621220
8896.000000;0.620884
8895.000000;0.620681
8894.000000;0.620646
8893.000000;0.620566
8892.000000;0.620311
8891.000000;0.619978
8890.000000;0.619750
8889.000000;0.619718
8888.000000;0.619834
8887.000000;0.619930
8886.000000;0.619834
8885.000000;0.619538
8884.000000;0.619219
8883.000000;0.619035
8882.000000;0.618963
8881.000000;0.618914
8880.000000;0.618894
8879.000000;0.618934
8878.000000;0.618941
8877.000000;0.618789
8876.000000;0.618516
8875.000000;0.618322
8874.000000;0.618331
8873.000000;0.618457
8872.000000;0.618505
8871.000000;0.618365
8870.000000;0.618100
8869.000000;0.617885
8868.000000;0.617863
8867.000000;0.618038
8866.000000;0.618288
8865.000000;0.618480
8864.000000;0.618535
8863.000000;0.618412
8862.000000;0.618141
8861.000000;0.617865
8860.000000;0.617757
8859.000000;0.617846
8858.000000;0.617976
8857.000000;0.617978
8856.000000;0.617822
8855.000000;0.617592
8854.000000;0.617389
8853.000000;0.617291
8852.000000;0.617313
8851.000000;0.617375
8850.000000;0.617364
8849.000000;0.617252
8848.000000;0.617075
8847.000000;0.616828
8846.000000;0.616489
8845.000000;0.616171
8844.000000;0.616077
8843.000000;0.616261
8842.000000;0.616545
8841.000000;0.616736
8840.000000;0.616811
8839.000000;0.616827
8838.000000;0.616790
8837.000000;0.616714
8836.000000;0.616700
8835.000000;0.616809
8834.000000;0.616928
8833.000000;0.616867
8832.000000;0.616592
8831.000000;0.616266
8830.000000;0.616083
8829.000000;0.616104
8828.000000;0.616219
8827.000000;0.616234
8826.000000;0.616028
8825.000000;0.615671
8824.000000;0.615361
8823.000000;0.615231
8822.000000;0.615260
8821.000000;0.615362
8820.000000;0.615469
8819.000000;0.615516
8818.000000;0.615442
8817.000000;0.615287
8816.000000;0.615221
8815.000000;0.615398
8814.000000;0.615781
8813.000000;0.616136
8812.000000;0.616189
8811.000000;0.615830
8810.000000;0.615237
8809.000000;0.614767
8808.000000;0.614654
8807.000000;0.614798
8806.000000;0.614939
8805.000000;0.614977
8804.000000;0.615009
8803.000000;0.615071
8802.000000;0.615028
8801.000000;0.614779
8800.000000;0.614412
8799.000000;0.614072
8798.000000;0.613791
8797.000000;0.613558
8796.000000;0.613426
8795.000000;0.613448
8794.000000;0.613575
8793.000000;0.613708
8792.000000;0.613827
8791.000000;0.613964
8790.000000;0.614105
8789.000000;0.614183
8788.000000;0.614152
8787.000000;0.614023
8786.000000;0.613865
8785.000000;0.613775
8784.000000;0.613802
8783.000000;0.613878
8782.000000;0.613848
8781.000000;0.613636
8780.000000;0.613327
8779.000000;0.613093
8778.000000;0.613049
8777.000000;0.613180
8776.000000;0.613352
8775.000000;0.613406
8774.000000;0.613318
8773.000000;0.613245
8772.000000;0.613348
8771.000000;0.613595
8770.000000;0.613804
8769.000000;0.613860
8768.000000;0.613775
8767.000000;0.613585
8766.000000;0.613324
8765.000000;0.613089
8764.000000;0.613009
8763.000000;0.613085
8762.000000;0.613186
8761.000000;0.613212
8760.000000;0.613161
8759.000000;0.613043
8758.000000;0.612856
8757.000000;0.612666
8756.000000;0.612576
8755.000000;0.612588
8754.000000;0.612605
8753.000000;0.612598
8752.000000;0.612639
8751.000000;0.612742
8750.000000;0.612807
8749.000000;0.612777
8748.000000;0.612732
8747.000000;0.612752
8746.000000;0.612815
8745.000000;0.612857
8744.000000;0.612829
8743.000000;0.612668
8742.000000;0.612332
8741.000000;0.611909
8740.000000;0.611579
8739.000000;0.611410
8738.000000;0.611332
8737.000000;0.611327
8736.000000;0.611471
8735.000000;0.611732
8734.000000;0.611897
8733.000000;0.611823
8732.000000;0.611630
8731.000000;0.611524
8730.000000;0.611543
8729.000000;0.611588
8728.000000;0.611608
8727.000000;0.611629
8726.000000;0.611669
8725.000000;0.611730
8724.000000;0.611827
8723.000000;0.611944
8722.000000;0.612019
8721.000000;0.612031
8720.000000;0.612029
8719.000000;0.612010
8718.000000;0.611868
8717.000000;0.611548
8716.000000;0.611171
8715.000000;0.610897
8714.000000;0.610735
8713.000000;0.610577
8712.000000;0.610367
8711.000000;0.610160
8710.000000;0.610049
8709.000000;0.610103
8708.000000;0.610331
8707.000000;0.610634
8706.000000;0.610831
8705.000000;0.610787
8704.000000;0.610513
8703.000000;0.610137
8702.000000;0.609830
8701.000000;0.609754
8700.000000;0.609968
8699.000000;0.610351
8698.000000;0.610681
8697.000000;0.610828
8696.000000;0.610808
8695.000000;0.610648
8694.000000;0.610349
8693.000000;0.609997
8692.000000;0.609792
8691.000000;0.609838
8690.000000;0.610019
8689.000000;0.610143
8688.000000;0.610142
8687.000000;0.610057
8686.000000;0.609918
8685.000000;0.609749
8684.000000;0.609595
8683.000000;0.609459
8682.000000;0.609259
8681.000000;0.608950
8680.000000;0.608634
8679.000000;0.608471
8678.000000;0.608517
8677.000000;0.608704
8676.000000;0.608933
8675.000000;0.609106
8674.000000;0.609127
8673.000000;0.608972
8672.000000;0.608737
8671.000000;0.608550
8670.000000;0.608451
8669.000000;0.608392
8668.000000;0.608330
8667.000000;0.608260
8666.000000;0.608174
8665.000000;0.608047
8664.000000;0.607871
8663.000000;0.607673
8662.000000;0.607517
8661.000000;0.607472
8660.000000;0.607545
8659.000000;0.607653
8658.000000;0.607684
8657.000000;0.607615
8656.000000;0.607504
8655.000000;0.607387
8654.000000;0.607220
8653.000000;0.606956
8652.000000;0.606616
8651.000000;0.606286
8650.000000;0.606085
8649.000000;0.606100
8648.000000;0.606286
8647.000000;0.606456
8646.000000;0.606460
8645.000000;0.606361
8644.000000;0.606317
8643.000000;0.606322
8642.000000;0.606206
8641.000000;0.605908
8640.000000;0.605589
8639.000000;0.605403
8638.000000;0.605311
8637.000000;0.605205
8636.000000;0.605102
8635.000000;0.605102
8634.000000;0.605203
8633.000000;0.605280
8632.000000;0.605206
8631.000000;0.604949
8630.000000;0.604585
8629.000000;0.604265
8628.000000;0.604113
8627.000000;0.604109
8626.000000;0.604099
8625.000000;0.603967
8624.000000;0.603762
8623.000000;0.603636
8622.000000;0.603695
8621.000000;0.603927
8620.000000;0.604195
8619.000000;0.604296
8618.000000;0.604101
8617.000000;0.603699
8616.000000;0.603331
8615.000000;0.603131
8614.000000;0.603000
8613.000000;0.602781
8612.000000;0.602493
8611.000000;0.602302
8610.000000;0.602303
8609.000000;0.602404
8608.000000;0.602427
8607.000000;0.602274
8606.000000;0.601990
8605.000000;0.601696
8604.000000;0.601460
8603.000000;0.601271
8602.000000;0.601118
8601.000000;0.601057
8600.000000;0.601139
8599.000000;0.601308
8598.000000;0.601417
8597.000000;0.601347
8596.000000;0.601077
8595.000000;0.600663
8594.000000;0.600209
8593.000000;0.599834
8592.000000;0.599589
8591.000000;0.599409
8590.000000;0.599208
8589.000000;0.599002
8588.000000;0.598886
8587.000000;0.598901
8586.000000;0.598997
8585.000000;0.599094
8584.000000;0.599117
8583.000000;0.599001
8582.000000;0.598760
8581.000000;0.598517
8580.000000;0.598396
8579.000000;0.598377
8578.000000;0.598356
8577.000000;0.598307
8576.000000;0.598292
8575.000000;0.598326
8574.000000;0.598339
8573.000000;0.598277
8572.000000;0.598132
8571.000000;0.597894
8570.000000;0.597575
8569.000000;0.597280
8568.000000;0.597117
8567.000000;0.597047
8566.000000;0.596916
8565.000000;0.596652
8564.000000;0.596347
8563.000000;0.596127
8562.000000;0.596050
8561.000000;0.596119
8560.000000;0.596276
8559.000000;0.596386
8558.000000;0.596346
8557.000000;0.596201
8556.000000;0.596055
8555.000000;0.595889
8554.000000;0.595605
8553.000000;0.595257
8552.000000;0.595042
8551.000000;0.595028
8550.000000;0.595052
8549.000000;0.594953
8548.000000;0.594768
8547.000000;0.594608
8546.000000;0.594494
8545.000000;0.594382
8544.000000;0.594269
8543.000000;0.594165
8542.000000;0.594048
8541.000000;0.593901
8540.000000;0.593750
8539.000000;0.593608
8538.000000;0.593454
8537.000000;0.593292
8536.000000;0.593172
8535.000000;0.593115
8534.000000;0.593070
8533.000000;0.592972
8532.000000;0.592787
8531.000000;0.592515
8530.000000;0.592228
8529.000000;0.592075
8528.000000;0.592130
8527.000000;0.592246
8526.000000;0.592178
8525.000000;0.591893
8524.000000;0.591624
8523.000000;0.591567
8522.000000;0.591667
8521.000000;0.591725
8520.000000;0.591620
8519.000000;0.591365
8518.000000;0.591074
8517.000000;0.590914
8516.000000;0.590977
8515.000000;0.591127
8514.000000;0.591094
8513.000000;0.590772
8512.000000;0.590349
8511.000000;0.590063
8510.000000;0.589960
8509.000000;0.589959
8508.000000;0.590026
8507.000000;0.590159
8506.000000;0.590286
8505.000000;0.590299
8504.000000;0.590160
8503.000000;0.589906
8502.000000;0.589572
8501.000000;0.589182
8500.000000;0.588789
8499.000000;0.588464
8498.000000;0.588266
8497.000000;0.588215
8496.000000;0.588258
8495.000000;0.588255
8494.000000;0.588090
8493.000000;0.587801
8492.000000;0.587543
8491.000000;0.587410
8490.000000;0.587362
8489.000000;0.587325
8488.000000;0.587292
8487.000000;0.587271
8486.000000;0.587235
8485.000000;0.587147
8484.000000;0.586989
8483.000000;0.586769
8482.000000;0.586557
8481.000000;0.586480
8480.000000;0.586596
8479.000000;0.586760
8478.000000;0.586757
8477.000000;0.586564
8476.000000;0.586349
8475.000000;0.586213
8474.000000;0.586078
8473.000000;0.585885
8472.000000;0.585723
8471.000000;0.585671
8470.000000;0.585651
8469.000000;0.585550
8468.000000;0.585384
8467.000000;0.585251
8466.000000;0.585203
8465.000000;0.585232
8464.000000;0.585318
8463.000000;0.585401
8462.000000;0.585380
8461.000000;0.585236
8460.000000;0.585082
8459.000000;0.585010
8458.000000;0.584962
8457.000000;0.584833
8456.000000;0.584622
8455.000000;0.584400
8454.000000;0.584169
8453.000000;0.583882
8452.000000;0.583572
8451.000000;0.583376
8450.000000;0.583385
8449.000000;0.583525
8448.000000;0.583606
8447.000000;0.583487
8446.000000;0.583204
8445.000000;0.582922
8444.000000;0.582753
8443.000000;0.582638
8442.000000;0.582466
8441.000000;0.582260
8440.000000;0.582156
8439.000000;0.582204
8438.000000;0.582285
8437.000000;0.582257
8436.000000;0.582094
8435.000000;0.581854
8434.000000;0.581612
8433.000000;0.581453
8432.000000;0.581426
8431.000000;0.581461
8430.000000;0.581400
8429.000000;0.581172
8428.000000;0.580893
8427.000000;0.580731
8426.000000;0.580733
8425.000000;0.580797
8424.000000;0.580776
8423.000000;0.580579
8422.000000;0.580250
8421.000000;0.579959
8420.000000;0.579856
8419.000000;0.579905
8418.000000;0.579931
8417.000000;0.579843
8416.000000;0.579723
8415.000000;0.579666
8414.000000;0.579645
8413.000000;0.579581
8412.000000;0.579452
8411.000000;0.579275
8410.000000;0.579074
8409.000000;0.578916
8408.000000;0.578895
8407.000000;0.579003
8406.000000;0.579069
8405.000000;0.578929
8404.000000;0.578612
8403.000000;0.578310
8402.000000;0.578172
8401.000000;0.578186
8400.000000;0.578215
8399.000000;0.578124
8398.000000;0.577883
8397.000000;0.577610
8396.000000;0.577470
8395.000000;0.577515
8394.000000;0.577633
8393.000000;0.577677
8392.000000;0.577588
8391.000000;0.577391
8390.000000;0.577119
8389.000000;0.576798
8388.000000;0.576466
8387.000000;0.576176
8386.000000;0.575984
8385.000000;0.575937
8384.000000;0.576013
8383.000000;0.576100
8382.000000;0.576078
8381.000000;0.575946
8380.000000;0.575806
8379.000000;0.575734
8378.000000;0.575732
8377.000000;0.575788
8376.000000;0.575893
8375.000000;0.575972
8374.000000;0.575906
8373.000000;0.575673
8372.000000;0.575409
8371.000000;0.575273
8370.000000;0.575294
8369.000000;0.575379
8368.000000;0.575416
8367.000000;0.575343
8366.000000;0.575162
8365.000000;0.574938
8364.000000;0.574750
8363.000000;0.574621
8362.000000;0.574491
8361.000000;0.574280
8360.000000;0.573952
8359.000000;0.573549
8358.000000;0.573193
8357.000000;0.573032
8356.000000;0.573104
8355.000000;0.573265
8354.000000;0.573319
8353.000000;0.573221
8352.000000;0.573093
8351.000000;0.573040
8350.000000;0.573020
8349.000000;0.572922
8348.000000;0.572716
8347.000000;0.572491
8346.000000;0.572355
8345.000000;0.572321
8344.000000;0.572290
8343.000000;0.572170
8342.000000;0.572018
8341.000000;0.571973
8340.000000;0.572050
8339.000000;0.572079
8338.000000;0.571927
8337.000000;0.571674
8336.000000;0.571486
8335.000000;0.571389
8334.000000;0.571299
8333.000000;0.571196
8332.000000;0.571125
8331.000000;0.571049
8330.000000;0.570881
8329.000000;0.570645
8328.000000;0.570485
8327.000000;0.570472
8326.000000;0.570527
8325.000000;0.570551
8324.000000;0.570520
8323.000000;0.570456
8322.000000;0.570395
8321.000000;0.570392
8320.000000;0.570435
8319.000000;0.570406
8318.000000;0.570222
8317.000000;0.569992
8316.000000;0.569881
8315.000000;0.569840
8314.000000;0.569660
8313.000000;0.569308
8312.000000;0.569014
8311.000000;0.568961
8310.000000;0.569057
8309.000000;0.569115
8308.000000;0.569095
8307.000000;0.569062
8306.000000;0.569005
8305.000000;0.568838
8304.000000;0.568533
8303.000000;0.568176
8302.000000;0.567896
8301.000000;0.567785
8300.000000;0.567831
8299.000000;0.567919
8298.000000;0.567931
8297.000000;0.567866
8296.000000;0.567798
8295.000000;0.567746
8294.000000;0.567668
8293.000000;0.567567
8292.000000;0.567483
8291.000000;0.567391
8290.000000;0.567233
8289.000000;0.567055
8288.000000;0.566969
8287.000000;0.566961
8286.000000;0.566880
8285.000000;0.566659
8284.000000;0.566421
8283.000000;0.566291
8282.000000;0.566245
8281.000000;0.566211
8280.000000;0.566178
8279.000000;0.566143
8278.000000;0.566052
8277.000000;0.565899
8276.000000;0.565775
8275.000000;0.565735
8274.000000;0.565712
8273.000000;0.565627
8272.000000;0.565505
8271.000000;0.565396
8270.000000;0.565287
8269.000000;0.565150
8268.000000;0.565008
8267.000000;0.564871
8266.000000;0.564694
8265.000000;0.564475
8264.000000;0.564322
8263.000000;0.564326
8262.000000;0.564435
8261.000000;0.564515
8260.000000;0.564493
8259.000000;0.564367
8258.000000;0.564167
8257.000000;0.563964
8256.000000;0.563866
8255.000000;0.563921
8254.000000;0.564045
8253.000000;0.564110
8252.000000;0.564051
8251.000000;0.563866
8250.000000;0.563588
8249.000000;0.563307
8248.000000;0.563157
8247.000000;0.563170
8246.000000;0.563210
8245.000000;0.563120
8244.000000;0.562909
8243.000000;0.562717
8242.000000;0.562645
8241.000000;0.562655
8240.000000;0.562642
8239.000000;0.562538
8238.000000;0.562367
8237.000000;0.562220
8236.000000;0.562152
8235.000000;0.562111
8234.000000;0.561995
8233.000000;0.561796
8232.000000;0.561609
8231.000000;0.561508
8230.000000;0.561476
8229.000000;0.561488
8228.000000;0.561561
8227.000000;0.561687
8226.000000;0.561788
8225.000000;0.561792
8224.000000;0.561710
8223.000000;0.561596
8222.000000;0.561481
8221.000000;0.561375
8220.000000;0.561277
8219.000000;0.561166
8218.000000;0.561024
8217.000000;0.560888
8216.000000;0.560820
8215.000000;0.560797
8214.000000;0.560719
8213.000000;0.560539
8212.000000;0.560315
8211.000000;0.560114
8210.000000;0.559955
8209.000000;0.559868
8208.000000;0.559891
8207.000000;0.559965
8206.000000;0.559942
8205.000000;0.559773
8204.000000;0.559586
8203.000000;0.559511
8202.000000;0.559504
8201.000000;0.559428
8200.000000;0.559247
8199.000000;0.559049
8198.000000;0.558916
8197.000000;0.558855
8196.000000;0.558835
8195.000000;0.558822
8194.000000;0.558788
8193.000000;0.558733
8192.000000;0.558659
8191.000000;0.558529
8190.000000;0.558294
8189.000000;0.557989
8188.000000;0.557735
8187.000000;0.557611
8186.000000;0.557572
8185.000000;0.557537
8184.000000;0.557487
8183.000000;0.557442
8182.000000;0.557404
8181.000000;0.557385
8180.000000;0.557419
8179.000000;0.557492
8178.000000;0.557513
8177.000000;0.557404
8176.000000;0.557178
8175.000000;0.556895
8174.000000;0.556591
8173.000000;0.556305
8172.000000;0.556128
8171.000000;0.556139
8170.000000;0.556316
8169.000000;0.556535
8168.000000;0.556662
8167.000000;0.556637
8166.000000;0.556504
8165.000000;0.556386
8164.000000;0.556357
8163.000000;0.556352
8162.000000;0.556247
8161.000000;0.556047
8160.000000;0.555895
8159.000000;0.555877
8158.000000;0.555901
8157.000000;0.555833
8156.000000;0.555673
8155.000000;0.555510
8154.000000;0.555380
8153.000000;0.555249
8152.000000;0.555112
8151.000000;0.555006
8150.000000;0.554948
8149.000000;0.554898
8148.000000;0.554803
8147.000000;0.554636
8146.000000;0.554425
8145.000000;0.554261
8144.000000;0.554245
8143.000000;0.554390
8142.000000;0.554581
8141.000000;0.554671
8140.000000;0.554601
8139.000000;0.554415
8138.000000;0.554189
8137.000000;0.553983
8136.000000;0.553831
8135.000000;0.553737
8134.000000;0.553668
8133.000000;0.553570
8132.000000;0.553394
8131.000000;0.553137
8130.000000;0.552865
8129.000000;0.552678
8128.000000;0.552621
8127.000000;0.552634
8126.000000;0.552638
8125.000000;0.552634
8124.000000;0.552659
8123.000000;0.552705
8122.000000;0.552718
8121.000000;0.552687
8120.000000;0.552636
8119.000000;0.552555
8118.000000;0.552415
8117.000000;0.552252
8116.000000;0.552132
8115.000000;0.552050
8114.000000;0.551936
8113.000000;0.551790
8112.000000;0.551695
8111.000000;0.551695
8110.000000;0.551740
8109.000000;0.551769
8108.000000;0.551777
8107.000000;0.551758
8106.000000;0.551689
8105.000000;0.551585
8104.000000;0.551496
8103.000000;0.551408
8102.000000;0.551249
8101.000000;0.551037
8100.000000;0.550907
8099.000000;0.550931
8098.000000;0.551005
8097.000000;0.550984
8096.000000;0.550861
8095.000000;0.550730
8094.000000;0.550640
8093.000000;0.550568
8092.000000;0.550488
8091.000000;0.550385
8090.000000;0.550234
8089.000000;0.550033
8088.000000;0.549847
8087.000000;0.549760
8086.000000;0.549791
8085.000000;0.549871
8084.000000;0.549902
8083.000000;0.549820
8082.000000;0.549637
8081.000000;0.549449
8080.000000;0.549352
8079.000000;0.549357
8078.000000;0.549396
8077.000000;0.549405
8076.000000;0.549358
8075.000000;0.549244
8074.000000;0.549074
8073.000000;0.548914
8072.000000;0.548826
8071.000000;0.548785
8070.000000;0.548716
8069.000000;0.548616
8068.000000;0.548559
8067.000000;0.548558
8066.000000;0.548542
8065.000000;0.548489
8064.000000;0.548478
8063.000000;0.548552
8062.000000;0.548627
8061.000000;0.548600
8060.000000;0.548479
8059.000000;0.548345
8058.000000;0.548234
8057.000000;0.548109
8056.000000;0.547919
8055.000000;0.547649
8054.000000;0.547353
8053.000000;0.547148
8052.000000;0.547127
8051.000000;0.547240
8050.000000;0.547334
8049.000000;0.547317
8048.000000;0.547230
8047.000000;0.547146
8046.000000;0.547069
8045.000000;0.546983
8044.000000;0.546895
8043.000000;0.546793
8042.000000;0.546632
8041.000000;0.546421
8040.000000;0.546248
8039.000000;0.546172
8038.000000;0.546155
8037.000000;0.546132
8036.000000;0.546092
8035.000000;0.546030
8034.000000;0.545908
8033.000000;0.545724
8032.000000;0.545556
8031.000000;0.545472
8030.000000;0.545457
8029.000000;0.545462
8028.000000;0.545473
8027.000000;0.545473
8026.000000;0.545408
8025.000000;0.545285
8024.000000;0.545227
8023.000000;0.545345
8022.000000;0.545582
8021.000000;0.545769
8020.000000;0.545791
8019.000000;0.545657
8018.000000;0.545431
8017.000000;0.545173
8016.000000;0.544930
8015.000000;0.544724
8014.000000;0.544552
8013.000000;0.544422
8012.000000;0.544358
8011.000000;0.544341
8010.000000;0.544301
8009.000000;0.544209
8008.000000;0.544136
8007.000000;0.544164
8006.000000;0.544270
8005.000000;0.544346
8004.000000;0.544314
8003.000000;0.544175
8002.000000;0.543972
8001.000000;0.543770
8000.000000;0.543638
7999.000000;0.543606
7998.000000;0.543626
7997.000000;0.543623
7996.000000;0.543573
7995.000000;0.543526
7994.000000;0.543540
7993.000000;0.543609
7992.000000;0.543642
7991.000000;0.543527
7990.000000;0.543263
7989.000000;0.542989
7988.000000;0.542842
7987.000000;0.542790
7986.000000;0.542672
7985.000000;0.542420
7984.000000;0.542151
7983.000000;0.542022
7982.000000;0.542059
7981.000000;0.542172
7980.000000;0.542259
7979.000000;0.542262
7978.000000;0.542178
7977.000000;0.542079
7976.000000;0.542072
7975.000000;0.542172
7974.000000;0.542265
7973.000000;0.542230
7972.000000;0.542077
7971.000000;0.541916
7970.000000;0.541823
7969.000000;0.541791
7968.000000;0.541756
7967.000000;0.541654
7966.000000;0.541469
7965.000000;0.541265
7964.000000;0.541123
7963.000000;0.541050
7962.000000;0.540985
7961.000000;0.540906
7960.000000;0.540862
7959.000000;0.540869
7958.000000;0.540870
7957.000000;0.540821
7956.000000;0.540753
7955.000000;0.540675
7954.000000;0.540518
7953.000000;0.540255
7952.000000;0.539998
7951.000000;0.539882
7950.000000;0.539888
7949.000000;0.539881
7948.000000;0.539793
7947.000000;0.539678
7946.000000;0.539591
7945.000000;0.539520
7944.000000;0.539443
7943.000000;0.539390
7942.000000;0.539400
7941.000000;0.539471
7940.000000;0.539559
7939.000000;0.539615
7938.000000;0.539614
7937.000000;0.539569
7936.000000;0.539510
7935.000000;0.539432
7934.000000;0.539294
7933.000000;0.539090
7932.000000;0.538886
7931.000000;0.538749
7930.000000;0.538674
7929.000000;0.538614
7928.000000;0.538564
7927.000000;0.538564
7926.000000;0.538620
7925.000000;0.538671
7924.000000;0.538645
7923.000000;0.538527
7922.000000;0.538359
7921.000000;0.538218
7920.000000;0.538156
7919.000000;0.538148
7918.000000;0.538104
7917.000000;0.537967
7916.000000;0.537794
7915.000000;0.537697
7914.000000;0.537706
7913.000000;0.537730
7912.000000;0.537668
7911.000000;0.537526
7910.000000;0.537405
7909.000000;0.537368
7908.000000;0.537371
7907.000000;0.537322
7906.000000;0.537207
7905.000000;0.537104
7904.000000;0.537083
7903.000000;0.537123
7902.000000;0.537153
7901.000000;0.537138
7900.000000;0.537082
7899.000000;0.536991
7898.000000;0.536873
7897.000000;0.536760
7896.000000;0.536672
7895.000000;0.536572
7894.000000;0.536403
7893.000000;0.536191
7892.000000;0.536024
7891.000000;0.535939
7890.000000;0.535879
7889.000000;0.535801
7888.000000;0.535753
7887.000000;0.535809
7886.000000;0.535959
7885.000000;0.536101
7884.000000;0.536138
7883.000000;0.536048
7882.000000;0.535871
7881.000000;0.535663
7880.000000;0.535464
7879.000000;0.535293
7878.000000;0.535172
7877.000000;0.535124
7876.000000;0.535126
7875.000000;0.535087
7874.000000;0.534925
7873.000000;0.534673
7872.000000;0.534466
7871.000000;0.534409
7870.000000;0.534474
7869.000000;0.534540
7868.000000;0.534520
7867.000000;0.534434
7866.000000;0.534382
7865.000000;0.534436
7864.000000;0.534555
7863.000000;0.534615
7862.000000;0.534537
7861.000000;0.534366
7860.000000;0.534202
7859.000000;0.534099
7858.000000;0.534066
7857.000000;0.534113
7856.000000;0.534211
7855.000000;0.534249
7854.000000;0.534122
7853.000000;0.533877
7852.000000;0.533684
7851.000000;0.533652
7850.000000;0.533720
7849.000000;0.533749
7848.000000;0.533670
7847.000000;0.533517
7846.000000;0.533369
7845.000000;0.533293
7844.000000;0.533289
7843.000000;0.533287
7842.000000;0.533213
7841.000000;0.533070
7840.000000;0.532921
7839.000000;0.532815
7838.000000;0.532764
7837.000000;0.532773
7836.000000;0.532824
7835.000000;0.532850
7834.000000;0.532782
7833.000000;0.532629
7832.000000;0.532471
7831.000000;0.532362
7830.000000;0.532288
7829.000000;0.532218
7828.000000;0.532142
7827.000000;0.532054
7826.000000;0.531955
7825.000000;0.531880
7824.000000;0.531851
7823.000000;0.531831
7822.000000;0.531766
7821.000000;0.531681
7820.000000;0.531629
7819.000000;0.531587
7818.000000;0.531483
7817.000000;0.531340
7816.000000;0.531268
7815.000000;0.531295
7814.000000;0.531300
7813.000000;0.531183
7812.000000;0.530997
7811.000000;0.530854
7810.000000;0.530783
7809.000000;0.530727
7808.000000;0.530643
7807.000000;0.530531
7806.000000;0.530419
7805.000000;0.530369
7804.000000;0.530442
7803.000000;0.530604
7802.000000;0.530705
7801.000000;0.530613
7800.000000;0.530344
7799.000000;0.530020
7798.000000;0.529750
7797.000000;0.529575
7796.000000;0.529494
7795.000000;0.529482
7794.000000;0.529502
7793.000000;0.529536
7792.000000;0.529586
7791.000000;0.529637
7790.000000;0.529648
7789.000000;0.529607
7788.000000;0.529544
7787.000000;0.529493
7786.000000;0.529459
7785.000000;0.529449
7784.000000;0.529467
7783.000000;0.529471
7782.000000;0.529385
7781.000000;0.529195
7780.000000;0.528993
7779.000000;0.528867
7778.000000;0.528808
7777.000000;0.528757
7776.000000;0.528689
7775.000000;0.528616
7774.000000;0.528526
7773.000000;0.528391
7772.000000;0.528216
7771.000000;0.528047
7770.000000;0.527937
7769.000000;0.527921
7768.000000;0.527993
7767.000000;0.528090
7766.000000;0.528114
7765.000000;0.528025
7764.000000;0.527883
7763.000000;0.527794
7762.000000;0.527807
7761.000000;0.527871
7760.000000;0.527875
7759.000000;0.527728
7758.000000;0.527440
7757.000000;0.527141
7756.000000;0.526960
7755.000000;0.526899
7754.000000;0.526849
7753.000000;0.526756
7752.000000;0.526686
7751.000000;0.526709
7750.000000;0.526777
7749.000000;0.526782
7748.000000;0.526690
7747.000000;0.526551
7746.000000;0.526431
7745.000000;0.526347
7744.000000;0.526290
7743.000000;0.526239
7742.000000;0.526191
7741.000000;0.526174
7740.000000;0.526221
7739.000000;0.526304
7738.000000;0.526337
7737.000000;0.526259
7736.000000;0.526111
7735.000000;0.525991
7734.000000;0.525956
7733.000000;0.525973
7732.000000;0.525949
7731.000000;0.525803
7730.000000;0.525533
7729.000000;0.525254
7728.000000;0.525119
7727.000000;0.525179
7726.000000;0.525331
7725.000000;0.525415
7724.000000;0.525356
7723.000000;0.525198
7722.000000;0.525039
7721.000000;0.524939
7720.000000;0.524891
7719.000000;0.524839
7718.000000;0.524746
7717.000000;0.524640
7716.000000;0.524586
7715.000000;0.524611
7714.000000;0.524673
7713.000000;0.524694
7712.000000;0.524621
7711.000000;0.524455
7710.000000;0.524271
7709.000000;0.524155
7708.000000;0.524111
7707.000000;0.524030
7706.000000;0.523830
7705.000000;0.523577
7704.000000;0.523420
7703.000000;0.523408
7702.000000;0.523456
7701.000000;0.523478
7700.000000;0.523464
7699.000000;0.523418
7698.000000;0.523317
7697.000000;0.523181
7696.000000;0.523102
7695.000000;0.523139
7694.000000;0.523236
7693.000000;0.523296
7692.000000;0.523298
7691.000000;0.523281
7690.000000;0.523265
7689.000000;0.523222
7688.000000;0.523112
7687.000000;0.522917
7686.000000;0.522669
7685.000000;0.522455
7684.000000;0.522376
7683.000000;0.522444
7682.000000;0.522549
7681.000000;0.522559
7680.000000;0.522435
7679.000000;0.522243
7678.000000;0.522090
7677.000000;0.522050
7676.000000;0.522119
7675.000000;0.522210
7674.000000;0.522214
7673.000000;0.522098
7672.000000;0.521919
7671.000000;0.521751
7670.000000;0.521630
7669.000000;0.521578
7668.000000;0.521599
7667.000000;0.521625
7666.000000;0.521544
7665.000000;0.521332
7664.000000;0.521116
7663.000000;0.521034
7662.000000;0.521069
7661.000000;0.521081
7660.000000;0.520977
7659.000000;0.520811
7658.000000;0.520699
7657.000000;0.520691
7656.000000;0.520732
7655.000000;0.520730
7654.000000;0.520646
7653.000000;0.520522
7652.000000;0.520424
7651.000000;0.520365
7650.000000;0.520319
7649.000000;0.520280
7648.000000;0.520286
7647.000000;0.520361
7646.000000;0.520474
7645.000000;0.520555
7644.000000;0.520541
7643.000000;0.520411
7642.000000;0.520200
7641.000000;0.520004
7640.000000;0.519911
7639.000000;0.519924
7638.000000;0.519959
7637.000000;0.519942
7636.000000;0.519866
7635.000000;0.519764
7634.000000;0.519659
7633.000000;0.519564
7632.000000;0.519502
7631.000000;0.519486
7630.000000;0.519503
7629.000000;0.519535
7628.000000;0.519572
7627.000000;0.519594
7626.000000;0.519563
7625.000000;0.519453
7624.000000;0.519275
7623.000000;0.519068
7622.000000;0.518876
7621.000000;0.518738
7620.000000;0.518675
7619.000000;0.518664
7618.000000;0.518659
7617.000000;0.518629
7616.000000;0.518570
7615.000000;0.518478
7614.000000;0.518347
7613.000000;0.518200
7612.000000;0.518086
7611.000000;0.518041
7610.000000;0.518056
7609.000000;0.518084
7608.000000;0.518094
7607.000000;0.518093
7606.000000;0.518125
7605.000000;0.518217
7604.000000;0.518324
7603.000000;0.518355
7602.000000;0.518278
7601.000000;0.518146
7600.000000;0.517997
7599.000000;0.517792
7598.000000;0.517494
7597.000000;0.517175
7596.000000;0.516958
7595.000000;0.516893
7594.000000;0.516952
7593.000000;0.517105
7592.000000;0.517311
7591.000000;0.517452
7590.000000;0.517398
7589.000000;0.517180
7588.000000;0.516988
7587.000000;0.516973
7586.000000;0.517097
7585.000000;0.517212
7584.000000;0.517211
7583.000000;0.517091
7582.000000;0.516921
7581.000000;0.516796
7580.000000;0.516758
7579.000000;0.516752
7578.000000;0.516685
7577.000000;0.516538
7576.000000;0.516378
7575.000000;0.516264
7574.000000;0.516201
7573.000000;0.516198
7572.000000;0.516277
7571.000000;0.516397
7570.000000;0.516445
7569.000000;0.516364
7568.000000;0.516226
7567.000000;0.516142
7566.000000;0.516135
7565.000000;0.516156
7564.000000;0.516163
7563.000000;0.516153
7562.000000;0.516142
7561.000000;0.516141
7560.000000;0.516138
7559.000000;0.516093
7558.000000;0.515971
7557.000000;0.515800
7556.000000;0.515655
7555.000000;0.515568
7554.000000;0.515526
7553.000000;0.515522
7552.000000;0.515573
7551.000000;0.515651
7550.000000;0.515672
7549.000000;0.515583
7548.000000;0.515414
7547.000000;0.515229
7546.000000;0.515081
7545.000000;0.515018
7544.000000;0.515075
7543.000000;0.515215
7542.000000;0.515335
7541.000000;0.515373
7540.000000;0.515357
7539.000000;0.515342
7538.000000;0.515343
7537.000000;0.515352
7536.000000;0.515368
7535.000000;0.515365
7534.000000;0.515289
7533.000000;0.515127
7532.000000;0.514939
7531.000000;0.514788
7530.000000;0.514685
7529.000000;0.514620
7528.000000;0.514598
7527.000000;0.514605
7526.000000;0.514595
7525.000000;0.514544
7524.000000;0.514479
7523.000000;0.514427
7522.000000;0.514377
7521.000000;0.514331
7520.000000;0.514332
7519.000000;0.514413
7518.000000;0.514538
7517.000000;0.514648
7516.000000;0.514713
7515.000000;0.514725
7514.000000;0.514675
7513.000000;0.514582
7512.000000;0.514493
7511.000000;0.514432
7510.000000;0.514379
7509.000000;0.514322
7508.000000;0.514290
7507.000000;0.514297
7506.000000;0.514300
7505.000000;0.514261
7504.000000;0.514210
7503.000000;0.514182
7502.000000;0.514207
7501.000000;0.514256
7500.000000;0.514286
7499.000000;0.514254
7498.000000;0.514148
7497.000000;0.514020
7496.000000;0.513961
7495.000000;0.513991
7494.000000;0.514027
7493.000000;0.513985
7492.000000;0.513876
7491.000000;0.513785
7490.000000;0.513773
7489.000000;0.513839
7488.000000;0.513929
7487.000000;0.513964
7486.000000;0.513892
7485.000000;0.513762
7484.000000;0.513698
7483.000000;0.513767
7482.000000;0.513899
7481.000000;0.513965
7480.000000;0.513928
7479.000000;0.513864
7478.000000;0.513864
7477.000000;0.513942
7476.000000;0.514033
7475.000000;0.514051
7474.000000;0.513966
7473.000000;0.513837
7472.000000;0.513751
7471.000000;0.513734
7470.000000;0.513746
7469.000000;0.513759
7468.000000;0.513785
7467.000000;0.513819
7466.000000;0.513816
7465.000000;0.513756
7464.000000;0.513682
7463.000000;0.513645
7462.000000;0.513629
7461.000000;0.513563
7460.000000;0.513411
7459.000000;0.513218
7458.000000;0.513092
7457.000000;0.513128
7456.000000;0.513319
7455.000000;0.513536
7454.000000;0.513638
7453.000000;0.513617
7452.000000;0.513587
7451.000000;0.513627
7450.000000;0.513686
7449.000000;0.513672
7448.000000;0.513573
7447.000000;0.513454
7446.000000;0.513383
7445.000000;0.513384
7444.000000;0.513437
7443.000000;0.513502
7442.000000;0.513541
7441.000000;0.513540
7440.000000;0.513507
7439.000000;0.513450
7438.000000;0.513390
7437.000000;0.513377
7436.000000;0.513434
7435.000000;0.513503
7434.000000;0.513510
7433.000000;0.513466
7432.000000;0.513439
7431.000000;0.513433
7430.000000;0.513384
7429.000000;0.513282
7428.000000;0.513214
7427.000000;0.513240
7426.000000;0.513319
7425.000000;0.513385
7424.000000;0.513448
7423.000000;0.513557
7422.000000;0.513714
7421.000000;0.513875
7420.000000;0.513988
7419.000000;0.514003
7418.000000;0.513890
7417.000000;0.513701
7416.000000;0.513554
7415.000000;0.513513
7414.000000;0.513537
7413.000000;0.513573
7412.000000;0.513631
7411.000000;0.513710
7410.000000;0.513745
7409.000000;0.513685
7408.000000;0.513591
7407.000000;0.513569
7406.000000;0.513638
7405.000000;0.513733
7404.000000;0.513802
7403.000000;0.513847
7402.000000;0.513878
7401.000000;0.513901
7400.000000;0.513937
7399.000000;0.514001
7398.000000;0.514064
7397.000000;0.514086
7396.000000;0.514073
7395.000000;0.514064
7394.000000;0.514076
7393.000000;0.514099
7392.000000;0.514128
7391.000000;0.514169
7390.000000;0.514202
7389.000000;0.514188
7388.000000;0.514133
7387.000000;0.514087
7386.000000;0.514093
7385.000000;0.514141
7384.000000;0.514203
7383.000000;0.514280
7382.000000;0.514393
7381.000000;0.514521
7380.000000;0.514590
7379.000000;0.514538
7378.000000;0.514406
7377.000000;0.514331
7376.000000;0.514407
7375.000000;0.514569
7374.000000;0.514666
7373.000000;0.514662
7372.000000;0.514685
7371.000000;0.514860
7370.000000;0.515144
7369.000000;0.515363
7368.000000;0.515394
7367.000000;0.515271
7366.000000;0.515136
7365.000000;0.515100
7364.000000;0.515173
7363.000000;0.515290
7362.000000;0.515381
7361.000000;0.515438
7360.000000;0.515488
7359.000000;0.515548
7358.000000;0.515613
7357.000000;0.515694
7356.000000;0.515814
7355.000000;0.515964
7354.000000;0.516082
7353.000000;0.516123
7352.000000;0.516126
7351.000000;0.516203
7350.000000;0.516432
7349.000000;0.516750
7348.000000;0.516973
7347.000000;0.516958
7346.000000;0.516759
7345.000000;0.516570
7344.000000;0.516507
7343.000000;0.516511
7342.000000;0.516478
7341.000000;0.516426
7340.000000;0.516463
7339.000000;0.516626
7338.000000;0.516843
7337.000000;0.517048
7336.000000;0.517243
7335.000000;0.517444
7334.000000;0.517617
7333.000000;0.517700
7332.000000;0.517658
7331.000000;0.517524
7330.000000;0.517412
7329.000000;0.517431
7328.000000;0.517555
7327.000000;0.517610
7326.000000;0.517477
7325.000000;0.517285
7324.000000;0.517279
7323.000000;0.517530
7322.000000;0.517871
7321.000000;0.518122
7320.000000;0.518272
7319.000000;0.518411
7318.000000;0.518567
7317.000000;0.518690
7316.000000;0.518727
7315.000000;0.518683
7314.000000;0.518626
7313.000000;0.518664
7312.000000;0.518849
7311.000000;0.519104
7310.000000;0.519287
7309.000000;0.519359
7308.000000;0.519412
7307.000000;0.519527
7306.000000;0.519654
7305.000000;0.519705
7304.000000;0.519668
7303.000000;0.519608
7302.000000;0.519617
7301.000000;0.519782
7300.000000;0.520127
7299.000000;0.520543
7298.000000;0.520843
7297.000000;0.520951
7296.000000;0.520961
7295.000000;0.521002
7294.000000;0.521094
7293.000000;0.521181
7292.000000;0.521231
7291.000000;0.521247
7290.000000;0.521239
7289.000000;0.521243
7288.000000;0.521325
7287.000000;0.521498
7286.000000;0.521702
7285.000000;0.521897
7284.000000;0.522138
7283.000000;0.522470
7282.000000;0.522821
7281.000000;0.523070
7280.000000;0.523189
7279.000000;0.523250
7278.000000;0.523313
7277.000000;0.523383
7276.000000;0.523475
7275.000000;0.523634
7274.000000;0.523891
7273.000000;0.524232
7272.000000;0.524606
7271.000000;0.524939
7270.000000;0.525161
7269.000000;0.525269
7268.000000;0.525343
7267.000000;0.525469
7266.000000;0.525667
7265.000000;0.525909
7264.000000;0.526176
7263.000000;0.526470
7262.000000;0.526783
7261.000000;0.527104
7260.000000;0.527439
7259.000000;0.527788
7258.000000;0.528103
7257.000000;0.528328
7256.000000;0.528467
7255.000000;0.528604
7254.000000;0.528862
7253.000000;0.529320
7252.000000;0.529945
7251.000000;0.530579
7250.000000;0.531043
7249.000000;0.531277
7248.000000;0.531368
7247.000000;0.531459
7246.000000;0.531677
7245.000000;0.532097
7244.000000;0.532692
7243.000000;0.533305
7242.000000;0.533765
7241.000000;0.534053
7240.000000;0.534304
7239.000000;0.534614
7238.000000;0.534931
7237.000000;0.535159
7236.000000;0.535311
7235.000000;0.535531
7234.000000;0.535962
7233.000000;0.536603
7232.000000;0.537267
7231.000000;0.537710
7230.000000;0.537855
7229.000000;0.537884
7228.000000;0.538053
7227.000000;0.538441
7226.000000;0.538917
7225.000000;0.539339
7224.000000;0.539692
7223.000000;0.540030
7222.000000;0.540380
7221.000000;0.540754
7220.000000;0.541147
7219.000000;0.541510
7218.000000;0.541794
7217.000000;0.542077
7216.000000;0.542518
7215.000000;0.543150
7214.000000;0.543806
7213.000000;0.544333
7212.000000;0.544789
7211.000000;0.545323
7210.000000;0.545936
7209.000000;0.546476
7208.000000;0.546837
7207.000000;0.547071
7206.000000;0.547325
7205.000000;0.547733
7204.000000;0.548325
7203.000000;0.548999
7202.000000;0.549599
7201.000000;0.550063
7200.000000;0.550461
7199.000000;0.550878
7198.000000;0.551327
7197.000000;0.551796
7196.000000;0.552293
7195.000000;0.552803
7194.000000;0.553283
7193.000000;0.553774
7192.000000;0.554411
7191.000000;0.555246
7190.000000;0.556121
7189.000000;0.556828
7188.000000;0.557346
7187.000000;0.557848
7186.000000;0.558485
7185.000000;0.559249
7184.000000;0.560003
7183.000000;0.560614
7182.000000;0.561056
7181.000000;0.561423
7180.000000;0.561821
7179.000000;0.562290
7178.000000;0.562862
7177.000000;0.563628
7176.000000;0.564608
7175.000000;0.565593
7174.000000;0.566316
7173.000000;0.566801
7172.000000;0.567357
7171.000000;0.568155
7170.000000;0.569030
7169.000000;0.569773
7168.000000;0.570432
7167.000000;0.571161
7166.000000;0.571925
7165.000000;0.572568
7164.000000;0.573054
7163.000000;0.573464
7162.000000;0.573859
7161.000000;0.574271
7160.000000;0.574776
7159.000000;0.575404
7158.000000;0.576062
7157.000000;0.576664
7156.000000;0.577282
7155.000000;0.578049
7154.000000;0.579009
7153.000000;0.580106
7152.000000;0.581233
7151.000000;0.582214
7150.000000;0.582882
7149.000000;0.583292
7148.000000;0.583700
7147.000000;0.584237
7146.000000;0.584743
7145.000000;0.585054
7144.000000;0.585297
7143.000000;0.585722
7142.000000;0.586375
7141.000000;0.587151
7140.000000;0.588024
7139.000000;0.588990
7138.000000;0.589865
7137.000000;0.590405
7136.000000;0.590624
7135.000000;0.590815
7134.000000;0.591277
7133.000000;0.592108
7132.000000;0.593168
7131.000000;0.594108
7130.000000;0.594545
7129.000000;0.594450
7128.000000;0.594329
7127.000000;0.594771
7126.000000;0.595775
7125.000000;0.596689
7124.000000;0.596900
7123.000000;0.596483
7122.000000;0.596058
7121.000000;0.596106
7120.000000;0.596533
7119.000000;0.596918
7118.000000;0.597078
7117.000000;0.597181
7116.000000;0.597340
7115.000000;0.597400
7114.000000;0.597331
7113.000000;0.597548
7112.000000;0.598419
7111.000000;0.599610
7110.000000;0.600315
7109.000000;0.600182
7108.000000;0.599571
7107.000000;0.598887
7106.000000;0.598128
7105.000000;0.597242
7104.000000;0.596492
7103.000000;0.596126
7102.000000;0.595973
7101.000000;0.595674
7100.000000;0.595148
7099.000000;0.594617
7098.000000;0.594322
7097.000000;0.594341
7096.000000;0.594580
7095.000000;0.594838
7094.000000;0.594954
7093.000000;0.594919
7092.000000;0.594743
7091.000000;0.594328
7090.000000;0.593639
7089.000000;0.592826
7088.000000;0.591926
7087.000000;0.590726
7086.000000;0.589277
7085.000000;0.588189
7084.000000;0.587790
7083.000000;0.587299
7082.000000;0.585675
7081.000000;0.583246
7080.000000;0.581507
7079.000000;0.581124
7078.000000;0.581083
7077.000000;0.580195
7076.000000;0.578632
7075.000000;0.577384
7074.000000;0.576879
7073.000000;0.576751
7072.000000;0.576519
7071.000000;0.575919
7070.000000;0.574853
7069.000000;0.573442
7068.000000;0.571890
7067.000000;0.570139
7066.000000;0.568063
7065.000000;0.566068
7064.000000;0.564835
7063.000000;0.564232
7062.000000;0.563150
7061.000000;0.560903
7060.000000;0.558170
7059.000000;0.556021
7058.000000;0.554590
7057.000000;0.553238
7056.000000;0.551572
7055.000000;0.549721
7054.000000;0.547920
7053.000000;0.546339
7052.000000;0.545065
7051.000000;0.543897
7050.000000;0.542429
7049.000000;0.540597
7048.000000;0.538784
7047.000000;0.537168
7046.000000;0.535500
7045.000000;0.533794
7044.000000;0.532549
7043.000000;0.531811
7042.000000;0.530649
7041.000000;0.528244
7040.000000;0.524989
7039.000000;0.521850
7038.000000;0.519118
7037.000000;0.516420
7036.000000;0.513607
7035.000000;0.510940
7034.000000;0.508558
7033.000000;0.506296
7032.000000;0.503963
7031.000000;0.501437
7030.000000;0.498666
7029.000000;0.495924
7028.000000;0.493812
7027.000000;0.492563
7026.000000;0.491590
7025.000000;0.490095
7024.000000;0.487849
7023.000000;0.485065
7022.000000;0.481926
7021.000000;0.478744
7020.000000;0.476157
7019.000000;0.474482
7018.000000;0.473004
7017.000000;0.470597
7016.000000;0.467120
7015.000000;0.463751
7014.000000;0.461765
7013.000000;0.461171
7012.000000;0.460570
7011.000000;0.458366
7010.000000;0.454323
7009.000000;0.449905
7008.000000;0.446773
7007.000000;0.444976
7006.000000;0.443017
7005.000000;0.439773
7004.000000;0.435839
7003.000000;0.432578
7002.000000;0.430310
7001.000000;0.428036
7000.000000;0.424731
6999.000000;0.420422
6998.000000;0.416143
6997.000000;0.413173
6996.000000;0.412147
6995.000000;0.412421
6994.000000;0.412331
6993.000000;0.410468
6992.000000;0.406813
6991.000000;0.402498
6990.000000;0.398663
6989.000000;0.395771
6988.000000;0.393710
6987.000000;0.392031
6986.000000;0.390114
6985.000000;0.387482
6984.000000;0.384104
6983.000000;0.380324
6982.000000;0.376556
6981.000000;0.373155
6980.000000;0.370372
6979.000000;0.368222
6978.000000;0.366427
6977.000000;0.364663
6976.000000;0.362790
6975.000000;0.360742
6974.000000;0.358295
6973.000000;0.355191
6972.000000;0.351530
6971.000000;0.347919
6970.000000;0.345113
6969.000000;0.343378
6968.000000;0.342137
6967.000000;0.340387
6966.000000;0.337702
6965.000000;0.334762
6964.000000;0.332624
6963.000000;0.331487
6962.000000;0.330346
6961.000000;0.327926
6960.000000;0.323823
6959.000000;0.318728
6958.000000;0.313794
6957.000000;0.309833
6956.000000;0.306906
6955.000000;0.304577
6954.000000;0.302560
6953.000000;0.300999
6952.000000;0.299956
6951.000000;0.298909
6950.000000;0.297150
6949.000000;0.294641
6948.000000;0.292017
6947.000000;0.289696
6946.000000;0.287412
6945.000000;0.284666
6944.000000;0.281170
6943.000000;0.276810
6942.000000;0.271726
6941.000000;0.266714
6940.000000;0.263102
6939.000000;0.261693
6938.000000;0.261812
6937.000000;0.261777
6936.000000;0.260537
6935.000000;0.258581
6934.000000;0.257066
6933.000000;0.256296
6932.000000;0.255295
6931.000000;0.252963
6930.000000;0.249470
6929.000000;0.246180
6928.000000;0.244156
6927.000000;0.243057
6926.000000;0.241614
6925.000000;0.239006
6924.000000;0.235630
6923.000000;0.232560
6922.000000;0.230467
6921.000000;0.229131
6920.000000;0.227882
6919.000000;0.226370
6918.000000;0.224779
6917.000000;0.223330
6916.000000;0.221825
6915.000000;0.219953
6914.000000;0.217867
6913.000000;0.216012
6912.000000;0.214396
6911.000000;0.212510
6910.000000;0.210127
6909.000000;0.207766
6908.000000;0.205997
6907.000000;0.204628
6906.000000;0.203005
6905.000000;0.200916
6904.000000;0.198833
6903.000000;0.197314
6902.000000;0.196437
6901.000000;0.195837
6900.000000;0.195078
6899.000000;0.194023
6898.000000;0.192851
6897.000000;0.191621
6896.000000;0.189840
6895.000000;0.186942
6894.000000;0.183443
6893.000000;0.181047
6892.000000;0.180982
6891.000000;0.182496
6890.000000;0.183491
6889.000000;0.182589
6888.000000;0.180208
6887.000000;0.177648
6886.000000;0.175721
6885.000000;0.174467
6884.000000;0.173630
6883.000000;0.172863
6882.000000;0.171671
6881.000000;0.169656
6880.000000;0.166995
6879.000000;0.164542
6878.000000;0.163258
6877.000000;0.163394
6876.000000;0.164234
6875.000000;0.164694
6874.000000;0.164208
6873.000000;0.163013
6872.000000;0.161627
6871.000000;0.160243
6870.000000;0.158770
6869.000000;0.157217
6868.000000;0.155781
6867.000000;0.154587
6866.000000;0.153550
6865.000000;0.152569
6864.000000;0.151834
6863.000000;0.151831
6862.000000;0.152850
6861.000000;0.154353
6860.000000;0.155013
6859.000000;0.153829
6858.000000;0.151308
6857.000000;0.149230
6856.000000;0.149052
6855.000000;0.150603
6854.000000;0.152362
6853.000000;0.152815
6852.000000;0.151497
6851.000000;0.149021
6850.000000;0.146534
6849.000000;0.145047
6848.000000;0.144892
6847.000000;0.145645
6846.000000;0.146556
6845.000000;0.146995
6844.000000;0.146599
6843.000000;0.145345
6842.000000;0.143712
6841.000000;0.142574
6840.000000;0.142551
6839.000000;0.143446
6838.000000;0.144436
6837.000000;0.144826
6836.000000;0.144619
6835.000000;0.144447
6834.000000;0.144928
6833.000000;0.145946
6832.000000;0.146646
6831.000000;0.146362
6830.000000;0.145497
6829.000000;0.145139
6828.000000;0.145774
6827.000000;0.146782
6826.000000;0.147290
6825.000000;0.147067
6824.000000;0.146338
6823.000000;0.145188
6822.000000;0.143672
6821.000000;0.142317
6820.000000;0.141996
6819.000000;0.143173
6818.000000;0.145438
6817.000000;0.147768
6816.000000;0.149224
6815.000000;0.149580
6814.000000;0.149444
6813.000000;0.149637
6812.000000;0.150355
6811.000000;0.151092
6810.000000;0.151398
6809.000000;0.151338
6808.000000;0.151110
6807.000000;0.150712
6806.000000;0.150330
6805.000000;0.150576
6804.000000;0.151771
6803.000000;0.153213
6802.000000;0.153708
6801.000000;0.152883
6800.000000;0.151599
6799.000000;0.151089
6798.000000;0.151984
6797.000000;0.153949
6796.000000;0.155836
6795.000000;0.156442
6794.000000;0.155626
6793.000000;0.154697
6792.000000;0.155216
6791.000000;0.157356
6790.000000;0.159788
6789.000000;0.161162
6788.000000;0.161285
6787.000000;0.160808
6786.000000;0.160367
6785.000000;0.160296
6784.000000;0.160689
6783.000000;0.161342
6782.000000;0.161871
6781.000000;0.162182
6780.000000;0.162617
6779.000000;0.163403
6778.000000;0.164200
6777.000000;0.164502
6776.000000;0.164352
6775.000000;0.164339
6774.000000;0.164908
6773.000000;0.165925
6772.000000;0.166909
6771.000000;0.167526
6770.000000;0.167829
6769.000000;0.168184
6768.000000;0.168995
6767.000000;0.170362
6766.000000;0.171908
6765.000000;0.173014
6764.000000;0.173359
6763.000000;0.173256
6762.000000;0.173385
6761.000000;0.174122
6760.000000;0.175179
6759.000000;0.176002
6758.000000;0.176473
6757.000000;0.177037
6756.000000;0.178086
6755.000000;0.179465
6754.000000;0.180720
6753.000000;0.181641
6752.000000;0.182294
6751.000000;0.182692
6750.000000;0.182800
6749.000000;0.182873
6748.000000;0.183406
6747.000000;0.184548
6746.000000;0.185780
6745.000000;0.186408
6744.000000;0.186335
6743.000000;0.186182
6742.000000;0.186639
6741.000000;0.187758
6740.000000;0.188929
6739.000000;0.189550
6738.000000;0.189664
6737.000000;0.189840
6736.000000;0.190455
6735.000000;0.191298
6734.000000;0.191966
6733.000000;0.192420
6732.000000;0.192901
6731.000000;0.193502
6730.000000;0.194109
6729.000000;0.194714
6728.000000;0.195431
6727.000000;0.196204
6726.000000;0.196822
6725.000000;0.197313
6724.000000;0.197997
6723.000000;0.199011
6722.000000;0.200044
6721.000000;0.200736
6720.000000;0.201161
6719.000000;0.201666
6718.000000;0.202398
6717.000000;0.203235
6716.000000;0.204086
6715.000000;0.205003
6714.000000;0.205976
6713.000000;0.206826
6712.000000;0.207388
6711.000000;0.207696
6710.000000;0.207959
6709.000000;0.208373
6708.000000;0.208980
6707.000000;0.209660
6706.000000;0.210232
6705.000000;0.210609
6704.000000;0.210895
6703.000000;0.211317
6702.000000;0.212061
6701.000000;0.213128
6700.000000;0.214313
6699.000000;0.215350
6698.000000;0.216120
6697.000000;0.216703
6696.000000;0.217215
6695.000000;0.217650
6694.000000;0.217959
6693.000000;0.218227
6692.000000;0.218649
6691.000000;0.219313
6690.000000;0.220096
6689.000000;0.220813
6688.000000;0.221383
6687.000000;0.221843
6686.000000;0.222265
6685.000000;0.222705
6684.000000;0.223188
6683.000000;0.223733
6682.000000;0.224375
6681.000000;0.225161
6680.000000;0.226060
6679.000000;0.226936
6678.000000;0.227673
6677.000000;0.228301
6676.000000;0.228916
6675.000000;0.229519
6674.000000;0.230042
6673.000000;0.230518
6672.000000;0.231090
6671.000000;0.231815
6670.000000;0.232556
6669.000000;0.233120
6668.000000;0.233450
6667.000000;0.233673
6666.000000;0.234000
6665.000000;0.234573
6664.000000;0.235326
6663.000000;0.236015
6662.000000;0.236470
6661.000000;0.236809
6660.000000;0.237310
6659.000000;0.238060
6658.000000;0.238874
6657.000000;0.239560
6656.000000;0.240133
6655.000000;0.240709
6654.000000;0.241317
6653.000000;0.241903
6652.000000;0.242460
6651.000000;0.243021
6650.000000;0.243584
6649.000000;0.244111
6648.000000;0.244595
6647.000000;0.245062
6646.000000;0.245548
6645.000000;0.246096
6644.000000;0.246729
6643.000000;0.247390
6642.000000;0.247950
6641.000000;0.248336
6640.000000;0.248634
6639.000000;0.249039
6638.000000;0.249665
6637.000000;0.250415
6636.000000;0.251029
6635.000000;0.251302
6634.000000;0.251311
6633.000000;0.251407
6632.000000;0.251911
6631.000000;0.252820
6630.000000;0.253813
6629.000000;0.254573
6628.000000;0.255031
6627.000000;0.255342
6626.000000;0.255688
6625.000000;0.256140
6624.000000;0.256650
6623.000000;0.257135
6622.000000;0.257595
6621.000000;0.258126
6620.000000;0.258793
6619.000000;0.259521
6618.000000;0.260177
6617.000000;0.260747
6616.000000;0.261333
6615.000000;0.261976
6614.000000;0.262568
6613.000000;0.262985
6612.000000;0.263229
6611.000000;0.263407
6610.000000;0.263646
6609.000000;0.264064
6608.000000;0.264723
6607.000000;0.265548
6606.000000;0.266341
6605.000000;0.266955
6604.000000;0.267449
6603.000000;0.268005
6602.000000;0.268711
6601.000000;0.269444
6600.000000;0.269977
6599.000000;0.270202
6598.000000;0.270263
6597.000000;0.270436
6596.000000;0.270859
6595.000000;0.271400
6594.000000;0.271831
6593.000000;0.272103
6592.000000;0.272342
6591.000000;0.272626
6590.000000;0.272918
6589.000000;0.273253
6588.000000;0.273845
6587.000000;0.274833
6586.000000;0.276015
6585.000000;0.276958
6584.000000;0.277428
6583.000000;0.277596
6582.000000;0.277812
6581.000000;0.278237
6580.000000;0.278765
6579.000000;0.279245
6578.000000;0.279684
6577.000000;0.280191
6576.000000;0.280790
6575.000000;0.281361
6574.000000;0.281790
6573.000000;0.282095
6572.000000;0.282370
6571.000000;0.282664
6570.000000;0.282966
6569.000000;0.283297
6568.000000;0.283696
6567.000000;0.284136
6566.000000;0.284533
6565.000000;0.284861
6564.000000;0.285195
6563.000000;0.285612
6562.000000;0.286119
6561.000000;0.286687
6560.000000;0.287315
6559.000000;0.287984
6558.000000;0.288601
6557.000000;0.289046
6556.000000;0.289309
6555.000000;0.289528
6554.000000;0.289888
6553.000000;0.290452
6552.000000;0.291108
6551.000000;0.291683
6550.000000;0.292116
6549.000000;0.292488
6548.000000;0.292870
6547.000000;0.293209
6546.000000;0.293411
6545.000000;0.293513
6544.000000;0.293678
6543.000000;0.294008
6542.000000;0.294438
6541.000000;0.294850
6540.000000;0.295215
6539.000000;0.295605
6538.000000;0.296078
6537.000000;0.296607
6536.000000;0.297116
6535.000000;0.297555
6534.000000;0.297948
6533.000000;0.298362
6532.000000;0.298810
6531.000000;0.299219
6530.000000;0.299508
6529.000000;0.299695
6528.000000;0.299897
6527.000000;0.300206
6526.000000;0.300607
6525.000000;0.301005
6524.000000;0.301327
6523.000000;0.301581
6522.000000;0.301865
6521.000000;0.302289
6520.000000;0.302860
6519.000000;0.303457
6518.000000;0.303941
6517.000000;0.304293
6516.000000;0.304604
6515.000000;0.304946
6514.000000;0.305299
6513.000000;0.305605
6512.000000;0.305832
6511.000000;0.305998
6510.000000;0.306167
6509.000000;0.306435
6508.000000;0.306863
6507.000000;0.307401
6506.000000;0.307933
6505.000000;0.308409
6504.000000;0.308898
6503.000000;0.309459
6502.000000;0.310017
6501.000000;0.310403
6500.000000;0.310542
6499.000000;0.310561
6498.000000;0.310692
6497.000000;0.311051
6496.000000;0.311536
6495.000000;0.311942
6494.000000;0.312187
6493.000000;0.312390
6492.000000;0.312692
6491.000000;0.313084
6490.000000;0.313441
6489.000000;0.313708
6488.000000;0.313970
6487.000000;0.314324
6486.000000;0.314747
6485.000000;0.315118
6484.000000;0.315361
6483.000000;0.315526
6482.000000;0.315744
6481.000000;0.316089
6480.000000;0.316493
6479.000000;0.316807
6478.000000;0.316967
6477.000000;0.317074
6476.000000;0.317288
6475.000000;0.317670
6474.000000;0.318144
6473.000000;0.318594
6472.000000;0.318937
6471.000000;0.319154
6470.000000;0.319292
6469.000000;0.319447
6468.000000;0.319700
6467.000000;0.320066
6466.000000;0.320510
6465.000000;0.320984
6464.000000;0.321430
6463.000000;0.321794
6462.000000;0.322085
6461.000000;0.322384
6460.000000;0.322725
6459.000000;0.323018
6458.000000;0.323155
6457.000000;0.323185
6456.000000;0.323281
6455.000000;0.323533
6454.000000;0.323856
6453.000000;0.324119
6452.000000;0.324309
6451.000000;0.324515
6450.000000;0.324824
6449.000000;0.325229
6448.000000;0.325639
6447.000000;0.325937
6446.000000;0.326089
6445.000000;0.326190
6444.000000;0.326378
6443.000000;0.326687
6442.000000;0.327030
6441.000000;0.327323
6440.000000;0.327577
6439.000000;0.327857
6438.000000;0.328187
6437.000000;0.328534
6436.000000;0.328833
6435.000000;0.329047
6434.000000;0.329199
6433.000000;0.329362
6432.000000;0.329582
6431.000000;0.329832
6430.000000;0.330069
6429.000000;0.330323
6428.000000;0.330656
6427.000000;0.331062
6426.000000;0.331452
6425.000000;0.331748
6424.000000;0.331928
6423.000000;0.331992
6422.000000;0.331961
6421.000000;0.331919
6420.000000;0.332006
6419.000000;0.332297
6418.000000;0.332726
6417.000000;0.333142
6416.000000;0.333432
6415.000000;0.333603
6414.000000;0.333759
6413.000000;0.334006
6412.000000;0.334343
6411.000000;0.334659
6410.000000;0.334859
6409.000000;0.334973
6408.000000;0.335102
6407.000000;0.335273
6406.000000;0.335434
6405.000000;0.335566
6404.000000;0.335717
6403.000000;0.335916
6402.000000;0.336121
6401.000000;0.336277
6400.000000;0.336391
6399.000000;0.336509
6398.000000;0.336681
6397.000000;0.336944
6396.000000;0.337286
6395.000000;0.337614
6394.000000;0.337811
6393.000000;0.337872
6392.000000;0.337924
6391.000000;0.338086
6390.000000;0.338344
6389.000000;0.338593
6388.000000;0.338766
6387.000000;0.338893
6386.000000;0.339057
6385.000000;0.339322
6384.000000;0.339673
6383.000000;0.339999
6382.000000;0.340188
6381.000000;0.340238
6380.000000;0.340256
6379.000000;0.340342
6378.000000;0.340502
6377.000000;0.340691
6376.000000;0.340890
6375.000000;0.341104
6374.000000;0.341323
6373.000000;0.341533
6372.000000;0.341736
6371.000000;0.341951
6370.000000;0.342168
6369.000000;0.342340
6368.000000;0.342423
6367.000000;0.342438
6366.000000;0.342473
6365.000000;0.342618
6364.000000;0.342862
6363.000000;0.343090
6362.000000;0.343208
6361.000000;0.343239
6360.000000;0.343265
6359.000000;0.343316
6358.000000;0.343379
6357.000000;0.343477
6356.000000;0.343651
6355.000000;0.343873
6354.000000;0.344060
6353.000000;0.344198
6352.000000;0.344368
6351.000000;0.344616
6350.000000;0.344871
6349.000000;0.345044
6348.000000;0.345136
6347.000000;0.345219
6346.000000;0.345339
6345.000000;0.345496
6344.000000;0.345674
6343.000000;0.345842
6342.000000;0.345960
6341.000000;0.346009
6340.000000;0.346029
6339.000000;0.346078
6338.000000;0.346181
6337.000000;0.346323
6336.000000;0.346475
6335.000000;0.346613
6334.000000;0.346718
6333.000000;0.346794
6332.000000;0.346867
6331.000000;0.346960
6330.000000;0.347073
6329.000000;0.347204
6328.000000;0.347340
6327.000000;0.347450
6326.000000;0.347512
6325.000000;0.347560
6324.000000;0.347668
6323.000000;0.347877
6322.000000;0.348147
6321.000000;0.348401
6320.000000;0.348586
6319.000000;0.348682
6318.000000;0.348704
6317.000000;0.348700
6316.000000;0.348719
6315.000000;0.348770
6314.000000;0.348825
6313.000000;0.348868
6312.000000;0.348910
6311.000000;0.348967
6310.000000;0.349060
6309.000000;0.349215
6308.000000;0.349417
6307.000000;0.349583
6306.000000;0.349632
6305.000000;0.349596
6304.000000;0.349608
6303.000000;0.349742
6302.000000;0.349940
6301.000000;0.350092
6300.000000;0.350157
6299.000000;0.350160
6298.000000;0.350140
6297.000000;0.350135
6296.000000;0.350177
6295.000000;0.350267
6294.000000;0.350372
6293.000000;0.350461
6292.000000;0.350528
6291.000000;0.350565
6290.000000;0.350569
6289.000000;0.350588
6288.000000;0.350681
6287.000000;0.350833
6286.000000;0.350946
6285.000000;0.350974
6284.000000;0.350994
6283.000000;0.351109
6282.000000;0.351310
6281.000000;0.351502
6280.000000;0.351624
6279.000000;0.351689
6278.000000;0.351745
6277.000000;0.351828
6276.000000;0.351939
6275.000000;0.352036
6274.000000;0.352056
6273.000000;0.351994
6272.000000;0.351934
6271.000000;0.351956
6270.000000;0.352041
6269.000000;0.352109
6268.000000;0.352131
6267.000000;0.352153
6266.000000;0.352211
6265.000000;0.352287
6264.000000;0.352352
6263.000000;0.352408
6262.000000;0.352472
6261.000000;0.352540
6260.000000;0.352594
6259.000000;0.352625
6258.000000;0.352650
6257.000000;0.352696
6256.000000;0.352772
6255.000000;0.352853
6254.000000;0.352904
6253.000000;0.352925
6252.000000;0.352958
6251.000000;0.353040
6250.000000;0.353154
6249.000000;0.353238
6248.000000;0.353237
6247.000000;0.353147
6246.000000;0.353032
6245.000000;0.352986
6244.000000;0.353059
6243.000000;0.353200
6242.000000;0.353305
6241.000000;0.353330
6240.000000;0.353326
6239.000000;0.353356
6238.000000;0.353418
6237.000000;0.353473
6236.000000;0.353511
6235.000000;0.353535
6234.000000;0.353532
6233.000000;0.353491
6232.000000;0.353454
6231.000000;0.353485
6230.000000;0.353594
6229.000000;0.353710
6228.000000;0.353756
6227.000000;0.353725
6226.000000;0.353681
6225.000000;0.353696
6224.000000;0.353785
6223.000000;0.353898
6222.000000;0.353956
6221.000000;0.353932
6220.000000;0.353864
6219.000000;0.353820
6218.000000;0.353830
6217.000000;0.353861
6216.000000;0.353858
6215.000000;0.353794
6214.000000;0.353708
6213.000000;0.353673
6212.000000;0.353728
6211.000000;0.353839
6210.000000;0.353939
6209.000000;0.354002
6208.000000;0.354048
6207.000000;0.354102
6206.000000;0.354157
6205.000000;0.354199
6204.000000;0.354228
6203.000000;0.354241
6202.000000;0.354231
6201.000000;0.354202
6200.000000;0.354189
6199.000000;0.354220
6198.000000;0.354287
6197.000000;0.354356
6196.000000;0.354402
6195.000000;0.354420
6194.000000;0.354420
6193.000000;0.354415
6192.000000;0.354402
6191.000000;0.354361
6190.000000;0.354290
6189.000000;0.354214
6188.000000;0.354164
6187.000000;0.354131
6186.000000;0.354095
6185.000000;0.354071
6184.000000;0.354100
6183.000000;0.354168
6182.000000;0.354198
6181.000000;0.354148
6180.000000;0.354074
6179.000000;0.354072
6178.000000;0.354163
6177.000000;0.354273
6176.000000;0.354314
6175.000000;0.354265
6174.000000;0.354182
6173.000000;0.354143
6172.000000;0.354173
6171.000000;0.354223
6170.000000;0.354219
6169.000000;0.354153
6168.000000;0.354091
6167.000000;0.354089
6166.000000;0.354134
6165.000000;0.354171
6164.000000;0.354174
6163.000000;0.354167
6162.000000;0.354176
6161.000000;0.354213
6160.000000;0.354266
6159.000000;0.354316
6158.000000;0.354333
6157.000000;0.354301
6156.000000;0.354244
6155.000000;0.354221
6154.000000;0.354280
6153.000000;0.354400
6152.000000;0.354485
6151.000000;0.354451
6150.000000;0.354326
6149.000000;0.354244
6148.000000;0.354304
6147.000000;0.354447
6146.000000;0.354519
6145.000000;0.354441
6144.000000;0.354273
6143.000000;0.354123
6142.000000;0.354038
6141.000000;0.354017
6140.000000;0.354059
6139.000000;0.354153
6138.000000;0.354236
6137.000000;0.354236
6136.000000;0.354165
6135.000000;0.354126
6134.000000;0.354199
6133.000000;0.354337
6132.000000;0.354403
6131.000000;0.354323
6130.000000;0.354178
6129.000000;0.354119
6128.000000;0.354198
6127.000000;0.354307
6126.000000;0.354299
6125.000000;0.354146
6124.000000;0.353948
6123.000000;0.353812
6122.000000;0.353770
6121.000000;0.353795
6120.000000;0.353852
6119.000000;0.353915
6118.000000;0.353965
6117.000000;0.353999
6116.000000;0.354028
6115.000000;0.354061
6114.000000;0.354092
6113.000000;0.354108
6112.000000;0.354102
6111.000000;0.354070
6110.000000;0.354032
6109.000000;0.354018
6108.000000;0.354031
6107.000000;0.354021
6106.000000;0.353950
6105.000000;0.353853
6104.000000;0.353803
6103.000000;0.353815
6102.000000;0.353836
6101.000000;0.353846
6100.000000;0.353883
6099.000000;0.353969
6098.000000;0.354048
6097.000000;0.354060
6096.000000;0.354025
6095.000000;0.354011
6094.000000;0.354043
6093.000000;0.354072
6092.000000;0.354042
6091.000000;0.353955
6090.000000;0.353874
6089.000000;0.353874
6088.000000;0.353975
6087.000000;0.354105
6086.000000;0.354160
6085.000000;0.354109
6084.000000;0.354022
6083.000000;0.353993
6082.000000;0.354041
6081.000000;0.354122
6080.000000;0.354190
6079.000000;0.354227
6078.000000;0.354231
6077.000000;0.354196
6076.000000;0.354122
6075.000000;0.354016
6074.000000;0.353896
6073.000000;0.353793
6072.000000;0.353736
6071.000000;0.353717
6070.000000;0.353697
6069.000000;0.353659
6068.000000;0.353624
6067.000000;0.353617
6066.000000;0.353623
6065.000000;0.353608
6064.000000;0.353563
6063.000000;0.353516
6062.000000;0.353504
6061.000000;0.353542
6060.000000;0.353613
6059.000000;0.353680
6058.000000;0.353703
6057.000000;0.353674
6056.000000;0.353618
6055.000000;0.353572
6054.000000;0.353556
6053.000000;0.353577
6052.000000;0.353620
6051.000000;0.353656
6050.000000;0.353653
6049.000000;0.353612
6048.000000;0.353573
6047.000000;0.353574
6046.000000;0.353620
6045.000000;0.353678
6044.000000;0.353709
6043.000000;0.353695
6042.000000;0.353647
6041.000000;0.353612
6040.000000;0.353636
6039.000000;0.353719
6038.000000;0.353810
6037.000000;0.353848
6036.000000;0.353814
6035.000000;0.353738
6034.000000;0.353669
6033.000000;0.353640
6032.000000;0.353650
6031.000000;0.353670
6030.000000;0.353673
6029.000000;0.353655
6028.000000;0.353616
6027.000000;0.353550
6026.000000;0.353469
6025.000000;0.353426
6024.000000;0.353467
6023.000000;0.353565
6022.000000;0.353629
6021.000000;0.353604
6020.000000;0.353532
6019.000000;0.353496
6018.000000;0.353530
6017.000000;0.353606
6016.000000;0.353671
6015.000000;0.353694
6014.000000;0.353679
6013.000000;0.353673
6012.000000;0.353722
6011.000000;0.353820
6010.000000;0.353910
6009.000000;0.353943
6008.000000;0.353930
6007.000000;0.353904
6006.000000;0.353881
6005.000000;0.353849
6004.000000;0.353799
6003.000000;0.353733
6002.000000;0.353658
6001.000000;0.353600
6000.000000;0.353605
5999.000000;0.353701
5998.000000;0.353850
5997.000000;0.353968
5996.000000;0.353990
5995.000000;0.353918
5994.000000;0.353814
5993.000000;0.353742
5992.000000;0.353721
5991.000000;0.353718
5990.000000;0.353688
5989.000000;0.353620
5988.000000;0.353543
5987.000000;0.353500
5986.000000;0.353518
5985.000000;0.353587
5984.000000;0.353672
5983.000000;0.353732
5982.000000;0.353764
5981.000000;0.353797
5980.000000;0.353855
5979.000000;0.353924
5978.000000;0.353981
5977.000000;0.354031
5976.000000;0.354078
5975.000000;0.354098
5974.000000;0.354068
5973.000000;0.354022
5972.000000;0.354026
5971.000000;0.354103
5970.000000;0.354195
5969.000000;0.354237
5968.000000;0.354217
5967.000000;0.354168
5966.000000;0.354123
5965.000000;0.354105
5964.000000;0.354126
5963.000000;0.354179
5962.000000;0.354237
5961.000000;0.354279
5960.000000;0.354300
5959.000000;0.354304
5958.000000;0.354297
5957.000000;0.354287
5956.000000;0.354267
5955.000000;0.354209
5954.000000;0.354111
5953.000000;0.354037
5952.000000;0.354068
5951.000000;0.354199
5950.000000;0.354329
5949.000000;0.354381
5948.000000;0.354383
5947.000000;0.354413
5946.000000;0.354500
5945.000000;0.354605
5944.000000;0.354682
5943.000000;0.354714
5942.000000;0.354707
5941.000000;0.354683
5940.000000;0.354668
5939.000000;0.354675
5938.000000;0.354700
5937.000000;0.354728
5936.000000;0.354752
5935.000000;0.354773
5934.000000;0.354807
5933.000000;0.354874
5932.000000;0.354970
5931.000000;0.355039
5930.000000;0.355021
5929.000000;0.354922
5928.000000;0.354831
5927.000000;0.354830
5926.000000;0.354913
5925.000000;0.355007
5924.000000;0.355049
5923.000000;0.355034
5922.000000;0.355016
5921.000000;0.355055
5920.000000;0.355157
5919.000000;0.355258
5918.000000;0.355276
5917.000000;0.355205
5916.000000;0.355107
5915.000000;0.355037
5914.000000;0.354999
5913.000000;0.354993
5912.000000;0.355042
5911.000000;0.355139
5910.000000;0.355219
5909.000000;0.355222
5908.000000;0.355174
5907.000000;0.355156
5906.000000;0.355203
5905.000000;0.355280
5904.000000;0.355335
5903.000000;0.355357
5902.000000;0.355361
5901.000000;0.355359
5900.000000;0.355359
5899.000000;0.355363
5898.000000;0.355374
5897.000000;0.355389
5896.000000;0.355407
5895.000000;0.355419
5894.000000;0.355414
5893.000000;0.355390
5892.000000;0.355363
5891.000000;0.355346
5890.000000;0.355335
5889.000000;0.355319
5888.000000;0.355295
5887.000000;0.355264
5886.000000;0.355221
5885.000000;0.355168
5884.000000;0.355134
5883.000000;0.355153
5882.000000;0.355234
5881.000000;0.355350
5880.000000;0.355455
5879.000000;0.355520
5878.000000;0.355557
5877.000000;0.355610
5876.000000;0.355695
5875.000000;0.355762
5874.000000;0.355740
5873.000000;0.355623
5872.000000;0.355497
5871.000000;0.355455
5870.000000;0.355513
5869.000000;0.355612
5868.000000;0.355691
5867.000000;0.355729
5866.000000;0.355732
5865.000000;0.355717
5864.000000;0.355709
5863.000000;0.355729
5862.000000;0.355779
5861.000000;0.355829
5860.000000;0.355840
5859.000000;0.355800
5858.000000;0.355742
5857.000000;0.355712
5856.000000;0.355721
5855.000000;0.355734
5854.000000;0.355733
5853.000000;0.355746
5852.000000;0.355803
5851.000000;0.355868
5850.000000;0.355881
5849.000000;0.355857
5848.000000;0.355883
5847.000000;0.356006
5846.000000;0.356155
5845.000000;0.356219
5844.000000;0.356179
5843.000000;0.356122
5842.000000;0.356141
5841.000000;0.356245
5840.000000;0.356363
5839.000000;0.356413
5838.000000;0.356365
5837.000000;0.356266
5836.000000;0.356200
5835.000000;0.356222
5834.000000;0.356326
5833.000000;0.356458
5832.000000;0.356559
5831.000000;0.356600
5830.000000;0.356600
5829.000000;0.356611
5828.000000;0.356671
5827.000000;0.356750
5826.000000;0.356778
5825.000000;0.356737
5824.000000;0.356691
5823.000000;0.356718
5822.000000;0.356821
5821.000000;0.356926
5820.000000;0.356972
5819.000000;0.356971
5818.000000;0.356987
5817.000000;0.357046
5816.000000;0.357090
5815.000000;0.357041
5814.000000;0.356903
5813.000000;0.356782
5812.000000;0.356782
5811.000000;0.356887
5810.000000;0.356995
5809.000000;0.357037
5808.000000;0.357037
5807.000000;0.357038
5806.000000;0.357050
5805.000000;0.357065
5804.000000;0.357086
5803.000000;0.357111
5802.000000;0.357107
5801.000000;0.357051
5800.000000;0.356972
5799.000000;0.356931
5798.000000;0.356971
5797.000000;0.357092
5796.000000;0.357249
5795.000000;0.357375
5794.000000;0.357411
5793.000000;0.357367
5792.000000;0.357317
5791.000000;0.357320
5790.000000;0.357373
5789.000000;0.357447
5788.000000;0.357541
5787.000000;0.357670
5786.000000;0.357808
5785.000000;0.357900
5784.000000;0.357920
5783.000000;0.357896
5782.000000;0.357861
5781.000000;0.357819
5780.000000;0.357760
5779.000000;0.357698
5778.000000;0.357659
5777.000000;0.357642
5776.000000;0.357607
5775.000000;0.357514
5774.000000;0.357392
5773.000000;0.357329
5772.000000;0.357377
5771.000000;0.357488
5770.000000;0.357562
5769.000000;0.357570
5768.000000;0.357570
5767.000000;0.357626
5766.000000;0.357738
5765.000000;0.357860
5764.000000;0.357940
5763.000000;0.357926
5762.000000;0.357792
5761.000000;0.357594
5760.000000;0.357464
5759.000000;0.357482
5758.000000;0.357581
5757.000000;0.357614
5756.000000;0.357527
5755.000000;0.357416
5754.000000;0.357409
5753.000000;0.357518
5752.000000;0.357637
5751.000000;0.357667
5750.000000;0.357622
5749.000000;0.357595
5748.000000;0.357640
5747.000000;0.357708
5746.000000;0.357716
5745.000000;0.357657
5744.000000;0.357604
5743.000000;0.357613
5742.000000;0.357660
5741.000000;0.357685
5740.000000;0.357662
5739.000000;0.357606
5738.000000;0.357541
5737.000000;0.357491
5736.000000;0.357485
5735.000000;0.357529
5734.000000;0.357594
5733.000000;0.357640
5732.000000;0.357662
5731.000000;0.357687
5730.000000;0.357738
5729.000000;0.357806
5728.000000;0.357855
5727.000000;0.357855
5726.000000;0.357803
5725.000000;0.357735
5724.000000;0.357701
5723.000000;0.357724
5722.000000;0.357781
5721.000000;0.357823
5720.000000;0.357809
5719.000000;0.357725
5718.000000;0.357602
5717.000000;0.357498
5716.000000;0.357461
5715.000000;0.357481
5714.000000;0.357509
5713.000000;0.357513
5712.000000;0.357496
5711.000000;0.357480
5710.000000;0.357484
5709.000000;0.357532
5708.000000;0.357633
5707.000000;0.357739
5706.000000;0.357763
5705.000000;0.357665
5704.000000;0.357492
5703.000000;0.357330
5702.000000;0.357234
5701.000000;0.357224
5700.000000;0.357298
5699.000000;0.357424
5698.000000;0.357546
5697.000000;0.357622
5696.000000;0.357664
5695.000000;0.357696
5694.000000;0.357727
5693.000000;0.357755
5692.000000;0.357789
5691.000000;0.357814
5690.000000;0.357778
5689.000000;0.357642
5688.000000;0.357445
5687.000000;0.357273
5686.000000;0.357187
5685.000000;0.357183
5684.000000;0.357220
5683.000000;0.357254
5682.000000;0.357251
5681.000000;0.357205
5680.000000;0.357168
5679.000000;0.357212
5678.000000;0.357357
5677.000000;0.357536
5676.000000;0.357657
5675.000000;0.357698
5674.000000;0.357718
5673.000000;0.357790
5672.000000;0.357899
5671.000000;0.357952
5670.000000;0.357870
5669.000000;0.357692
5668.000000;0.357550
5667.000000;0.357549
5666.000000;0.357686
5665.000000;0.357878
5664.000000;0.358045
5663.000000;0.358161
5662.000000;0.358248
5661.000000;0.358337
5660.000000;0.358441
5659.000000;0.358547
5658.000000;0.358642
5657.000000;0.358728
5656.000000;0.358806
5655.000000;0.358858
5654.000000;0.358873
5653.000000;0.358881
5652.000000;0.358921
5651.000000;0.358976
5650.000000;0.358997
5649.000000;0.358980
5648.000000;0.358992
5647.000000;0.359078
5646.000000;0.359186
5645.000000;0.359219
5644.000000;0.359160
5643.000000;0.359098
5642.000000;0.359149
5641.000000;0.359350
5640.000000;0.359627
5639.000000;0.359856
5638.000000;0.359966
5637.000000;0.359980
5636.000000;0.359975
5635.000000;0.359989
5634.000000;0.360003
5633.000000;0.359997
5632.000000;0.359985
5631.000000;0.360005
5630.000000;0.360090
5629.000000;0.360253
5628.000000;0.360465
5627.000000;0.360657
5626.000000;0.360780
5625.000000;0.360873
5624.000000;0.361030
5623.000000;0.361276
5622.000000;0.361524
5621.000000;0.361690
5620.000000;0.361790
5619.000000;0.361894
5618.000000;0.362021
5617.000000;0.362124
5616.000000;0.362176
5615.000000;0.362203
5614.000000;0.362245
5613.000000;0.362317
5612.000000;0.362413
5611.000000;0.362528
5610.000000;0.362657
5609.000000;0.362806
5608.000000;0.362983
5607.000000;0.363177
5606.000000;0.363372
5605.000000;0.363567
5604.000000;0.363784
5603.000000;0.364012
5602.000000;0.364199
5601.000000;0.364312
5600.000000;0.364388
5599.000000;0.364494
5598.000000;0.364639
5597.000000;0.364776
5596.000000;0.364869
5595.000000;0.364938
5594.000000;0.365034
5593.000000;0.365192
5592.000000;0.365398
5591.000000;0.365585
5590.000000;0.365686
5589.000000;0.365704
5588.000000;0.365729
5587.000000;0.365843
5586.000000;0.366044
5585.000000;0.366272
5584.000000;0.366498
5583.000000;0.366743
5582.000000;0.367008
5581.000000;0.367239
5580.000000;0.367397
5579.000000;0.367521
5578.000000;0.367700
5577.000000;0.367965
5576.000000;0.368235
5575.000000;0.368385
5574.000000;0.368387
5573.000000;0.368359
5572.000000;0.368452
5571.000000;0.368690
5570.000000;0.368953
5569.000000;0.369119
5568.000000;0.369190
5567.000000;0.369260
5566.000000;0.369394
5565.000000;0.369578
5564.000000;0.369751
5563.000000;0.369868
5562.000000;0.369916
5561.000000;0.369929
5560.000000;0.369980
5559.000000;0.370118
5558.000000;0.370308
5557.000000;0.370458
5556.000000;0.370523
5555.000000;0.370552
5554.000000;0.370629
5553.000000;0.370784
5552.000000;0.370972
5551.000000;0.371140
5550.000000;0.371277
5549.000000;0.371406
5548.000000;0.371549
5547.000000;0.371707
5546.000000;0.371866
5545.000000;0.372016
5544.000000;0.372151
5543.000000;0.372271
5542.000000;0.372366
5541.000000;0.372424
5540.000000;0.372441
5539.000000;0.372445
5538.000000;0.372489
5537.000000;0.372610
5536.000000;0.372777
5535.000000;0.372918
5534.000000;0.372993
5533.000000;0.373024
5532.000000;0.373036
5531.000000;0.373027
5530.000000;0.373028
5529.000000;0.373134
5528.000000;0.373405
5527.000000;0.373737
5526.000000;0.373952
5525.000000;0.374011
5524.000000;0.374077
5523.000000;0.374309
5522.000000;0.374655
5521.000000;0.374909
5520.000000;0.374951
5519.000000;0.374861
5518.000000;0.374809
5517.000000;0.374870
5516.000000;0.374992
5515.000000;0.375075
5514.000000;0.375065
5513.000000;0.374970
5512.000000;0.374843
5511.000000;0.374755
5510.000000;0.374789
5509.000000;0.374989
5508.000000;0.375303
5507.000000;0.375595
5506.000000;0.375760
5505.000000;0.375814
5504.000000;0.375859
5503.000000;0.375960
5502.000000;0.376109
5501.000000;0.376288
5500.000000;0.376502
5499.000000;0.376717
5498.000000;0.376853
5497.000000;0.376880
5496.000000;0.376883
5495.000000;0.376986
5494.000000;0.377218
5493.000000;0.377492
5492.000000;0.377701
5491.000000;0.377805
5490.000000;0.377826
5489.000000;0.377808
5488.000000;0.377803
5487.000000;0.377849
5486.000000;0.377934
5485.000000;0.378004
5484.000000;0.378017
5483.000000;0.377983
5482.000000;0.377944
5481.000000;0.377934
5480.000000;0.377985
5479.000000;0.378142
5478.000000;0.378452
5477.000000;0.378903
5476.000000;0.379386
5475.000000;0.379740
5474.000000;0.379878
5473.000000;0.379858
5472.000000;0.379820
5471.000000;0.379854
5470.000000;0.379947
5469.000000;0.380051
5468.000000;0.380142
5467.000000;0.380201
5466.000000;0.380184
5465.000000;0.380075
5464.000000;0.379970
5463.000000;0.380023
5462.000000;0.380300
5461.000000;0.380701
5460.000000;0.381051
5459.000000;0.381255
5458.000000;0.381358
5457.000000;0.381469
5456.000000;0.381650
5455.000000;0.381868
5454.000000;0.382049
5453.000000;0.382186
5452.000000;0.382364
5451.000000;0.382672
5450.000000;0.383086
5449.000000;0.383483
5448.000000;0.383756
5447.000000;0.383910
5446.000000;0.384018
5445.000000;0.384133
5444.000000;0.384268
5443.000000;0.384441
5442.000000;0.384664
5441.000000;0.384897
5440.000000;0.385054
5439.000000;0.385112
5438.000000;0.385175
5437.000000;0.385387
5436.000000;0.385765
5435.000000;0.386140
5434.000000;0.386324
5433.000000;0.386317
5432.000000;0.386311
5431.000000;0.386488
5430.000000;0.386855
5429.000000;0.387262
5428.000000;0.387536
5427.000000;0.387608
5426.000000;0.387558
5425.000000;0.387556
5424.000000;0.387743
5423.000000;0.388133
5422.000000;0.388629
5421.000000;0.389128
5420.000000;0.389599
5419.000000;0.390041
5418.000000;0.390441
5417.000000;0.390792
5416.000000;0.391128
5415.000000;0.391463
5414.000000;0.391735
5413.000000;0.391864
5412.000000;0.391895
5411.000000;0.391987
5410.000000;0.392239
5409.000000;0.392580
5408.000000;0.392867
5407.000000;0.393070
5406.000000;0.393314
5405.000000;0.393733
5404.000000;0.394321
5403.000000;0.394940
5402.000000;0.395463
5401.000000;0.395885
5400.000000;0.396259
5399.000000;0.396603
5398.000000;0.396905
5397.000000;0.397217
5396.000000;0.397651
5395.000000;0.398247
5394.000000;0.398905
5393.000000;0.399466
5392.000000;0.399848
5391.000000;0.400098
5390.000000;0.400340
5389.000000;0.400714
5388.000000;0.401300
5387.000000;0.402030
5386.000000;0.402706
5385.000000;0.403193
5384.000000;0.403615
5383.000000;0.404232
5382.000000;0.405125
5381.000000;0.406096
5380.000000;0.406913
5379.000000;0.407568
5378.000000;0.408216
5377.000000;0.408941
5376.000000;0.409697
5375.000000;0.410443
5374.000000;0.411198
5373.000000;0.411924
5372.000000;0.412512
5371.000000;0.412959
5370.000000;0.413486
5369.000000;0.414334
5368.000000;0.415457
5367.000000;0.416557
5366.000000;0.417448
5365.000000;0.418285
5364.000000;0.419342
5363.000000;0.420630
5362.000000;0.421897
5361.000000;0.422999
5360.000000;0.424090
5359.000000;0.425389
5358.000000;0.426880
5357.000000;0.428374
5356.000000;0.429799
5355.000000;0.431275
5354.000000;0.432873
5353.000000;0.434440
5352.000000;0.435822
5351.000000;0.437199
5350.000000;0.438971
5349.000000;0.441222
5348.000000;0.443461
5347.000000;0.445068
5346.000000;0.446038
5345.000000;0.447078
5344.000000;0.448827
5343.000000;0.451075
5342.000000;0.452986
5341.000000;0.454101
5340.000000;0.454811
5339.000000;0.455918
5338.000000;0.457909
5337.000000;0.460562
5336.000000;0.463226
5335.000000;0.465477
5334.000000;0.467443
5333.000000;0.469530
5332.000000;0.471863
5331.000000;0.474084
5330.000000;0.475760
5329.000000;0.476879
5328.000000;0.477783
5327.000000;0.478765
5326.000000;0.479929
5325.000000;0.481347
5324.000000;0.483053
5323.000000;0.484826
5322.000000;0.486224
5321.000000;0.486985
5320.000000;0.487310
5319.000000;0.487545
5318.000000;0.487634
5317.000000;0.487011
5316.000000;0.485065
5315.000000;0.481749
5314.000000;0.477750
5313.000000;0.473908
5312.000000;0.470383
5311.000000;0.466416
5310.000000;0.461018
5309.000000;0.453912
5308.000000;0.445550
5307.000000;0.436171
5306.000000;0.425437
5305.000000;0.413369
5304.000000;0.400948
5303.000000;0.388878
5302.000000;0.376111
5301.000000;0.361567
5300.000000;0.348261
5299.000000;0.343922
5298.000000;0.355390
5297.000000;0.381735
5296.000000;0.412869
5295.000000;0.439720
5294.000000;0.467583
5293.000000;0.509759
5292.000000;0.568097
5291.000000;0.628461
5290.000000;0.677730
5289.000000;0.716531
5288.000000;0.750336
5287.000000;0.782703
5286.000000;0.815080
5285.000000;0.842838
5284.000000;0.857690
5283.000000;0.859055
5282.000000;0.858991
5281.000000;0.868970
5280.000000;0.887184
5279.000000;0.904637
5278.000000;0.917911
5277.000000;0.929440
5276.000000;0.940099
5275.000000;0.950898
5274.000000;0.969505
5273.000000;1.003655
5272.000000;1.045003
5271.000000;1.071594
5270.000000;1.076771
5269.000000;1.076023
5268.000000;1.080513
5267.000000;1.085900
5266.000000;1.083057
5265.000000;1.070446
5264.000000;1.050497
5263.000000;1.028198
5262.000000;1.018208
5261.000000;1.028134
5260.000000;1.038350
5259.000000;1.023771
5258.000000;0.996829
5257.000000;0.989119
5256.000000;1.015110
5255.000000;1.069324
5254.000000;1.121419
5253.000000;1.126951
5252.000000;1.090882
5251.000000;1.054085
5250.000000;1.041744
5249.000000;1.051042
5248.000000;1.054598
5247.000000;1.032606
5246.000000;0.998775
5245.000000;0.977073
5244.000000;0.978562
5243.000000;1.005466
5242.000000;1.055481
5241.000000;1.111191
5240.000000;1.132807
5239.000000;1.098954
5238.000000;1.047022
5237.000000;1.018666
5236.000000;1.016005
5235.000000;1.017350
5234.000000;1.004239
5233.000000;0.977070
5232.000000;0.953249
5231.000000;0.944715
5230.000000;0.948459
5229.000000;0.957737
5228.000000;0.973036
5227.000000;0.999425
5226.000000;1.034369
5225.000000;1.057836
5224.000000;1.047193
5223.000000;1.012538
5222.000000;0.988718
5221.000000;0.997771
5220.000000;1.030896
5219.000000;1.053111
5218.000000;1.041483
5217.000000;1.017844
5216.000000;1.013198
5215.000000;1.035246
5214.000000;1.066528
5213.000000;1.080929
5212.000000;1.078276
5211.000000;1.079666
5210.000000;1.095364
5209.000000;1.110768
5208.000000;1.100791
5207.000000;1.067524
5206.000000;1.039436
5205.000000;1.032007
5204.000000;1.026715
5203.000000;1.001871
5202.000000;0.974654
5201.000000;0.975128
5200.000000;1.009484
5199.000000;1.055982
5198.000000;1.082592
5197.000000;1.079431
5196.000000;1.058795
5195.000000;1.030339
5194.000000;0.997623
5193.000000;0.964752
5192.000000;0.940343
5191.000000;0.932125
5190.000000;0.938430
5189.000000;0.949922
5188.000000;0.961760
5187.000000;0.976499
5186.000000;0.993410
5185.000000;1.004245
5184.000000;1.000458
5183.000000;0.986117
5182.000000;0.975560
5181.000000;0.975328
5180.000000;0.978436
5179.000000;0.980667
5178.000000;0.993608
5177.000000;1.027757
5176.000000;1.070396
5175.000000;1.092079
5174.000000;1.078266
5173.000000;1.038947
5172.000000;0.988411
5171.000000;0.937704
5170.000000;0.900074
5169.000000;0.890163
5168.000000;0.915667
5167.000000;0.968144
5166.000000;1.021006
5165.000000;1.048287
5164.000000;1.051295
5163.000000;1.051973
5162.000000;1.067261
5161.000000;1.090569
5160.000000;1.093805
5159.000000;1.065262
5158.000000;1.031687
5157.000000;1.021780
5156.000000;1.038659
5155.000000;1.063925
5154.000000;1.075235
5153.000000;1.063975
5152.000000;1.035983
5151.000000;1.003015
5150.000000;0.978848
5149.000000;0.972028
5148.000000;0.977781
5147.000000;0.980555
5146.000000;0.971368
5145.000000;0.963186
5144.000000;0.974722
5143.000000;1.006862
5142.000000;1.042128
5141.000000;1.062339
5140.000000;1.065691
5139.000000;1.062774
5138.000000;1.062865
5137.000000;1.066818
5136.000000;1.066995
5135.000000;1.053697
5134.000000;1.029152
5133.000000;1.009928
5132.000000;1.009414
5131.000000;1.024023
5130.000000;1.034042
5129.000000;1.025938
5128.000000;1.009353
5127.000000;0.998525
5126.000000;0.997440
5125.000000;1.001610
5124.000000;1.004728
5123.000000;1.007112
5122.000000;1.016032
5121.000000;1.037288
5120.000000;1.067108
5119.000000;1.091374
5118.000000;1.097010
5117.000000;1.085222
5116.000000;1.070252
5115.000000;1.067974
5114.000000;1.077684
5113.000000;1.072673
5112.000000;1.035446
5111.000000;0.989459
5110.000000;0.966132
5109.000000;0.975106
5108.000000;1.000285
5107.000000;1.013915
5106.000000;1.008187
5105.000000;1.001253
5104.000000;1.006862
5103.000000;1.020658
5102.000000;1.031933
5101.000000;1.036992
5100.000000;1.038370
5099.000000;1.037649
5098.000000;1.035727
5097.000000;1.034971
5096.000000;1.035178
5095.000000;1.030562
5094.000000;1.015927
5093.000000;0.998562
5092.000000;0.992825
5091.000000;1.003039
5090.000000;1.021519
5089.000000;1.032586
5088.000000;1.022855
5087.000000;0.996986
5086.000000;0.969848
5085.000000;0.951587
5084.000000;0.946874
5083.000000;0.958591
5082.000000;0.986456
5081.000000;1.021734
5080.000000;1.047759
5079.000000;1.052501
5078.000000;1.039796
5077.000000;1.022287
5076.000000;1.008058
5075.000000;0.999103
5074.000000;0.996286
5073.000000;0.997827
5072.000000;0.995351
5071.000000;0.979650
5070.000000;0.955683
5069.000000;0.945348
5068.000000;0.967329
5067.000000;1.018909
5066.000000;1.070468
5065.000000;1.083690
5064.000000;1.052160
5063.000000;1.005799
5062.000000;0.980688
5061.000000;0.989542
5060.000000;1.005600
5059.000000;0.991032
5058.000000;0.956669
5057.000000;0.935464
5056.000000;0.936573
5055.000000;0.952747
5054.000000;0.971325
5053.000000;0.974474
5052.000000;0.954906
5051.000000;0.928507
5050.000000;0.916315
5049.000000;0.929667
5048.000000;0.965392
5047.000000;1.004887
5046.000000;1.023947
5045.000000;1.012144
5044.000000;0.980087
5043.000000;0.946474
5042.000000;0.925245
5041.000000;0.919517
5040.000000;0.921285
5039.000000;0.919537
5038.000000;0.912252
5037.000000;0.909413
5036.000000;0.919936
5035.000000;0.939351
5034.000000;0.953983
5033.000000;0.951342
5032.000000;0.929714
5031.000000;0.902738
5030.000000;0.888622
5029.000000;0.896603
5028.000000;0.918477
5027.000000;0.932253
5026.000000;0.926957
5025.000000;0.911533
5024.000000;0.893732
5023.000000;0.876739
5022.000000;0.864193
5021.000000;0.851603
5020.000000;0.831005
5019.000000;0.806610
5018.000000;0.790225
5017.000000;0.789623
5016.000000;0.804832
5015.000000;0.827120
5014.000000;0.844406
5013.000000;0.851965
5012.000000;0.851949
5011.000000;0.843490
5010.000000;0.824589
5009.000000;0.801311
5008.000000;0.784710
5007.000000;0.780088
5006.000000;0.783789
5005.000000;0.788942
5004.000000;0.792092
5003.000000;0.794186
5002.000000;0.797094
5001.000000;0.799732
5000.000000;0.796644
4999.000000;0.781772
4998.000000;0.755714
4997.000000;0.727908
4996.000000;0.709801
4995.000000;0.707505
4994.000000;0.719960
4993.000000;0.738077
4992.000000;0.744476
4991.000000;0.727846
4990.000000;0.700656
4989.000000;0.685601
4988.000000;0.693044
4987.000000;0.715654
4986.000000;0.733270
4985.000000;0.728363
4984.000000;0.704000
4983.000000;0.676836
4982.000000;0.657832
4981.000000;0.647375
4980.000000;0.639999
4979.000000;0.629745
4978.000000;0.613592
4977.000000;0.593045
4976.000000;0.573665
4975.000000;0.561873
4974.000000;0.560533
4973.000000;0.565959
4972.000000;0.569623
4971.000000;0.565530
4970.000000;0.555814
4969.000000;0.546675
4968.000000;0.540817
4967.000000;0.536420
4966.000000;0.531582
4965.000000;0.526724
4964.000000;0.522761
4963.000000;0.519648
4962.000000;0.517038
4961.000000;0.514154
4960.000000;0.508804
4959.000000;0.498778
4958.000000;0.485586
4957.000000;0.474401
4956.000000;0.467962
4955.000000;0.462962
4954.000000;0.454038
4953.000000;0.440148
4952.000000;0.425815
4951.000000;0.416352
4950.000000;0.413533
4949.000000;0.415027
4948.000000;0.416529
4947.000000;0.415473
4946.000000;0.413443
4945.000000;0.413355
4944.000000;0.413681
4943.000000;0.408333
4942.000000;0.393652
4941.000000;0.373686
4940.000000;0.357157
4939.000000;0.349238
4938.000000;0.347351
4937.000000;0.344189
4936.000000;0.334218
4935.000000;0.318902
4934.000000;0.304914
4933.000000;0.296422
4932.000000;0.290536
4931.000000;0.280745
4930.000000;0.264837
4929.000000;0.247924
4928.000000;0.236589
4927.000000;0.232470
4926.000000;0.232267
4925.000000;0.231614
4924.000000;0.227596
4923.000000;0.219027
4922.000000;0.207039
4921.000000;0.195636
4920.000000;0.188949
4919.000000;0.187212
4918.000000;0.186171
4917.000000;0.180459
4916.000000;0.168489
4915.000000;0.153703
4914.000000;0.140512
4913.000000;0.130181
4912.000000;0.120360
4911.000000;0.108107
4910.000000;0.093879
4909.000000;0.081741
4908.000000;0.074863
4907.000000;0.071817
4906.000000;0.068055
4905.000000;0.060784
4904.000000;0.051538
4903.000000;0.043517
4902.000000;0.037504
4901.000000;0.030778
4900.000000;0.019862
4899.000000;0.004748
4898.000000;-0.010289
4897.000000;-0.020755
4896.000000;-0.026116
4895.000000;-0.029608
4894.000000;-0.034574
4893.000000;-0.041514
4892.000000;-0.048558
4891.000000;-0.054051
4890.000000;-0.057968
4889.000000;-0.061279
4888.000000;-0.064840
4887.000000;-0.068843
4886.000000;-0.072609
4885.000000;-0.075047
4884.000000;-0.076287
4883.000000;-0.078537
4882.000000;-0.083945
4881.000000;-0.091629
4880.000000;-0.098231
4879.000000;-0.101764
4878.000000;-0.103932
4877.000000;-0.108120
4876.000000;-0.115555
4875.000000;-0.123987
4874.000000;-0.129937
4873.000000;-0.131744
4872.000000;-0.130874
4871.000000;-0.130462
4870.000000;-0.131793
4869.000000;-0.132615
4868.000000;-0.130058
4867.000000;-0.124630
4866.000000;-0.120073
4865.000000;-0.119230
4864.000000;-0.121512
4863.000000;-0.124803
4862.000000;-0.128024
4861.000000;-0.130787
4860.000000;-0.132113
4859.000000;-0.131247
4858.000000;-0.129047
4857.000000;-0.127124
4856.000000;-0.125826
4855.000000;-0.124166
4854.000000;-0.121611
4853.000000;-0.118907
4852.000000;-0.116979
4851.000000;-0.115764
4850.000000;-0.114427
4849.000000;-0.112345
4848.000000;-0.109614
4847.000000;-0.106741
4846.000000;-0.104036
4845.000000;-0.101523
4844.000000;-0.099530
4843.000000;-0.098758
4842.000000;-0.099151
4841.000000;-0.099121
4840.000000;-0.096833
4839.000000;-0.092272
4838.000000;-0.087390
4837.000000;-0.084107
4836.000000;-0.082528
4835.000000;-0.081216
4834.000000;-0.078705
4833.000000;-0.074601
4832.000000;-0.069776
4831.000000;-0.065595
4830.000000;-0.062464
4829.000000;-0.059361
4828.000000;-0.055332
4827.000000;-0.050925
4826.000000;-0.047209
4825.000000;-0.043906
4824.000000;-0.039959
4823.000000;-0.035820
4822.000000;-0.033472
4821.000000;-0.033632
4820.000000;-0.034300
4819.000000;-0.032931
4818.000000;-0.028994
4817.000000;-0.023768
4816.000000;-0.018610
4815.000000;-0.014220
4814.000000;-0.010775
4813.000000;-0.007956
4812.000000;-0.005156
4811.000000;-0.002118
4810.000000;0.000896
4809.000000;0.003841
4808.000000;0.007122
4807.000000;0.010707
4806.000000;0.013773
4805.000000;0.015966
4804.000000;0.018351
4803.000000;0.022175
4802.000000;0.026955
4801.000000;0.030537
4800.000000;0.031338
4799.000000;0.030210
4798.000000;0.029776
4797.000000;0.032174
4796.000000;0.037387
4795.000000;0.043280
4794.000000;0.047354
4793.000000;0.048884
4792.000000;0.049338
4791.000000;0.050729
4790.000000;0.053912
4789.000000;0.058310
4788.000000;0.062615
4787.000000;0.065647
4786.000000;0.067101
4785.000000;0.067825
4784.000000;0.069105
4783.000000;0.071482
4782.000000;0.074430
4781.000000;0.077184
4780.000000;0.079475
4779.000000;0.081418
4778.000000;0.083181
4777.000000;0.085013
4776.000000;0.087302
4775.000000;0.090288
4774.000000;0.093751
4773.000000;0.097138
4772.000000;0.099938
4771.000000;0.101848
4770.000000;0.102917
4769.000000;0.103782
4768.000000;0.105452
4767.000000;0.108432
4766.000000;0.111997
4765.000000;0.114604
4764.000000;0.115296
4763.000000;0.114758
4762.000000;0.114820
4761.000000;0.116757
4760.000000;0.120071
4759.000000;0.123035
4758.000000;0.124503
4757.000000;0.125024
4756.000000;0.125963
4755.000000;0.127905
4754.000000;0.130409
4753.000000;0.132957
4752.000000;0.135415
4751.000000;0.137559
4750.000000;0.138875
4749.000000;0.139222
4748.000000;0.139309
4747.000000;0.140158
4746.000000;0.142146
4745.000000;0.144669
4744.000000;0.146686
4743.000000;0.147662
4742.000000;0.148155
4741.000000;0.149419
4740.000000;0.152181
4739.000000;0.155821
4738.000000;0.159056
4737.000000;0.161331
4736.000000;0.163113
4735.000000;0.164896
4734.000000;0.166622
4733.000000;0.168198
4732.000000;0.169857
4731.000000;0.171575
4730.000000;0.172660
4729.000000;0.172580
4728.000000;0.171973
4727.000000;0.172211
4726.000000;0.173940
4725.000000;0.176400
4724.000000;0.178244
4723.000000;0.178889
4722.000000;0.178973
4721.000000;0.179565
4720.000000;0.181078
4719.000000;0.182994
4718.000000;0.184562
4717.000000;0.185573
4716.000000;0.186306
4715.000000;0.187056
4714.000000;0.188085
4713.000000;0.189804
4712.000000;0.192354
4711.000000;0.194950
4710.000000;0.196292
4709.000000;0.196020
4708.000000;0.195381
4707.000000;0.195974
4706.000000;0.198113
4705.000000;0.200701
4704.000000;0.202453
4703.000000;0.202945
4702.000000;0.202698
4701.000000;0.202646
4700.000000;0.203525
4699.000000;0.205398
4698.000000;0.207637
4697.000000;0.209484
4696.000000;0.210669
4695.000000;0.211482
4694.000000;0.212374
4693.000000;0.213614
4692.000000;0.215211
4691.000000;0.216925
4690.000000;0.218387
4689.000000;0.219353
4688.000000;0.219871
4687.000000;0.220135
4686.000000;0.220288
4685.000000;0.220433
4684.000000;0.220685
4683.000000;0.221054
4682.000000;0.221378
4681.000000;0.221539
4680.000000;0.221718
4679.000000;0.222294
4678.000000;0.223473
4677.000000;0.225094
4676.000000;0.226796
4675.000000;0.228333
4674.000000;0.229727
4673.000000;0.231136
4672.000000;0.232570
4671.000000;0.233774
4670.000000;0.234480
4669.000000;0.234738
4668.000000;0.234904
4667.000000;0.235285
4666.000000;0.235898
4665.000000;0.236564
4664.000000;0.237125
4663.000000;0.237578
4662.000000;0.238094
4661.000000;0.238901
4660.000000;0.240031
4659.000000;0.241179
4658.000000;0.241991
4657.000000;0.242478
4656.000000;0.243018
4655.000000;0.243928
4654.000000;0.245150
4653.000000;0.246342
4652.000000;0.247138
4651.000000;0.247423
4650.000000;0.247505
4649.000000;0.247963
4648.000000;0.249044
4647.000000;0.250255
4646.000000;0.250831
4645.000000;0.250676
4644.000000;0.250519
4643.000000;0.251013
4642.000000;0.252039
4641.000000;0.253047
4640.000000;0.253761
4639.000000;0.254283
4638.000000;0.254749
4637.000000;0.255205
4636.000000;0.255714
4635.000000;0.256344
4634.000000;0.257070
4633.000000;0.257831
4632.000000;0.258603
4631.000000;0.259318
4630.000000;0.259842
4629.000000;0.260206
4628.000000;0.260751
4627.000000;0.261815
4626.000000;0.263270
4625.000000;0.264481
4624.000000;0.264824
4623.000000;0.264280
4622.000000;0.263562
4621.000000;0.263582
4620.000000;0.264623
4619.000000;0.265959
4618.000000;0.266485
4617.000000;0.265885
4616.000000;0.265059
4615.000000;0.265262
4614.000000;0.266897
4613.000000;0.269168
4612.000000;0.270791
4611.000000;0.271025
4610.000000;0.270147
4609.000000;0.269080
4608.000000;0.268612
4607.000000;0.268921
4606.000000;0.269772
4605.000000;0.270969
4604.000000;0.272403
4603.000000;0.273756
4602.000000;0.274553
4601.000000;0.274673
4600.000000;0.274544
4599.000000;0.274635
4598.000000;0.274950
4597.000000;0.275218
4596.000000;0.275411
4595.000000;0.275807
4594.000000;0.276566
4593.000000;0.277509
4592.000000;0.278346
4591.000000;0.278956
4590.000000;0.279415
4589.000000;0.279821
4588.000000;0.280172
4587.000000;0.280376
4586.000000;0.280395
4585.000000;0.280329
4584.000000;0.280313
4583.000000;0.280349
4582.000000;0.280357
4581.000000;0.280393
4580.000000;0.280653
4579.000000;0.281193
4578.000000;0.281827
4577.000000;0.282410
4576.000000;0.283033
4575.000000;0.283777
4574.000000;0.284409
4573.000000;0.284562
4572.000000;0.284213
4571.000000;0.283824
4570.000000;0.283972
4569.000000;0.284836
4568.000000;0.285996
4567.000000;0.286684
4566.000000;0.286386
4565.000000;0.285344
4564.000000;0.284426
4563.000000;0.284374
4562.000000;0.285205
4561.000000;0.286319
4560.000000;0.287108
4559.000000;0.287385
4558.000000;0.287374
4557.000000;0.287450
4556.000000;0.287860
4555.000000;0.288540
4554.000000;0.289159
4553.000000;0.289432
4552.000000;0.289411
4551.000000;0.289442
4550.000000;0.289799
4549.000000;0.290370
4548.000000;0.290702
4547.000000;0.290401
4546.000000;0.289532
4545.000000;0.288612
4544.000000;0.288139
4543.000000;0.288190
4542.000000;0.288552
4541.000000;0.289089
4540.000000;0.289776
4539.000000;0.290447
4538.000000;0.290852
4537.000000;0.291065
4536.000000;0.291521
4535.000000;0.292448
4534.000000;0.293450
4533.000000;0.293886
4532.000000;0.293574
4531.000000;0.292918
4530.000000;0.292403
4529.000000;0.292174
4528.000000;0.292125
4527.000000;0.292186
4526.000000;0.292443
4525.000000;0.292953
4524.000000;0.293532
4523.000000;0.293820
4522.000000;0.293695
4521.000000;0.293542
4520.000000;0.293878
4519.000000;0.294679
4518.000000;0.295299
4517.000000;0.295231
4516.000000;0.294803
4515.000000;0.294847
4514.000000;0.295754
4513.000000;0.297033
4512.000000;0.297792
4511.000000;0.297517
4510.000000;0.296406
4509.000000;0.295138
4508.000000;0.294415
4507.000000;0.294566
4506.000000;0.295358
4505.000000;0.296101
4504.000000;0.296117
4503.000000;0.295391
4502.000000;0.294744
4501.000000;0.295069
4500.000000;0.296259
4499.000000;0.297149
4498.000000;0.296808
4497.000000;0.295735
4496.000000;0.295348
4495.000000;0.296350
4494.000000;0.297995
4493.000000;0.299006
4492.000000;0.298897
4491.000000;0.298241
4490.000000;0.297881
4489.000000;0.298103
4488.000000;0.298445
4487.000000;0.298226
4486.000000;0.297378
4485.000000;0.296725
4484.000000;0.297160
4483.000000;0.298519
4482.000000;0.299612
4481.000000;0.299517
4480.000000;0.298488
4479.000000;0.297351
4478.000000;0.296453
4477.000000;0.295627
4476.000000;0.294916
4475.000000;0.294777
4474.000000;0.295508
4473.000000;0.296828
4472.000000;0.298107
4471.000000;0.298813
4470.000000;0.298746
4469.000000;0.298111
4468.000000;0.297429
4467.000000;0.297209
4466.000000;0.297530
4465.000000;0.297966
4464.000000;0.297992
4463.000000;0.297513
4462.000000;0.296986
4461.000000;0.297003
4460.000000;0.297643
4459.000000;0.298286
4458.000000;0.298204
4457.000000;0.297419
4456.000000;0.296819
4455.000000;0.297300
4454.000000;0.298866
4453.000000;0.300597
4452.000000;0.301410
4451.000000;0.300852
4450.000000;0.299351
4449.000000;0.297867
4448.000000;0.297203
4447.000000;0.297494
4446.000000;0.298225
4445.000000;0.298700
4444.000000;0.298478
4443.000000;0.297575
4442.000000;0.296506
4441.000000;0.296070
4440.000000;0.296700
4439.000000;0.297869
4438.000000;0.298470
4437.000000;0.298012
4436.000000;0.297192
4435.000000;0.297094
4434.000000;0.298062
4433.000000;0.299577
4432.000000;0.300901
4431.000000;0.301533
4430.000000;0.301255
4429.000000;0.300261
4428.000000;0.299225
4427.000000;0.298835
4426.000000;0.299079
4425.000000;0.299194
4424.000000;0.298487
4423.000000;0.297124
4422.000000;0.295968
4421.000000;0.295637
4420.000000;0.295822
4419.000000;0.295620
4418.000000;0.294609
4417.000000;0.293452
4416.000000;0.293242
4415.000000;0.294285
4414.000000;0.295771
4413.000000;0.296694
4412.000000;0.296858
4411.000000;0.296810
4410.000000;0.297010
4409.000000;0.297292
4408.000000;0.297112
4407.000000;0.296219
4406.000000;0.295086
4405.000000;0.294590
4404.000000;0.295107
4403.000000;0.295972
4402.000000;0.296109
4401.000000;0.295197
4400.000000;0.293899
4399.000000;0.292939
4398.000000;0.292397
4397.000000;0.291997
4396.000000;0.291615
4395.000000;0.291157
4394.000000;0.290391
4393.000000;0.289416
4392.000000;0.288949
4391.000000;0.289562
4390.000000;0.290698
4389.000000;0.290935
4388.000000;0.289453
4387.000000;0.286939
4386.000000;0.284794
4385.000000;0.283671
4384.000000;0.282984
4383.000000;0.281825
4382.000000;0.280340
4381.000000;0.279821
4380.000000;0.281107
4379.000000;0.283271
4378.000000;0.284380
4377.000000;0.283555
4376.000000;0.281697
4375.000000;0.279967
4374.000000;0.278415
4373.000000;0.276612
4372.000000;0.274879
4371.000000;0.273984
4370.000000;0.273760
4369.000000;0.272909
4368.000000;0.270509
4367.000000;0.267235
4366.000000;0.264773
4365.000000;0.264226
4364.000000;0.265156
4363.000000;0.265967
4362.000000;0.265272
4361.000000;0.263148
4360.000000;0.260988
4359.000000;0.260023
4358.000000;0.260171
4357.000000;0.260406
4356.000000;0.259993
4355.000000;0.259196
4354.000000;0.258944
4353.000000;0.259927
4352.000000;0.261721
4351.000000;0.262562
4350.000000;0.260469
4349.000000;0.255302
4348.000000;0.249641
4347.000000;0.246837
4346.000000;0.248057
4345.000000;0.251366
4344.000000;0.253493
4343.000000;0.252534
4342.000000;0.249267
4341.000000;0.246119
4340.000000;0.245059
4339.000000;0.246197
4338.000000;0.247805
4337.000000;0.247604
4336.000000;0.244447
4335.000000;0.239170
4334.000000;0.233935
4333.000000;0.230599
4332.000000;0.229284
4331.000000;0.228212
4330.000000;0.225381
4329.000000;0.220930
4328.000000;0.217395
4327.000000;0.217155
4326.000000;0.219937
4325.000000;0.222859
4324.000000;0.222730
4323.000000;0.218493
4322.000000;0.211885
4321.000000;0.206021
4320.000000;0.203228
4319.000000;0.203661
4318.000000;0.205612
4317.000000;0.207129
4316.000000;0.207322
4315.000000;0.206358
4314.000000;0.205047
4313.000000;0.204945
4312.000000;0.208022
4311.000000;0.214857
4310.000000;0.222803
4309.000000;0.226556
4308.000000;0.222195
4307.000000;0.211704
4306.000000;0.202035
4305.000000;0.198839
4304.000000;0.201659
4303.000000;0.204822
4302.000000;0.203509
4301.000000;0.199145
4300.000000;0.196740
4299.000000;0.198078
4298.000000;0.200148
4297.000000;0.199197
4296.000000;0.194624
4295.000000;0.189213
4294.000000;0.187111
4293.000000;0.191256
4292.000000;0.200346
4291.000000;0.207978
4290.000000;0.207690
4289.000000;0.200053
4288.000000;0.192177
4287.000000;0.189614
4286.000000;0.191281
4285.000000;0.192607
4284.000000;0.191719
4283.000000;0.190578
4282.000000;0.191153
4281.000000;0.193228
4280.000000;0.195992
4279.000000;0.199526
4278.000000;0.203807
4277.000000;0.208121
4276.000000;0.212361
4275.000000;0.217644
4274.000000;0.224613
4273.000000;0.231586
4272.000000;0.236201
4271.000000;0.239102
4270.000000;0.243868
4269.000000;0.253176
4268.000000;0.265810
4267.000000;0.276837
4266.000000;0.281546
4265.000000;0.280301
4264.000000;0.278501
4263.000000;0.281823
4262.000000;0.291555
4261.000000;0.304551
4260.000000;0.317169
4259.000000;0.326402
4258.000000;0.329851
4257.000000;0.328934
4256.000000;0.329294
4255.000000;0.335672
4254.000000;0.347668
4253.000000;0.361244
4252.000000;0.374002
4251.000000;0.387398
4250.000000;0.403434
4249.000000;0.420455
4248.000000;0.433217
4247.000000;0.438354
4246.000000;0.438965
4245.000000;0.441182
4244.000000;0.447357
4243.000000;0.454482
4242.000000;0.458349
4241.000000;0.458629
4240.000000;0.459619
4239.000000;0.466419
4238.000000;0.481951
4237.000000;0.505838
4236.000000;0.533326
4235.000000;0.556604
4234.000000;0.570543
4233.000000;0.576537
4232.000000;0.578983
4231.000000;0.581284
4230.000000;0.586650
4229.000000;0.598208
4228.000000;0.614478
4227.000000;0.627330
4226.000000;0.631184
4225.000000;0.633630
4224.000000;0.648775
4223.000000;0.680330
4222.000000;0.715012
4221.000000;0.735496
4220.000000;0.738211
4219.000000;0.734442
4218.000000;0.739506
4217.000000;0.757085
4216.000000;0.773114
4215.000000;0.773214
4214.000000;0.767462
4213.000000;0.781038
4212.000000;0.826435
4211.000000;0.889282
4210.000000;0.932225
4209.000000;0.933332
4208.000000;0.915843
4207.000000;0.908394
4206.000000;0.909002
4205.000000;0.896050
4204.000000;0.865610
4203.000000;0.840541
4202.000000;0.841007
4201.000000;0.865671
4200.000000;0.895916
4199.000000;0.920453
4198.000000;0.949165
4197.000000;0.993901
4196.000000;1.048335
4195.000000;1.091584
4194.000000;1.113636
4193.000000;1.117872
4192.000000;1.119179
4191.000000;1.128924
4190.000000;1.113378
4189.000000;1.054547
4188.000000;1.004423
4187.000000;1.000541
4186.000000;1.034437
4185.000000;1.067098
4184.000000;1.086229
4183.000000;1.108416
4182.000000;1.132304
4181.000000;1.150876
4180.000000;1.157851
4179.000000;1.148543
4178.000000;1.127368
4177.000000;1.106064
4176.000000;1.097115
4175.000000;1.108516
4174.000000;1.140022
4173.000000;1.181107
4172.000000;1.212340
4171.000000;1.224006
4170.000000;1.235718
4169.000000;1.257231
4168.000000;1.261741
4167.000000;1.234067
4166.000000;1.208498
4165.000000;1.228760
4164.000000;1.306106
4163.000000;1.365497
4162.000000;1.347239
4161.000000;1.348112
4160.000000;1.402119
4159.000000;1.474179
4158.000000;1.475982
4157.000000;1.407513
4156.000000;1.392348
4155.000000;1.432605
4154.000000;1.435000
4153.000000;1.393542
4152.000000;1.346631
4151.000000;1.292228
4150.000000;1.233446
4149.000000;1.179680
4148.000000;1.141579
4147.000000;1.130898
4146.000000;1.159047
4145.000000;1.230976
4144.000000;1.329640
4143.000000;1.401561
4142.000000;1.405614
4141.000000;1.360891
4140.000000;1.319210
4139.000000;1.334080
4138.000000;1.408309
4137.000000;1.475121
4136.000000;1.503090
4135.000000;1.470416
4134.000000;1.405732
4133.000000;1.404898
4132.000000;1.411659
4131.000000;1.384135
4130.000000;1.413000
4129.000000;1.607422
4128.000000;1.854464
4127.000000;1.660238
4126.000000;1.491563
4125.000000;1.416063
4124.000000;1.358448
4123.000000;1.342385
4122.000000;1.370108
4121.000000;1.427266
4120.000000;1.490956
4119.000000;1.545849
4118.000000;1.577185
4117.000000;1.571778
4116.000000;1.555841
4115.000000;1.565539
4114.000000;1.609446
4113.000000;1.658618
4112.000000;1.679608
4111.000000;1.723608
4110.000000;1.888168
4109.000000;2.339987
4108.000000;2.143340
4107.000000;1.698134
4106.000000;1.622330
4105.000000;1.637850
4104.000000;1.477991
4103.000000;1.291564
4102.000000;1.228925
4101.000000;1.266809
4100.000000;1.379636
4099.000000;1.487482
4098.000000;1.517545
4097.000000;1.533558
4096.000000;1.599428
4095.000000;1.746632
4094.000000;1.969660
4093.000000;2.000332
4092.000000;2.017879
4091.000000;2.088161
4090.000000;2.007958
4089.000000;1.829464
4088.000000;1.597821
4087.000000;1.510042
4086.000000;1.598635
4085.000000;1.872324
4084.000000;2.361581
4083.000000;2.225992
4082.000000;1.788863
4081.000000;1.649359
4080.000000;1.620453
4079.000000;1.599568
4078.000000;1.592032
4077.000000;1.719725
4076.000000;1.905950
4075.000000;1.820863
4074.000000;1.735636
4073.000000;1.748550
4072.000000;1.822656
4071.000000;2.003609
4070.000000;2.339866
4069.000000;2.337971
4068.000000;1.873579
4067.000000;1.726747
4066.000000;1.772372
4065.000000;1.732523
4064.000000;1.710032
4063.000000;1.851287
4062.000000;2.062419
4061.000000;2.217253
4060.000000;2.371629
4059.000000;2.331963
4058.000000;2.171882
4057.000000;2.142323
4056.000000;2.189599
4055.000000;2.251960
4054.000000;2.040555
4053.000000;1.767024
4052.000000;1.779454
4051.000000;1.975514
4050.000000;1.803427
4049.000000;1.608308
4048.000000;1.561864
4047.000000;1.543821
4046.000000;1.569633
4045.000000;1.545635
4044.000000;1.433813
4043.000000;1.359242
4042.000000;1.361800
4041.000000;1.428445
4040.000000;1.545981
4039.000000;1.706529
4038.000000;1.791498
4037.000000;1.692081
4036.000000;1.585164
4035.000000;1.531956
4034.000000;1.545084
4033.000000;1.701278
4032.000000;2.087880
4031.000000;2.099884
4030.000000;1.823875
4029.000000;1.570537
4028.000000;1.382779
4027.000000;1.342792
4026.000000;1.447650
4025.000000;1.692859
4024.000000;1.987115
4023.000000;1.951552
4022.000000;1.679890
4021.000000;1.518024
4020.000000;1.483621
4019.000000;1.517797
4018.000000;1.530629
4017.000000;1.496464
4016.000000;1.494419
4015.000000;1.544378
4014.000000;1.587246
4013.000000;1.617427
4012.000000;1.727183
4011.000000;1.969237
4010.000000;2.020768
4009.000000;1.851110
4008.000000;1.940327
4007.000000;2.435747
4006.000000;2.098269
4005.000000;1.930686
4004.000000;2.243607
4003.000000;2.690470
4002.000000;2.111544
4001.000000;2.050474
4000.000000;1.838006
3999.000000;1.669253
3998.000000;1.607542
3997.000000;1.532508
3996.000000;1.493484
3995.000000;1.497391
3994.000000;1.422221
3993.000000;1.340130
3992.000000;1.375043
3991.000000;1.533076
3990.000000;1.727802
3989.000000;1.818479
3988.000000;1.881830
3987.000000;1.877816
3986.000000;1.727278
3985.000000;1.591738
3984.000000;1.561562
3983.000000;1.658843
3982.000000;1.725070
3981.000000;1.687257
3980.000000;1.713614
3979.000000;1.642439
3978.000000;1.529397
3977.000000;1.507254
3976.000000;1.546924
3975.000000;1.651691
3974.000000;1.884748
3973.000000;2.199498
3972.000000;1.967116
3971.000000;1.699611
3970.000000;1.665967
3969.000000;2.021595
3968.000000;2.085798
3967.000000;1.663688
3966.000000;1.586022
3965.000000;1.685616
3964.000000;2.219912
3963.000000;2.138858
3962.000000;1.834678
3961.000000;1.838337
3960.000000;1.700562
3959.000000;1.597032
3958.000000;1.615017
3957.000000;1.773657
3956.000000;2.111880
3955.000000;2.241131
3954.000000;2.037332
3953.000000;1.950705
3952.000000;1.928053
3951.000000;2.007999
3950.000000;2.222007
3949.000000;2.359295
3948.000000;2.116430
3947.000000;1.765802
3946.000000;1.562970
3945.000000;1.538830
3944.000000;1.734061
3943.000000;1.952780
3942.000000;1.713344
3941.000000;1.678501
3940.000000;1.874253
3939.000000;1.732149
3938.000000;1.568807
3937.000000;1.588264
3936.000000;1.650832
3935.000000;1.684992
3934.000000;1.691393
3933.000000;1.700601
3932.000000;1.685469
3931.000000;1.623940
3930.000000;1.485735
3929.000000;1.389856
3928.000000;1.377915
3927.000000;1.634230
3926.000000;2.447860
3925.000000;1.746078
3924.000000;1.607019
3923.000000;1.689866
3922.000000;1.730332
3921.000000;1.785012
3920.000000;1.911175
3919.000000;2.028217
3918.000000;2.192707
3917.000000;2.395999
3916.000000;1.877400
3915.000000;1.719732
3914.000000;2.011671
3913.000000;1.889018
3912.000000;1.633530
3911.000000;1.702574
3910.000000;1.935127
3909.000000;2.209789
3908.000000;2.085524
3907.000000;1.964162
3906.000000;2.015366
3905.000000;2.161805
3904.000000;2.601859
3903.000000;2.610233
3902.000000;2.169842
3901.000000;1.914085
3900.000000;1.762920
3899.000000;1.760289
3898.000000;1.790154
3897.000000;1.656239
3896.000000;1.519666
3895.000000;1.515301
3894.000000;1.636159
3893.000000;1.800011
3892.000000;1.905446
3891.000000;1.909662
3890.000000;1.881765
3889.000000;1.889358
3888.000000;1.870705
3887.000000;1.789908
3886.000000;1.660167
3885.000000;1.528846
3884.000000;1.467429
3883.000000;1.503534
3882.000000;1.614609
3881.000000;1.705233
3880.000000;1.762255
3879.000000;1.845816
3878.000000;2.181210
3877.000000;2.656927
3876.000000;2.115241
3875.000000;1.832550
3874.000000;1.640189
3873.000000;1.609592
3872.000000;1.776060
3871.000000;2.016717
3870.000000;2.188891
3869.000000;2.363304
3868.000000;2.341617
3867.000000;2.083754
3866.000000;2.000581
3865.000000;1.941687
3864.000000;1.878036
3863.000000;1.927560
3862.000000;2.085080
3861.000000;2.238346
3860.000000;2.331540
3859.000000;2.389943
3858.000000;2.373030
3857.000000;2.383370
3856.000000;2.535154
3855.000000;2.793568
3854.000000;2.489675
3853.000000;2.045276
3852.000000;1.820542
3851.000000;1.812116
3850.000000;1.983934
3849.000000;1.972932
3848.000000;1.800028
3847.000000;1.780589
3846.000000;2.015380
3845.000000;2.424666
3844.000000;2.356103
3843.000000;2.522542
3842.000000;3.140981
3841.000000;2.711015
3840.000000;2.618428
3839.000000;2.472622
3838.000000;2.183491
3837.000000;2.048703
3836.000000;2.082794
3835.000000;2.448221
3834.000000;2.645197
3833.000000;2.469382
3832.000000;2.795951
3831.000000;2.286297
3830.000000;1.944969
3829.000000;1.937922
3828.000000;2.045502
3827.000000;2.194626
3826.000000;2.453163
3825.000000;2.207019
3824.000000;2.038061
3823.000000;2.195086
3822.000000;2.408914
3821.000000;2.353346
3820.000000;2.127879
3819.000000;2.006154
3818.000000;1.981508
3817.000000;1.945685
3816.000000;1.833352
3815.000000;1.729296
3814.000000;1.763345
3813.000000;1.925812
3812.000000;2.106765
3811.000000;2.208230
3810.000000;2.221718
3809.000000;2.315701
3808.000000;2.456916
3807.000000;2.359212
3806.000000;2.073330
3805.000000;1.942306
3804.000000;2.011814
3803.000000;2.101789
3802.000000;2.011418
3801.000000;1.879232
3800.000000;1.820238
3799.000000;1.946703
3798.000000;2.284984
3797.000000;1.980240
3796.000000;1.653874
3795.000000;1.537935
3794.000000;1.591444
3793.000000;1.709548
3792.000000;1.625818
3791.000000;1.535842
3790.000000;1.581777
3789.000000;1.799127
3788.000000;1.856904
3787.000000;1.689905
3786.000000;1.686362
3785.000000;1.732014
3784.000000;1.759587
3783.000000;1.743090
3782.000000;1.650778
3781.000000;1.557833
3780.000000;1.541356
3779.000000;1.630161
3778.000000;1.839824
3777.000000;2.006784
3776.000000;1.829971
3775.000000;1.630697
3774.000000;1.615102
3773.000000;1.786872
3772.000000;1.834935
3771.000000;1.711984
3770.000000;1.616730
3769.000000;1.473849
3768.000000;1.399741
3767.000000;1.467214
3766.000000;1.610519
3765.000000;1.726462
3764.000000;1.768832
3763.000000;1.795643
3762.000000;1.859418
3761.000000;1.952427
3760.000000;2.048161
3759.000000;2.113738
3758.000000;2.165236
3757.000000;2.236531
3756.000000;2.346962
3755.000000;2.458532
3754.000000;2.522578
3753.000000;2.551911
3752.000000;2.561283
3751.000000;2.572767
3750.000000;2.564207
3749.000000;2.488355
3748.000000;2.319843
3747.000000;2.191892
3746.000000;2.186140
3745.000000;2.185337
3744.000000;2.204458
3743.000000;2.150350
3742.000000;2.274244
3741.000000;2.969630
3740.000000;2.448938
3739.000000;2.155445
3738.000000;2.118146
3737.000000;2.064509
3736.000000;1.943754
3735.000000;1.868012
3734.000000;1.959718
3733.000000;1.971664
3732.000000;1.758660
3731.000000;1.679147
3730.000000;2.086236
3729.000000;2.321211
3728.000000;1.777016
3727.000000;1.802579
3726.000000;2.083137
3725.000000;2.219810
3724.000000;1.923164
3723.000000;1.952381
3722.000000;2.482426
3721.000000;1.921497
3720.000000;1.652813
3719.000000;1.718412
3718.000000;1.948318
3717.000000;2.132200
3716.000000;1.926876
3715.000000;1.800511
3714.000000;1.809819
3713.000000;1.897844
3712.000000;2.111999
3711.000000;2.085225
3710.000000;1.767544
3709.000000;1.628857
3708.000000;1.680103
3707.000000;1.763424
3706.000000;1.631679
3705.000000;1.545361
3704.000000;1.651401
3703.000000;1.872222
3702.000000;1.887431
3701.000000;1.536047
3700.000000;1.310194
3699.000000;1.271300
3698.000000;1.419090
3697.000000;1.704389
3696.000000;1.755381
3695.000000;1.719723
3694.000000;1.911560
3693.000000;2.162357
3692.000000;1.961368
3691.000000;1.818916
3690.000000;1.870336
3689.000000;2.078880
3688.000000;2.340410
3687.000000;2.374391
3686.000000;2.385263
3685.000000;2.227762
3684.000000;1.952638
3683.000000;1.777065
3682.000000;1.763041
3681.000000;1.831406
3680.000000;1.890381
3679.000000;2.107116
3678.000000;2.413122
3677.000000;2.374537
3676.000000;2.335251
3675.000000;2.199219
3674.000000;2.067043
3673.000000;1.989627
3672.000000;1.930079
3671.000000;1.890854
3670.000000;1.873363
3669.000000;1.909201
3668.000000;1.974248
3667.000000;2.022198
3666.000000;2.273191
3665.000000;2.294208
3664.000000;1.941164
3663.000000;1.855578
3662.000000;1.910383
3661.000000;2.023394
3660.000000;2.240522
3659.000000;2.520098
3658.000000;2.426510
3657.000000;2.172904
3656.000000;2.011789
3655.000000;1.946218
3654.000000;1.972671
3653.000000;2.029421
3652.000000;2.085003
3651.000000;2.242529
3650.000000;2.317621
3649.000000;2.150217
3648.000000;2.204238
3647.000000;2.338763
3646.000000;2.076009
3645.000000;1.845474
3644.000000;1.756729
3643.000000;1.827710
3642.000000;1.917212
3641.000000;1.771009
3640.000000;1.613712
3639.000000;1.570745
3638.000000;1.611513
3637.000000;1.718188
3636.000000;1.880317
3635.000000;2.166068
3634.000000;3.070993
3633.000000;2.446527
3632.000000;2.335702
3631.000000;2.860145
3630.000000;2.265069
3629.000000;1.894488
3628.000000;1.786656
3627.000000;1.867853
3626.000000;1.788161
3625.000000;1.640196
3624.000000;1.643097
3623.000000;1.703495
3622.000000;1.789187
3621.000000;1.886579
3620.000000;2.022464
3619.000000;2.381995
3618.000000;2.217708
3617.000000;1.961087
3616.000000;2.102132
3615.000000;2.052896
3614.000000;1.931995
3613.000000;2.210646
3612.000000;2.160878
3611.000000;1.683872
3610.000000;1.465218
3609.000000;1.379697
3608.000000;1.369959
3607.000000;1.478931
3606.000000;1.771797
3605.000000;1.809612
3604.000000;1.670225
3603.000000;1.869064
3602.000000;1.846204
3601.000000;1.539453
3600.000000;1.438989
3599.000000;1.477121
3598.000000;1.683250
3597.000000;1.858935
3596.000000;1.918662
3595.000000;2.262224
3594.000000;2.041152
3593.000000;1.797719
3592.000000;1.834251
3591.000000;1.856137
3590.000000;1.728099
3589.000000;1.650721
3588.000000;1.639655
3587.000000;1.592105
3586.000000;1.482054
3585.000000;1.387953
3584.000000;1.355568
3583.000000;1.377907
3582.000000;1.421622
3581.000000;1.442599
3580.000000;1.433171
3579.000000;1.435882
3578.000000;1.472354
3577.000000;1.509439
3576.000000;1.485016
3575.000000;1.437420
3574.000000;1.473547
3573.000000;1.620716
3572.000000;2.004204
3571.000000;2.336655
3570.000000;1.878748
3569.000000;1.703927
3568.000000;1.613036
3567.000000;1.581177
3566.000000;1.594192
3565.000000;1.603101
3564.000000;1.600353
3563.000000;1.646840
3562.000000;1.648368
3561.000000;1.632344
3560.000000;1.991871
3559.000000;2.043664
3558.000000;1.577549
3557.000000;1.441952
3556.000000;1.457258
3555.000000;1.547938
3554.000000;1.655908
3553.000000;1.829774
3552.000000;2.130856
3551.000000;2.031883
3550.000000;1.925996
3549.000000;2.135787
3548.000000;2.009920
3547.000000;1.686697
3546.000000;1.608622
3545.000000;1.669323
3544.000000;1.784885
3543.000000;1.851087
3542.000000;1.920915
3541.000000;2.179602
3540.000000;2.263930
3539.000000;1.958304
3538.000000;1.884149
3537.000000;2.389570
3536.000000;2.190448
3535.000000;1.655797
3534.000000;1.538533
3533.000000;1.584792
3532.000000;1.738937
3531.000000;1.817620
3530.000000;1.713982
3529.000000;1.649854
3528.000000;1.634412
3527.000000;1.846178
3526.000000;2.424241
3525.000000;1.810016
3524.000000;1.604252
3523.000000;1.565736
3522.000000;1.517184
3521.000000;1.455459
3520.000000;1.401083
3519.000000;1.382075
3518.000000;1.345526
3517.000000;1.311357
3516.000000;1.320473
3515.000000;1.366672
3514.000000;1.409999
3513.000000;1.443649
3512.000000;1.463148
3511.000000;1.411704
3510.000000;1.322357
3509.000000;1.268920
3508.000000;1.271234
3507.000000;1.337850
3506.000000;1.485737
3505.000000;1.657031
3504.000000;1.703174
3503.000000;1.593217
3502.000000;1.450628
3501.000000;1.385111
3500.000000;1.476934
3499.000000;1.888235
3498.000000;1.876514
3497.000000;1.467208
3496.000000;1.315963
3495.000000;1.259688
3494.000000;1.269682
3493.000000;1.337555
3492.000000;1.356277
3491.000000;1.259387
3490.000000;1.178974
3489.000000;1.175032
3488.000000;1.246810
3487.000000;1.368098
3486.000000;1.466642
3485.000000;1.536047
3484.000000;1.722639
3483.000000;2.051717
3482.000000;1.849876
3481.000000;1.598066
3480.000000;1.528017
3479.000000;1.565389
3478.000000;1.552945
3477.000000;1.424643
3476.000000;1.384480
3475.000000;1.477666
3474.000000;1.634773
3473.000000;1.671487
3472.000000;1.616370
3471.000000;1.632696
3470.000000;1.570295
3469.000000;1.429182
3468.000000;1.388755
3467.000000;1.473972
3466.000000;1.598396
3465.000000;1.575474
3464.000000;1.539423
3463.000000;1.620312
3462.000000;2.011192
3461.000000;2.539038
3460.000000;1.985348
3459.000000;1.947721
3458.000000;1.850937
3457.000000;1.690391
3456.000000;1.653026
3455.000000;1.764138
3454.000000;1.921450
3453.000000;2.232355
3452.000000;2.213834
3451.000000;1.762215
3450.000000;1.626134
3449.000000;1.692734
3448.000000;2.034900
3447.000000;1.913319
3446.000000;1.539778
3445.000000;1.428381
3444.000000;1.475210
3443.000000;1.578015
3442.000000;1.586007
3441.000000;1.560934
3440.000000;1.585979
3439.000000;1.791871
3438.000000;1.965583
3437.000000;1.536162
3436.000000;1.299501
3435.000000;1.170286
3434.000000;1.113527
3433.000000;1.132034
3432.000000;1.228861
3431.000000;1.388391
3430.000000;1.541640
3429.000000;1.577378
3428.000000;1.436370
3427.000000;1.288510
3426.000000;1.243500
3425.000000;1.301537
3424.000000;1.443410
3423.000000;1.600153
3422.000000;1.722098
3421.000000;2.150693
3420.000000;1.834741
3419.000000;1.425472
3418.000000;1.327547
3417.000000;1.383420
3416.000000;1.366427
3415.000000;1.252310
3414.000000;1.243101
3413.000000;1.374011
3412.000000;1.749098
3411.000000;2.269497
3410.000000;1.844407
3409.000000;1.847274
3408.000000;1.929967
3407.000000;1.920494
3406.000000;1.890225
3405.000000;1.948018
3404.000000;1.943047
3403.000000;1.746507
3402.000000;1.602973
3401.000000;1.549742
3400.000000;1.549463
3399.000000;1.545555
3398.000000;1.464209
3397.000000;1.352239
3396.000000;1.295095
3395.000000;1.304220
3394.000000;1.331140
3393.000000;1.353807
3392.000000;1.447411
3391.000000;1.701514
3390.000000;1.860456
3389.000000;1.717961
3388.000000;1.659618
3387.000000;1.680718
3386.000000;1.873433
3385.000000;1.704207
3384.000000;1.343811
3383.000000;1.195582
3382.000000;1.160387
3381.000000;1.176190
3380.000000;1.181535
3379.000000;1.203581
3378.000000;1.314745
3377.000000;1.457081
3376.000000;1.429403
3375.000000;1.418315
3374.000000;1.620132
3373.000000;1.596308
3372.000000;1.399460
3371.000000;1.349220
3370.000000;1.363642
3369.000000;1.418106
3368.000000;1.527123
3367.000000;1.514801
3366.000000;1.379139
3365.000000;1.362005
3364.000000;1.535716
3363.000000;1.781975
3362.000000;1.624492
3361.000000;1.471583
3360.000000;1.350423
3359.000000;1.250030
3358.000000;1.221290
3357.000000;1.302926
3356.000000;1.475119
3355.000000;1.591691
3354.000000;1.664550
3353.000000;1.752909
3352.000000;1.786993
3351.000000;1.664906
3350.000000;1.442220
3349.000000;1.337800
3348.000000;1.323055
3347.000000;1.310589
3346.000000;1.283174
3345.000000;1.307588
3344.000000;1.417458
3343.000000;1.853446
3342.000000;1.883187
3341.000000;1.423587
3340.000000;1.252570
3339.000000;1.212113
3338.000000;1.273740
3337.000000;1.401083
3336.000000;1.391702
3335.000000;1.297503
3334.000000;1.232557
3333.000000;1.190675
3332.000000;1.225255
3331.000000;1.363078
3330.000000;1.574369
3329.000000;1.780804
3328.000000;1.687030
3327.000000;1.518962
3326.000000;1.504879
3325.000000;1.531391
3324.000000;1.503058
3323.000000;1.445704
3322.000000;1.435496
3321.000000;1.482219
3320.000000;1.535179
3319.000000;1.564642
3318.000000;1.619889
3317.000000;1.749435
3316.000000;1.888625
3315.000000;1.923928
3314.000000;2.373247
3313.000000;1.931156
3312.000000;1.502774
3311.000000;1.327725
3310.000000;1.277331
3309.000000;1.294532
3308.000000;1.315381
3307.000000;1.334892
3306.000000;1.348190
3305.000000;1.294263
3304.000000;1.234735
3303.000000;1.249069
3302.000000;1.345031
3301.000000;1.550334
3300.000000;1.834550
3299.000000;1.799834
3298.000000;1.846069
3297.000000;1.920666
3296.000000;1.714392
3295.000000;1.669821
3294.000000;1.919023
3293.000000;2.296149
3292.000000;1.862590
3291.000000;1.710201
3290.000000;1.803329
3289.000000;1.783891
3288.000000;1.599146
3287.000000;1.410336
3286.000000;1.280318
3285.000000;1.272364
3284.000000;1.434014
3283.000000;1.862660
3282.000000;1.878251
3281.000000;1.893344
3280.000000;2.031934
3279.000000;1.658314
3278.000000;1.592107
3277.000000;1.789442
3276.000000;2.283926
3275.000000;2.019373
3274.000000;1.892896
3273.000000;2.085545
3272.000000;2.022122
3271.000000;1.793976
3270.000000;2.036638
3269.000000;1.841222
3268.000000;1.490239
3267.000000;1.438310
3266.000000;1.540481
3265.000000;1.856764
3264.000000;2.186695
3263.000000;1.920468
3262.000000;1.653841
3261.000000;1.460186
3260.000000;1.335917
3259.000000;1.278112
3258.000000;1.273142
3257.000000;1.313017
3256.000000;1.379899
3255.000000;1.446715
3254.000000;1.529027
3253.000000;1.745110
3252.000000;2.019558
3251.000000;1.683421
3250.000000;1.744992
3249.000000;2.021865
3248.000000;1.686780
3247.000000;1.539250
3246.000000;1.550949
3245.000000;1.606719
3244.000000;1.637476
3243.000000;1.618088
3242.000000;1.524616
3241.000000;1.387245
3240.000000;1.305647
3239.000000;1.311886
3238.000000;1.362180
3237.000000;1.383684
3236.000000;1.351820
3235.000000;1.384123
3234.000000;1.552617
3233.000000;2.446498
3232.000000;1.668790
3231.000000;1.466410
3230.000000;1.555911
3229.000000;1.908446
3228.000000;2.045593
3227.000000;1.678981
3226.000000;1.606343
3225.000000;1.689290
3224.000000;1.874971
3223.000000;2.236256
3222.000000;2.297463
3221.000000;1.634348
3220.000000;1.361430
3219.000000;1.220672
3218.000000;1.179274
3217.000000;1.201537
3216.000000;1.292093
3215.000000;1.472000
3214.000000;1.865301
3213.000000;1.990577
3212.000000;1.841565
3211.000000;1.925018
3210.000000;1.841484
3209.000000;1.948645
3208.000000;2.057743
3207.000000;1.646590
3206.000000;1.486776
3205.000000;1.498603
3204.000000;1.549111
3203.000000;1.540783
3202.000000;1.502248
3201.000000;1.524155
3200.000000;1.640463
3199.000000;1.795187
3198.000000;1.734016
3197.000000;1.514316
3196.000000;1.413089
3195.000000;1.470745
3194.000000;1.868668
3193.000000;1.968232
3192.000000;1.504575
3191.000000;1.517738
3190.000000;1.727877
3189.000000;1.799589
3188.000000;1.623115
3187.000000;1.578001
3186.000000;1.383283
3185.000000;1.272458
3184.000000;1.327580
3183.000000;1.553311
3182.000000;1.556216
3181.000000;1.404209
3180.000000;1.400234
3179.000000;1.471591
3178.000000;1.432957
3177.000000;1.288726
3176.000000;1.144431
3175.000000;1.065184
3174.000000;1.088018
3173.000000;1.221694
3172.000000;1.439165
3171.000000;1.642222
3170.000000;1.756414
3169.000000;1.698793
3168.000000;1.552749
3167.000000;1.412822
3166.000000;1.340535
3165.000000;1.395054
3164.000000;1.463943
3163.000000;1.411010
3162.000000;1.433470
3161.000000;1.652507
3160.000000;2.031788
3159.000000;2.456922
3158.000000;1.846149
3157.000000;1.500600
3156.000000;1.426916
3155.000000;1.706126
3154.000000;1.945446
3153.000000;1.540685
3152.000000;1.524940
3151.000000;1.936324
3150.000000;2.028088
3149.000000;1.885454
3148.000000;2.172507
3147.000000;2.074364
3146.000000;1.695596
3145.000000;1.424624
3144.000000;1.192351
3143.000000;1.047745
3142.000000;1.012819
3141.000000;1.076738
3140.000000;1.168282
3139.000000;1.213255
3138.000000;1.282656
3137.000000;1.446584
3136.000000;1.652675
3135.000000;1.768764
3134.000000;1.697666
3133.000000;1.561316
3132.000000;1.467944
3131.000000;1.869385
3130.000000;1.824618
3129.000000;1.361432
3128.000000;1.300101
3127.000000;1.538137
3126.000000;1.885636
3125.000000;1.479075
3124.000000;1.372926
3123.000000;1.431095
3122.000000;1.599861
3121.000000;1.975598
3120.000000;1.477851
3119.000000;1.337164
3118.000000;1.434777
3117.000000;1.638706
3116.000000;1.596976
3115.000000;1.545320
3114.000000;1.425410
3113.000000;1.262711
3112.000000;1.183581
3111.000000;1.196777
3110.000000;1.241049
3109.000000;1.286775
3108.000000;1.388664
3107.000000;1.829362
3106.000000;1.919116
3105.000000;1.485844
3104.000000;1.405550
3103.000000;1.465228
3102.000000;1.741723
3101.000000;1.906475
3100.000000;1.743905
3099.000000;1.729121
3098.000000;1.848934
3097.000000;1.903656
3096.000000;1.790336
3095.000000;1.699765
3094.000000;1.671545
3093.000000;1.685527
3092.000000;1.747671
3091.000000;1.945557
3090.000000;2.499763
3089.000000;2.039559
3088.000000;1.781391
3087.000000;1.613389
3086.000000;1.411649
3085.000000;1.324197
3084.000000;1.390239
3083.000000;1.508157
3082.000000;1.489207
3081.000000;1.443223
3080.000000;1.441958
3079.000000;1.477971
3078.000000;1.558854
3077.000000;1.655534
3076.000000;1.743900
3075.000000;1.845494
3074.000000;2.058038
3073.000000;2.044936
3072.000000;1.821350
3071.000000;1.527568
3070.000000;1.307465
3069.000000;1.200124
3068.000000;1.183261
3067.000000;1.225618
3066.000000;1.243099
3065.000000;1.209831
3064.000000;1.209136
3063.000000;1.245855
3062.000000;1.265510
3061.000000;1.287425
3060.000000;1.395692
3059.000000;1.680375
3058.000000;2.257117
3057.000000;2.260289
3056.000000;1.672799
3055.000000;1.421236
3054.000000;1.402966
3053.000000;1.645619
3052.000000;2.016985
3051.000000;1.714046
3050.000000;1.520473
3049.000000;1.505015
3048.000000;1.600411
3047.000000;1.843191
3046.000000;1.880774
3045.000000;1.564922
3044.000000;1.371090
3043.000000;1.306063
3042.000000;1.344529
3041.000000;1.499642
3040.000000;1.651460
3039.000000;1.687203
3038.000000;1.863932
3037.000000;1.725124
3036.000000;1.561001
3035.000000;1.469499
3034.000000;1.312231
3033.000000;1.225689
3032.000000;1.255075
3031.000000;1.347370
3030.000000;1.710927
3029.000000;1.878150
3028.000000;1.392970
3027.000000;1.363793
3026.000000;1.635111
3025.000000;1.732955
3024.000000;1.539556
3023.000000;1.561315
3022.000000;1.547161
3021.000000;1.797431
3020.000000;1.868100
3019.000000;1.450749
3018.000000;1.293321
3017.000000;1.214356
3016.000000;1.169475
3015.000000;1.201025
3014.000000;1.295442
3013.000000;1.399801
3012.000000;1.465281
3011.000000;1.435671
3010.000000;1.324557
3009.000000;1.213022
3008.000000;1.167118
3007.000000;1.209743
3006.000000;1.336088
3005.000000;1.438082
3004.000000;1.413033
3003.000000;1.417388
3002.000000;1.603929
3001.000000;1.961790
3000.000000;1.879712
2999.000000;1.865910
2998.000000;1.659278
2997.000000;1.372734
2996.000000;1.299214
2995.000000;1.373624
2994.000000;1.497339
2993.000000;1.532502
2992.000000;1.497009
2991.000000;1.512073
2990.000000;1.953493
2989.000000;1.627021
2988.000000;1.260866
2987.000000;1.171117
2986.000000;1.218932
2985.000000;1.339443
2984.000000;1.420219
2983.000000;1.458180
2982.000000;1.579084
2981.000000;1.982477
2980.000000;2.002239
2979.000000;1.555373
2978.000000;1.440577
2977.000000;1.408677
2976.000000;1.459324
2975.000000;1.625780
2974.000000;1.765272
2973.000000;1.655209
2972.000000;1.409921
2971.000000;1.182360
2970.000000;1.070718
2969.000000;1.072768
2968.000000;1.164077
2967.000000;1.296144
2966.000000;1.383533
2965.000000;1.434240
2964.000000;1.547345
2963.000000;1.791990
2962.000000;1.867533
2961.000000;2.009875
2960.000000;1.809436
2959.000000;1.331714
2958.000000;1.182563
2957.000000;1.233815
2956.000000;1.426873
2955.000000;1.592718
2954.000000;1.588115
2953.000000;1.549365
2952.000000;1.850382
2951.000000;1.984584
2950.000000;1.387260
2949.000000;1.284568
2948.000000;1.301324
2947.000000;1.295497
2946.000000;1.250164
2945.000000;1.213403
2944.000000;1.200721
2943.000000;1.208283
2942.000000;1.209913
2941.000000;1.203740
2940.000000;1.246153
2939.000000;1.371460
2938.000000;1.667813
2937.000000;1.972347
2936.000000;1.625083
2935.000000;1.470203
2934.000000;1.473478
2933.000000;1.494511
2932.000000;1.512303
2931.000000;1.710114
2930.000000;1.749951
2929.000000;1.347956
2928.000000;1.168931
2927.000000;1.089017
2926.000000;1.083706
2925.000000;1.144025
2924.000000;1.184391
2923.000000;1.190652
2922.000000;1.226891
2921.000000;1.266694
2920.000000;1.292814
2919.000000;1.377848
2918.000000;1.677230
2917.000000;2.061712
2916.000000;1.739035
2915.000000;1.593254
2914.000000;1.545506
2913.000000;1.403160
2912.000000;1.283107
2911.000000;1.248237
2910.000000;1.281693
2909.000000;1.339830
2908.000000;1.357640
2907.000000;1.312747
2906.000000;1.277897
2905.000000;1.312108
2904.000000;1.411205
2903.000000;1.514475
2902.000000;1.598214
2901.000000;1.701116
2900.000000;1.831824
2899.000000;1.845200
2898.000000;1.665022
2897.000000;1.548264
2896.000000;1.455679
2895.000000;1.355190
2894.000000;1.225903
2893.000000;1.130515
2892.000000;1.124871
2891.000000;1.265295
2890.000000;1.888151
2889.000000;1.791014
2888.000000;1.440375
2887.000000;1.615636
2886.000000;1.902724
2885.000000;2.050649
2884.000000;2.647456
2883.000000;2.001342
2882.000000;1.573056
2881.000000;1.454723
2880.000000;1.477393
2879.000000;1.559648
2878.000000;1.554740
2877.000000;1.351150
2876.000000;1.162958
2875.000000;1.119518
2874.000000;1.250261
2873.000000;1.468486
2872.000000;1.511329
2871.000000;1.468831
2870.000000;1.367321
2869.000000;1.375812
2868.000000;1.519196
2867.000000;1.403493
2866.000000;1.350074
2865.000000;1.703269
2864.000000;1.720270
2863.000000;1.452060
2862.000000;1.513888
2861.000000;1.413314
2860.000000;1.239100
2859.000000;1.197028
2858.000000;1.387795
2857.000000;1.821960
2856.000000;1.516827
2855.000000;1.390291
2854.000000;1.354833
2853.000000;1.186829
2852.000000;1.071150
2851.000000;1.035975
2850.000000;1.073322
2849.000000;1.157284
2848.000000;1.235917
2847.000000;1.262661
2846.000000;1.259440
2845.000000;1.257419
2844.000000;1.293635
2843.000000;1.400554
2842.000000;1.752691
2841.000000;2.188535
2840.000000;1.665581
2839.000000;1.407786
2838.000000;1.260256
2837.000000;1.179996
2836.000000;1.124677
2835.000000;1.042206
2834.000000;1.004742
2833.000000;1.069410
2832.000000;1.256949
2831.000000;1.634055
2830.000000;1.810632
2829.000000;1.774844
2828.000000;1.768257
2827.000000;1.849010
2826.000000;2.771224
2825.000000;1.704140
2824.000000;1.483600
2823.000000;1.586685
2822.000000;1.919805
2821.000000;2.521955
2820.000000;1.788799
2819.000000;1.496593
2818.000000;1.369215
2817.000000;1.391021
2816.000000;1.581955
2815.000000;1.838587
2814.000000;1.856044
2813.000000;1.720945
2812.000000;1.578906
2811.000000;1.610664
2810.000000;2.112927
2809.000000;1.678489
2808.000000;1.286177
2807.000000;1.186478
2806.000000;1.218461
2805.000000;1.518229
2804.000000;1.647312
2803.000000;1.372638
2802.000000;1.320333
2801.000000;1.366007
2800.000000;1.436754
2799.000000;1.504516
2798.000000;1.493364
2797.000000;1.402161
2796.000000;1.281092
2795.000000;1.180643
2794.000000;1.132810
2793.000000;1.163973
2792.000000;1.267523
2791.000000;1.411076
2790.000000;1.809810
2789.000000;1.704678
2788.000000;1.246018
2787.000000;1.126368
2786.000000;1.139077
2785.000000;1.336705
2784.000000;1.358193
2783.000000;1.117735
2782.000000;1.059143
2781.000000;1.207959
2780.000000;1.745803
2779.000000;1.526017
2778.000000;1.436873
2777.000000;1.805634
2776.000000;1.270639
2775.000000;1.041223
2774.000000;1.031209
2773.000000;1.098911
2772.000000;1.264387
2771.000000;1.504138
2770.000000;1.842777
2769.000000;2.213078
2768.000000;1.959291
2767.000000;1.856905
2766.000000;1.697295
2765.000000;1.509761
2764.000000;1.499404
2763.000000;1.367866
2762.000000;1.238270
2761.000000;1.288476
2760.000000;1.610347
2759.000000;2.070788
2758.000000;1.673056
2757.000000;1.423295
2756.000000;1.385361
2755.000000;1.514781
2754.000000;1.568583
2753.000000;1.412843
2752.000000;1.357812
2751.000000;1.375963
2750.000000;1.499170
2749.000000;1.773006
2748.000000;1.557964
2747.000000;1.337043
2746.000000;1.350767
2745.000000;1.530213
2744.000000;1.995105
2743.000000;2.355705
2742.000000;2.235268
2741.000000;2.001976
2740.000000;1.585221
2739.000000;1.475771
2738.000000;1.513655
2737.000000;1.598211
2736.000000;1.504207
2735.000000;1.258724
2734.000000;1.155537
2733.000000;1.215201
2732.000000;1.430213
2731.000000;1.755380
2730.000000;2.304295
2729.000000;1.968882
2728.000000;1.462033
2727.000000;1.243118
2726.000000;1.131144
2725.000000;1.100334
2724.000000;1.123195
2723.000000;1.162139
2722.000000;1.180644
2721.000000;1.161271
2720.000000;1.134765
2719.000000;1.134378
2718.000000;1.167678
2717.000000;1.212703
2716.000000;1.272822
2715.000000;1.364682
2714.000000;1.434453
2713.000000;1.416275
2712.000000;1.327284
2711.000000;1.249644
2710.000000;1.246417
2709.000000;1.375177
2708.000000;1.593346
2707.000000;1.680000
2706.000000;1.862794
2705.000000;1.826017
2704.000000;1.476696
2703.000000;1.269513
2702.000000;1.162188
2701.000000;1.168480
2700.000000;1.156363
2699.000000;1.086669
2698.000000;1.102039
2697.000000;1.227619
2696.000000;1.390771
2695.000000;1.447885
2694.000000;1.386737
2693.000000;1.369435
2692.000000;1.445168
2691.000000;1.378590
2690.000000;1.231298
2689.000000;1.207769
2688.000000;1.379899
2687.000000;1.636442
2686.000000;1.516001
2685.000000;1.369873
2684.000000;1.274296
2683.000000;1.229329
2682.000000;1.266887
2681.000000;1.347570
2680.000000;1.471793
2679.000000;1.625553
2678.000000;1.697273
2677.000000;1.535161
2676.000000;1.353648
2675.000000;1.262015
2674.000000;1.237244
2673.000000;1.244786
2672.000000;1.298216
2671.000000;1.281025
2670.000000;1.086394
2669.000000;0.944040
2668.000000;0.932409
2667.000000;1.025794
2666.000000;1.162300
2665.000000;1.204448
2664.000000;1.156659
2663.000000;1.128569
2662.000000;1.212264
2661.000000;1.445294
2660.000000;1.422345
2659.000000;1.237957
2658.000000;1.232898
2657.000000;1.302101
2656.000000;1.296091
2655.000000;1.191324
2654.000000;1.094585
2653.000000;1.073487
2652.000000;1.129200
2651.000000;1.252633
2650.000000;1.407913
2649.000000;1.490773
2648.000000;1.484118
2647.000000;1.519495
2646.000000;1.620429
2645.000000;1.609218
2644.000000;1.458156
2643.000000;1.285958
2642.000000;1.162523
2641.000000;1.138297
2640.000000;1.204176
2639.000000;1.284382
2638.000000;1.276862
2637.000000;1.201480
2636.000000;1.161727
2635.000000;1.221024
2634.000000;1.465755
2633.000000;2.017578
2632.000000;2.598175
2631.000000;1.978332
2630.000000;1.579134
2629.000000;1.514953
2628.000000;1.546781
2627.000000;1.355896
2626.000000;1.139842
2625.000000;1.043618
2624.000000;1.067930
2623.000000;1.108641
2622.000000;1.052656
2621.000000;1.016036
2620.000000;1.077531
2619.000000;1.243121
2618.000000;1.383531
2617.000000;1.252612
2616.000000;1.117739
2615.000000;1.080893
2614.000000;1.117536
2613.000000;1.232621
2612.000000;1.453407
2611.000000;1.622437
2610.000000;1.460799
2609.000000;1.291924
2608.000000;1.153224
2607.000000;1.054295
2606.000000;1.053772
2605.000000;1.188386
2604.000000;1.498028
2603.000000;1.785489
2602.000000;1.467735
2601.000000;1.122664
2600.000000;0.939317
2599.000000;0.886688
2598.000000;0.934860
2597.000000;1.057146
2596.000000;1.194052
2595.000000;1.341216
2594.000000;1.535510
2593.000000;1.749345
2592.000000;2.064726
2591.000000;1.704371
2590.000000;1.275604
2589.000000;1.123400
2588.000000;1.112174
2587.000000;1.300939
2586.000000;1.552608
2585.000000;1.198909
2584.000000;1.000791
2583.000000;1.005441
2582.000000;1.102233
2581.000000;1.155663
2580.000000;1.143564
2579.000000;1.193129
2578.000000;1.292075
2577.000000;1.359491
2576.000000;1.493635
2575.000000;1.825682
2574.000000;1.526425
2573.000000;1.525748
2572.000000;1.795617
2571.000000;1.291115
2570.000000;1.100674
2569.000000;1.173645
2568.000000;1.369314
2567.000000;1.553783
2566.000000;1.623288
2565.000000;1.677740
2564.000000;1.714370
2563.000000;1.706861
2562.000000;1.624585
2561.000000;1.565021
2560.000000;1.803427
2559.000000;1.939774
2558.000000;1.448025
2557.000000;1.317255
2556.000000;1.314535
2555.000000;1.204767
2554.000000;1.099169
2553.000000;1.073936
2552.000000;1.110653
2551.000000;1.164350
2550.000000;1.220742
2549.000000;1.314825
2548.000000;1.478778
2547.000000;1.408574
2546.000000;1.157420
2545.000000;1.035040
2544.000000;1.036216
2543.000000;1.185195
2542.000000;1.403507
2541.000000;1.328476
2540.000000;1.194811
2539.000000;1.137504
2538.000000;1.095535
2537.000000;1.083450
2536.000000;1.099194
2535.000000;1.138877
2534.000000;1.218133
2533.000000;1.366613
2532.000000;1.538224
2531.000000;1.556755
2530.000000;1.647267
2529.000000;1.715155
2528.000000;1.452577
2527.000000;1.321423
2526.000000;1.315858
2525.000000;1.347775
2524.000000;1.394533
2523.000000;1.448836
2522.000000;1.480219
2521.000000;1.471265
2520.000000;1.459339
2519.000000;1.520175
2518.000000;1.718899
2517.000000;1.595477
2516.000000;1.360529
2515.000000;1.337888
2514.000000;1.351586
2513.000000;1.299054
2512.000000;1.306463
2511.000000;1.417156
2510.000000;1.524677
2509.000000;1.500403
2508.000000;1.434139
2507.000000;1.382841
2506.000000;1.205247
2505.000000;1.000825
2504.000000;0.897790
2503.000000;0.903826
2502.000000;0.995426
2501.000000;1.152960
2500.000000;1.257320
2499.000000;1.160651
2498.000000;1.101784
2497.000000;1.200320
2496.000000;1.492632
2495.000000;1.986305
2494.000000;2.479269
2493.000000;2.535259
2492.000000;2.138722
2491.000000;1.859286
2490.000000;1.720514
2489.000000;1.638676
2488.000000;1.392491
2487.000000;1.193961
2486.000000;1.104143
2485.000000;1.080466
2484.000000;1.125118
2483.000000;1.234550
2482.000000;1.371393
2481.000000;1.439099
2480.000000;1.376106
2479.000000;1.266836
2478.000000;1.231418
2477.000000;1.313485
2476.000000;1.570163
2475.000000;1.876576
2474.000000;1.665134
2473.000000;1.830539
2472.000000;1.911501
2471.000000;1.384273
2470.000000;1.307601
2469.000000;1.596706
2468.000000;1.530097
2467.000000;1.127945
2466.000000;1.044183
2465.000000;1.175502
2464.000000;1.373001
2463.000000;1.246511
2462.000000;1.137857
2461.000000;1.337604
2460.000000;1.622820
2459.000000;1.305496
2458.000000;1.131936
2457.000000;1.163964
2456.000000;1.215500
2455.000000;1.188692
2454.000000;1.147768
2453.000000;1.189782
2452.000000;1.356632
2451.000000;1.605785
2450.000000;1.532391
2449.000000;1.209770
2448.000000;0.983436
2447.000000;0.885767
2446.000000;0.896909
2445.000000;0.989652
2444.000000;1.130563
2443.000000;1.302188
2442.000000;1.500960
2441.000000;1.982132
2440.000000;2.240709
2439.000000;1.553364
2438.000000;1.318574
2437.000000;1.194456
2436.000000;1.166900
2435.000000;1.221406
2434.000000;1.253674
2433.000000;1.280603
2432.000000;1.633693
2431.000000;1.725292
2430.000000;1.329642
2429.000000;1.301525
2428.000000;1.496004
2427.000000;1.748410
2426.000000;1.776120
2425.000000;1.786507
2424.000000;1.875726
2423.000000;1.867489
2422.000000;1.619857
2421.000000;1.369448
2420.000000;1.254332
2419.000000;1.310495
2418.000000;1.564575
2417.000000;1.675936
2416.000000;1.481345
2415.000000;1.476032
2414.000000;1.787066
2413.000000;1.768641
2412.000000;1.436587
2411.000000;1.576150
2410.000000;1.538227
2409.000000;1.211244
2408.000000;1.115479
2407.000000;1.311919
2406.000000;1.655517
2405.000000;1.267518
2404.000000;1.094869
2403.000000;1.157945
2402.000000;1.225378
2401.000000;1.177826
2400.000000;1.106995
2399.000000;1.064100
2398.000000;1.013429
2397.000000;1.004861
2396.000000;1.091535
2395.000000;1.397165
2394.000000;1.843783
2393.000000;1.417374
2392.000000;1.351946
2391.000000;1.455855
2390.000000;1.548077
2389.000000;1.472249
2388.000000;1.248723
2387.000000;1.064795
2386.000000;0.938226
2385.000000;0.877609
2384.000000;0.870082
2383.000000;0.869255
2382.000000;0.827361
2381.000000;0.827435
2380.000000;0.881284
2379.000000;1.020372
2378.000000;1.245936
2377.000000;1.039837
2376.000000;0.903676
2375.000000;0.837006
2374.000000;0.878290
2373.000000;1.019335
2372.000000;1.324953
2371.000000;1.831831
2370.000000;1.510532
2369.000000;1.304021
2368.000000;1.367016
2367.000000;1.647925
2366.000000;1.472411
2365.000000;1.335984
2364.000000;1.394689
2363.000000;1.270332
2362.000000;1.115370
2361.000000;1.102149
2360.000000;1.154737
2359.000000;1.146209
2358.000000;1.090248
2357.000000;1.083526
2356.000000;1.100738
2355.000000;1.087116
2354.000000;0.960076
2353.000000;0.986343
2352.000000;0.910558
2351.000000;0.666956
2350.000000;0.700989
2349.000000;0.760656
2348.000000;1.113251
2347.000000;1.038687
2346.000000;1.124724
2345.000000;1.151507
2344.000000;1.152881
2343.000000;1.094184
2342.000000;1.086627
2341.000000;1.176842
2340.000000;1.443388
2339.000000;2.125029
2338.000000;1.854696
2337.000000;1.700580
2336.000000;1.809673
2335.000000;1.798126
2334.000000;1.795026
2333.000000;1.722054
2332.000000;1.358442
2331.000000;1.081817
2330.000000;0.834384
2329.000000;0.753546
2328.000000;0.739443
2327.000000;0.782455
2326.000000;0.919487
2325.000000;0.977580
2324.000000;0.921840
2323.000000;1.007551
2322.000000;1.297901
2321.000000;1.187198
2320.000000;0.929508
2319.000000;0.845214
2318.000000;0.917565
2317.000000;1.106167
2316.000000;1.038826
2315.000000;0.868570
2314.000000;0.780981
2313.000000;0.755963
2312.000000;0.792924
2311.000000;0.877682
2310.000000;0.942533
2309.000000;0.923286
2308.000000;0.882229
2307.000000;0.848132
2306.000000;0.856319
2305.000000;0.906179
2304.000000;0.911904
2303.000000;0.864605
2302.000000;0.847019
2301.000000;0.873587
2300.000000;0.940796
2299.000000;1.050649
2298.000000;1.278722
2297.000000;1.528761
2296.000000;1.353998
2295.000000;1.277325
2294.000000;1.368251
2293.000000;1.245529
2292.000000;1.081074
2291.000000;1.033303
2290.000000;1.070984
2289.000000;1.143426
2288.000000;1.168074
2287.000000;1.153184
2286.000000;1.205598
2285.000000;1.501844
2284.000000;2.327148
2283.000000;1.424413
2282.000000;1.251642
2281.000000;1.190927
2280.000000;1.199717
2279.000000;1.300168
2278.000000;1.640079
2277.000000;1.577880
2276.000000;1.283909
2275.000000;1.404368
2274.000000;1.424851
2273.000000;1.201518
2272.000000;1.159598
2271.000000;1.307348
2270.000000;1.655307
2269.000000;1.932434
2268.000000;1.874203
2267.000000;1.761708
2266.000000;1.649350
2265.000000;1.346381
2264.000000;1.105175
2263.000000;1.074703
2262.000000;1.410507
2261.000000;1.342230
2260.000000;1.000332
2259.000000;0.950273
2258.000000;1.077451
2257.000000;1.312645
2256.000000;1.298312
2255.000000;1.181344
2254.000000;1.190721
2253.000000;1.308765
2252.000000;1.432567
2251.000000;1.428031
2250.000000;1.452260
2249.000000;1.407704
2248.000000;1.223713
2247.000000;1.089252
2246.000000;1.031778
2245.000000;1.056465
2244.000000;1.182026
2243.000000;1.358972
2242.000000;1.373905
2241.000000;1.337884
2240.000000;1.465657
2239.000000;1.609978
2238.000000;1.327684
2237.000000;1.186683
2236.000000;1.266641
2235.000000;1.493447
2234.000000;1.353489
2233.000000;1.237514
2232.000000;1.256180
2231.000000;1.253496
2230.000000;1.117035
2229.000000;0.947936
2228.000000;0.853807
2227.000000;0.870076
2226.000000;1.027518
2225.000000;1.282464
2224.000000;1.317185
2223.000000;1.317711
2222.000000;1.485591
2221.000000;1.612784
2220.000000;1.592932
2219.000000;1.511003
2218.000000;1.410777
2217.000000;1.299102
2216.000000;1.196574
2215.000000;1.150019
2214.000000;1.122351
2213.000000;1.078151
2212.000000;1.065035
2211.000000;1.125469
2210.000000;1.263564
2209.000000;1.436228
2208.000000;1.535551
2207.000000;1.532936
2206.000000;1.509276
2205.000000;1.511548
2204.000000;1.483920
2203.000000;1.389437
2202.000000;1.358915
2201.000000;1.392278
2200.000000;1.216055
2199.000000;1.024829
2198.000000;0.937792
2197.000000;0.885969
2196.000000;0.865874
2195.000000;0.916043
2194.000000;1.170502
2193.000000;1.657488
2192.000000;1.362616
2191.000000;1.325797
2190.000000;1.712391
2189.000000;1.404114
2188.000000;1.223422
2187.000000;1.273989
2186.000000;1.529279
2185.000000;1.787133
2184.000000;1.400997
2183.000000;1.264193
2182.000000;1.258944
2181.000000;1.263473
2180.000000;1.239845
2179.000000;1.205764
2178.000000;1.123093
2177.000000;1.029659
2176.000000;1.042847
2175.000000;1.242256
2174.000000;1.779857
2173.000000;1.880340
2172.000000;1.625822
2171.000000;1.706050
2170.000000;1.796925
2169.000000;1.875024
2168.000000;1.742711
2167.000000;1.536518
2166.000000;1.434451
2165.000000;1.544116
2164.000000;1.840804
2163.000000;1.449573
2162.000000;1.153756
2161.000000;1.048280
2160.000000;1.037739
2159.000000;1.136651
2158.000000;1.354694
2157.000000;1.460124
2156.000000;1.169242
2155.000000;0.901745
2154.000000;0.788136
2153.000000;0.820234
2152.000000;0.969237
2151.000000;1.118624
2150.000000;1.184884
2149.000000;1.266588
2148.000000;1.299316
2147.000000;1.452027
2146.000000;1.929782
2145.000000;1.315533
2144.000000;0.978925
2143.000000;0.844485
2142.000000;0.843562
2141.000000;0.955120
2140.000000;1.091083
2139.000000;1.147070
2138.000000;1.185099
2137.000000;1.220225
2136.000000;1.231121
2135.000000;1.196657
2134.000000;1.185602
2133.000000;1.285713
2132.000000;1.652790
2131.000000;1.713097
2130.000000;1.518402
2129.000000;1.448346
2128.000000;1.358014
2127.000000;1.317533
2126.000000;1.311314
2125.000000;1.377097
2124.000000;1.629122
2123.000000;1.670238
2122.000000;1.303960
2121.000000;1.075898
2120.000000;0.998903
2119.000000;1.095390
2118.000000;1.129424
2117.000000;0.939428
2116.000000;0.853829
2115.000000;0.896885
2114.000000;1.029169
2113.000000;1.568046
2112.000000;1.760064
2111.000000;1.123056
2110.000000;0.970398
2109.000000;0.904912
2108.000000;0.967474
2107.000000;1.074986
2106.000000;1.080202
2105.000000;1.025772
2104.000000;1.032236
2103.000000;1.100214
2102.000000;1.181560
2101.000000;1.187302
2100.000000;1.144717
2099.000000;1.144856
2098.000000;1.162607
2097.000000;1.113049
2096.000000;1.061321
2095.000000;1.041872
2094.000000;1.004172
2093.000000;0.953096
2092.000000;0.942490
2091.000000;0.982642
2090.000000;1.011253
2089.000000;1.041317
2088.000000;1.061477
2087.000000;0.968961
2086.000000;0.909726
2085.000000;1.011658
2084.000000;1.174260
2083.000000;1.587939
2082.000000;1.307536
2081.000000;0.874050
2080.000000;0.732309
2079.000000;0.721181
2078.000000;0.809429
2077.000000;0.955771
2076.000000;1.007642
2075.000000;0.879953
2074.000000;0.794829
2073.000000;0.826730
2072.000000;0.972233
2071.000000;1.141394
2070.000000;1.148609
2069.000000;1.031120
2068.000000;0.964341
2067.000000;1.032328
2066.000000;1.091844
2065.000000;0.993161
2064.000000;0.998928
2063.000000;1.141005
2062.000000;1.235471
2061.000000;1.239779
2060.000000;1.193982
2059.000000;1.269750
2058.000000;1.233196
2057.000000;0.906604
2056.000000;0.785430
2055.000000;0.856136
2054.000000;1.058477
2053.000000;1.220722
2052.000000;1.435517
2051.000000;1.761754
2050.000000;1.907557
2049.000000;1.822592
2048.000000;1.527734
2047.000000;1.385259
2046.000000;1.238707
2045.000000;1.172927
2044.000000;1.220980
2043.000000;1.331422
2042.000000;1.447938
2041.000000;1.547184
2040.000000;1.704259
2039.000000;2.068582
2038.000000;1.560308
2037.000000;1.139775
2036.000000;0.947404
2035.000000;0.884238
2034.000000;0.936558
2033.000000;1.099963
2032.000000;1.134011
2031.000000;0.942822
2030.000000;0.842103
2029.000000;0.870277
2028.000000;1.115963
2027.000000;1.265357
2026.000000;1.089453
2025.000000;1.122993
2024.000000;1.469533
2023.000000;1.871377
2022.000000;1.586689
2021.000000;1.752220
2020.000000;1.552491
2019.000000;1.173724
2018.000000;1.012302
2017.000000;0.962524
2016.000000;0.985667
2015.000000;1.083247
2014.000000;1.259868
2013.000000;1.327462
2012.000000;1.280060
2011.000000;1.369396
2010.000000;1.358167
2009.000000;1.260897
2008.000000;1.311898
2007.000000;1.283174
2006.000000;1.126844
2005.000000;0.996721
2004.000000;0.898589
2003.000000;0.857260
2002.000000;0.881062
2001.000000;0.934362
2000.000000;0.954697
1999.000000;0.987739
1998.000000;1.143376
1997.000000;1.610989
1996.000000;1.769532
1995.000000;1.440298
1994.000000;1.204292
1993.000000;1.120825
1992.000000;1.153907
1991.000000;1.185708
1990.000000;1.170633
1989.000000;1.161839
1988.000000;1.190271
1987.000000;1.185417
1986.000000;1.142436
1985.000000;1.222805
1984.000000;1.380211
1983.000000;1.376674
1982.000000;1.477126
1981.000000;1.642126
1980.000000;1.666420
1979.000000;1.529621
1978.000000;1.251059
1977.000000;1.110107
1976.000000;1.049482
1975.000000;0.978037
1974.000000;0.902109
1973.000000;0.894205
1972.000000;1.003549
1971.000000;1.229396
1970.000000;1.011259
1969.000000;0.769719
1968.000000;0.695153
1967.000000;0.741652
1966.000000;0.894063
1965.000000;1.098444
1964.000000;1.282669
1963.000000;1.409996
1962.000000;1.389399
1961.000000;1.378620
1960.000000;1.526150
1959.000000;1.367157
1958.000000;1.076002
1957.000000;0.980417
1956.000000;1.010485
1955.000000;1.123766
1954.000000;1.256951
1953.000000;1.328525
1952.000000;1.309728
1951.000000;1.273173
1950.000000;1.314950
1949.000000;1.406366
1948.000000;1.384827
1947.000000;1.649606
1946.000000;1.633185
1945.000000;1.193795
1944.000000;1.077195
1943.000000;1.133252
1942.000000;1.404874
1941.000000;1.287632
1940.000000;0.911274
1939.000000;0.749118
1938.000000;0.730307
1937.000000;0.818770
1936.000000;0.991021
1935.000000;1.194174
1934.000000;1.295869
1933.000000;1.202644
1932.000000;1.077810
1931.000000;1.047547
1930.000000;1.163236
1929.000000;1.298872
1928.000000;1.123609
1927.000000;0.954336
1926.000000;0.915935
1925.000000;0.908678
1924.000000;0.822328
1923.000000;0.720597
1922.000000;0.689675
1921.000000;0.739404
1920.000000;0.823904
1919.000000;0.882811
1918.000000;0.942268
1917.000000;1.101537
1916.000000;1.303897
1915.000000;1.128362
1914.000000;0.989958
1913.000000;1.035382
1912.000000;1.264612
1911.000000;1.457606
1910.000000;1.311518
1909.000000;1.239573
1908.000000;1.137990
1907.000000;1.001220
1906.000000;0.944800
1905.000000;1.034209
1904.000000;1.316697
1903.000000;1.318333
1902.000000;1.151522
1901.000000;1.359953
1900.000000;1.246757
1899.000000;0.946935
1898.000000;1.040503
1897.000000;1.365941
1896.000000;1.109485
1895.000000;0.924585
1894.000000;1.048207
1893.000000;1.357421
1892.000000;2.078268
1891.000000;1.601045
1890.000000;1.138627
1889.000000;0.983264
1888.000000;0.982042
1887.000000;0.941882
1886.000000;0.822357
1885.000000;0.793319
1884.000000;1.001672
1883.000000;1.887353
1882.000000;1.253236
1881.000000;1.192483
1880.000000;1.204500
1879.000000;0.971215
1878.000000;0.909581
1877.000000;0.981095
1876.000000;1.074957
1875.000000;1.079210
1874.000000;1.154684
1873.000000;1.442436
1872.000000;1.328301
1871.000000;1.003544
1870.000000;0.840911
1869.000000;0.747910
1868.000000;0.762867
1867.000000;0.998650
1866.000000;1.327375
1865.000000;1.016327
1864.000000;0.855319
1863.000000;0.900899
1862.000000;1.018279
1861.000000;1.113047
1860.000000;1.189058
1859.000000;1.513445
1858.000000;1.634626
1857.000000;1.200283
1856.000000;1.166628
1855.000000;1.391527
1854.000000;1.489616
1853.000000;1.258651
1852.000000;0.920872
1851.000000;0.729390
1850.000000;0.696260
1849.000000;0.789382
1848.000000;0.933029
1847.000000;0.982860
1846.000000;0.977456
1845.000000;1.002469
1844.000000;1.072297
1843.000000;1.175763
1842.000000;1.256956
1841.000000;1.266636
1840.000000;1.185177
1839.000000;1.090790
1838.000000;1.067650
1837.000000;1.168055
1836.000000;1.383479
1835.000000;1.540013
1834.000000;1.361479
1833.000000;1.127875
1832.000000;0.953252
1831.000000;0.992990
1830.000000;1.500270
1829.000000;1.025903
1828.000000;0.707796
1827.000000;0.663606
1826.000000;0.728260
1825.000000;0.853857
1824.000000;0.998589
1823.000000;1.192265
1822.000000;1.459409
1821.000000;1.674397
1820.000000;1.494180
1819.000000;1.230896
1818.000000;1.064815
1817.000000;0.984463
1816.000000;1.022922
1815.000000;1.212023
1814.000000;1.213508
1813.000000;1.079877
1812.000000;1.177154
1811.000000;1.449031
1810.000000;1.326494
1809.000000;1.132577
1808.000000;1.094715
1807.000000;1.142105
1806.000000;1.167966
1805.000000;1.254235
1804.000000;1.696728
1803.000000;1.684085
1802.000000;1.271740
1801.000000;1.022784
1800.000000;0.836663
1799.000000;0.715669
1798.000000;0.647080
1797.000000;0.644499
1796.000000;0.725710
1795.000000;0.850599
1794.000000;0.953244
1793.000000;1.043200
1792.000000;1.043831
1791.000000;0.960723
1790.000000;0.899834
1789.000000;0.868661
1788.000000;0.876352
1787.000000;0.893074
1786.000000;0.901049
1785.000000;0.927163
1784.000000;1.005298
1783.000000;1.140147
1782.000000;1.353501
1781.000000;1.936948
1780.000000;1.439897
1779.000000;1.354812
1778.000000;1.609046
1777.000000;0.832397
1776.000000;0.508673
1775.000000;0.398578
1774.000000;0.401888
1773.000000;0.472865
1772.000000;0.557014
1771.000000;0.610622
1770.000000;0.635636
1769.000000;0.713706
1768.000000;0.901419
1767.000000;1.365321
1766.000000;2.035523
1765.000000;1.512216
1764.000000;1.235436
1763.000000;1.053020
1762.000000;1.078457
1761.000000;1.291962
1760.000000;1.079262
1759.000000;0.844128
1758.000000;0.803255
1757.000000;0.845597
1756.000000;0.940349
1755.000000;1.009789
1754.000000;0.978571
1753.000000;0.903328
1752.000000;0.830810
1751.000000;0.814570
1750.000000;0.897880
1749.000000;0.976544
1748.000000;0.930674
1747.000000;0.880921
1746.000000;0.887733
1745.000000;1.012126
1744.000000;1.237422
1743.000000;1.138537
1742.000000;0.857228
1741.000000;0.702280
1740.000000;0.673351
1739.000000;0.720013
1738.000000;0.729347
1737.000000;0.663925
1736.000000;0.648926
1735.000000;0.719579
1734.000000;0.873045
1733.000000;1.156536
1732.000000;1.236754
1731.000000;1.056156
1730.000000;1.054024
1729.000000;1.226971
1728.000000;1.521879
1727.000000;1.620659
1726.000000;1.412909
1725.000000;1.330509
1724.000000;1.112869
1723.000000;0.831411
1722.000000;0.690186
1721.000000;0.675135
1720.000000;0.711447
1719.000000;0.661521
1718.000000;0.529255
1717.000000;0.425017
1716.000000;0.399096
1715.000000;0.456905
1714.000000;0.630280
1713.000000;1.112056
1712.000000;1.183160
1711.000000;0.811493
1710.000000;0.950529
1709.000000;1.186354
1708.000000;0.966885
1707.000000;0.830596
1706.000000;0.839108
1705.000000;0.879131
1704.000000;0.861079
1703.000000;0.831200
1702.000000;0.873255
1701.000000;0.992333
1700.000000;0.910344
1699.000000;0.693410
1698.000000;0.630581
1697.000000;0.671254
1696.000000;0.689845
1695.000000;0.676749
1694.000000;0.664568
1693.000000;0.673675
1692.000000;0.711557
1691.000000;0.785516
1690.000000;0.874222
1689.000000;0.960951
1688.000000;0.897528
1687.000000;0.677463
1686.000000;0.534192
1685.000000;0.481684
1684.000000;0.492938
1683.000000;0.543376
1682.000000;0.567688
1681.000000;0.605761
1680.000000;0.784226
1679.000000;0.893540
1678.000000;0.748061
1677.000000;0.733690
1676.000000;0.865930
1675.000000;1.068760
1674.000000;1.191508
1673.000000;0.980200
1672.000000;0.762295
1671.000000;0.695180
1670.000000;0.796856
1669.000000;1.130435
1668.000000;1.375358
1667.000000;1.090860
1666.000000;0.883631
1665.000000;0.740612
1664.000000;0.672478
1663.000000;0.673605
1662.000000;0.742477
1661.000000;0.929051
1660.000000;1.141934
1659.000000;1.186314
1658.000000;1.124483
1657.000000;1.043660
1656.000000;1.144905
1655.000000;1.050389
1654.000000;0.814869
1653.000000;0.793641
1652.000000;1.013563
1651.000000;1.144219
1650.000000;0.976513
1649.000000;1.005775
1648.000000;1.035522
1647.000000;0.960922
1646.000000;0.933668
1645.000000;0.933698
1644.000000;0.920877
1643.000000;0.986325
1642.000000;1.197461
1641.000000;1.333947
1640.000000;1.425330
1639.000000;1.221669
1638.000000;0.960854
1637.000000;0.948126
1636.000000;1.019293
1635.000000;1.016231
1634.000000;1.183874
1633.000000;1.284019
1632.000000;1.063121
1631.000000;1.210935
1630.000000;1.140813
1629.000000;0.833769
1628.000000;0.754272
1627.000000;0.825043
1626.000000;1.011288
1625.000000;0.997090
1624.000000;0.918647
1623.000000;1.072753
1622.000000;1.499011
1621.000000;1.177464
1620.000000;1.058998
1619.000000;1.497861
1618.000000;1.436343
1617.000000;1.205848
1616.000000;1.453177
1615.000000;2.312316
1614.000000;1.583463
1613.000000;1.244391
1612.000000;1.113037
1611.000000;1.120074
1610.000000;1.163874
1609.000000;0.951491
1608.000000;0.722204
1607.000000;0.610913
1606.000000;0.636107
1605.000000;0.789779
1604.000000;0.968371
1603.000000;0.889019
1602.000000;0.671676
1601.000000;0.557486
1600.000000;0.583425
1599.000000;0.737959
1598.000000;0.939366
1597.000000;1.017235
1596.000000;0.976337
1595.000000;0.917619
1594.000000;0.932995
1593.000000;0.900870
1592.000000;0.691706
1591.000000;0.523713
1590.000000;0.469434
1589.000000;0.516664
1588.000000;0.649701
1587.000000;0.806486
1586.000000;0.903359
1585.000000;0.942958
1584.000000;1.112289
1583.000000;1.543231
1582.000000;1.278481
1581.000000;0.863523
1580.000000;0.615621
1579.000000;0.473625
1578.000000;0.437871
1577.000000;0.451321
1576.000000;0.449316
1575.000000;0.421828
1574.000000;0.406019
1573.000000;0.430178
1572.000000;0.474690
1571.000000;0.510607
1570.000000;0.554019
1569.000000;0.640852
1568.000000;0.764614
1567.000000;0.825603
1566.000000;0.834010
1565.000000;0.850558
1564.000000;1.113690
1563.000000;1.335723
1562.000000;0.801351
1561.000000;0.628175
1560.000000;0.729664
1559.000000;1.130363
1558.000000;1.058617
1557.000000;0.773094
1556.000000;0.791763
1555.000000;0.798816
1554.000000;0.800907
1553.000000;0.879157
1552.000000;1.073768
1551.000000;1.182514
1550.000000;1.081454
1549.000000;1.030606
1548.000000;0.970866
1547.000000;0.865418
1546.000000;0.862978
1545.000000;1.297433
1544.000000;1.351492
1543.000000;0.870275
1542.000000;0.758064
1541.000000;0.654875
1540.000000;0.574421
1539.000000;0.556891
1538.000000;0.601527
1537.000000;0.676374
1536.000000;0.706011
1535.000000;0.690745
1534.000000;0.685851
1533.000000;0.757878
1532.000000;0.971211
1531.000000;1.463199
1530.000000;1.774457
1529.000000;1.307210
1528.000000;0.975075
1527.000000;0.713542
1526.000000;0.554641
1525.000000;0.502780
1524.000000;0.567925
1523.000000;0.680853
1522.000000;0.663792
1521.000000;0.586491
1520.000000;0.599560
1519.000000;0.747008
1518.000000;0.939029
1517.000000;0.856475
1516.000000;0.641918
1515.000000;0.497855
1514.000000;0.438430
1513.000000;0.452485
1512.000000;0.537925
1511.000000;0.671438
1510.000000;0.639380
1509.000000;0.506081
1508.000000;0.476562
1507.000000;0.522003
1506.000000;0.544637
1505.000000;0.536923
1504.000000;0.568668
1503.000000;0.635746
1502.000000;0.720984
1501.000000;0.862979
1500.000000;1.057992
1499.000000;1.106920
1498.000000;0.955596
1497.000000;0.831285
1496.000000;0.809951
1495.000000;0.881747
1494.000000;0.912515
1493.000000;0.903822
1492.000000;0.903444
1491.000000;0.812565
1490.000000;0.733543
1489.000000;0.786203
1488.000000;0.922360
1487.000000;0.866463
1486.000000;0.748947
1485.000000;0.712243
1484.000000;0.688136
1483.000000;0.735947
1482.000000;0.755593
1481.000000;0.613810
1480.000000;0.547937
1479.000000;0.628185
1478.000000;0.814936
1477.000000;1.057719
1476.000000;1.223173
1475.000000;1.259251
1474.000000;1.429117
1473.000000;1.425020
1472.000000;1.112006
1471.000000;1.012160
1470.000000;1.038420
1469.000000;1.085823
1468.000000;1.135147
1467.000000;1.117285
1466.000000;0.867981
1465.000000;0.602278
1464.000000;0.444353
1463.000000;0.401129
1462.000000;0.460410
1461.000000;0.622725
1460.000000;0.729179
1459.000000;0.844890
1458.000000;1.285749
1457.000000;1.009828
1456.000000;0.781228
1455.000000;0.826229
1454.000000;1.055335
1453.000000;1.547679
1452.000000;1.672340
1451.000000;1.319870
1450.000000;0.916480
1449.000000;0.711591
1448.000000;0.697317
1447.000000;0.857812
1446.000000;1.148431
1445.000000;1.239119
1444.000000;0.941407
1443.000000;0.652872
1442.000000;0.520751
1441.000000;0.459337
1440.000000;0.465065
1439.000000;0.561734
1438.000000;0.785488
1437.000000;1.466411
1436.000000;1.289585
1435.000000;0.907302
1434.000000;1.076069
1433.000000;1.360447
1432.000000;1.268384
1431.000000;1.422038
1430.000000;1.302378
1429.000000;1.032199
1428.000000;1.004218
1427.000000;0.998335
1426.000000;0.889843
1425.000000;0.840946
1424.000000;0.808133
1423.000000;0.980362
1422.000000;1.380126
1421.000000;0.758259
1420.000000;0.467256
1419.000000;0.369949
1418.000000;0.380075
1417.000000;0.480117
1416.000000;0.607126
1415.000000;0.733979
1414.000000;0.832035
1413.000000;0.868179
1412.000000;0.765160
1411.000000;0.645365
1410.000000;0.601452
1409.000000;0.690162
1408.000000;0.944399
1407.000000;0.846738
1406.000000;0.613498
1405.000000;0.543597
1404.000000;0.554765
1403.000000;0.612144
1402.000000;0.667999
1401.000000;0.717836
1400.000000;0.771443
1399.000000;0.751900
1398.000000;0.673259
1397.000000;0.725477
1396.000000;0.994072
1395.000000;0.947141
1394.000000;0.707681
1393.000000;0.676600
1392.000000;0.735139
1391.000000;0.776010
1390.000000;0.777409
1389.000000;0.765776
1388.000000;0.753008
1387.000000;0.768421
1386.000000;0.770342
1385.000000;0.637639
1384.000000;0.489011
1383.000000;0.450850
1382.000000;0.549782
1381.000000;0.882844
1380.000000;1.488581
1379.000000;1.287156
1378.000000;1.134109
1377.000000;1.098553
1376.000000;1.225929
1375.000000;1.117660
1374.000000;0.841248
1373.000000;0.790718
1372.000000;1.006943
1371.000000;1.279439
1370.000000;1.043240
1369.000000;1.025511
1368.000000;0.933669
1367.000000;0.804877
1366.000000;0.875986
1365.000000;0.933475
1364.000000;0.819066
1363.000000;0.907338
1362.000000;1.261041
1361.000000;1.002629
1360.000000;0.778048
1359.000000;0.868367
1358.000000;0.972374
1357.000000;0.902392
1356.000000;0.924149
1355.000000;0.997603
1354.000000;0.904378
1353.000000;0.832700
1352.000000;0.919951
1351.000000;1.053712
1350.000000;0.996344
1349.000000;0.929874
1348.000000;1.000902
1347.000000;1.117562
1346.000000;1.374797
1345.000000;1.679229
1344.000000;0.951203
1343.000000;0.689967
1342.000000;0.590791
1341.000000;0.532758
1340.000000;0.500013
1339.000000;0.524370
1338.000000;0.611303
1337.000000;0.669731
1336.000000;0.674063
1335.000000;0.714709
1334.000000;0.904622
1333.000000;0.998036
1332.000000;0.833811
1331.000000;0.847001
1330.000000;0.830244
1329.000000;0.681931
1328.000000;0.631672
1327.000000;0.725882
1326.000000;0.967999
1325.000000;1.130440
1324.000000;1.107871
1323.000000;1.133831
1322.000000;1.047482
1321.000000;0.956361
1320.000000;0.982864
1319.000000;1.019968
1318.000000;0.871572
1317.000000;0.671913
1316.000000;0.570609
1315.000000;0.565226
1314.000000;0.595237
1313.000000;0.631236
1312.000000;0.739704
1311.000000;1.000648
1310.000000;1.165396
1309.000000;1.044881
1308.000000;0.937415
1307.000000;0.751689
1306.000000;0.610723
1305.000000;0.532464
1304.000000;0.484508
1303.000000;0.450017
1302.000000;0.446678
1301.000000;0.505176
1300.000000;0.655760
1299.000000;1.097790
1298.000000;1.355809
1297.000000;1.049317
1296.000000;1.274377
1295.000000;1.399433
1294.000000;0.896884
1293.000000;0.713199
1292.000000;0.681856
1291.000000;0.724040
1290.000000;0.736945
1289.000000;0.667329
1288.000000;0.581364
1287.000000;0.506148
1286.000000;0.492628
1285.000000;0.558816
1284.000000;0.923267
1283.000000;1.444291
1282.000000;0.783835
1281.000000;0.723811
1280.000000;0.888494
1279.000000;1.167984
1278.000000;1.000830
1277.000000;0.828084
1276.000000;0.721693
1275.000000;0.580204
1274.000000;0.512489
1273.000000;0.547844
1272.000000;0.676612
1271.000000;0.806519
1270.000000;0.763132
1269.000000;0.610398
1268.000000;0.522556
1267.000000;0.552719
1266.000000;0.689706
1265.000000;0.848773
1264.000000;0.871675
1263.000000;0.806213
1262.000000;0.791388
1261.000000;0.915567
1260.000000;1.140699
1259.000000;1.169461
1258.000000;1.378303
1257.000000;1.174724
1256.000000;0.741571
1255.000000;0.617238
1254.000000;0.605832
1253.000000;0.673148
1252.000000;0.842936
1251.000000;1.100814
1250.000000;1.002541
1249.000000;0.917762
1248.000000;1.423196
1247.000000;1.025221
1246.000000;0.699092
1245.000000;0.712318
1244.000000;0.847081
1243.000000;0.937815
1242.000000;0.831810
1241.000000;0.748176
1240.000000;0.767704
1239.000000;0.943559
1238.000000;1.190033
1237.000000;0.867274
1236.000000;0.683760
1235.000000;0.666759
1234.000000;0.901759
1233.000000;1.522781
1232.000000;0.902574
1231.000000;0.717373
1230.000000;0.636720
1229.000000;0.616870
1228.000000;0.685555
1227.000000;1.135758
1226.000000;1.251134
1225.000000;0.711435
1224.000000;0.633602
1223.000000;0.663506
1222.000000;0.891753
1221.000000;1.301507
1220.000000;1.077561
1219.000000;0.862474
1218.000000;0.770226
1217.000000;0.678744
1216.000000;0.614882
1215.000000;0.590550
1214.000000;0.576835
1213.000000;0.542237
1212.000000;0.529723
1211.000000;0.576615
1210.000000;0.668927
1209.000000;0.721178
1208.000000;0.631485
1207.000000;0.526952
1206.000000;0.523730
1205.000000;0.649880
1204.000000;0.967699
1203.000000;1.107020
1202.000000;0.769768
1201.000000;0.600345
1200.000000;0.474146
