Criado como novo conjunto de dados;"2706_e01_daniel.spp","66785.7 Secs"
cm-1;Abs
10000.000000;0.743857
9999.000000;0.743942
9998.000000;0.744050
9997.000000;0.743846
9996.000000;0.743278
9995.000000;0.742785
9994.000000;0.742723
9993.000000;0.742948
9992.000000;0.742999
9991.000000;0.742647
9990.000000;0.742114
9989.000000;0.741832
9988.000000;0.742001
9987.000000;0.742352
9986.000000;0.742374
9985.000000;0.741830
9984.000000;0.741003
9983.000000;0.740377
9982.000000;0.740193
9981.000000;0.740357
9980.000000;0.740655
9979.000000;0.740901
9978.000000;0.740970
9977.000000;0.740818
9976.000000;0.740495
9975.000000;0.740113
9974.000000;0.739811
9973.000000;0.739729
9972.000000;0.739892
9971.000000;0.740124
9970.000000;0.740207
9969.000000;0.740157
9968.000000;0.740188
9967.000000;0.740368
9966.000000;0.740499
9965.000000;0.740388
9964.000000;0.740105
9963.000000;0.739893
9962.000000;0.739905
9961.000000;0.740081
9960.000000;0.740136
9959.000000;0.739708
9958.000000;0.738688
9957.000000;0.737495
9956.000000;0.736830
9955.000000;0.737057
9954.000000;0.737865
9953.000000;0.738581
9952.000000;0.738714
9951.000000;0.738240
9950.000000;0.737538
9949.000000;0.737072
9948.000000;0.737020
9947.000000;0.737161
9946.000000;0.737218
9945.000000;0.737204
9944.000000;0.737270
9943.000000;0.737329
9942.000000;0.737116
9941.000000;0.736611
9940.000000;0.736114
9939.000000;0.735897
9938.000000;0.736012
9937.000000;0.736408
9936.000000;0.736938
9935.000000;0.737268
9934.000000;0.737090
9933.000000;0.736497
9932.000000;0.735842
9931.000000;0.735238
9930.000000;0.734529
9929.000000;0.733767
9928.000000;0.733302
9927.000000;0.733268
9926.000000;0.733397
9925.000000;0.733488
9924.000000;0.733714
9923.000000;0.734221
9922.000000;0.734754
9921.000000;0.734937
9920.000000;0.734707
9919.000000;0.734267
9918.000000;0.733845
9917.000000;0.733656
9916.000000;0.733832
9915.000000;0.734180
9914.000000;0.734265
9913.000000;0.733956
9912.000000;0.733645
9911.000000;0.733738
9910.000000;0.734152
9909.000000;0.734541
9908.000000;0.734709
9907.000000;0.734570
9906.000000;0.734018
9905.000000;0.733199
9904.000000;0.732673
9903.000000;0.732862
9902.000000;0.733449
9901.000000;0.733695
9900.000000;0.733313
9899.000000;0.732701
9898.000000;0.732325
9897.000000;0.732231
9896.000000;0.732201
9895.000000;0.732128
9894.000000;0.732057
9893.000000;0.732036
9892.000000;0.732057
9891.000000;0.732081
9890.000000;0.732079
9889.000000;0.732052
9888.000000;0.731988
9887.000000;0.731768
9886.000000;0.731227
9885.000000;0.730397
9884.000000;0.729622
9883.000000;0.729291
9882.000000;0.729483
9881.000000;0.729929
9880.000000;0.730295
9879.000000;0.730410
9878.000000;0.730275
9877.000000;0.729970
9876.000000;0.729589
9875.000000;0.729197
9874.000000;0.728820
9873.000000;0.728470
9872.000000;0.728174
9871.000000;0.727982
9870.000000;0.727936
9869.000000;0.728012
9868.000000;0.728079
9867.000000;0.728018
9866.000000;0.727894
9865.000000;0.727912
9864.000000;0.728107
9863.000000;0.728210
9862.000000;0.727978
9861.000000;0.727558
9860.000000;0.727342
9859.000000;0.727524
9858.000000;0.727962
9857.000000;0.728388
9856.000000;0.728562
9855.000000;0.728351
9854.000000;0.727888
9853.000000;0.727564
9852.000000;0.727597
9851.000000;0.727703
9850.000000;0.727468
9849.000000;0.726984
9848.000000;0.726766
9847.000000;0.727073
9846.000000;0.727653
9845.000000;0.728178
9844.000000;0.728533
9843.000000;0.728644
9842.000000;0.728416
9841.000000;0.727994
9840.000000;0.727721
9839.000000;0.727650
9838.000000;0.727402
9837.000000;0.726730
9836.000000;0.725935
9835.000000;0.725514
9834.000000;0.725589
9833.000000;0.725892
9832.000000;0.726117
9831.000000;0.726109
9830.000000;0.725859
9829.000000;0.725507
9828.000000;0.725236
9827.000000;0.725057
9826.000000;0.724850
9825.000000;0.724675
9824.000000;0.724820
9823.000000;0.725388
9822.000000;0.726070
9821.000000;0.726476
9820.000000;0.726522
9819.000000;0.726311
9818.000000;0.725881
9817.000000;0.725262
9816.000000;0.724671
9815.000000;0.724380
9814.000000;0.724446
9813.000000;0.724699
9812.000000;0.724923
9811.000000;0.724959
9810.000000;0.724748
9809.000000;0.724407
9808.000000;0.724168
9807.000000;0.724129
9806.000000;0.724110
9805.000000;0.723857
9804.000000;0.723282
9803.000000;0.722490
9802.000000;0.721677
9801.000000;0.721062
9800.000000;0.720815
9799.000000;0.720943
9798.000000;0.721321
9797.000000;0.721831
9796.000000;0.722378
9795.000000;0.722805
9794.000000;0.722957
9793.000000;0.722848
9792.000000;0.722583
9791.000000;0.722165
9790.000000;0.721585
9789.000000;0.721084
9788.000000;0.721024
9787.000000;0.721385
9786.000000;0.721660
9785.000000;0.721385
9784.000000;0.720625
9783.000000;0.719805
9782.000000;0.719269
9781.000000;0.719087
9780.000000;0.719096
9779.000000;0.719036
9778.000000;0.718809
9777.000000;0.718676
9776.000000;0.718993
9775.000000;0.719679
9774.000000;0.720193
9773.000000;0.720147
9772.000000;0.719713
9771.000000;0.719318
9770.000000;0.719178
9769.000000;0.719318
9768.000000;0.719767
9767.000000;0.720468
9766.000000;0.721154
9765.000000;0.721532
9764.000000;0.721529
9763.000000;0.721206
9762.000000;0.720583
9761.000000;0.719738
9760.000000;0.718929
9759.000000;0.718436
9758.000000;0.718307
9757.000000;0.718402
9756.000000;0.718571
9755.000000;0.718683
9754.000000;0.718606
9753.000000;0.718366
9752.000000;0.718229
9751.000000;0.718461
9750.000000;0.719006
9749.000000;0.719495
9748.000000;0.719554
9747.000000;0.719072
9746.000000;0.718259
9745.000000;0.717515
9744.000000;0.717151
9743.000000;0.717152
9742.000000;0.717273
9741.000000;0.717386
9740.000000;0.717601
9739.000000;0.718000
9738.000000;0.718406
9737.000000;0.718525
9736.000000;0.718219
9735.000000;0.717600
9734.000000;0.716959
9733.000000;0.716626
9732.000000;0.716725
9731.000000;0.716986
9730.000000;0.716966
9729.000000;0.716522
9728.000000;0.715953
9727.000000;0.715580
9726.000000;0.715397
9725.000000;0.715209
9724.000000;0.714960
9723.000000;0.714765
9722.000000;0.714731
9721.000000;0.714869
9720.000000;0.715096
9719.000000;0.715254
9718.000000;0.715216
9717.000000;0.715028
9716.000000;0.714819
9715.000000;0.714562
9714.000000;0.714099
9713.000000;0.713464
9712.000000;0.712965
9711.000000;0.712831
9710.000000;0.712952
9709.000000;0.713085
9708.000000;0.713177
9707.000000;0.713331
9706.000000;0.713581
9705.000000;0.713836
9704.000000;0.713981
9703.000000;0.713930
9702.000000;0.713667
9701.000000;0.713320
9700.000000;0.713084
9699.000000;0.713008
9698.000000;0.712986
9697.000000;0.712965
9696.000000;0.712998
9695.000000;0.713026
9694.000000;0.712852
9693.000000;0.712495
9692.000000;0.712332
9691.000000;0.712675
9690.000000;0.713325
9689.000000;0.713757
9688.000000;0.713667
9687.000000;0.713138
9686.000000;0.712375
9685.000000;0.711508
9684.000000;0.710688
9683.000000;0.710196
9682.000000;0.710307
9681.000000;0.711042
9680.000000;0.712044
9679.000000;0.712758
9678.000000;0.712871
9677.000000;0.712592
9676.000000;0.712379
9675.000000;0.712396
9674.000000;0.712388
9673.000000;0.712135
9672.000000;0.711790
9671.000000;0.711602
9670.000000;0.711529
9669.000000;0.711319
9668.000000;0.710888
9667.000000;0.710377
9666.000000;0.709900
9665.000000;0.709450
9664.000000;0.709075
9663.000000;0.708924
9662.000000;0.709049
9661.000000;0.709296
9660.000000;0.709480
9659.000000;0.709608
9658.000000;0.709823
9657.000000;0.710154
9656.000000;0.710399
9655.000000;0.710335
9654.000000;0.710017
9653.000000;0.709774
9652.000000;0.709863
9651.000000;0.710187
9650.000000;0.710419
9649.000000;0.710340
9648.000000;0.709959
9647.000000;0.709392
9646.000000;0.708782
9645.000000;0.708327
9644.000000;0.708205
9643.000000;0.708404
9642.000000;0.708701
9641.000000;0.708851
9640.000000;0.708759
9639.000000;0.708481
9638.000000;0.708161
9637.000000;0.707962
9636.000000;0.707924
9635.000000;0.707906
9634.000000;0.707752
9633.000000;0.707539
9632.000000;0.707512
9631.000000;0.707778
9630.000000;0.708169
9629.000000;0.708401
9628.000000;0.708285
9627.000000;0.707809
9626.000000;0.707175
9625.000000;0.706756
9624.000000;0.706802
9623.000000;0.707127
9622.000000;0.707258
9621.000000;0.706959
9620.000000;0.706496
9619.000000;0.706294
9618.000000;0.706474
9617.000000;0.706805
9616.000000;0.706991
9615.000000;0.706920
9614.000000;0.706695
9613.000000;0.706525
9612.000000;0.706549
9611.000000;0.706717
9610.000000;0.706867
9609.000000;0.706877
9608.000000;0.706699
9607.000000;0.706307
9606.000000;0.705755
9605.000000;0.705238
9604.000000;0.704941
9603.000000;0.704821
9602.000000;0.704702
9601.000000;0.704554
9600.000000;0.704524
9599.000000;0.704638
9598.000000;0.704709
9597.000000;0.704626
9596.000000;0.704573
9595.000000;0.704805
9594.000000;0.705277
9593.000000;0.705629
9592.000000;0.705509
9591.000000;0.704887
9590.000000;0.704102
9589.000000;0.703612
9588.000000;0.703629
9587.000000;0.703942
9586.000000;0.704149
9585.000000;0.704050
9584.000000;0.703747
9583.000000;0.703426
9582.000000;0.703187
9581.000000;0.703104
9580.000000;0.703258
9579.000000;0.703614
9578.000000;0.703952
9577.000000;0.704019
9576.000000;0.703743
9575.000000;0.703263
9574.000000;0.702790
9573.000000;0.702414
9572.000000;0.702049
9571.000000;0.701595
9570.000000;0.701174
9569.000000;0.701090
9568.000000;0.701457
9567.000000;0.701996
9566.000000;0.702329
9565.000000;0.702370
9564.000000;0.702267
9563.000000;0.702085
9562.000000;0.701801
9561.000000;0.701522
9560.000000;0.701444
9559.000000;0.701577
9558.000000;0.701731
9557.000000;0.701804
9556.000000;0.701850
9555.000000;0.701855
9554.000000;0.701676
9553.000000;0.701269
9552.000000;0.700794
9551.000000;0.700410
9550.000000;0.700140
9549.000000;0.699988
9548.000000;0.700017
9547.000000;0.700227
9546.000000;0.700521
9545.000000;0.700851
9544.000000;0.701232
9543.000000;0.701558
9542.000000;0.701584
9541.000000;0.701186
9540.000000;0.700517
9539.000000;0.699837
9538.000000;0.699321
9537.000000;0.699073
9536.000000;0.699166
9535.000000;0.699532
9534.000000;0.699942
9533.000000;0.700151
9532.000000;0.700036
9531.000000;0.699582
9530.000000;0.698868
9529.000000;0.698117
9528.000000;0.697601
9527.000000;0.697442
9526.000000;0.697568
9525.000000;0.697872
9524.000000;0.698277
9523.000000;0.698646
9522.000000;0.698820
9521.000000;0.698785
9520.000000;0.698689
9519.000000;0.698659
9518.000000;0.698716
9517.000000;0.698854
9516.000000;0.699019
9515.000000;0.698991
9514.000000;0.698507
9513.000000;0.697613
9512.000000;0.696748
9511.000000;0.696385
9510.000000;0.696647
9509.000000;0.697283
9508.000000;0.697890
9507.000000;0.698154
9506.000000;0.698050
9505.000000;0.697834
9504.000000;0.697732
9503.000000;0.697660
9502.000000;0.697381
9501.000000;0.696928
9500.000000;0.696601
9499.000000;0.696542
9498.000000;0.696532
9497.000000;0.696319
9496.000000;0.695931
9495.000000;0.695577
9494.000000;0.695399
9493.000000;0.695405
9492.000000;0.695506
9491.000000;0.695542
9490.000000;0.695416
9489.000000;0.695249
9488.000000;0.695249
9487.000000;0.695406
9486.000000;0.695520
9485.000000;0.695537
9484.000000;0.695616
9483.000000;0.695763
9482.000000;0.695692
9481.000000;0.695235
9480.000000;0.694671
9479.000000;0.694409
9478.000000;0.694484
9477.000000;0.694584
9476.000000;0.694489
9475.000000;0.694285
9474.000000;0.694178
9473.000000;0.694239
9472.000000;0.694338
9471.000000;0.694276
9470.000000;0.693997
9469.000000;0.693697
9468.000000;0.693626
9467.000000;0.693751
9466.000000;0.693770
9465.000000;0.693497
9464.000000;0.693098
9463.000000;0.692871
9462.000000;0.692927
9461.000000;0.693195
9460.000000;0.693565
9459.000000;0.693931
9458.000000;0.694178
9457.000000;0.694261
9456.000000;0.694208
9455.000000;0.694004
9454.000000;0.693616
9453.000000;0.693199
9452.000000;0.693087
9451.000000;0.693415
9450.000000;0.693857
9449.000000;0.693931
9448.000000;0.693490
9447.000000;0.692795
9446.000000;0.692191
9445.000000;0.691844
9444.000000;0.691732
9443.000000;0.691735
9442.000000;0.691731
9441.000000;0.691707
9440.000000;0.691739
9439.000000;0.691824
9438.000000;0.691814
9437.000000;0.691612
9436.000000;0.691318
9435.000000;0.691096
9434.000000;0.690949
9433.000000;0.690772
9432.000000;0.690543
9431.000000;0.690316
9430.000000;0.690081
9429.000000;0.689781
9428.000000;0.689487
9427.000000;0.689393
9426.000000;0.689608
9425.000000;0.690011
9424.000000;0.690370
9423.000000;0.690522
9422.000000;0.690453
9421.000000;0.690263
9420.000000;0.690085
9419.000000;0.689990
9418.000000;0.689943
9417.000000;0.689868
9416.000000;0.689742
9415.000000;0.689599
9414.000000;0.689451
9413.000000;0.689258
9412.000000;0.688995
9411.000000;0.688716
9410.000000;0.688517
9409.000000;0.688433
9408.000000;0.688418
9407.000000;0.688429
9406.000000;0.688477
9405.000000;0.688556
9404.000000;0.688580
9403.000000;0.688492
9402.000000;0.688416
9401.000000;0.688561
9400.000000;0.688917
9399.000000;0.689185
9398.000000;0.689096
9397.000000;0.688693
9396.000000;0.688209
9395.000000;0.687762
9394.000000;0.687340
9393.000000;0.686988
9392.000000;0.686832
9391.000000;0.686933
9390.000000;0.687235
9389.000000;0.687626
9388.000000;0.687933
9387.000000;0.687926
9386.000000;0.687491
9385.000000;0.686806
9384.000000;0.686206
9383.000000;0.685861
9382.000000;0.685708
9381.000000;0.685659
9380.000000;0.685721
9379.000000;0.685882
9378.000000;0.686037
9377.000000;0.686068
9376.000000;0.685921
9375.000000;0.685614
9374.000000;0.685270
9373.000000;0.685114
9372.000000;0.685280
9371.000000;0.685606
9370.000000;0.685750
9369.000000;0.685548
9368.000000;0.685135
9367.000000;0.684736
9366.000000;0.684479
9365.000000;0.684431
9364.000000;0.684610
9363.000000;0.684900
9362.000000;0.685084
9361.000000;0.685035
9360.000000;0.684812
9359.000000;0.684514
9358.000000;0.684173
9357.000000;0.683824
9356.000000;0.683577
9355.000000;0.683528
9354.000000;0.683649
9353.000000;0.683809
9352.000000;0.683888
9351.000000;0.683852
9350.000000;0.683761
9349.000000;0.683684
9348.000000;0.683603
9347.000000;0.683462
9346.000000;0.683332
9345.000000;0.683386
9344.000000;0.683612
9343.000000;0.683724
9342.000000;0.683519
9341.000000;0.683192
9340.000000;0.683047
9339.000000;0.683042
9338.000000;0.682892
9337.000000;0.682584
9336.000000;0.682446
9335.000000;0.682652
9334.000000;0.682981
9333.000000;0.683141
9332.000000;0.683081
9331.000000;0.682875
9330.000000;0.682552
9329.000000;0.682194
9328.000000;0.681988
9327.000000;0.681991
9326.000000;0.681997
9325.000000;0.681799
9324.000000;0.681495
9323.000000;0.681369
9322.000000;0.681542
9321.000000;0.681871
9320.000000;0.682109
9319.000000;0.682090
9318.000000;0.681831
9317.000000;0.681523
9316.000000;0.681356
9315.000000;0.681286
9314.000000;0.681102
9313.000000;0.680751
9312.000000;0.680464
9311.000000;0.680472
9310.000000;0.680724
9309.000000;0.681006
9308.000000;0.681177
9307.000000;0.681205
9306.000000;0.681048
9305.000000;0.680687
9304.000000;0.680223
9303.000000;0.679815
9302.000000;0.679543
9301.000000;0.679404
9300.000000;0.679391
9299.000000;0.679485
9298.000000;0.679588
9297.000000;0.679566
9296.000000;0.679350
9295.000000;0.678985
9294.000000;0.678609
9293.000000;0.678376
9292.000000;0.678348
9291.000000;0.678418
9290.000000;0.678403
9289.000000;0.678223
9288.000000;0.677952
9287.000000;0.677694
9286.000000;0.677503
9285.000000;0.677415
9284.000000;0.677465
9283.000000;0.677614
9282.000000;0.677745
9281.000000;0.677771
9280.000000;0.677682
9279.000000;0.677514
9278.000000;0.677335
9277.000000;0.677262
9276.000000;0.677384
9275.000000;0.677665
9274.000000;0.677987
9273.000000;0.678291
9272.000000;0.678548
9271.000000;0.678642
9270.000000;0.678428
9269.000000;0.677940
9268.000000;0.677385
9267.000000;0.676913
9266.000000;0.676526
9265.000000;0.676256
9264.000000;0.676212
9263.000000;0.676361
9262.000000;0.676420
9261.000000;0.676142
9260.000000;0.675636
9259.000000;0.675266
9258.000000;0.675250
9257.000000;0.675458
9256.000000;0.675588
9255.000000;0.675479
9254.000000;0.675259
9253.000000;0.675204
9252.000000;0.675439
9251.000000;0.675797
9250.000000;0.676012
9249.000000;0.676017
9248.000000;0.675935
9247.000000;0.675839
9246.000000;0.675666
9245.000000;0.675409
9244.000000;0.675215
9243.000000;0.675211
9242.000000;0.675328
9241.000000;0.675386
9240.000000;0.675280
9239.000000;0.675049
9238.000000;0.674820
9237.000000;0.674716
9236.000000;0.674737
9235.000000;0.674711
9234.000000;0.674469
9233.000000;0.674082
9232.000000;0.673819
9231.000000;0.673851
9230.000000;0.674086
9229.000000;0.674337
9228.000000;0.674517
9227.000000;0.674624
9226.000000;0.674677
9225.000000;0.674725
9224.000000;0.674818
9223.000000;0.674871
9222.000000;0.674672
9221.000000;0.674115
9220.000000;0.673352
9219.000000;0.672637
9218.000000;0.672116
9217.000000;0.671801
9216.000000;0.671666
9215.000000;0.671664
9214.000000;0.671733
9213.000000;0.671858
9212.000000;0.672056
9211.000000;0.672261
9210.000000;0.672324
9209.000000;0.672190
9208.000000;0.671980
9207.000000;0.671823
9206.000000;0.671696
9205.000000;0.671523
9204.000000;0.671331
9203.000000;0.671195
9202.000000;0.671115
9201.000000;0.671086
9200.000000;0.671197
9199.000000;0.671540
9198.000000;0.672014
9197.000000;0.672361
9196.000000;0.672398
9195.000000;0.672149
9194.000000;0.671761
9193.000000;0.671391
9192.000000;0.671155
9191.000000;0.671082
9190.000000;0.671058
9189.000000;0.670911
9188.000000;0.670604
9187.000000;0.670313
9186.000000;0.670246
9185.000000;0.670422
9184.000000;0.670653
9183.000000;0.670772
9182.000000;0.670788
9181.000000;0.670791
9180.000000;0.670750
9179.000000;0.670522
9178.000000;0.670081
9177.000000;0.669631
9176.000000;0.669423
9175.000000;0.669491
9174.000000;0.669653
9173.000000;0.669735
9172.000000;0.669713
9171.000000;0.669666
9170.000000;0.669695
9169.000000;0.669855
9168.000000;0.670093
9167.000000;0.670220
9166.000000;0.670053
9165.000000;0.669611
9164.000000;0.669116
9163.000000;0.668777
9162.000000;0.668624
9161.000000;0.668546
9160.000000;0.668432
9159.000000;0.668249
9158.000000;0.668024
9157.000000;0.667795
9156.000000;0.667571
9155.000000;0.667350
9154.000000;0.667162
9153.000000;0.667039
9152.000000;0.666956
9151.000000;0.666865
9150.000000;0.666831
9149.000000;0.666976
9148.000000;0.667242
9147.000000;0.667334
9146.000000;0.667054
9145.000000;0.666588
9144.000000;0.666287
9143.000000;0.666254
9142.000000;0.666322
9141.000000;0.666363
9140.000000;0.666400
9139.000000;0.666425
9138.000000;0.666339
9137.000000;0.666147
9136.000000;0.666009
9135.000000;0.666032
9134.000000;0.666148
9133.000000;0.666262
9132.000000;0.666358
9131.000000;0.666396
9130.000000;0.666264
9129.000000;0.665957
9128.000000;0.665663
9127.000000;0.665552
9126.000000;0.665560
9125.000000;0.665492
9124.000000;0.665277
9123.000000;0.665021
9122.000000;0.664853
9121.000000;0.664820
9120.000000;0.664895
9119.000000;0.665005
9118.000000;0.665053
9117.000000;0.664975
9116.000000;0.664793
9115.000000;0.664612
9114.000000;0.664547
9113.000000;0.664627
9112.000000;0.664733
9111.000000;0.664679
9110.000000;0.664424
9109.000000;0.664169
9108.000000;0.664154
9107.000000;0.664361
9106.000000;0.664519
9105.000000;0.664399
9104.000000;0.664032
9103.000000;0.663618
9102.000000;0.663331
9101.000000;0.663226
9100.000000;0.663232
9099.000000;0.663197
9098.000000;0.663015
9097.000000;0.662731
9096.000000;0.662469
9095.000000;0.662284
9094.000000;0.662174
9093.000000;0.662201
9092.000000;0.662423
9091.000000;0.662699
9090.000000;0.662737
9089.000000;0.662426
9088.000000;0.662005
9087.000000;0.661783
9086.000000;0.661799
9085.000000;0.661851
9084.000000;0.661790
9083.000000;0.661661
9082.000000;0.661592
9081.000000;0.661631
9080.000000;0.661715
9079.000000;0.661731
9078.000000;0.661615
9077.000000;0.661393
9076.000000;0.661116
9075.000000;0.660792
9074.000000;0.660443
9073.000000;0.660208
9072.000000;0.660285
9071.000000;0.660692
9070.000000;0.661186
9069.000000;0.661470
9068.000000;0.661448
9067.000000;0.661244
9066.000000;0.661029
9065.000000;0.660881
9064.000000;0.660776
9063.000000;0.660634
9062.000000;0.660383
9061.000000;0.660038
9060.000000;0.659717
9059.000000;0.659549
9058.000000;0.659579
9057.000000;0.659741
9056.000000;0.659936
9055.000000;0.660106
9054.000000;0.660239
9053.000000;0.660303
9052.000000;0.660214
9051.000000;0.659934
9050.000000;0.659602
9049.000000;0.659458
9048.000000;0.659582
9047.000000;0.659766
9046.000000;0.659749
9045.000000;0.659516
9044.000000;0.659268
9043.000000;0.659146
9042.000000;0.659127
9041.000000;0.659153
9040.000000;0.659227
9039.000000;0.659335
9038.000000;0.659385
9037.000000;0.659300
9036.000000;0.659093
9035.000000;0.658832
9034.000000;0.658567
9033.000000;0.658322
9032.000000;0.658099
9031.000000;0.657895
9030.000000;0.657733
9029.000000;0.657685
9028.000000;0.657782
9027.000000;0.657939
9026.000000;0.658031
9025.000000;0.658018
9024.000000;0.657928
9023.000000;0.657746
9022.000000;0.657419
9021.000000;0.657005
9020.000000;0.656679
9019.000000;0.656570
9018.000000;0.656639
9017.000000;0.656750
9016.000000;0.656807
9015.000000;0.656798
9014.000000;0.656756
9013.000000;0.656704
9012.000000;0.656614
9011.000000;0.656434
9010.000000;0.656170
9009.000000;0.655911
9008.000000;0.655745
9007.000000;0.655673
9006.000000;0.655667
9005.000000;0.655715
9004.000000;0.655770
9003.000000;0.655726
9002.000000;0.655543
9001.000000;0.655342
9000.000000;0.655257
8999.000000;0.655242
8998.000000;0.655156
8997.000000;0.654983
8996.000000;0.654825
8995.000000;0.654712
8994.000000;0.654582
8993.000000;0.654435
8992.000000;0.654342
8991.000000;0.654304
8990.000000;0.654243
8989.000000;0.654148
8988.000000;0.654093
8987.000000;0.654087
8986.000000;0.654045
8985.000000;0.653943
8984.000000;0.653852
8983.000000;0.653788
8982.000000;0.653675
8981.000000;0.653484
8980.000000;0.653288
8979.000000;0.653138
8978.000000;0.653015
8977.000000;0.652953
8976.000000;0.653046
8975.000000;0.653252
8974.000000;0.653355
8973.000000;0.653209
8972.000000;0.652915
8971.000000;0.652649
8970.000000;0.652457
8969.000000;0.652312
8968.000000;0.652264
8967.000000;0.652357
8966.000000;0.652490
8965.000000;0.652517
8964.000000;0.652446
8963.000000;0.652413
8962.000000;0.652482
8961.000000;0.652587
8960.000000;0.652662
8959.000000;0.652683
8958.000000;0.652591
8957.000000;0.652307
8956.000000;0.651886
8955.000000;0.651563
8954.000000;0.651532
8953.000000;0.651739
8952.000000;0.651932
8951.000000;0.651920
8950.000000;0.651707
8949.000000;0.651422
8948.000000;0.651175
8947.000000;0.651023
8946.000000;0.651002
8945.000000;0.651086
8944.000000;0.651142
8943.000000;0.651009
8942.000000;0.650678
8941.000000;0.650344
8940.000000;0.650220
8939.000000;0.650340
8938.000000;0.650579
8937.000000;0.650813
8936.000000;0.650992
8935.000000;0.651099
8934.000000;0.651094
8933.000000;0.650935
8932.000000;0.650622
8931.000000;0.650216
8930.000000;0.649843
8929.000000;0.649633
8928.000000;0.649605
8927.000000;0.649642
8926.000000;0.649605
8925.000000;0.649475
8924.000000;0.649341
8923.000000;0.649290
8922.000000;0.649348
8921.000000;0.649473
8920.000000;0.649562
8919.000000;0.649506
8918.000000;0.649287
8917.000000;0.649006
8916.000000;0.648770
8915.000000;0.648606
8914.000000;0.648502
8913.000000;0.648468
8912.000000;0.648461
8911.000000;0.648355
8910.000000;0.648085
8909.000000;0.647783
8908.000000;0.647661
8907.000000;0.647792
8906.000000;0.648074
8905.000000;0.648385
8904.000000;0.648650
8903.000000;0.648804
8902.000000;0.648809
8901.000000;0.648706
8900.000000;0.648580
8899.000000;0.648464
8898.000000;0.648361
8897.000000;0.648291
8896.000000;0.648219
8895.000000;0.648003
8894.000000;0.647540
8893.000000;0.646956
8892.000000;0.646515
8891.000000;0.646346
8890.000000;0.646388
8889.000000;0.646572
8888.000000;0.646887
8887.000000;0.647233
8886.000000;0.647399
8885.000000;0.647264
8884.000000;0.646940
8883.000000;0.646631
8882.000000;0.646442
8881.000000;0.646351
8880.000000;0.646298
8879.000000;0.646238
8878.000000;0.646186
8877.000000;0.646239
8876.000000;0.646486
8875.000000;0.646831
8874.000000;0.647005
8873.000000;0.646818
8872.000000;0.646374
8871.000000;0.645969
8870.000000;0.645807
8869.000000;0.645851
8868.000000;0.645915
8867.000000;0.645853
8866.000000;0.645678
8865.000000;0.645508
8864.000000;0.645404
8863.000000;0.645291
8862.000000;0.645063
8861.000000;0.644728
8860.000000;0.644414
8859.000000;0.644239
8858.000000;0.644245
8857.000000;0.644402
8856.000000;0.644623
8855.000000;0.644777
8854.000000;0.644772
8853.000000;0.644629
8852.000000;0.644448
8851.000000;0.644301
8850.000000;0.644213
8849.000000;0.644204
8848.000000;0.644274
8847.000000;0.644383
8846.000000;0.644475
8845.000000;0.644513
8844.000000;0.644457
8843.000000;0.644256
8842.000000;0.643957
8841.000000;0.643730
8840.000000;0.643700
8839.000000;0.643784
8838.000000;0.643804
8837.000000;0.643689
8836.000000;0.643492
8835.000000;0.643251
8834.000000;0.642986
8833.000000;0.642803
8832.000000;0.642828
8831.000000;0.643020
8830.000000;0.643167
8829.000000;0.643107
8828.000000;0.642859
8827.000000;0.642549
8826.000000;0.642318
8825.000000;0.642294
8824.000000;0.642514
8823.000000;0.642825
8822.000000;0.642970
8821.000000;0.642844
8820.000000;0.642588
8819.000000;0.642410
8818.000000;0.642402
8817.000000;0.642525
8816.000000;0.642679
8815.000000;0.642741
8814.000000;0.642626
8813.000000;0.642358
8812.000000;0.642037
8811.000000;0.641731
8810.000000;0.641467
8809.000000;0.641281
8808.000000;0.641199
8807.000000;0.641172
8806.000000;0.641153
8805.000000;0.641225
8804.000000;0.641507
8803.000000;0.641904
8802.000000;0.642088
8801.000000;0.641835
8800.000000;0.641296
8799.000000;0.640859
8798.000000;0.640770
8797.000000;0.640977
8796.000000;0.641261
8795.000000;0.641462
8794.000000;0.641567
8793.000000;0.641635
8792.000000;0.641670
8791.000000;0.641619
8790.000000;0.641482
8789.000000;0.641352
8788.000000;0.641304
8787.000000;0.641277
8786.000000;0.641159
8785.000000;0.640954
8784.000000;0.640756
8783.000000;0.640611
8782.000000;0.640483
8781.000000;0.640351
8780.000000;0.640243
8779.000000;0.640153
8778.000000;0.640051
8777.000000;0.639961
8776.000000;0.639945
8775.000000;0.639986
8774.000000;0.639960
8773.000000;0.639783
8772.000000;0.639511
8771.000000;0.639298
8770.000000;0.639273
8769.000000;0.639467
8768.000000;0.639785
8767.000000;0.640061
8766.000000;0.640186
8765.000000;0.640182
8764.000000;0.640122
8763.000000;0.640017
8762.000000;0.639856
8761.000000;0.639689
8760.000000;0.639568
8759.000000;0.639451
8758.000000;0.639263
8757.000000;0.639043
8756.000000;0.638928
8755.000000;0.638986
8754.000000;0.639154
8753.000000;0.639307
8752.000000;0.639339
8751.000000;0.639214
8750.000000;0.639029
8749.000000;0.638962
8748.000000;0.639071
8747.000000;0.639188
8746.000000;0.639135
8745.000000;0.638966
8744.000000;0.638863
8743.000000;0.638855
8742.000000;0.638831
8741.000000;0.638780
8740.000000;0.638823
8739.000000;0.638982
8738.000000;0.639101
8737.000000;0.639041
8736.000000;0.638812
8735.000000;0.638486
8734.000000;0.638126
8733.000000;0.637837
8732.000000;0.637733
8731.000000;0.637811
8730.000000;0.637967
8729.000000;0.638149
8728.000000;0.638365
8727.000000;0.638536
8726.000000;0.638512
8725.000000;0.638289
8724.000000;0.638058
8723.000000;0.637970
8722.000000;0.637989
8721.000000;0.638020
8720.000000;0.638019
8719.000000;0.637925
8718.000000;0.637658
8717.000000;0.637287
8716.000000;0.637031
8715.000000;0.637003
8714.000000;0.637066
8713.000000;0.637052
8712.000000;0.636981
8711.000000;0.636947
8710.000000;0.636935
8709.000000;0.636901
8708.000000;0.636924
8707.000000;0.637122
8706.000000;0.637433
8705.000000;0.637642
8704.000000;0.637603
8703.000000;0.637352
8702.000000;0.637030
8701.000000;0.636790
8700.000000;0.636740
8699.000000;0.636891
8698.000000;0.637134
8697.000000;0.637324
8696.000000;0.637387
8695.000000;0.637322
8694.000000;0.637161
8693.000000;0.636961
8692.000000;0.636774
8691.000000;0.636590
8690.000000;0.636345
8689.000000;0.636040
8688.000000;0.635791
8687.000000;0.635710
8686.000000;0.635773
8685.000000;0.635855
8684.000000;0.635834
8683.000000;0.635667
8682.000000;0.635404
8681.000000;0.635188
8680.000000;0.635165
8679.000000;0.635342
8678.000000;0.635551
8677.000000;0.635619
8676.000000;0.635526
8675.000000;0.635370
8674.000000;0.635225
8673.000000;0.635099
8672.000000;0.634994
8671.000000;0.634928
8670.000000;0.634900
8669.000000;0.634885
8668.000000;0.634853
8667.000000;0.634777
8666.000000;0.634635
8665.000000;0.634430
8664.000000;0.634210
8663.000000;0.634059
8662.000000;0.634058
8661.000000;0.634214
8660.000000;0.634405
8659.000000;0.634414
8658.000000;0.634127
8657.000000;0.633682
8656.000000;0.633376
8655.000000;0.633393
8654.000000;0.633663
8653.000000;0.633974
8652.000000;0.634150
8651.000000;0.634140
8650.000000;0.633981
8649.000000;0.633747
8648.000000;0.633482
8647.000000;0.633201
8646.000000;0.632948
8645.000000;0.632812
8644.000000;0.632816
8643.000000;0.632836
8642.000000;0.632717
8641.000000;0.632475
8640.000000;0.632276
8639.000000;0.632223
8638.000000;0.632248
8637.000000;0.632234
8636.000000;0.632153
8635.000000;0.632045
8634.000000;0.631956
8633.000000;0.631904
8632.000000;0.631860
8631.000000;0.631740
8630.000000;0.631498
8629.000000;0.631209
8628.000000;0.630995
8627.000000;0.630864
8626.000000;0.630715
8625.000000;0.630504
8624.000000;0.630300
8623.000000;0.630146
8622.000000;0.630004
8621.000000;0.629858
8620.000000;0.629779
8619.000000;0.629797
8618.000000;0.629806
8617.000000;0.629674
8616.000000;0.629411
8615.000000;0.629144
8614.000000;0.628988
8613.000000;0.628968
8612.000000;0.629019
8611.000000;0.629017
8610.000000;0.628864
8609.000000;0.628593
8608.000000;0.628349
8607.000000;0.628216
8606.000000;0.628128
8605.000000;0.627976
8604.000000;0.627749
8603.000000;0.627512
8602.000000;0.627315
8601.000000;0.627169
8600.000000;0.627085
8599.000000;0.627060
8598.000000;0.627046
8597.000000;0.626984
8596.000000;0.626860
8595.000000;0.626699
8594.000000;0.626526
8593.000000;0.626354
8592.000000;0.626176
8591.000000;0.625975
8590.000000;0.625747
8589.000000;0.625529
8588.000000;0.625371
8587.000000;0.625270
8586.000000;0.625189
8585.000000;0.625158
8584.000000;0.625260
8583.000000;0.625484
8582.000000;0.625662
8581.000000;0.625621
8580.000000;0.625379
8579.000000;0.625116
8578.000000;0.624962
8577.000000;0.624878
8576.000000;0.624758
8575.000000;0.624594
8574.000000;0.624478
8573.000000;0.624455
8572.000000;0.624428
8571.000000;0.624254
8570.000000;0.623913
8569.000000;0.623542
8568.000000;0.623280
8567.000000;0.623150
8566.000000;0.623097
8565.000000;0.623067
8564.000000;0.623019
8563.000000;0.622898
8562.000000;0.622690
8561.000000;0.622461
8560.000000;0.622297
8559.000000;0.622190
8558.000000;0.622055
8557.000000;0.621820
8556.000000;0.621483
8555.000000;0.621127
8554.000000;0.620904
8553.000000;0.620951
8552.000000;0.621219
8551.000000;0.621447
8550.000000;0.621420
8549.000000;0.621201
8548.000000;0.621020
8547.000000;0.620958
8546.000000;0.620879
8545.000000;0.620680
8544.000000;0.620458
8543.000000;0.620364
8542.000000;0.620384
8541.000000;0.620368
8540.000000;0.620217
8539.000000;0.619985
8538.000000;0.619798
8537.000000;0.619715
8536.000000;0.619671
8535.000000;0.619565
8534.000000;0.619388
8533.000000;0.619231
8532.000000;0.619159
8531.000000;0.619125
8530.000000;0.619043
8529.000000;0.618870
8528.000000;0.618602
8527.000000;0.618247
8526.000000;0.617883
8525.000000;0.617655
8524.000000;0.617612
8523.000000;0.617613
8522.000000;0.617507
8521.000000;0.617346
8520.000000;0.617284
8519.000000;0.617316
8518.000000;0.617291
8517.000000;0.617162
8516.000000;0.617043
8515.000000;0.616992
8514.000000;0.616905
8513.000000;0.616690
8512.000000;0.616417
8511.000000;0.616233
8510.000000;0.616213
8509.000000;0.616342
8508.000000;0.616545
8507.000000;0.616689
8506.000000;0.616665
8505.000000;0.616507
8504.000000;0.616359
8503.000000;0.616264
8502.000000;0.616119
8501.000000;0.615855
8500.000000;0.615560
8499.000000;0.615341
8498.000000;0.615172
8497.000000;0.614977
8496.000000;0.614762
8495.000000;0.614568
8494.000000;0.614384
8493.000000;0.614208
8492.000000;0.614136
8491.000000;0.614258
8490.000000;0.614491
8489.000000;0.614623
8488.000000;0.614534
8487.000000;0.614298
8486.000000;0.614055
8485.000000;0.613864
8484.000000;0.613702
8483.000000;0.613545
8482.000000;0.613400
8481.000000;0.613280
8480.000000;0.613174
8479.000000;0.613056
8478.000000;0.612920
8477.000000;0.612788
8476.000000;0.612679
8475.000000;0.612564
8474.000000;0.612404
8473.000000;0.612220
8472.000000;0.612088
8471.000000;0.612041
8470.000000;0.612014
8469.000000;0.611908
8468.000000;0.611685
8467.000000;0.611388
8466.000000;0.611099
8465.000000;0.610888
8464.000000;0.610782
8463.000000;0.610751
8462.000000;0.610739
8461.000000;0.610705
8460.000000;0.610651
8459.000000;0.610607
8458.000000;0.610606
8457.000000;0.610641
8456.000000;0.610640
8455.000000;0.610509
8454.000000;0.610243
8453.000000;0.609968
8452.000000;0.609830
8451.000000;0.609846
8450.000000;0.609912
8449.000000;0.609909
8448.000000;0.609779
8447.000000;0.609515
8446.000000;0.609177
8445.000000;0.608885
8444.000000;0.608742
8443.000000;0.608718
8442.000000;0.608689
8441.000000;0.608582
8440.000000;0.608431
8439.000000;0.608283
8438.000000;0.608129
8437.000000;0.607952
8436.000000;0.607779
8435.000000;0.607671
8434.000000;0.607662
8433.000000;0.607739
8432.000000;0.607833
8431.000000;0.607845
8430.000000;0.607707
8429.000000;0.607444
8428.000000;0.607134
8427.000000;0.606843
8426.000000;0.606622
8425.000000;0.606542
8424.000000;0.606638
8423.000000;0.606835
8422.000000;0.606988
8421.000000;0.607021
8420.000000;0.606966
8419.000000;0.606854
8418.000000;0.606654
8417.000000;0.606348
8416.000000;0.605994
8415.000000;0.605683
8414.000000;0.605454
8413.000000;0.605309
8412.000000;0.605254
8411.000000;0.605294
8410.000000;0.605389
8409.000000;0.605473
8408.000000;0.605492
8407.000000;0.605434
8406.000000;0.605304
8405.000000;0.605107
8404.000000;0.604870
8403.000000;0.604664
8402.000000;0.604588
8401.000000;0.604670
8400.000000;0.604784
8399.000000;0.604734
8398.000000;0.604445
8397.000000;0.604046
8396.000000;0.603727
8395.000000;0.603562
8394.000000;0.603514
8393.000000;0.603531
8392.000000;0.603566
8391.000000;0.603537
8390.000000;0.603383
8389.000000;0.603136
8388.000000;0.602889
8387.000000;0.602694
8386.000000;0.602557
8385.000000;0.602489
8384.000000;0.602491
8383.000000;0.602499
8382.000000;0.602444
8381.000000;0.602341
8380.000000;0.602267
8379.000000;0.602239
8378.000000;0.602189
8377.000000;0.602054
8376.000000;0.601826
8375.000000;0.601523
8374.000000;0.601197
8373.000000;0.600966
8372.000000;0.600931
8371.000000;0.601043
8370.000000;0.601139
8369.000000;0.601124
8368.000000;0.601055
8367.000000;0.601009
8366.000000;0.600967
8365.000000;0.600878
8364.000000;0.600773
8363.000000;0.600728
8362.000000;0.600746
8361.000000;0.600734
8360.000000;0.600591
8359.000000;0.600301
8358.000000;0.599956
8357.000000;0.599686
8356.000000;0.599547
8355.000000;0.599482
8354.000000;0.599402
8353.000000;0.599294
8352.000000;0.599214
8351.000000;0.599182
8350.000000;0.599127
8349.000000;0.598955
8348.000000;0.598632
8347.000000;0.598220
8346.000000;0.597847
8345.000000;0.597649
8344.000000;0.597682
8343.000000;0.597877
8342.000000;0.598088
8341.000000;0.598188
8340.000000;0.598115
8339.000000;0.597885
8338.000000;0.597597
8337.000000;0.597410
8336.000000;0.597419
8335.000000;0.597568
8334.000000;0.597703
8333.000000;0.597708
8332.000000;0.597566
8331.000000;0.597313
8330.000000;0.597000
8329.000000;0.596701
8328.000000;0.596489
8327.000000;0.596399
8326.000000;0.596414
8325.000000;0.596489
8324.000000;0.596549
8323.000000;0.596522
8322.000000;0.596408
8321.000000;0.596288
8320.000000;0.596224
8319.000000;0.596173
8318.000000;0.596059
8317.000000;0.595885
8316.000000;0.595712
8315.000000;0.595550
8314.000000;0.595366
8313.000000;0.595175
8312.000000;0.595048
8311.000000;0.595002
8310.000000;0.594964
8309.000000;0.594858
8308.000000;0.594691
8307.000000;0.594529
8306.000000;0.594417
8305.000000;0.594339
8304.000000;0.594240
8303.000000;0.594088
8302.000000;0.593940
8301.000000;0.593884
8300.000000;0.593926
8299.000000;0.593972
8298.000000;0.593961
8297.000000;0.593931
8296.000000;0.593918
8295.000000;0.593856
8294.000000;0.593674
8293.000000;0.593430
8292.000000;0.593249
8291.000000;0.593169
8290.000000;0.593139
8289.000000;0.593126
8288.000000;0.593113
8287.000000;0.593022
8286.000000;0.592779
8285.000000;0.592460
8284.000000;0.592241
8283.000000;0.592183
8282.000000;0.592162
8281.000000;0.592051
8280.000000;0.591876
8279.000000;0.591761
8278.000000;0.591780
8277.000000;0.591897
8276.000000;0.592004
8275.000000;0.592014
8274.000000;0.591933
8273.000000;0.591841
8272.000000;0.591766
8271.000000;0.591623
8270.000000;0.591347
8269.000000;0.591026
8268.000000;0.590808
8267.000000;0.590719
8266.000000;0.590664
8265.000000;0.590604
8264.000000;0.590595
8263.000000;0.590663
8262.000000;0.590738
8261.000000;0.590753
8260.000000;0.590706
8259.000000;0.590620
8258.000000;0.590517
8257.000000;0.590450
8256.000000;0.590468
8255.000000;0.590528
8254.000000;0.590525
8253.000000;0.590426
8252.000000;0.590291
8251.000000;0.590147
8250.000000;0.589964
8249.000000;0.589740
8248.000000;0.589540
8247.000000;0.589393
8246.000000;0.589244
8245.000000;0.589071
8244.000000;0.588942
8243.000000;0.588918
8242.000000;0.588963
8241.000000;0.588989
8240.000000;0.588956
8239.000000;0.588876
8238.000000;0.588782
8237.000000;0.588704
8236.000000;0.588624
8235.000000;0.588459
8234.000000;0.588151
8233.000000;0.587786
8232.000000;0.587544
8231.000000;0.587501
8230.000000;0.587563
8229.000000;0.587602
8228.000000;0.587576
8227.000000;0.587469
8226.000000;0.587242
8225.000000;0.586911
8224.000000;0.586607
8223.000000;0.586469
8222.000000;0.586504
8221.000000;0.586604
8220.000000;0.586664
8219.000000;0.586652
8218.000000;0.586582
8217.000000;0.586499
8216.000000;0.586437
8215.000000;0.586395
8214.000000;0.586342
8213.000000;0.586252
8212.000000;0.586124
8211.000000;0.585953
8210.000000;0.585746
8209.000000;0.585553
8208.000000;0.585433
8207.000000;0.585387
8206.000000;0.585371
8205.000000;0.585370
8204.000000;0.585385
8203.000000;0.585367
8202.000000;0.585242
8201.000000;0.585041
8200.000000;0.584888
8199.000000;0.584838
8198.000000;0.584792
8197.000000;0.584637
8196.000000;0.584399
8195.000000;0.584203
8194.000000;0.584130
8193.000000;0.584167
8192.000000;0.584235
8191.000000;0.584236
8190.000000;0.584112
8189.000000;0.583894
8188.000000;0.583687
8187.000000;0.583564
8186.000000;0.583507
8185.000000;0.583460
8184.000000;0.583385
8183.000000;0.583268
8182.000000;0.583115
8181.000000;0.582986
8180.000000;0.582954
8179.000000;0.583011
8178.000000;0.583063
8177.000000;0.583047
8176.000000;0.582993
8175.000000;0.582913
8174.000000;0.582742
8173.000000;0.582445
8172.000000;0.582134
8171.000000;0.581983
8170.000000;0.582029
8169.000000;0.582141
8168.000000;0.582166
8167.000000;0.582067
8166.000000;0.581918
8165.000000;0.581809
8164.000000;0.581778
8163.000000;0.581792
8162.000000;0.581792
8161.000000;0.581740
8160.000000;0.581657
8159.000000;0.581581
8158.000000;0.581527
8157.000000;0.581487
8156.000000;0.581454
8155.000000;0.581420
8154.000000;0.581367
8153.000000;0.581260
8152.000000;0.581072
8151.000000;0.580815
8150.000000;0.580557
8149.000000;0.580393
8148.000000;0.580363
8147.000000;0.580413
8146.000000;0.580453
8145.000000;0.580449
8144.000000;0.580422
8143.000000;0.580387
8142.000000;0.580327
8141.000000;0.580235
8140.000000;0.580119
8139.000000;0.579971
8138.000000;0.579760
8137.000000;0.579477
8136.000000;0.579160
8135.000000;0.578885
8134.000000;0.578738
8133.000000;0.578768
8132.000000;0.578920
8131.000000;0.579041
8130.000000;0.579013
8129.000000;0.578877
8128.000000;0.578760
8127.000000;0.578711
8126.000000;0.578659
8125.000000;0.578535
8124.000000;0.578358
8123.000000;0.578189
8122.000000;0.578060
8121.000000;0.577982
8120.000000;0.577947
8119.000000;0.577919
8118.000000;0.577858
8117.000000;0.577777
8116.000000;0.577733
8115.000000;0.577737
8114.000000;0.577733
8113.000000;0.577677
8112.000000;0.577586
8111.000000;0.577495
8110.000000;0.577425
8109.000000;0.577405
8108.000000;0.577456
8107.000000;0.577529
8106.000000;0.577530
8105.000000;0.577424
8104.000000;0.577291
8103.000000;0.577210
8102.000000;0.577163
8101.000000;0.577079
8100.000000;0.576933
8099.000000;0.576762
8098.000000;0.576599
8097.000000;0.576464
8096.000000;0.576378
8095.000000;0.576340
8094.000000;0.576300
8093.000000;0.576196
8092.000000;0.576010
8091.000000;0.575778
8090.000000;0.575547
8089.000000;0.575365
8088.000000;0.575274
8087.000000;0.575287
8086.000000;0.575356
8085.000000;0.575384
8084.000000;0.575290
8083.000000;0.575075
8082.000000;0.574841
8081.000000;0.574742
8080.000000;0.574852
8079.000000;0.575091
8078.000000;0.575286
8077.000000;0.575318
8076.000000;0.575192
8075.000000;0.574972
8074.000000;0.574718
8073.000000;0.574482
8072.000000;0.574326
8071.000000;0.574283
8070.000000;0.574323
8069.000000;0.574383
8068.000000;0.574398
8067.000000;0.574329
8066.000000;0.574186
8065.000000;0.574037
8064.000000;0.573972
8063.000000;0.574010
8062.000000;0.574088
8061.000000;0.574127
8060.000000;0.574100
8059.000000;0.574027
8058.000000;0.573933
8057.000000;0.573814
8056.000000;0.573632
8055.000000;0.573347
8054.000000;0.572990
8053.000000;0.572690
8052.000000;0.572571
8051.000000;0.572623
8050.000000;0.572703
8049.000000;0.572687
8048.000000;0.572578
8047.000000;0.572469
8046.000000;0.572436
8045.000000;0.572477
8044.000000;0.572521
8043.000000;0.572463
8042.000000;0.572256
8041.000000;0.571973
8040.000000;0.571754
8039.000000;0.571661
8038.000000;0.571647
8037.000000;0.571664
8036.000000;0.571724
8035.000000;0.571814
8034.000000;0.571823
8033.000000;0.571650
8032.000000;0.571351
8031.000000;0.571105
8030.000000;0.571022
8029.000000;0.571043
8028.000000;0.571041
8027.000000;0.570975
8026.000000;0.570919
8025.000000;0.570965
8024.000000;0.571111
8023.000000;0.571239
8022.000000;0.571209
8021.000000;0.570989
8020.000000;0.570679
8019.000000;0.570417
8018.000000;0.570257
8017.000000;0.570166
8016.000000;0.570099
8015.000000;0.570053
8014.000000;0.570040
8013.000000;0.570052
8012.000000;0.570056
8011.000000;0.570025
8010.000000;0.569956
8009.000000;0.569868
8008.000000;0.569790
8007.000000;0.569749
8006.000000;0.569744
8005.000000;0.569742
8004.000000;0.569700
8003.000000;0.569593
8002.000000;0.569441
8001.000000;0.569286
8000.000000;0.569165
7999.000000;0.569078
7998.000000;0.568985
7997.000000;0.568844
7996.000000;0.568650
7995.000000;0.568462
7994.000000;0.568373
7993.000000;0.568427
7992.000000;0.568550
7991.000000;0.568604
7990.000000;0.568515
7989.000000;0.568337
7988.000000;0.568192
7987.000000;0.568151
7986.000000;0.568199
7985.000000;0.568279
7984.000000;0.568334
7983.000000;0.568319
7982.000000;0.568222
7981.000000;0.568072
7980.000000;0.567922
7979.000000;0.567793
7978.000000;0.567675
7977.000000;0.567559
7976.000000;0.567466
7975.000000;0.567420
7974.000000;0.567416
7973.000000;0.567416
7972.000000;0.567379
7971.000000;0.567296
7970.000000;0.567193
7969.000000;0.567099
7968.000000;0.567018
7967.000000;0.566943
7966.000000;0.566886
7965.000000;0.566864
7964.000000;0.566849
7963.000000;0.566783
7962.000000;0.566638
7961.000000;0.566457
7960.000000;0.566294
7959.000000;0.566166
7958.000000;0.566066
7957.000000;0.565993
7956.000000;0.565931
7955.000000;0.565844
7954.000000;0.565712
7953.000000;0.565573
7952.000000;0.565479
7951.000000;0.565438
7950.000000;0.565422
7949.000000;0.565416
7948.000000;0.565411
7947.000000;0.565394
7946.000000;0.565363
7945.000000;0.565340
7944.000000;0.565322
7943.000000;0.565249
7942.000000;0.565071
7941.000000;0.564828
7940.000000;0.564621
7939.000000;0.564508
7938.000000;0.564475
7937.000000;0.564496
7936.000000;0.564558
7935.000000;0.564620
7934.000000;0.564615
7933.000000;0.564519
7932.000000;0.564385
7931.000000;0.564277
7930.000000;0.564205
7929.000000;0.564138
7928.000000;0.564058
7927.000000;0.563981
7926.000000;0.563921
7925.000000;0.563864
7924.000000;0.563799
7923.000000;0.563738
7922.000000;0.563705
7921.000000;0.563690
7920.000000;0.563634
7919.000000;0.563484
7918.000000;0.563254
7917.000000;0.563020
7916.000000;0.562853
7915.000000;0.562769
7914.000000;0.562745
7913.000000;0.562745
7912.000000;0.562729
7911.000000;0.562671
7910.000000;0.562584
7909.000000;0.562527
7908.000000;0.562550
7907.000000;0.562643
7906.000000;0.562736
7905.000000;0.562745
7904.000000;0.562625
7903.000000;0.562423
7902.000000;0.562264
7901.000000;0.562248
7900.000000;0.562344
7899.000000;0.562425
7898.000000;0.562407
7897.000000;0.562312
7896.000000;0.562187
7895.000000;0.562031
7894.000000;0.561848
7893.000000;0.561679
7892.000000;0.561560
7891.000000;0.561455
7890.000000;0.561308
7889.000000;0.561121
7888.000000;0.560957
7887.000000;0.560883
7886.000000;0.560940
7885.000000;0.561114
7884.000000;0.561296
7883.000000;0.561330
7882.000000;0.561145
7881.000000;0.560837
7880.000000;0.560576
7879.000000;0.560454
7878.000000;0.560445
7877.000000;0.560458
7876.000000;0.560397
7875.000000;0.560209
7874.000000;0.559949
7873.000000;0.559759
7872.000000;0.559733
7871.000000;0.559823
7870.000000;0.559913
7869.000000;0.559935
7868.000000;0.559883
7867.000000;0.559758
7866.000000;0.559579
7865.000000;0.559421
7864.000000;0.559357
7863.000000;0.559375
7862.000000;0.559401
7861.000000;0.559392
7860.000000;0.559356
7859.000000;0.559300
7858.000000;0.559230
7857.000000;0.559170
7856.000000;0.559136
7855.000000;0.559090
7854.000000;0.558993
7853.000000;0.558880
7852.000000;0.558831
7851.000000;0.558854
7850.000000;0.558886
7849.000000;0.558876
7848.000000;0.558817
7847.000000;0.558698
7846.000000;0.558512
7845.000000;0.558310
7844.000000;0.558182
7843.000000;0.558150
7842.000000;0.558141
7841.000000;0.558087
7840.000000;0.558002
7839.000000;0.557939
7838.000000;0.557894
7837.000000;0.557811
7836.000000;0.557659
7835.000000;0.557476
7834.000000;0.557338
7833.000000;0.557285
7832.000000;0.557285
7831.000000;0.557283
7830.000000;0.557268
7829.000000;0.557274
7828.000000;0.557311
7827.000000;0.557329
7826.000000;0.557290
7825.000000;0.557215
7824.000000;0.557146
7823.000000;0.557082
7822.000000;0.557005
7821.000000;0.556917
7820.000000;0.556830
7819.000000;0.556728
7818.000000;0.556604
7817.000000;0.556488
7816.000000;0.556408
7815.000000;0.556340
7814.000000;0.556252
7813.000000;0.556170
7812.000000;0.556125
7811.000000;0.556089
7810.000000;0.556002
7809.000000;0.555869
7808.000000;0.555759
7807.000000;0.555717
7806.000000;0.555729
7805.000000;0.555750
7804.000000;0.555735
7803.000000;0.555646
7802.000000;0.555500
7801.000000;0.555369
7800.000000;0.555302
7799.000000;0.555250
7798.000000;0.555125
7797.000000;0.554934
7796.000000;0.554783
7795.000000;0.554758
7794.000000;0.554850
7793.000000;0.554981
7792.000000;0.555057
7791.000000;0.555016
7790.000000;0.554873
7789.000000;0.554715
7788.000000;0.554615
7787.000000;0.554568
7786.000000;0.554530
7785.000000;0.554503
7784.000000;0.554499
7783.000000;0.554480
7782.000000;0.554387
7781.000000;0.554233
7780.000000;0.554086
7779.000000;0.553982
7778.000000;0.553906
7777.000000;0.553844
7776.000000;0.553793
7775.000000;0.553723
7774.000000;0.553606
7773.000000;0.553470
7772.000000;0.553361
7771.000000;0.553269
7770.000000;0.553160
7769.000000;0.553065
7768.000000;0.553049
7767.000000;0.553100
7766.000000;0.553126
7765.000000;0.553066
7764.000000;0.552951
7763.000000;0.552826
7762.000000;0.552712
7761.000000;0.552638
7760.000000;0.552630
7759.000000;0.552652
7758.000000;0.552613
7757.000000;0.552474
7756.000000;0.552291
7755.000000;0.552133
7754.000000;0.552022
7753.000000;0.551963
7752.000000;0.551970
7751.000000;0.552024
7750.000000;0.552049
7749.000000;0.551969
7748.000000;0.551773
7747.000000;0.551515
7746.000000;0.551280
7745.000000;0.551143
7744.000000;0.551113
7743.000000;0.551124
7742.000000;0.551100
7741.000000;0.551054
7740.000000;0.551044
7739.000000;0.551079
7738.000000;0.551104
7737.000000;0.551088
7736.000000;0.551053
7735.000000;0.551008
7734.000000;0.550923
7733.000000;0.550793
7732.000000;0.550654
7731.000000;0.550535
7730.000000;0.550423
7729.000000;0.550312
7728.000000;0.550209
7727.000000;0.550104
7726.000000;0.549980
7725.000000;0.549872
7724.000000;0.549845
7723.000000;0.549908
7722.000000;0.549994
7721.000000;0.550032
7720.000000;0.549993
7719.000000;0.549870
7718.000000;0.549681
7717.000000;0.549503
7716.000000;0.549423
7715.000000;0.549430
7714.000000;0.549426
7713.000000;0.549355
7712.000000;0.549266
7711.000000;0.549211
7710.000000;0.549177
7709.000000;0.549126
7708.000000;0.549065
7707.000000;0.549001
7706.000000;0.548906
7705.000000;0.548765
7704.000000;0.548616
7703.000000;0.548504
7702.000000;0.548433
7701.000000;0.548391
7700.000000;0.548373
7699.000000;0.548352
7698.000000;0.548281
7697.000000;0.548166
7696.000000;0.548078
7695.000000;0.548060
7694.000000;0.548069
7693.000000;0.548047
7692.000000;0.548001
7691.000000;0.547964
7690.000000;0.547915
7689.000000;0.547805
7688.000000;0.547638
7687.000000;0.547463
7686.000000;0.547325
7685.000000;0.547240
7684.000000;0.547207
7683.000000;0.547202
7682.000000;0.547183
7681.000000;0.547132
7680.000000;0.547083
7679.000000;0.547070
7678.000000;0.547072
7677.000000;0.547055
7676.000000;0.547018
7675.000000;0.546981
7674.000000;0.546936
7673.000000;0.546850
7672.000000;0.546712
7671.000000;0.546556
7670.000000;0.546415
7669.000000;0.546305
7668.000000;0.546216
7667.000000;0.546135
7666.000000;0.546061
7665.000000;0.546015
7664.000000;0.546001
7663.000000;0.545987
7662.000000;0.545942
7661.000000;0.545894
7660.000000;0.545896
7659.000000;0.545937
7658.000000;0.545931
7657.000000;0.545833
7656.000000;0.545702
7655.000000;0.545610
7654.000000;0.545549
7653.000000;0.545463
7652.000000;0.545342
7651.000000;0.545236
7650.000000;0.545184
7649.000000;0.545180
7648.000000;0.545196
7647.000000;0.545208
7646.000000;0.545205
7645.000000;0.545194
7644.000000;0.545180
7643.000000;0.545143
7642.000000;0.545051
7641.000000;0.544920
7640.000000;0.544813
7639.000000;0.544764
7638.000000;0.544719
7637.000000;0.544595
7636.000000;0.544382
7635.000000;0.544151
7634.000000;0.543974
7633.000000;0.543878
7632.000000;0.543861
7631.000000;0.543906
7630.000000;0.543968
7629.000000;0.543989
7628.000000;0.543938
7627.000000;0.543831
7626.000000;0.543705
7625.000000;0.543591
7624.000000;0.543518
7623.000000;0.543506
7622.000000;0.543552
7621.000000;0.543617
7620.000000;0.543643
7619.000000;0.543602
7618.000000;0.543515
7617.000000;0.543432
7616.000000;0.543372
7615.000000;0.543301
7614.000000;0.543182
7613.000000;0.543039
7612.000000;0.542936
7611.000000;0.542905
7610.000000;0.542903
7609.000000;0.542861
7608.000000;0.542766
7607.000000;0.542666
7606.000000;0.542619
7605.000000;0.542636
7604.000000;0.542669
7603.000000;0.542658
7602.000000;0.542590
7601.000000;0.542504
7600.000000;0.542429
7599.000000;0.542336
7598.000000;0.542188
7597.000000;0.542013
7596.000000;0.541901
7595.000000;0.541898
7594.000000;0.541945
7593.000000;0.541955
7592.000000;0.541907
7591.000000;0.541852
7590.000000;0.541831
7589.000000;0.541836
7588.000000;0.541825
7587.000000;0.541771
7586.000000;0.541681
7585.000000;0.541589
7584.000000;0.541511
7583.000000;0.541434
7582.000000;0.541342
7581.000000;0.541263
7580.000000;0.541244
7579.000000;0.541293
7578.000000;0.541344
7577.000000;0.541322
7576.000000;0.541214
7575.000000;0.541071
7574.000000;0.540959
7573.000000;0.540912
7572.000000;0.540932
7571.000000;0.540990
7570.000000;0.541033
7569.000000;0.541013
7568.000000;0.540924
7567.000000;0.540812
7566.000000;0.540744
7565.000000;0.540753
7564.000000;0.540803
7563.000000;0.540823
7562.000000;0.540774
7561.000000;0.540684
7560.000000;0.540608
7559.000000;0.540557
7558.000000;0.540494
7557.000000;0.540381
7556.000000;0.540239
7555.000000;0.540135
7554.000000;0.540128
7553.000000;0.540204
7552.000000;0.540276
7551.000000;0.540265
7550.000000;0.540164
7549.000000;0.540023
7548.000000;0.539878
7547.000000;0.539732
7546.000000;0.539617
7545.000000;0.539595
7544.000000;0.539669
7543.000000;0.539754
7542.000000;0.539772
7541.000000;0.539752
7540.000000;0.539764
7539.000000;0.539808
7538.000000;0.539807
7537.000000;0.539718
7536.000000;0.539571
7535.000000;0.539416
7534.000000;0.539288
7533.000000;0.539218
7532.000000;0.539219
7531.000000;0.539241
7530.000000;0.539204
7529.000000;0.539103
7528.000000;0.539018
7527.000000;0.539009
7526.000000;0.539041
7525.000000;0.539053
7524.000000;0.539044
7523.000000;0.539049
7522.000000;0.539071
7521.000000;0.539074
7520.000000;0.539057
7519.000000;0.539058
7518.000000;0.539097
7517.000000;0.539140
7516.000000;0.539142
7515.000000;0.539103
7514.000000;0.539073
7513.000000;0.539080
7512.000000;0.539090
7511.000000;0.539038
7510.000000;0.538909
7509.000000;0.538769
7508.000000;0.538700
7507.000000;0.538707
7506.000000;0.538715
7505.000000;0.538655
7504.000000;0.538531
7503.000000;0.538410
7502.000000;0.538358
7501.000000;0.538379
7500.000000;0.538428
7499.000000;0.538455
7498.000000;0.538458
7497.000000;0.538478
7496.000000;0.538530
7495.000000;0.538571
7494.000000;0.538553
7493.000000;0.538486
7492.000000;0.538424
7491.000000;0.538400
7490.000000;0.538397
7489.000000;0.538374
7488.000000;0.538301
7487.000000;0.538182
7486.000000;0.538072
7485.000000;0.538040
7484.000000;0.538099
7483.000000;0.538170
7482.000000;0.538169
7481.000000;0.538095
7480.000000;0.538023
7479.000000;0.538009
7478.000000;0.538056
7477.000000;0.538145
7476.000000;0.538241
7475.000000;0.538283
7474.000000;0.538229
7473.000000;0.538113
7472.000000;0.538032
7471.000000;0.538028
7470.000000;0.538050
7469.000000;0.538027
7468.000000;0.537950
7467.000000;0.537866
7466.000000;0.537812
7465.000000;0.537786
7464.000000;0.537768
7463.000000;0.537738
7462.000000;0.537699
7461.000000;0.537680
7460.000000;0.537709
7459.000000;0.537774
7458.000000;0.537825
7457.000000;0.537837
7456.000000;0.537834
7455.000000;0.537857
7454.000000;0.537910
7453.000000;0.537959
7452.000000;0.537971
7451.000000;0.537943
7450.000000;0.537904
7449.000000;0.537887
7448.000000;0.537897
7447.000000;0.537904
7446.000000;0.537880
7445.000000;0.537827
7444.000000;0.537764
7443.000000;0.537702
7442.000000;0.537655
7441.000000;0.537649
7440.000000;0.537705
7439.000000;0.537810
7438.000000;0.537927
7437.000000;0.538028
7436.000000;0.538089
7435.000000;0.538087
7434.000000;0.538025
7433.000000;0.537946
7432.000000;0.537903
7431.000000;0.537903
7430.000000;0.537916
7429.000000;0.537916
7428.000000;0.537906
7427.000000;0.537898
7426.000000;0.537900
7425.000000;0.537921
7424.000000;0.537960
7423.000000;0.537996
7422.000000;0.538002
7421.000000;0.537973
7420.000000;0.537918
7419.000000;0.537842
7418.000000;0.537754
7417.000000;0.537682
7416.000000;0.537641
7415.000000;0.537618
7414.000000;0.537599
7413.000000;0.537615
7412.000000;0.537693
7411.000000;0.537795
7410.000000;0.537851
7409.000000;0.537847
7408.000000;0.537847
7407.000000;0.537895
7406.000000;0.537963
7405.000000;0.537991
7404.000000;0.537958
7403.000000;0.537886
7402.000000;0.537815
7401.000000;0.537787
7400.000000;0.537826
7399.000000;0.537920
7398.000000;0.538019
7397.000000;0.538068
7396.000000;0.538044
7395.000000;0.537975
7394.000000;0.537933
7393.000000;0.537976
7392.000000;0.538080
7391.000000;0.538160
7390.000000;0.538176
7389.000000;0.538178
7388.000000;0.538229
7387.000000;0.538311
7386.000000;0.538361
7385.000000;0.538376
7384.000000;0.538401
7383.000000;0.538455
7382.000000;0.538501
7381.000000;0.538526
7380.000000;0.538568
7379.000000;0.538638
7378.000000;0.538664
7377.000000;0.538573
7376.000000;0.538397
7375.000000;0.538273
7374.000000;0.538309
7373.000000;0.538488
7372.000000;0.538685
7371.000000;0.538783
7370.000000;0.538762
7369.000000;0.538699
7368.000000;0.538676
7367.000000;0.538698
7366.000000;0.538716
7365.000000;0.538690
7364.000000;0.538624
7363.000000;0.538559
7362.000000;0.538543
7361.000000;0.538611
7360.000000;0.538759
7359.000000;0.538923
7358.000000;0.539016
7357.000000;0.538996
7356.000000;0.538912
7355.000000;0.538863
7354.000000;0.538907
7353.000000;0.539016
7352.000000;0.539112
7351.000000;0.539147
7350.000000;0.539150
7349.000000;0.539173
7348.000000;0.539228
7347.000000;0.539280
7346.000000;0.539313
7345.000000;0.539352
7344.000000;0.539416
7343.000000;0.539485
7342.000000;0.539543
7341.000000;0.539612
7340.000000;0.539715
7339.000000;0.539817
7338.000000;0.539864
7337.000000;0.539851
7336.000000;0.539831
7335.000000;0.539869
7334.000000;0.540001
7333.000000;0.540206
7332.000000;0.540400
7331.000000;0.540465
7330.000000;0.540344
7329.000000;0.540124
7328.000000;0.539987
7327.000000;0.540039
7326.000000;0.540217
7325.000000;0.540398
7324.000000;0.540541
7323.000000;0.540683
7322.000000;0.540853
7321.000000;0.541021
7320.000000;0.541126
7319.000000;0.541128
7318.000000;0.541056
7317.000000;0.541005
7316.000000;0.541063
7315.000000;0.541224
7314.000000;0.541393
7313.000000;0.541498
7312.000000;0.541577
7311.000000;0.541714
7310.000000;0.541913
7309.000000;0.542070
7308.000000;0.542103
7307.000000;0.542051
7306.000000;0.542039
7305.000000;0.542158
7304.000000;0.542387
7303.000000;0.542626
7302.000000;0.542780
7301.000000;0.542836
7300.000000;0.542865
7299.000000;0.542974
7298.000000;0.543224
7297.000000;0.543559
7296.000000;0.543841
7295.000000;0.543970
7294.000000;0.544001
7293.000000;0.544074
7292.000000;0.544254
7291.000000;0.544476
7290.000000;0.544653
7289.000000;0.544787
7288.000000;0.544948
7287.000000;0.545178
7286.000000;0.545447
7285.000000;0.545705
7284.000000;0.545920
7283.000000;0.546076
7282.000000;0.546173
7281.000000;0.546244
7280.000000;0.546346
7279.000000;0.546516
7278.000000;0.546743
7277.000000;0.546983
7276.000000;0.547183
7275.000000;0.547310
7274.000000;0.547386
7273.000000;0.547492
7272.000000;0.547696
7271.000000;0.547986
7270.000000;0.548284
7269.000000;0.548532
7268.000000;0.548733
7267.000000;0.548922
7266.000000;0.549118
7265.000000;0.549327
7264.000000;0.549555
7263.000000;0.549818
7262.000000;0.550125
7261.000000;0.550457
7260.000000;0.550778
7259.000000;0.551056
7258.000000;0.551304
7257.000000;0.551568
7256.000000;0.551869
7255.000000;0.552185
7254.000000;0.552489
7253.000000;0.552772
7252.000000;0.553010
7251.000000;0.553169
7250.000000;0.553281
7249.000000;0.553445
7248.000000;0.553732
7247.000000;0.554117
7246.000000;0.554524
7245.000000;0.554902
7244.000000;0.555230
7243.000000;0.555492
7242.000000;0.555708
7241.000000;0.555951
7240.000000;0.556297
7239.000000;0.556739
7238.000000;0.557208
7237.000000;0.557650
7236.000000;0.558031
7235.000000;0.558322
7234.000000;0.558542
7233.000000;0.558787
7232.000000;0.559130
7231.000000;0.559537
7230.000000;0.559955
7229.000000;0.560401
7228.000000;0.560898
7227.000000;0.561385
7226.000000;0.561777
7225.000000;0.562107
7224.000000;0.562500
7223.000000;0.562997
7222.000000;0.563508
7221.000000;0.563966
7220.000000;0.564429
7219.000000;0.564960
7218.000000;0.565515
7217.000000;0.565989
7216.000000;0.566340
7215.000000;0.566594
7214.000000;0.566813
7213.000000;0.567072
7212.000000;0.567417
7211.000000;0.567816
7210.000000;0.568191
7209.000000;0.568543
7208.000000;0.568968
7207.000000;0.569527
7206.000000;0.570161
7205.000000;0.570780
7204.000000;0.571381
7203.000000;0.572006
7202.000000;0.572635
7201.000000;0.573187
7200.000000;0.573626
7199.000000;0.573996
7198.000000;0.574376
7197.000000;0.574824
7196.000000;0.575357
7195.000000;0.575949
7194.000000;0.576557
7193.000000;0.577157
7192.000000;0.577741
7191.000000;0.578277
7190.000000;0.578709
7189.000000;0.579033
7188.000000;0.579336
7187.000000;0.579745
7186.000000;0.580319
7185.000000;0.580990
7184.000000;0.581591
7183.000000;0.582000
7182.000000;0.582289
7181.000000;0.582697
7180.000000;0.583383
7179.000000;0.584237
7178.000000;0.585020
7177.000000;0.585652
7176.000000;0.586272
7175.000000;0.587015
7174.000000;0.587833
7173.000000;0.588565
7172.000000;0.589129
7171.000000;0.589601
7170.000000;0.590128
7169.000000;0.590787
7168.000000;0.591501
7167.000000;0.592106
7166.000000;0.592570
7165.000000;0.593074
7164.000000;0.593785
7163.000000;0.594631
7162.000000;0.595389
7161.000000;0.595958
7160.000000;0.596421
7159.000000;0.596878
7158.000000;0.597351
7157.000000;0.597887
7156.000000;0.598577
7155.000000;0.599435
7154.000000;0.600344
7153.000000;0.601191
7152.000000;0.601964
7151.000000;0.602687
7150.000000;0.603368
7149.000000;0.604019
7148.000000;0.604660
7147.000000;0.605267
7146.000000;0.605769
7145.000000;0.606111
7144.000000;0.606282
7143.000000;0.606321
7142.000000;0.606350
7141.000000;0.606558
7140.000000;0.607082
7139.000000;0.607899
7138.000000;0.608862
7137.000000;0.609794
7136.000000;0.610529
7135.000000;0.611014
7134.000000;0.611445
7133.000000;0.612136
7132.000000;0.613082
7131.000000;0.613811
7130.000000;0.613919
7129.000000;0.613629
7128.000000;0.613576
7127.000000;0.614121
7126.000000;0.615111
7125.000000;0.616177
7124.000000;0.617000
7123.000000;0.617367
7122.000000;0.617288
7121.000000;0.617072
7120.000000;0.617023
7119.000000;0.617084
7118.000000;0.617029
7117.000000;0.616904
7116.000000;0.616942
7115.000000;0.617112
7114.000000;0.617145
7113.000000;0.617010
7112.000000;0.616959
7111.000000;0.617075
7110.000000;0.617156
7109.000000;0.617120
7108.000000;0.617153
7107.000000;0.617348
7106.000000;0.617539
7105.000000;0.617630
7104.000000;0.617747
7103.000000;0.617920
7102.000000;0.617938
7101.000000;0.617665
7100.000000;0.617234
7099.000000;0.616806
7098.000000;0.616384
7097.000000;0.615952
7096.000000;0.615549
7095.000000;0.615111
7094.000000;0.614510
7093.000000;0.613831
7092.000000;0.613295
7091.000000;0.612828
7090.000000;0.612032
7089.000000;0.610696
7088.000000;0.609096
7087.000000;0.607707
7086.000000;0.606855
7085.000000;0.606638
7084.000000;0.606863
7083.000000;0.607005
7082.000000;0.606592
7081.000000;0.605707
7080.000000;0.604765
7079.000000;0.603794
7078.000000;0.602363
7077.000000;0.600382
7076.000000;0.598456
7075.000000;0.597176
7074.000000;0.596435
7073.000000;0.595731
7072.000000;0.594826
7071.000000;0.593803
7070.000000;0.592704
7069.000000;0.591433
7068.000000;0.589926
7067.000000;0.588176
7066.000000;0.586204
7065.000000;0.584144
7064.000000;0.582223
7063.000000;0.580532
7062.000000;0.578975
7061.000000;0.577559
7060.000000;0.576523
7059.000000;0.576026
7058.000000;0.575807
7057.000000;0.575287
7056.000000;0.574017
7055.000000;0.572020
7054.000000;0.569746
7053.000000;0.567682
7052.000000;0.565891
7051.000000;0.564031
7050.000000;0.561904
7049.000000;0.559807
7048.000000;0.558114
7047.000000;0.556684
7046.000000;0.554970
7045.000000;0.552615
7044.000000;0.549722
7043.000000;0.546693
7042.000000;0.544051
7041.000000;0.542183
7040.000000;0.540895
7039.000000;0.539426
7038.000000;0.537314
7037.000000;0.535076
7036.000000;0.533483
7035.000000;0.532376
7034.000000;0.530800
7033.000000;0.528281
7032.000000;0.525331
7031.000000;0.522586
7030.000000;0.520083
7029.000000;0.517539
7028.000000;0.514812
7027.000000;0.511902
7026.000000;0.508940
7025.000000;0.506306
7024.000000;0.504297
7023.000000;0.502536
7022.000000;0.500193
7021.000000;0.497081
7020.000000;0.494076
7019.000000;0.492100
7018.000000;0.491039
7017.000000;0.489943
7016.000000;0.488072
7015.000000;0.485475
7014.000000;0.482708
7013.000000;0.480220
7012.000000;0.477967
7011.000000;0.475560
7010.000000;0.472805
7009.000000;0.469965
7008.000000;0.467274
7007.000000;0.464391
7006.000000;0.460805
7005.000000;0.456753
7004.000000;0.453161
7003.000000;0.450506
7002.000000;0.448249
7001.000000;0.445671
7000.000000;0.442890
6999.000000;0.440629
6998.000000;0.439203
6997.000000;0.438100
6996.000000;0.436491
6995.000000;0.433881
6994.000000;0.430382
6993.000000;0.426646
6992.000000;0.423508
6991.000000;0.421340
6990.000000;0.419622
6989.000000;0.417344
6988.000000;0.414044
6987.000000;0.410261
6986.000000;0.406826
6985.000000;0.403895
6984.000000;0.400973
6983.000000;0.397795
6982.000000;0.394732
6981.000000;0.392167
6980.000000;0.389918
6979.000000;0.387638
6978.000000;0.385427
6977.000000;0.383515
6976.000000;0.381536
6975.000000;0.378775
6974.000000;0.375191
6973.000000;0.371593
6972.000000;0.368580
6971.000000;0.365843
6970.000000;0.362803
6969.000000;0.359477
6968.000000;0.356269
6967.000000;0.353279
6966.000000;0.350380
6965.000000;0.347817
6964.000000;0.346116
6963.000000;0.345277
6962.000000;0.344423
6961.000000;0.342551
6960.000000;0.339561
6959.000000;0.336295
6958.000000;0.333543
6957.000000;0.331207
6956.000000;0.328643
6955.000000;0.325668
6954.000000;0.322814
6953.000000;0.320462
6952.000000;0.318233
6951.000000;0.315649
6950.000000;0.312972
6949.000000;0.310787
6948.000000;0.308941
6947.000000;0.306630
6946.000000;0.303562
6945.000000;0.300367
6944.000000;0.297683
6943.000000;0.295439
6942.000000;0.293281
6941.000000;0.291184
6940.000000;0.289275
6939.000000;0.287467
6938.000000;0.285596
6937.000000;0.283674
6936.000000;0.281706
6935.000000;0.279475
6934.000000;0.276779
6933.000000;0.273726
6932.000000;0.270669
6931.000000;0.267987
6930.000000;0.265926
6929.000000;0.264388
6928.000000;0.262906
6927.000000;0.261081
6926.000000;0.258990
6925.000000;0.256946
6924.000000;0.255038
6923.000000;0.253226
6922.000000;0.251663
6921.000000;0.250429
6920.000000;0.249087
6919.000000;0.247060
6918.000000;0.244387
6917.000000;0.241619
6916.000000;0.239080
6915.000000;0.236868
6914.000000;0.235399
6913.000000;0.235050
6912.000000;0.235207
6911.000000;0.234591
6910.000000;0.232825
6909.000000;0.230872
6908.000000;0.229498
6907.000000;0.228119
6906.000000;0.225732
6905.000000;0.222326
6904.000000;0.218801
6903.000000;0.215985
6902.000000;0.214262
6901.000000;0.213683
6900.000000;0.213776
6899.000000;0.213524
6898.000000;0.212087
6897.000000;0.209464
6896.000000;0.206252
6895.000000;0.203060
6894.000000;0.200419
6893.000000;0.198797
6892.000000;0.198183
6891.000000;0.197927
6890.000000;0.197378
6889.000000;0.196511
6888.000000;0.195644
6887.000000;0.194862
6886.000000;0.194082
6885.000000;0.193428
6884.000000;0.193081
6883.000000;0.192887
6882.000000;0.192421
6881.000000;0.191396
6880.000000;0.189816
6879.000000;0.187914
6878.000000;0.186150
6877.000000;0.185024
6876.000000;0.184583
6875.000000;0.184266
6874.000000;0.183452
6873.000000;0.182099
6872.000000;0.180686
6871.000000;0.179634
6870.000000;0.178933
6869.000000;0.178239
6868.000000;0.177233
6867.000000;0.175960
6866.000000;0.174831
6865.000000;0.174183
6864.000000;0.173918
6863.000000;0.173742
6862.000000;0.173606
6861.000000;0.173588
6860.000000;0.173494
6859.000000;0.172987
6858.000000;0.172108
6857.000000;0.171251
6856.000000;0.170584
6855.000000;0.169874
6854.000000;0.168922
6853.000000;0.167771
6852.000000;0.166457
6851.000000;0.164987
6850.000000;0.163622
6849.000000;0.162803
6848.000000;0.162735
6847.000000;0.163410
6846.000000;0.164881
6845.000000;0.166907
6844.000000;0.168396
6843.000000;0.168070
6842.000000;0.166035
6841.000000;0.164053
6840.000000;0.163702
6839.000000;0.164729
6838.000000;0.165612
6837.000000;0.165306
6836.000000;0.164057
6835.000000;0.162875
6834.000000;0.162619
6833.000000;0.163393
6832.000000;0.164496
6831.000000;0.165110
6830.000000;0.165174
6829.000000;0.165316
6828.000000;0.165833
6827.000000;0.166208
6826.000000;0.165893
6825.000000;0.165077
6824.000000;0.164296
6823.000000;0.163661
6822.000000;0.162949
6821.000000;0.162248
6820.000000;0.162063
6819.000000;0.162788
6818.000000;0.164298
6817.000000;0.165970
6816.000000;0.167086
6815.000000;0.167409
6814.000000;0.167476
6813.000000;0.168023
6812.000000;0.169018
6811.000000;0.169644
6810.000000;0.169424
6809.000000;0.168936
6808.000000;0.169080
6807.000000;0.169992
6806.000000;0.171046
6805.000000;0.171672
6804.000000;0.171797
6803.000000;0.171694
6802.000000;0.171730
6801.000000;0.172137
6800.000000;0.172747
6799.000000;0.173125
6798.000000;0.173176
6797.000000;0.173404
6796.000000;0.174281
6795.000000;0.175580
6794.000000;0.176646
6793.000000;0.177157
6792.000000;0.177352
6791.000000;0.177686
6790.000000;0.178532
6789.000000;0.180011
6788.000000;0.181741
6787.000000;0.182911
6786.000000;0.183030
6785.000000;0.182558
6784.000000;0.182450
6783.000000;0.183083
6782.000000;0.183978
6781.000000;0.184575
6780.000000;0.184903
6779.000000;0.185343
6778.000000;0.186033
6777.000000;0.186739
6776.000000;0.187214
6775.000000;0.187529
6774.000000;0.187998
6773.000000;0.188789
6772.000000;0.189628
6771.000000;0.190017
6770.000000;0.189796
6769.000000;0.189397
6768.000000;0.189425
6767.000000;0.190111
6766.000000;0.191272
6765.000000;0.192617
6764.000000;0.193905
6763.000000;0.194943
6762.000000;0.195665
6761.000000;0.196201
6760.000000;0.196739
6759.000000;0.197330
6758.000000;0.197946
6757.000000;0.198600
6756.000000;0.199275
6755.000000;0.199834
6754.000000;0.200231
6753.000000;0.200738
6752.000000;0.201702
6751.000000;0.203065
6750.000000;0.204335
6749.000000;0.205112
6748.000000;0.205490
6747.000000;0.205879
6746.000000;0.206527
6745.000000;0.207293
6744.000000;0.207861
6743.000000;0.208113
6742.000000;0.208263
6741.000000;0.208597
6740.000000;0.209126
6739.000000;0.209636
6738.000000;0.210068
6737.000000;0.210680
6736.000000;0.211669
6735.000000;0.212817
6734.000000;0.213691
6733.000000;0.214147
6732.000000;0.214445
6731.000000;0.214915
6730.000000;0.215665
6729.000000;0.216589
6728.000000;0.217478
6727.000000;0.218123
6726.000000;0.218465
6725.000000;0.218726
6724.000000;0.219242
6723.000000;0.220105
6722.000000;0.221038
6721.000000;0.221698
6720.000000;0.222060
6719.000000;0.222449
6718.000000;0.223200
6717.000000;0.224326
6716.000000;0.225522
6715.000000;0.226477
6714.000000;0.227156
6713.000000;0.227741
6712.000000;0.228376
6711.000000;0.229035
6710.000000;0.229648
6709.000000;0.230221
6708.000000;0.230789
6707.000000;0.231338
6706.000000;0.231859
6705.000000;0.232378
6704.000000;0.232886
6703.000000;0.233310
6702.000000;0.233645
6701.000000;0.234033
6700.000000;0.234628
6699.000000;0.235411
6698.000000;0.236228
6697.000000;0.236947
6696.000000;0.237527
6695.000000;0.237983
6694.000000;0.238381
6693.000000;0.238843
6692.000000;0.239461
6691.000000;0.240233
6690.000000;0.241117
6689.000000;0.242071
6688.000000;0.243015
6687.000000;0.243815
6686.000000;0.244403
6685.000000;0.244868
6684.000000;0.245352
6683.000000;0.245907
6682.000000;0.246506
6681.000000;0.247139
6680.000000;0.247790
6679.000000;0.248404
6678.000000;0.248951
6677.000000;0.249469
6676.000000;0.249984
6675.000000;0.250440
6674.000000;0.250797
6673.000000;0.251161
6672.000000;0.251690
6671.000000;0.252429
6670.000000;0.253299
6669.000000;0.254199
6668.000000;0.255030
6667.000000;0.255676
6666.000000;0.256090
6665.000000;0.256381
6664.000000;0.256727
6663.000000;0.257221
6662.000000;0.257875
6661.000000;0.258710
6660.000000;0.259706
6659.000000;0.260686
6658.000000;0.261417
6657.000000;0.261842
6656.000000;0.262141
6655.000000;0.262538
6654.000000;0.263134
6653.000000;0.263889
6652.000000;0.264666
6651.000000;0.265285
6650.000000;0.265675
6649.000000;0.265984
6648.000000;0.266459
6647.000000;0.267168
6646.000000;0.267933
6645.000000;0.268550
6644.000000;0.268990
6643.000000;0.269370
6642.000000;0.269785
6641.000000;0.270249
6640.000000;0.270716
6639.000000;0.271138
6638.000000;0.271535
6637.000000;0.272020
6636.000000;0.272698
6635.000000;0.273508
6634.000000;0.274238
6633.000000;0.274739
6632.000000;0.275066
6631.000000;0.275375
6630.000000;0.275740
6629.000000;0.276137
6628.000000;0.276553
6627.000000;0.277023
6626.000000;0.277577
6625.000000;0.278188
6624.000000;0.278793
6623.000000;0.279342
6622.000000;0.279839
6621.000000;0.280332
6620.000000;0.280867
6619.000000;0.281438
6618.000000;0.281999
6617.000000;0.282540
6616.000000;0.283113
6615.000000;0.283751
6614.000000;0.284386
6613.000000;0.284900
6612.000000;0.285263
6611.000000;0.285588
6610.000000;0.286030
6609.000000;0.286643
6608.000000;0.287353
6607.000000;0.288057
6606.000000;0.288691
6605.000000;0.289216
6604.000000;0.289595
6603.000000;0.289838
6602.000000;0.290044
6601.000000;0.290341
6600.000000;0.290779
6599.000000;0.291309
6598.000000;0.291874
6597.000000;0.292451
6596.000000;0.293011
6595.000000;0.293512
6594.000000;0.293944
6593.000000;0.294368
6592.000000;0.294845
6591.000000;0.295377
6590.000000;0.295932
6589.000000;0.296494
6588.000000;0.297061
6587.000000;0.297605
6586.000000;0.298088
6585.000000;0.298505
6584.000000;0.298890
6583.000000;0.299286
6582.000000;0.299727
6581.000000;0.300231
6580.000000;0.300781
6579.000000;0.301334
6578.000000;0.301846
6577.000000;0.302299
6576.000000;0.302691
6575.000000;0.303042
6574.000000;0.303394
6573.000000;0.303769
6572.000000;0.304134
6571.000000;0.304443
6570.000000;0.304739
6569.000000;0.305139
6568.000000;0.305694
6567.000000;0.306303
6566.000000;0.306825
6565.000000;0.307219
6564.000000;0.307544
6563.000000;0.307860
6562.000000;0.308186
6561.000000;0.308534
6560.000000;0.308930
6559.000000;0.309407
6558.000000;0.309983
6557.000000;0.310639
6556.000000;0.311293
6555.000000;0.311837
6554.000000;0.312242
6553.000000;0.312590
6552.000000;0.312975
6551.000000;0.313402
6550.000000;0.313828
6549.000000;0.314243
6548.000000;0.314671
6547.000000;0.315102
6546.000000;0.315496
6545.000000;0.315839
6544.000000;0.316162
6543.000000;0.316501
6542.000000;0.316869
6541.000000;0.317268
6540.000000;0.317685
6539.000000;0.318093
6538.000000;0.318482
6537.000000;0.318877
6536.000000;0.319302
6535.000000;0.319747
6534.000000;0.320182
6533.000000;0.320586
6532.000000;0.320934
6531.000000;0.321196
6530.000000;0.321394
6529.000000;0.321629
6528.000000;0.321990
6527.000000;0.322465
6526.000000;0.322967
6525.000000;0.323441
6524.000000;0.323874
6523.000000;0.324235
6522.000000;0.324483
6521.000000;0.324665
6520.000000;0.324917
6519.000000;0.325324
6518.000000;0.325806
6517.000000;0.326199
6516.000000;0.326438
6515.000000;0.326624
6514.000000;0.326905
6513.000000;0.327319
6512.000000;0.327774
6511.000000;0.328164
6510.000000;0.328479
6509.000000;0.328782
6508.000000;0.329111
6507.000000;0.329453
6506.000000;0.329789
6505.000000;0.330140
6504.000000;0.330541
6503.000000;0.330994
6502.000000;0.331462
6501.000000;0.331891
6500.000000;0.332237
6499.000000;0.332510
6498.000000;0.332784
6497.000000;0.333143
6496.000000;0.333577
6495.000000;0.333992
6494.000000;0.334310
6493.000000;0.334544
6492.000000;0.334751
6491.000000;0.334967
6490.000000;0.335208
6489.000000;0.335486
6488.000000;0.335796
6487.000000;0.336118
6486.000000;0.336452
6485.000000;0.336823
6484.000000;0.337222
6483.000000;0.337580
6482.000000;0.337836
6481.000000;0.338017
6480.000000;0.338207
6479.000000;0.338476
6478.000000;0.338859
6477.000000;0.339361
6476.000000;0.339924
6475.000000;0.340420
6474.000000;0.340742
6473.000000;0.340907
6472.000000;0.341041
6471.000000;0.341260
6470.000000;0.341583
6469.000000;0.341949
6468.000000;0.342289
6467.000000;0.342572
6466.000000;0.342822
6465.000000;0.343082
6464.000000;0.343366
6463.000000;0.343663
6462.000000;0.343969
6461.000000;0.344302
6460.000000;0.344650
6459.000000;0.344968
6458.000000;0.345234
6457.000000;0.345480
6456.000000;0.345744
6455.000000;0.346019
6454.000000;0.346286
6453.000000;0.346551
6452.000000;0.346825
6451.000000;0.347096
6450.000000;0.347359
6449.000000;0.347635
6448.000000;0.347940
6447.000000;0.348244
6446.000000;0.348518
6445.000000;0.348765
6444.000000;0.348999
6443.000000;0.349205
6442.000000;0.349380
6441.000000;0.349570
6440.000000;0.349829
6439.000000;0.350150
6438.000000;0.350479
6437.000000;0.350789
6436.000000;0.351081
6435.000000;0.351349
6434.000000;0.351574
6433.000000;0.351753
6432.000000;0.351894
6431.000000;0.352017
6430.000000;0.352165
6429.000000;0.352400
6428.000000;0.352731
6427.000000;0.353095
6426.000000;0.353425
6425.000000;0.353713
6424.000000;0.353971
6423.000000;0.354172
6422.000000;0.354301
6421.000000;0.354418
6420.000000;0.354609
6419.000000;0.354889
6418.000000;0.355198
6417.000000;0.355483
6416.000000;0.355729
6415.000000;0.355928
6414.000000;0.356081
6413.000000;0.356228
6412.000000;0.356414
6411.000000;0.356628
6410.000000;0.356829
6409.000000;0.357012
6408.000000;0.357220
6407.000000;0.357461
6406.000000;0.357700
6405.000000;0.357915
6404.000000;0.358132
6403.000000;0.358378
6402.000000;0.358647
6401.000000;0.358914
6400.000000;0.359160
6399.000000;0.359369
6398.000000;0.359547
6397.000000;0.359727
6396.000000;0.359935
6395.000000;0.360143
6394.000000;0.360297
6393.000000;0.360388
6392.000000;0.360471
6391.000000;0.360594
6390.000000;0.360762
6389.000000;0.360952
6388.000000;0.361136
6387.000000;0.361297
6386.000000;0.361436
6385.000000;0.361596
6384.000000;0.361810
6383.000000;0.362058
6382.000000;0.362281
6381.000000;0.362461
6380.000000;0.362633
6379.000000;0.362823
6378.000000;0.363009
6377.000000;0.363162
6376.000000;0.363280
6375.000000;0.363392
6374.000000;0.363521
6373.000000;0.363678
6372.000000;0.363853
6371.000000;0.364022
6370.000000;0.364175
6369.000000;0.364338
6368.000000;0.364534
6367.000000;0.364743
6366.000000;0.364927
6365.000000;0.365076
6364.000000;0.365212
6363.000000;0.365345
6362.000000;0.365469
6361.000000;0.365578
6360.000000;0.365672
6359.000000;0.365746
6358.000000;0.365811
6357.000000;0.365912
6356.000000;0.366080
6355.000000;0.366287
6354.000000;0.366485
6353.000000;0.366687
6352.000000;0.366938
6351.000000;0.367218
6350.000000;0.367440
6349.000000;0.367555
6348.000000;0.367607
6347.000000;0.367662
6346.000000;0.367744
6345.000000;0.367848
6344.000000;0.367978
6343.000000;0.368129
6342.000000;0.368266
6341.000000;0.368357
6340.000000;0.368417
6339.000000;0.368488
6338.000000;0.368601
6337.000000;0.368746
6336.000000;0.368888
6335.000000;0.368989
6334.000000;0.369041
6333.000000;0.369091
6332.000000;0.369197
6331.000000;0.369367
6330.000000;0.369544
6329.000000;0.369672
6328.000000;0.369754
6327.000000;0.369829
6326.000000;0.369926
6325.000000;0.370040
6324.000000;0.370145
6323.000000;0.370228
6322.000000;0.370305
6321.000000;0.370409
6320.000000;0.370536
6319.000000;0.370643
6318.000000;0.370707
6317.000000;0.370772
6316.000000;0.370893
6315.000000;0.371063
6314.000000;0.371224
6313.000000;0.371355
6312.000000;0.371480
6311.000000;0.371598
6310.000000;0.371657
6309.000000;0.371624
6308.000000;0.371542
6307.000000;0.371496
6306.000000;0.371545
6305.000000;0.371703
6304.000000;0.371940
6303.000000;0.372194
6302.000000;0.372389
6301.000000;0.372488
6300.000000;0.372506
6299.000000;0.372480
6298.000000;0.372444
6297.000000;0.372429
6296.000000;0.372466
6295.000000;0.372551
6294.000000;0.372652
6293.000000;0.372745
6292.000000;0.372836
6291.000000;0.372929
6290.000000;0.373020
6289.000000;0.373115
6288.000000;0.373238
6287.000000;0.373378
6286.000000;0.373485
6285.000000;0.373521
6284.000000;0.373512
6283.000000;0.373521
6282.000000;0.373578
6281.000000;0.373674
6280.000000;0.373776
6279.000000;0.373852
6278.000000;0.373889
6277.000000;0.373916
6276.000000;0.373977
6275.000000;0.374074
6274.000000;0.374146
6273.000000;0.374149
6272.000000;0.374114
6271.000000;0.374121
6270.000000;0.374199
6269.000000;0.374305
6268.000000;0.374382
6267.000000;0.374423
6266.000000;0.374467
6265.000000;0.374546
6264.000000;0.374654
6263.000000;0.374756
6262.000000;0.374820
6261.000000;0.374844
6260.000000;0.374847
6259.000000;0.374841
6258.000000;0.374826
6257.000000;0.374812
6256.000000;0.374824
6255.000000;0.374882
6254.000000;0.374977
6253.000000;0.375078
6252.000000;0.375160
6251.000000;0.375221
6250.000000;0.375277
6249.000000;0.375343
6248.000000;0.375405
6247.000000;0.375430
6246.000000;0.375400
6245.000000;0.375343
6244.000000;0.375318
6243.000000;0.375361
6242.000000;0.375452
6241.000000;0.375538
6240.000000;0.375570
6239.000000;0.375541
6238.000000;0.375491
6237.000000;0.375492
6236.000000;0.375588
6235.000000;0.375746
6234.000000;0.375886
6233.000000;0.375957
6232.000000;0.375979
6231.000000;0.375997
6230.000000;0.376027
6229.000000;0.376050
6228.000000;0.376048
6227.000000;0.376032
6226.000000;0.376029
6225.000000;0.376054
6224.000000;0.376081
6223.000000;0.376071
6222.000000;0.376016
6221.000000;0.375964
6220.000000;0.375972
6219.000000;0.376035
6218.000000;0.376092
6217.000000;0.376095
6216.000000;0.376057
6215.000000;0.376030
6214.000000;0.376048
6213.000000;0.376105
6212.000000;0.376180
6211.000000;0.376245
6210.000000;0.376293
6209.000000;0.376335
6208.000000;0.376390
6207.000000;0.376454
6206.000000;0.376504
6205.000000;0.376522
6204.000000;0.376515
6203.000000;0.376492
6202.000000;0.376450
6201.000000;0.376387
6200.000000;0.376324
6199.000000;0.376292
6198.000000;0.376304
6197.000000;0.376352
6196.000000;0.376419
6195.000000;0.376490
6194.000000;0.376550
6193.000000;0.376586
6192.000000;0.376593
6191.000000;0.376572
6190.000000;0.376537
6189.000000;0.376507
6188.000000;0.376495
6187.000000;0.376501
6186.000000;0.376520
6185.000000;0.376547
6184.000000;0.376575
6183.000000;0.376582
6182.000000;0.376549
6181.000000;0.376489
6180.000000;0.376436
6179.000000;0.376404
6178.000000;0.376377
6177.000000;0.376338
6176.000000;0.376305
6175.000000;0.376304
6174.000000;0.376338
6173.000000;0.376387
6172.000000;0.376433
6171.000000;0.376469
6170.000000;0.376489
6169.000000;0.376485
6168.000000;0.376456
6167.000000;0.376413
6166.000000;0.376365
6165.000000;0.376316
6164.000000;0.376284
6163.000000;0.376290
6162.000000;0.376330
6161.000000;0.376366
6160.000000;0.376364
6159.000000;0.376345
6158.000000;0.376359
6157.000000;0.376421
6156.000000;0.376487
6155.000000;0.376502
6154.000000;0.376464
6153.000000;0.376423
6152.000000;0.376422
6151.000000;0.376456
6150.000000;0.376484
6149.000000;0.376476
6148.000000;0.376433
6147.000000;0.376388
6146.000000;0.376379
6145.000000;0.376415
6144.000000;0.376464
6143.000000;0.376476
6142.000000;0.376436
6141.000000;0.376370
6140.000000;0.376307
6139.000000;0.376252
6138.000000;0.376201
6137.000000;0.376163
6136.000000;0.376145
6135.000000;0.376132
6134.000000;0.376107
6133.000000;0.376079
6132.000000;0.376072
6131.000000;0.376101
6130.000000;0.376157
6129.000000;0.376219
6128.000000;0.376271
6127.000000;0.376296
6126.000000;0.376289
6125.000000;0.376260
6124.000000;0.376229
6123.000000;0.376204
6122.000000;0.376180
6121.000000;0.376159
6120.000000;0.376147
6119.000000;0.376145
6118.000000;0.376141
6117.000000;0.376114
6116.000000;0.376062
6115.000000;0.376000
6114.000000;0.375961
6113.000000;0.375967
6112.000000;0.376008
6111.000000;0.376052
6110.000000;0.376073
6109.000000;0.376070
6108.000000;0.376055
6107.000000;0.376034
6106.000000;0.376003
6105.000000;0.375960
6104.000000;0.375905
6103.000000;0.375850
6102.000000;0.375815
6101.000000;0.375821
6100.000000;0.375863
6099.000000;0.375913
6098.000000;0.375952
6097.000000;0.375983
6096.000000;0.376006
6095.000000;0.376004
6094.000000;0.375968
6093.000000;0.375922
6092.000000;0.375894
6091.000000;0.375894
6090.000000;0.375910
6089.000000;0.375943
6088.000000;0.375996
6087.000000;0.376050
6086.000000;0.376072
6085.000000;0.376054
6084.000000;0.376014
6083.000000;0.375980
6082.000000;0.375963
6081.000000;0.375958
6080.000000;0.375960
6079.000000;0.375962
6078.000000;0.375963
6077.000000;0.375964
6076.000000;0.375955
6075.000000;0.375925
6074.000000;0.375877
6073.000000;0.375833
6072.000000;0.375805
6071.000000;0.375780
6070.000000;0.375740
6069.000000;0.375698
6068.000000;0.375677
6067.000000;0.375670
6066.000000;0.375639
6065.000000;0.375569
6064.000000;0.375497
6063.000000;0.375471
6062.000000;0.375501
6061.000000;0.375552
6060.000000;0.375583
6059.000000;0.375577
6058.000000;0.375547
6057.000000;0.375523
6056.000000;0.375524
6055.000000;0.375549
6054.000000;0.375580
6053.000000;0.375601
6052.000000;0.375612
6051.000000;0.375628
6050.000000;0.375664
6049.000000;0.375719
6048.000000;0.375780
6047.000000;0.375830
6046.000000;0.375855
6045.000000;0.375851
6044.000000;0.375827
6043.000000;0.375803
6042.000000;0.375802
6041.000000;0.375822
6040.000000;0.375823
6039.000000;0.375775
6038.000000;0.375693
6037.000000;0.375631
6036.000000;0.375619
6035.000000;0.375640
6034.000000;0.375665
6033.000000;0.375688
6032.000000;0.375711
6031.000000;0.375726
6030.000000;0.375722
6029.000000;0.375709
6028.000000;0.375714
6027.000000;0.375744
6026.000000;0.375785
6025.000000;0.375809
6024.000000;0.375796
6023.000000;0.375743
6022.000000;0.375678
6021.000000;0.375640
6020.000000;0.375641
6019.000000;0.375656
6018.000000;0.375659
6017.000000;0.375653
6016.000000;0.375658
6015.000000;0.375679
6014.000000;0.375708
6013.000000;0.375740
6012.000000;0.375776
6011.000000;0.375813
6010.000000;0.375853
6009.000000;0.375902
6008.000000;0.375957
6007.000000;0.375987
6006.000000;0.375959
6005.000000;0.375878
6004.000000;0.375786
6003.000000;0.375734
6002.000000;0.375738
6001.000000;0.375772
6000.000000;0.375795
5999.000000;0.375792
5998.000000;0.375792
5997.000000;0.375820
5996.000000;0.375854
5995.000000;0.375836
5994.000000;0.375759
5993.000000;0.375692
5992.000000;0.375711
5991.000000;0.375804
5990.000000;0.375886
5989.000000;0.375885
5988.000000;0.375808
5987.000000;0.375725
5986.000000;0.375706
5985.000000;0.375773
5984.000000;0.375884
5983.000000;0.375974
5982.000000;0.376002
5981.000000;0.375984
5980.000000;0.375962
5979.000000;0.375955
5978.000000;0.375955
5977.000000;0.375947
5976.000000;0.375934
5975.000000;0.375931
5974.000000;0.375965
5973.000000;0.376040
5972.000000;0.376123
5971.000000;0.376171
5970.000000;0.376174
5969.000000;0.376169
5968.000000;0.376190
5967.000000;0.376232
5966.000000;0.376265
5965.000000;0.376273
5964.000000;0.376263
5963.000000;0.376251
5962.000000;0.376259
5961.000000;0.376290
5960.000000;0.376310
5959.000000;0.376274
5958.000000;0.376192
5957.000000;0.376137
5956.000000;0.376160
5955.000000;0.376226
5954.000000;0.376263
5953.000000;0.376250
5952.000000;0.376225
5951.000000;0.376223
5950.000000;0.376240
5949.000000;0.376266
5948.000000;0.376291
5947.000000;0.376305
5946.000000;0.376313
5945.000000;0.376340
5944.000000;0.376409
5943.000000;0.376503
5942.000000;0.376579
5941.000000;0.376611
5940.000000;0.376608
5939.000000;0.376596
5938.000000;0.376604
5937.000000;0.376660
5936.000000;0.376766
5935.000000;0.376872
5934.000000;0.376918
5933.000000;0.376895
5932.000000;0.376848
5931.000000;0.376814
5930.000000;0.376794
5929.000000;0.376781
5928.000000;0.376791
5927.000000;0.376840
5926.000000;0.376926
5925.000000;0.377022
5924.000000;0.377097
5923.000000;0.377124
5922.000000;0.377095
5921.000000;0.377039
5920.000000;0.376999
5919.000000;0.377001
5918.000000;0.377040
5917.000000;0.377095
5916.000000;0.377147
5915.000000;0.377176
5914.000000;0.377173
5913.000000;0.377151
5912.000000;0.377127
5911.000000;0.377105
5910.000000;0.377074
5909.000000;0.377037
5908.000000;0.377012
5907.000000;0.377015
5906.000000;0.377045
5905.000000;0.377089
5904.000000;0.377132
5903.000000;0.377162
5902.000000;0.377179
5901.000000;0.377196
5900.000000;0.377221
5899.000000;0.377243
5898.000000;0.377253
5897.000000;0.377260
5896.000000;0.377281
5895.000000;0.377317
5894.000000;0.377345
5893.000000;0.377355
5892.000000;0.377348
5891.000000;0.377327
5890.000000;0.377291
5889.000000;0.377248
5888.000000;0.377214
5887.000000;0.377199
5886.000000;0.377199
5885.000000;0.377212
5884.000000;0.377231
5883.000000;0.377248
5882.000000;0.377257
5881.000000;0.377266
5880.000000;0.377287
5879.000000;0.377320
5878.000000;0.377368
5877.000000;0.377437
5876.000000;0.377528
5875.000000;0.377615
5874.000000;0.377668
5873.000000;0.377683
5872.000000;0.377685
5871.000000;0.377691
5870.000000;0.377696
5869.000000;0.377685
5868.000000;0.377659
5867.000000;0.377633
5866.000000;0.377627
5865.000000;0.377654
5864.000000;0.377703
5863.000000;0.377747
5862.000000;0.377772
5861.000000;0.377785
5860.000000;0.377799
5859.000000;0.377804
5858.000000;0.377783
5857.000000;0.377746
5856.000000;0.377722
5855.000000;0.377729
5854.000000;0.377762
5853.000000;0.377815
5852.000000;0.377883
5851.000000;0.377948
5850.000000;0.377992
5849.000000;0.378016
5848.000000;0.378036
5847.000000;0.378052
5846.000000;0.378050
5845.000000;0.378030
5844.000000;0.378014
5843.000000;0.378029
5842.000000;0.378082
5841.000000;0.378157
5840.000000;0.378223
5839.000000;0.378253
5838.000000;0.378241
5837.000000;0.378206
5836.000000;0.378171
5835.000000;0.378144
5834.000000;0.378119
5833.000000;0.378107
5832.000000;0.378130
5831.000000;0.378196
5830.000000;0.378287
5829.000000;0.378373
5828.000000;0.378431
5827.000000;0.378461
5826.000000;0.378479
5825.000000;0.378500
5824.000000;0.378518
5823.000000;0.378515
5822.000000;0.378502
5821.000000;0.378527
5820.000000;0.378615
5819.000000;0.378728
5818.000000;0.378795
5817.000000;0.378785
5816.000000;0.378728
5815.000000;0.378679
5814.000000;0.378674
5813.000000;0.378716
5812.000000;0.378782
5811.000000;0.378837
5810.000000;0.378866
5809.000000;0.378884
5808.000000;0.378914
5807.000000;0.378954
5806.000000;0.378985
5805.000000;0.379001
5804.000000;0.379007
5803.000000;0.379006
5802.000000;0.378997
5801.000000;0.378987
5800.000000;0.378989
5799.000000;0.378999
5798.000000;0.379009
5797.000000;0.379026
5796.000000;0.379062
5795.000000;0.379111
5794.000000;0.379149
5793.000000;0.379165
5792.000000;0.379165
5791.000000;0.379162
5790.000000;0.379173
5789.000000;0.379218
5788.000000;0.379306
5787.000000;0.379419
5786.000000;0.379523
5785.000000;0.379597
5784.000000;0.379632
5783.000000;0.379622
5782.000000;0.379572
5781.000000;0.379511
5780.000000;0.379475
5779.000000;0.379473
5778.000000;0.379487
5777.000000;0.379499
5776.000000;0.379493
5775.000000;0.379468
5774.000000;0.379433
5773.000000;0.379412
5772.000000;0.379407
5771.000000;0.379394
5770.000000;0.379356
5769.000000;0.379319
5768.000000;0.379328
5767.000000;0.379398
5766.000000;0.379504
5765.000000;0.379609
5764.000000;0.379676
5763.000000;0.379674
5762.000000;0.379614
5761.000000;0.379558
5760.000000;0.379568
5759.000000;0.379628
5758.000000;0.379672
5757.000000;0.379660
5756.000000;0.379616
5755.000000;0.379574
5754.000000;0.379547
5753.000000;0.379534
5752.000000;0.379537
5751.000000;0.379552
5750.000000;0.379567
5749.000000;0.379574
5748.000000;0.379568
5747.000000;0.379547
5746.000000;0.379520
5745.000000;0.379510
5744.000000;0.379525
5743.000000;0.379531
5742.000000;0.379493
5741.000000;0.379430
5740.000000;0.379396
5739.000000;0.379403
5738.000000;0.379417
5737.000000;0.379411
5736.000000;0.379403
5735.000000;0.379417
5734.000000;0.379451
5733.000000;0.379492
5732.000000;0.379538
5731.000000;0.379583
5730.000000;0.379612
5729.000000;0.379615
5728.000000;0.379599
5727.000000;0.379574
5726.000000;0.379550
5725.000000;0.379531
5724.000000;0.379506
5723.000000;0.379448
5722.000000;0.379353
5721.000000;0.379262
5720.000000;0.379223
5719.000000;0.379231
5718.000000;0.379253
5717.000000;0.379285
5716.000000;0.379350
5715.000000;0.379427
5714.000000;0.379450
5713.000000;0.379388
5712.000000;0.379284
5711.000000;0.379189
5710.000000;0.379109
5709.000000;0.379039
5708.000000;0.378999
5707.000000;0.379013
5706.000000;0.379067
5705.000000;0.379124
5704.000000;0.379165
5703.000000;0.379187
5702.000000;0.379187
5701.000000;0.379171
5700.000000;0.379168
5699.000000;0.379195
5698.000000;0.379237
5697.000000;0.379264
5696.000000;0.379267
5695.000000;0.379258
5694.000000;0.379252
5693.000000;0.379262
5692.000000;0.379296
5691.000000;0.379341
5690.000000;0.379373
5689.000000;0.379380
5688.000000;0.379376
5687.000000;0.379368
5686.000000;0.379332
5685.000000;0.379257
5684.000000;0.379179
5683.000000;0.379154
5682.000000;0.379200
5681.000000;0.379263
5680.000000;0.379269
5679.000000;0.379192
5678.000000;0.379082
5677.000000;0.379029
5676.000000;0.379075
5675.000000;0.379181
5674.000000;0.379272
5673.000000;0.379321
5672.000000;0.379357
5671.000000;0.379397
5670.000000;0.379416
5669.000000;0.379393
5668.000000;0.379367
5667.000000;0.379402
5666.000000;0.379508
5665.000000;0.379618
5664.000000;0.379652
5663.000000;0.379593
5662.000000;0.379505
5661.000000;0.379479
5660.000000;0.379556
5659.000000;0.379702
5658.000000;0.379849
5657.000000;0.379958
5656.000000;0.380036
5655.000000;0.380102
5654.000000;0.380155
5653.000000;0.380179
5652.000000;0.380165
5651.000000;0.380122
5650.000000;0.380087
5649.000000;0.380103
5648.000000;0.380193
5647.000000;0.380335
5646.000000;0.380483
5645.000000;0.380610
5644.000000;0.380715
5643.000000;0.380806
5642.000000;0.380894
5641.000000;0.380995
5640.000000;0.381117
5639.000000;0.381249
5638.000000;0.381373
5637.000000;0.381486
5636.000000;0.381588
5635.000000;0.381656
5634.000000;0.381662
5633.000000;0.381619
5632.000000;0.381587
5631.000000;0.381624
5630.000000;0.381740
5629.000000;0.381907
5628.000000;0.382085
5627.000000;0.382246
5626.000000;0.382381
5625.000000;0.382506
5624.000000;0.382630
5623.000000;0.382735
5622.000000;0.382802
5621.000000;0.382851
5620.000000;0.382936
5619.000000;0.383075
5618.000000;0.383240
5617.000000;0.383401
5616.000000;0.383562
5615.000000;0.383739
5614.000000;0.383925
5613.000000;0.384099
5612.000000;0.384246
5611.000000;0.384355
5610.000000;0.384435
5609.000000;0.384526
5608.000000;0.384673
5607.000000;0.384875
5606.000000;0.385070
5605.000000;0.385200
5604.000000;0.385269
5603.000000;0.385334
5602.000000;0.385450
5601.000000;0.385633
5600.000000;0.385849
5599.000000;0.386043
5598.000000;0.386184
5597.000000;0.386296
5596.000000;0.386431
5595.000000;0.386612
5594.000000;0.386806
5593.000000;0.386971
5592.000000;0.387094
5591.000000;0.387194
5590.000000;0.387303
5589.000000;0.387447
5588.000000;0.387622
5587.000000;0.387785
5586.000000;0.387892
5585.000000;0.387955
5584.000000;0.388047
5583.000000;0.388217
5582.000000;0.388437
5581.000000;0.388645
5580.000000;0.388809
5579.000000;0.388946
5578.000000;0.389085
5577.000000;0.389241
5576.000000;0.389410
5575.000000;0.389578
5574.000000;0.389733
5573.000000;0.389883
5572.000000;0.390044
5571.000000;0.390214
5570.000000;0.390364
5569.000000;0.390482
5568.000000;0.390591
5567.000000;0.390723
5566.000000;0.390876
5565.000000;0.391019
5564.000000;0.391124
5563.000000;0.391194
5562.000000;0.391259
5561.000000;0.391354
5560.000000;0.391486
5559.000000;0.391633
5558.000000;0.391772
5557.000000;0.391912
5556.000000;0.392077
5555.000000;0.392256
5554.000000;0.392405
5553.000000;0.392498
5552.000000;0.392567
5551.000000;0.392661
5550.000000;0.392784
5549.000000;0.392903
5548.000000;0.392999
5547.000000;0.393091
5546.000000;0.393214
5545.000000;0.393377
5544.000000;0.393550
5543.000000;0.393683
5542.000000;0.393756
5541.000000;0.393803
5540.000000;0.393885
5539.000000;0.394020
5538.000000;0.394172
5537.000000;0.394300
5536.000000;0.394395
5535.000000;0.394478
5534.000000;0.394566
5533.000000;0.394666
5532.000000;0.394777
5531.000000;0.394893
5530.000000;0.395003
5529.000000;0.395119
5528.000000;0.395260
5527.000000;0.395428
5526.000000;0.395586
5525.000000;0.395698
5524.000000;0.395770
5523.000000;0.395840
5522.000000;0.395933
5521.000000;0.396042
5520.000000;0.396142
5519.000000;0.396227
5518.000000;0.396310
5517.000000;0.396412
5516.000000;0.396531
5515.000000;0.396639
5514.000000;0.396711
5513.000000;0.396758
5512.000000;0.396813
5511.000000;0.396906
5510.000000;0.397036
5509.000000;0.397184
5508.000000;0.397334
5507.000000;0.397474
5506.000000;0.397607
5505.000000;0.397731
5504.000000;0.397834
5503.000000;0.397896
5502.000000;0.397924
5501.000000;0.397970
5500.000000;0.398077
5499.000000;0.398218
5498.000000;0.398328
5497.000000;0.398389
5496.000000;0.398445
5495.000000;0.398534
5494.000000;0.398648
5493.000000;0.398765
5492.000000;0.398888
5491.000000;0.399023
5490.000000;0.399147
5489.000000;0.399231
5488.000000;0.399275
5487.000000;0.399306
5486.000000;0.399363
5485.000000;0.399468
5484.000000;0.399612
5483.000000;0.399749
5482.000000;0.399832
5481.000000;0.399875
5480.000000;0.399952
5479.000000;0.400123
5478.000000;0.400365
5477.000000;0.400604
5476.000000;0.400788
5475.000000;0.400905
5474.000000;0.400967
5473.000000;0.400999
5472.000000;0.401035
5471.000000;0.401091
5470.000000;0.401158
5469.000000;0.401236
5468.000000;0.401342
5467.000000;0.401473
5466.000000;0.401604
5465.000000;0.401723
5464.000000;0.401858
5463.000000;0.402025
5462.000000;0.402196
5461.000000;0.402339
5460.000000;0.402475
5459.000000;0.402644
5458.000000;0.402828
5457.000000;0.402973
5456.000000;0.403058
5455.000000;0.403127
5454.000000;0.403234
5453.000000;0.403388
5452.000000;0.403552
5451.000000;0.403691
5450.000000;0.403800
5449.000000;0.403901
5448.000000;0.404011
5447.000000;0.404134
5446.000000;0.404283
5445.000000;0.404493
5444.000000;0.404759
5443.000000;0.405000
5442.000000;0.405138
5441.000000;0.405200
5440.000000;0.405295
5439.000000;0.405481
5438.000000;0.405693
5437.000000;0.405827
5436.000000;0.405876
5435.000000;0.405940
5434.000000;0.406110
5433.000000;0.406385
5432.000000;0.406690
5431.000000;0.406947
5430.000000;0.407140
5429.000000;0.407335
5428.000000;0.407608
5427.000000;0.407965
5426.000000;0.408329
5425.000000;0.408622
5424.000000;0.408852
5423.000000;0.409097
5422.000000;0.409405
5421.000000;0.409724
5420.000000;0.409965
5419.000000;0.410110
5418.000000;0.410234
5417.000000;0.410400
5416.000000;0.410612
5415.000000;0.410851
5414.000000;0.411133
5413.000000;0.411476
5412.000000;0.411873
5411.000000;0.412307
5410.000000;0.412772
5409.000000;0.413242
5408.000000;0.413657
5407.000000;0.413990
5406.000000;0.414287
5405.000000;0.414625
5404.000000;0.415026
5403.000000;0.415435
5402.000000;0.415794
5401.000000;0.416093
5400.000000;0.416351
5399.000000;0.416599
5398.000000;0.416894
5397.000000;0.417286
5396.000000;0.417772
5395.000000;0.418305
5394.000000;0.418845
5393.000000;0.419374
5392.000000;0.419881
5391.000000;0.420370
5390.000000;0.420881
5389.000000;0.421451
5388.000000;0.422051
5387.000000;0.422622
5386.000000;0.423137
5385.000000;0.423623
5384.000000;0.424113
5383.000000;0.424614
5382.000000;0.425155
5381.000000;0.425789
5380.000000;0.426516
5379.000000;0.427272
5378.000000;0.428018
5377.000000;0.428774
5376.000000;0.429561
5375.000000;0.430346
5374.000000;0.431096
5373.000000;0.431832
5372.000000;0.432609
5371.000000;0.433472
5370.000000;0.434433
5369.000000;0.435463
5368.000000;0.436486
5367.000000;0.437434
5366.000000;0.438312
5365.000000;0.439188
5364.000000;0.440111
5363.000000;0.441083
5362.000000;0.442114
5361.000000;0.443244
5360.000000;0.444478
5359.000000;0.445757
5358.000000;0.447012
5357.000000;0.448213
5356.000000;0.449356
5355.000000;0.450475
5354.000000;0.451655
5353.000000;0.452956
5352.000000;0.454304
5351.000000;0.455560
5350.000000;0.456747
5349.000000;0.458071
5348.000000;0.459644
5347.000000;0.461289
5346.000000;0.462738
5345.000000;0.463990
5344.000000;0.465336
5343.000000;0.467013
5342.000000;0.468931
5341.000000;0.470767
5340.000000;0.472276
5339.000000;0.473547
5338.000000;0.474985
5337.000000;0.476966
5336.000000;0.479428
5335.000000;0.481877
5334.000000;0.483822
5333.000000;0.485170
5332.000000;0.486228
5331.000000;0.487375
5330.000000;0.488760
5329.000000;0.490250
5328.000000;0.491617
5327.000000;0.492787
5326.000000;0.493909
5325.000000;0.495130
5324.000000;0.496325
5323.000000;0.497197
5322.000000;0.497609
5321.000000;0.497649
5320.000000;0.497342
5319.000000;0.496501
5318.000000;0.494921
5317.000000;0.492599
5316.000000;0.489731
5315.000000;0.486675
5314.000000;0.483773
5313.000000;0.480849
5312.000000;0.476814
5311.000000;0.470260
5310.000000;0.460795
5309.000000;0.449421
5308.000000;0.437378
5307.000000;0.424976
5306.000000;0.411666
5305.000000;0.397027
5304.000000;0.381303
5303.000000;0.365107
5302.000000;0.349077
5301.000000;0.334015
5300.000000;0.321256
5299.000000;0.313258
5298.000000;0.314507
5297.000000;0.330023
5296.000000;0.359485
5295.000000;0.395042
5294.000000;0.429771
5293.000000;0.464351
5292.000000;0.501519
5291.000000;0.541349
5290.000000;0.583540
5289.000000;0.626441
5288.000000;0.663973
5287.000000;0.691761
5286.000000;0.715172
5285.000000;0.742171
5284.000000;0.771070
5283.000000;0.793056
5282.000000;0.805450
5281.000000;0.814359
5280.000000;0.824278
5279.000000;0.834752
5278.000000;0.845801
5277.000000;0.857995
5276.000000;0.868970
5275.000000;0.876674
5274.000000;0.883713
5273.000000;0.891925
5272.000000;0.896980
5271.000000;0.896276
5270.000000;0.896560
5269.000000;0.904422
5268.000000;0.915023
5267.000000;0.919104
5266.000000;0.918094
5265.000000;0.920807
5264.000000;0.927763
5263.000000;0.930593
5262.000000;0.925897
5261.000000;0.919460
5260.000000;0.916347
5259.000000;0.916704
5258.000000;0.921205
5257.000000;0.930985
5256.000000;0.941619
5255.000000;0.945693
5254.000000;0.942628
5253.000000;0.939222
5252.000000;0.940397
5251.000000;0.945898
5250.000000;0.953542
5249.000000;0.959345
5248.000000;0.957885
5247.000000;0.948750
5246.000000;0.940128
5245.000000;0.939775
5244.000000;0.944999
5243.000000;0.947294
5242.000000;0.945006
5241.000000;0.943549
5240.000000;0.944151
5239.000000;0.941970
5238.000000;0.936181
5237.000000;0.933864
5236.000000;0.941270
5235.000000;0.956766
5234.000000;0.973174
5233.000000;0.983054
5232.000000;0.982056
5231.000000;0.971624
5230.000000;0.958960
5229.000000;0.951723
5228.000000;0.950711
5227.000000;0.949993
5226.000000;0.946954
5225.000000;0.945469
5224.000000;0.947722
5223.000000;0.950562
5222.000000;0.949849
5221.000000;0.944969
5220.000000;0.939243
5219.000000;0.937748
5218.000000;0.944037
5217.000000;0.956400
5216.000000;0.967776
5215.000000;0.972596
5214.000000;0.972635
5213.000000;0.972470
5212.000000;0.972877
5211.000000;0.972562
5210.000000;0.972867
5209.000000;0.975980
5208.000000;0.980045
5207.000000;0.980451
5206.000000;0.974754
5205.000000;0.963201
5204.000000;0.947095
5203.000000;0.930766
5202.000000;0.922289
5201.000000;0.926719
5200.000000;0.939838
5199.000000;0.952171
5198.000000;0.959005
5197.000000;0.963184
5196.000000;0.968315
5195.000000;0.974077
5194.000000;0.978548
5193.000000;0.979998
5192.000000;0.976331
5191.000000;0.968040
5190.000000;0.960396
5189.000000;0.958314
5188.000000;0.960271
5187.000000;0.960756
5186.000000;0.958549
5185.000000;0.958218
5184.000000;0.963418
5183.000000;0.972691
5182.000000;0.980904
5181.000000;0.983007
5180.000000;0.978507
5179.000000;0.973657
5178.000000;0.976469
5177.000000;0.986593
5176.000000;0.992195
5175.000000;0.982766
5174.000000;0.963884
5173.000000;0.950020
5172.000000;0.947941
5171.000000;0.953120
5170.000000;0.956561
5169.000000;0.953493
5168.000000;0.946417
5167.000000;0.941051
5166.000000;0.941374
5165.000000;0.946713
5164.000000;0.951070
5163.000000;0.947487
5162.000000;0.936644
5161.000000;0.927654
5160.000000;0.929152
5159.000000;0.942796
5158.000000;0.962335
5157.000000;0.976638
5156.000000;0.977410
5155.000000;0.967326
5154.000000;0.957931
5153.000000;0.957934
5152.000000;0.965341
5151.000000;0.971442
5150.000000;0.971888
5149.000000;0.971193
5148.000000;0.975271
5147.000000;0.983414
5146.000000;0.989498
5145.000000;0.988901
5144.000000;0.982712
5143.000000;0.976079
5142.000000;0.973468
5141.000000;0.975156
5140.000000;0.977991
5139.000000;0.979671
5138.000000;0.980980
5137.000000;0.983243
5136.000000;0.985819
5135.000000;0.987547
5134.000000;0.989113
5133.000000;0.991902
5132.000000;0.995480
5131.000000;0.997755
5130.000000;0.996152
5129.000000;0.988337
5128.000000;0.975032
5127.000000;0.962396
5126.000000;0.957560
5125.000000;0.960878
5124.000000;0.964597
5123.000000;0.961665
5122.000000;0.954486
5121.000000;0.950241
5120.000000;0.951845
5119.000000;0.956695
5118.000000;0.960810
5117.000000;0.962208
5116.000000;0.961411
5115.000000;0.961674
5114.000000;0.966703
5113.000000;0.974919
5112.000000;0.978592
5111.000000;0.972943
5110.000000;0.964295
5109.000000;0.962984
5108.000000;0.970547
5107.000000;0.977699
5106.000000;0.975020
5105.000000;0.964163
5104.000000;0.954805
5103.000000;0.954314
5102.000000;0.962359
5101.000000;0.970865
5100.000000;0.970802
5099.000000;0.963414
5098.000000;0.960560
5097.000000;0.970718
5096.000000;0.988781
5095.000000;1.000225
5094.000000;0.996317
5093.000000;0.982990
5092.000000;0.971484
5091.000000;0.967375
5090.000000;0.969291
5089.000000;0.971840
5088.000000;0.969937
5087.000000;0.963824
5086.000000;0.959405
5085.000000;0.961082
5084.000000;0.965140
5083.000000;0.963739
5082.000000;0.955526
5081.000000;0.947608
5080.000000;0.947200
5079.000000;0.954591
5078.000000;0.963569
5077.000000;0.967174
5076.000000;0.963155
5075.000000;0.955235
5074.000000;0.949726
5073.000000;0.949944
5072.000000;0.953280
5071.000000;0.955086
5070.000000;0.955579
5069.000000;0.959904
5068.000000;0.970600
5067.000000;0.982545
5066.000000;0.986476
5065.000000;0.977537
5064.000000;0.960520
5063.000000;0.946232
5062.000000;0.943031
5061.000000;0.950702
5060.000000;0.960122
5059.000000;0.960607
5058.000000;0.949871
5057.000000;0.934592
5056.000000;0.922318
5055.000000;0.916702
5054.000000;0.917647
5053.000000;0.921438
5052.000000;0.921668
5051.000000;0.915203
5050.000000;0.906858
5049.000000;0.902804
5048.000000;0.902985
5047.000000;0.903152
5046.000000;0.901337
5045.000000;0.900570
5044.000000;0.904215
5043.000000;0.910927
5042.000000;0.916564
5041.000000;0.918768
5040.000000;0.916842
5039.000000;0.910964
5038.000000;0.904317
5037.000000;0.901173
5036.000000;0.902963
5035.000000;0.906961
5034.000000;0.907999
5033.000000;0.904008
5032.000000;0.897761
5031.000000;0.892117
5030.000000;0.886695
5029.000000;0.879637
5028.000000;0.871833
5027.000000;0.867544
5026.000000;0.869218
5025.000000;0.873440
5024.000000;0.874426
5023.000000;0.870579
5022.000000;0.865753
5021.000000;0.864059
5020.000000;0.864643
5019.000000;0.863314
5018.000000;0.858314
5017.000000;0.851984
5016.000000;0.847092
5015.000000;0.843696
5014.000000;0.839964
5013.000000;0.835202
5012.000000;0.830590
5011.000000;0.826401
5010.000000;0.821242
5009.000000;0.814154
5008.000000;0.806021
5007.000000;0.799112
5006.000000;0.794409
5005.000000;0.789981
5004.000000;0.783441
5003.000000;0.775393
5002.000000;0.768599
5001.000000;0.763850
5000.000000;0.758902
4999.000000;0.751978
4998.000000;0.744054
4997.000000;0.736654
4996.000000;0.729904
4995.000000;0.724359
4994.000000;0.722069
4993.000000;0.723189
4992.000000;0.723255
4991.000000;0.717395
4990.000000;0.706877
4989.000000;0.697824
4988.000000;0.694084
4987.000000;0.694099
4986.000000;0.693931
4985.000000;0.691274
4984.000000;0.686555
4983.000000;0.681748
4982.000000;0.678219
4981.000000;0.674644
4980.000000;0.667108
4979.000000;0.653059
4978.000000;0.635523
4977.000000;0.620519
4976.000000;0.610926
4975.000000;0.605331
4974.000000;0.601300
4973.000000;0.597844
4972.000000;0.594658
4971.000000;0.590721
4970.000000;0.584826
4969.000000;0.576538
4968.000000;0.566189
4967.000000;0.554954
4966.000000;0.544817
4965.000000;0.537164
4964.000000;0.531468
4963.000000;0.525865
4962.000000;0.519279
4961.000000;0.512297
4960.000000;0.505305
4959.000000;0.497560
4958.000000;0.488741
4957.000000;0.479540
4956.000000;0.470522
4955.000000;0.461775
4954.000000;0.453967
4953.000000;0.448285
4952.000000;0.444127
4951.000000;0.438372
4950.000000;0.428609
4949.000000;0.416247
4948.000000;0.405270
4947.000000;0.398139
4946.000000;0.393671
4945.000000;0.388894
4944.000000;0.382190
4943.000000;0.374235
4942.000000;0.366576
4941.000000;0.359928
4940.000000;0.353740
4939.000000;0.347101
4938.000000;0.339876
4937.000000;0.332731
4936.000000;0.326133
4935.000000;0.319524
4934.000000;0.311534
4933.000000;0.301080
4932.000000;0.288607
4931.000000;0.276423
4930.000000;0.267331
4929.000000;0.262225
4928.000000;0.258915
4927.000000;0.253792
4926.000000;0.244904
4925.000000;0.233206
4924.000000;0.221179
4923.000000;0.210966
4922.000000;0.203541
4921.000000;0.198466
4920.000000;0.193896
4919.000000;0.187528
4918.000000;0.178343
4917.000000;0.167419
4916.000000;0.156670
4915.000000;0.146932
4914.000000;0.137649
4913.000000;0.128264
4912.000000;0.119322
4911.000000;0.111769
4910.000000;0.105457
4909.000000;0.098924
4908.000000;0.090863
4907.000000;0.081591
4906.000000;0.072793
4905.000000;0.065829
4904.000000;0.060575
4903.000000;0.055756
4902.000000;0.049866
4901.000000;0.041936
4900.000000;0.032008
4899.000000;0.021255
4898.000000;0.011529
4897.000000;0.004217
4896.000000;-0.000904
4895.000000;-0.005641
4894.000000;-0.011838
4893.000000;-0.019756
4892.000000;-0.027994
4891.000000;-0.034973
4890.000000;-0.040313
4889.000000;-0.044622
4888.000000;-0.048363
4887.000000;-0.051523
4886.000000;-0.054308
4885.000000;-0.057587
4884.000000;-0.062277
4883.000000;-0.068416
4882.000000;-0.074903
4881.000000;-0.080148
4880.000000;-0.083223
4879.000000;-0.084748
4878.000000;-0.086500
4877.000000;-0.089747
4876.000000;-0.094119
4875.000000;-0.098409
4874.000000;-0.101981
4873.000000;-0.104932
4872.000000;-0.107421
4871.000000;-0.109599
4870.000000;-0.111719
4869.000000;-0.113494
4868.000000;-0.113846
4867.000000;-0.112370
4866.000000;-0.110659
4865.000000;-0.110922
4864.000000;-0.113381
4863.000000;-0.116114
4862.000000;-0.117528
4861.000000;-0.117809
4860.000000;-0.117740
4859.000000;-0.117400
4858.000000;-0.116554
4857.000000;-0.115276
4856.000000;-0.113506
4855.000000;-0.110765
4854.000000;-0.107087
4853.000000;-0.103600
4852.000000;-0.101335
4851.000000;-0.099792
4850.000000;-0.097498
4849.000000;-0.093914
4848.000000;-0.090081
4847.000000;-0.087238
4846.000000;-0.085389
4845.000000;-0.083666
4844.000000;-0.081667
4843.000000;-0.079776
4842.000000;-0.078175
4841.000000;-0.076216
4840.000000;-0.073136
4839.000000;-0.069025
4838.000000;-0.064692
4837.000000;-0.060815
4836.000000;-0.057565
4835.000000;-0.054805
4834.000000;-0.052219
4833.000000;-0.049382
4832.000000;-0.046176
4831.000000;-0.043126
4830.000000;-0.040803
4829.000000;-0.038945
4828.000000;-0.036646
4827.000000;-0.033513
4826.000000;-0.030057
4825.000000;-0.026838
4824.000000;-0.023817
4823.000000;-0.020840
4822.000000;-0.018128
4821.000000;-0.015753
4820.000000;-0.013087
4819.000000;-0.009418
4818.000000;-0.004992
4817.000000;-0.000893
4816.000000;0.002123
4815.000000;0.004339
4814.000000;0.006673
4813.000000;0.009834
4812.000000;0.013841
4811.000000;0.018032
4810.000000;0.021551
4809.000000;0.024072
4808.000000;0.026184
4807.000000;0.028858
4806.000000;0.032446
4805.000000;0.036323
4804.000000;0.039551
4803.000000;0.041810
4802.000000;0.043614
4801.000000;0.045707
4800.000000;0.048401
4799.000000;0.051517
4798.000000;0.054698
4797.000000;0.057623
4796.000000;0.060062
4795.000000;0.062052
4794.000000;0.064091
4793.000000;0.066838
4792.000000;0.070375
4791.000000;0.073958
4790.000000;0.076778
4789.000000;0.078809
4788.000000;0.080621
4787.000000;0.082534
4786.000000;0.084357
4785.000000;0.085980
4784.000000;0.087772
4783.000000;0.090161
4782.000000;0.093058
4781.000000;0.095958
4780.000000;0.098481
4779.000000;0.100658
4778.000000;0.102751
4777.000000;0.104941
4776.000000;0.107189
4775.000000;0.109306
4774.000000;0.111189
4773.000000;0.113009
4772.000000;0.115136
4771.000000;0.117798
4770.000000;0.120820
4769.000000;0.123729
4768.000000;0.126084
4767.000000;0.127750
4766.000000;0.128946
4765.000000;0.130075
4764.000000;0.131450
4763.000000;0.133131
4762.000000;0.134960
4761.000000;0.136772
4760.000000;0.138561
4759.000000;0.140502
4758.000000;0.142755
4757.000000;0.145216
4756.000000;0.147504
4755.000000;0.149341
4754.000000;0.150912
4753.000000;0.152692
4752.000000;0.154851
4751.000000;0.157021
4750.000000;0.158756
4749.000000;0.160057
4748.000000;0.161295
4747.000000;0.162755
4746.000000;0.164435
4745.000000;0.166170
4744.000000;0.167779
4743.000000;0.169188
4742.000000;0.170582
4741.000000;0.172334
4740.000000;0.174566
4739.000000;0.176874
4738.000000;0.178726
4737.000000;0.180083
4736.000000;0.181363
4735.000000;0.182837
4734.000000;0.184360
4733.000000;0.185731
4732.000000;0.187016
4731.000000;0.188382
4730.000000;0.189840
4729.000000;0.191305
4728.000000;0.192760
4727.000000;0.194219
4726.000000;0.195657
4725.000000;0.197071
4724.000000;0.198505
4723.000000;0.199906
4722.000000;0.201077
4721.000000;0.201917
4720.000000;0.202623
4719.000000;0.203515
4718.000000;0.204701
4717.000000;0.206024
4716.000000;0.207290
4715.000000;0.208457
4714.000000;0.209639
4713.000000;0.210990
4712.000000;0.212579
4711.000000;0.214272
4710.000000;0.215779
4709.000000;0.216882
4708.000000;0.217677
4707.000000;0.218506
4706.000000;0.219633
4705.000000;0.220994
4704.000000;0.222307
4703.000000;0.223398
4702.000000;0.224380
4701.000000;0.225496
4700.000000;0.226809
4699.000000;0.228115
4698.000000;0.229145
4697.000000;0.229833
4696.000000;0.230365
4695.000000;0.231025
4694.000000;0.232005
4693.000000;0.233293
4692.000000;0.234682
4691.000000;0.235914
4690.000000;0.236880
4689.000000;0.237708
4688.000000;0.238634
4687.000000;0.239800
4686.000000;0.241131
4685.000000;0.242361
4684.000000;0.243208
4683.000000;0.243639
4682.000000;0.243964
4681.000000;0.244572
4680.000000;0.245541
4679.000000;0.246606
4678.000000;0.247534
4677.000000;0.248376
4676.000000;0.249293
4675.000000;0.250288
4674.000000;0.251272
4673.000000;0.252241
4672.000000;0.253236
4671.000000;0.254208
4670.000000;0.255099
4669.000000;0.255978
4668.000000;0.256957
4667.000000;0.257996
4666.000000;0.258949
4665.000000;0.259740
4664.000000;0.260373
4663.000000;0.260838
4662.000000;0.261186
4661.000000;0.261631
4660.000000;0.262377
4659.000000;0.263353
4658.000000;0.264291
4657.000000;0.265064
4656.000000;0.265757
4655.000000;0.266423
4654.000000;0.266975
4653.000000;0.267401
4652.000000;0.267865
4651.000000;0.268527
4650.000000;0.269380
4649.000000;0.270333
4648.000000;0.271299
4647.000000;0.272161
4646.000000;0.272790
4645.000000;0.273219
4644.000000;0.273654
4643.000000;0.274223
4642.000000;0.274810
4641.000000;0.275251
4640.000000;0.275585
4639.000000;0.276022
4638.000000;0.276720
4637.000000;0.277657
4636.000000;0.278662
4635.000000;0.279520
4634.000000;0.280107
4633.000000;0.280502
4632.000000;0.280915
4631.000000;0.281449
4630.000000;0.282023
4629.000000;0.282541
4628.000000;0.283052
4627.000000;0.283642
4626.000000;0.284248
4625.000000;0.284706
4624.000000;0.284970
4623.000000;0.285228
4622.000000;0.285770
4621.000000;0.286723
4620.000000;0.287883
4619.000000;0.288826
4618.000000;0.289277
4617.000000;0.289372
4616.000000;0.289498
4615.000000;0.289894
4614.000000;0.290494
4613.000000;0.291119
4612.000000;0.291659
4611.000000;0.292045
4610.000000;0.292220
4609.000000;0.292257
4608.000000;0.292378
4607.000000;0.292735
4606.000000;0.293269
4605.000000;0.293840
4604.000000;0.294403
4603.000000;0.294949
4602.000000;0.295400
4601.000000;0.295727
4600.000000;0.296094
4599.000000;0.296692
4598.000000;0.297458
4597.000000;0.298109
4596.000000;0.298480
4595.000000;0.298721
4594.000000;0.299085
4593.000000;0.299618
4592.000000;0.300121
4591.000000;0.300392
4590.000000;0.300469
4589.000000;0.300632
4588.000000;0.301132
4587.000000;0.301922
4586.000000;0.302661
4585.000000;0.303013
4584.000000;0.302968
4583.000000;0.302868
4582.000000;0.303113
4581.000000;0.303799
4580.000000;0.304611
4579.000000;0.305106
4578.000000;0.305149
4577.000000;0.305042
4576.000000;0.305163
4575.000000;0.305551
4574.000000;0.305946
4573.000000;0.306179
4572.000000;0.306327
4571.000000;0.306495
4570.000000;0.306642
4569.000000;0.306710
4568.000000;0.306771
4567.000000;0.306936
4566.000000;0.307219
4565.000000;0.307577
4564.000000;0.307972
4563.000000;0.308325
4562.000000;0.308518
4561.000000;0.308575
4560.000000;0.308707
4559.000000;0.309042
4558.000000;0.309416
4557.000000;0.309596
4556.000000;0.309620
4555.000000;0.309734
4554.000000;0.310019
4553.000000;0.310293
4552.000000;0.310389
4551.000000;0.310391
4550.000000;0.310521
4549.000000;0.310884
4548.000000;0.311364
4547.000000;0.311702
4546.000000;0.311719
4545.000000;0.311529
4544.000000;0.311488
4543.000000;0.311841
4542.000000;0.312446
4541.000000;0.312933
4540.000000;0.313090
4539.000000;0.313008
4538.000000;0.312916
4537.000000;0.313000
4536.000000;0.313333
4535.000000;0.313804
4534.000000;0.314108
4533.000000;0.314002
4532.000000;0.313622
4531.000000;0.313408
4530.000000;0.313655
4529.000000;0.314243
4528.000000;0.314833
4527.000000;0.315198
4526.000000;0.315327
4525.000000;0.315334
4524.000000;0.315368
4523.000000;0.315515
4522.000000;0.315699
4521.000000;0.315730
4520.000000;0.315537
4519.000000;0.315306
4518.000000;0.315325
4517.000000;0.315710
4516.000000;0.316289
4515.000000;0.316716
4514.000000;0.316732
4513.000000;0.316415
4512.000000;0.316160
4511.000000;0.316304
4510.000000;0.316757
4509.000000;0.317101
4508.000000;0.317100
4507.000000;0.316950
4506.000000;0.316991
4505.000000;0.317309
4504.000000;0.317733
4503.000000;0.318078
4502.000000;0.318265
4501.000000;0.318301
4500.000000;0.318274
4499.000000;0.318324
4498.000000;0.318497
4497.000000;0.318664
4496.000000;0.318699
4495.000000;0.318678
4494.000000;0.318763
4493.000000;0.318934
4492.000000;0.318980
4491.000000;0.318765
4490.000000;0.318381
4489.000000;0.318028
4488.000000;0.317839
4487.000000;0.317843
4486.000000;0.317987
4485.000000;0.318173
4484.000000;0.318335
4483.000000;0.318523
4482.000000;0.318839
4481.000000;0.319267
4480.000000;0.319640
4479.000000;0.319804
4478.000000;0.319764
4477.000000;0.319664
4476.000000;0.319662
4475.000000;0.319826
4474.000000;0.320114
4473.000000;0.320448
4472.000000;0.320800
4471.000000;0.321162
4470.000000;0.321404
4469.000000;0.321296
4468.000000;0.320791
4467.000000;0.320226
4466.000000;0.320050
4465.000000;0.320328
4464.000000;0.320668
4463.000000;0.320650
4462.000000;0.320206
4461.000000;0.319563
4460.000000;0.319005
4459.000000;0.318776
4458.000000;0.319017
4457.000000;0.319603
4456.000000;0.320113
4455.000000;0.320156
4454.000000;0.319730
4453.000000;0.319196
4452.000000;0.318925
4451.000000;0.319037
4450.000000;0.319402
4449.000000;0.319761
4448.000000;0.319891
4447.000000;0.319779
4446.000000;0.319660
4445.000000;0.319793
4444.000000;0.320194
4443.000000;0.320631
4442.000000;0.320863
4441.000000;0.320803
4440.000000;0.320523
4439.000000;0.320202
4438.000000;0.320020
4437.000000;0.319982
4436.000000;0.319854
4435.000000;0.319443
4434.000000;0.318929
4433.000000;0.318758
4432.000000;0.319160
4431.000000;0.319876
4430.000000;0.320426
4429.000000;0.320515
4428.000000;0.320145
4427.000000;0.319491
4426.000000;0.318830
4425.000000;0.318476
4424.000000;0.318568
4423.000000;0.318899
4422.000000;0.319070
4421.000000;0.318872
4420.000000;0.318459
4419.000000;0.318176
4418.000000;0.318272
4417.000000;0.318753
4416.000000;0.319384
4415.000000;0.319813
4414.000000;0.319808
4413.000000;0.319460
4412.000000;0.319075
4411.000000;0.318819
4410.000000;0.318539
4409.000000;0.317977
4408.000000;0.317124
4407.000000;0.316250
4406.000000;0.315616
4405.000000;0.315280
4404.000000;0.315193
4403.000000;0.315333
4402.000000;0.315643
4401.000000;0.315906
4400.000000;0.315847
4399.000000;0.315376
4398.000000;0.314685
4397.000000;0.314089
4396.000000;0.313784
4395.000000;0.313689
4394.000000;0.313473
4393.000000;0.312812
4392.000000;0.311768
4391.000000;0.310873
4390.000000;0.310638
4389.000000;0.310922
4388.000000;0.310981
4387.000000;0.310230
4386.000000;0.308826
4385.000000;0.307389
4384.000000;0.306342
4383.000000;0.305671
4382.000000;0.305145
4381.000000;0.304491
4380.000000;0.303485
4379.000000;0.302176
4378.000000;0.301041
4377.000000;0.300587
4376.000000;0.300713
4375.000000;0.300696
4374.000000;0.300020
4373.000000;0.298978
4372.000000;0.298243
4371.000000;0.297957
4370.000000;0.297483
4369.000000;0.296148
4368.000000;0.294084
4367.000000;0.292193
4366.000000;0.291264
4365.000000;0.291130
4364.000000;0.290718
4363.000000;0.289046
4362.000000;0.286287
4361.000000;0.283717
4360.000000;0.282522
4359.000000;0.282682
4358.000000;0.283060
4357.000000;0.282545
4356.000000;0.281049
4355.000000;0.279398
4354.000000;0.278418
4353.000000;0.278196
4352.000000;0.278135
4351.000000;0.277580
4350.000000;0.276366
4349.000000;0.274884
4348.000000;0.273709
4347.000000;0.273129
4346.000000;0.272882
4345.000000;0.272264
4344.000000;0.270649
4343.000000;0.268109
4342.000000;0.265508
4341.000000;0.263785
4340.000000;0.263076
4339.000000;0.262644
4338.000000;0.261728
4337.000000;0.260338
4336.000000;0.259087
4335.000000;0.258303
4334.000000;0.257510
4333.000000;0.255894
4332.000000;0.253188
4331.000000;0.250003
4330.000000;0.247320
4329.000000;0.245801
4328.000000;0.245524
4327.000000;0.246100
4326.000000;0.246780
4325.000000;0.246604
4324.000000;0.244914
4323.000000;0.242012
4322.000000;0.239197
4321.000000;0.237828
4320.000000;0.238188
4319.000000;0.239211
4318.000000;0.239308
4317.000000;0.237615
4316.000000;0.234632
4315.000000;0.231759
4314.000000;0.230078
4313.000000;0.229404
4312.000000;0.228560
4311.000000;0.226735
4310.000000;0.224387
4309.000000;0.222569
4308.000000;0.221607
4307.000000;0.220821
4306.000000;0.219479
4305.000000;0.217842
4304.000000;0.217055
4303.000000;0.217972
4302.000000;0.220124
4301.000000;0.221759
4300.000000;0.221125
4299.000000;0.218148
4298.000000;0.214671
4297.000000;0.212554
4296.000000;0.211711
4295.000000;0.210592
4294.000000;0.208529
4293.000000;0.206909
4292.000000;0.207604
4291.000000;0.210628
4290.000000;0.213974
4289.000000;0.215763
4288.000000;0.216053
4287.000000;0.216423
4286.000000;0.218034
4285.000000;0.220368
4284.000000;0.221927
4283.000000;0.222159
4282.000000;0.222489
4281.000000;0.225135
4280.000000;0.230783
4279.000000;0.237520
4278.000000;0.242266
4277.000000;0.243527
4276.000000;0.242991
4275.000000;0.243915
4274.000000;0.247751
4273.000000;0.253080
4272.000000;0.257782
4271.000000;0.261445
4270.000000;0.265193
4269.000000;0.269541
4268.000000;0.273687
4267.000000;0.277275
4266.000000;0.281287
4265.000000;0.286258
4264.000000;0.291432
4263.000000;0.296737
4262.000000;0.303799
4261.000000;0.313341
4260.000000;0.322808
4259.000000;0.329050
4258.000000;0.332942
4257.000000;0.338653
4256.000000;0.348435
4255.000000;0.360411
4254.000000;0.371697
4253.000000;0.381559
4252.000000;0.390430
4251.000000;0.397981
4250.000000;0.404189
4249.000000;0.410762
4248.000000;0.420068
4247.000000;0.432115
4246.000000;0.443964
4245.000000;0.452694
4244.000000;0.458483
4243.000000;0.464111
4242.000000;0.471800
4241.000000;0.481045
4240.000000;0.489689
4239.000000;0.496931
4238.000000;0.504809
4237.000000;0.516208
4236.000000;0.531573
4235.000000;0.548076
4234.000000;0.562079
4233.000000;0.571600
4232.000000;0.577129
4231.000000;0.581748
4230.000000;0.588801
4229.000000;0.598796
4228.000000;0.609331
4227.000000;0.618016
4226.000000;0.625316
4225.000000;0.633296
4224.000000;0.642691
4223.000000;0.653459
4222.000000;0.667086
4221.000000;0.685414
4220.000000;0.706905
4219.000000;0.726035
4218.000000;0.738054
4217.000000;0.743808
4216.000000;0.748627
4215.000000;0.757120
4214.000000;0.769795
4213.000000;0.783673
4212.000000;0.795705
4211.000000;0.806372
4210.000000;0.819525
4209.000000;0.837209
4208.000000;0.854531
4207.000000;0.863203
4206.000000;0.861803
4205.000000;0.858466
4204.000000;0.862167
4203.000000;0.874073
4202.000000;0.887555
4201.000000;0.895720
4200.000000;0.899107
4199.000000;0.905142
4198.000000;0.920134
4197.000000;0.943717
4196.000000;0.970366
4195.000000;0.993754
4194.000000;1.009844
4193.000000;1.017751
4192.000000;1.019983
4191.000000;1.022220
4190.000000;1.030335
4189.000000;1.045980
4188.000000;1.065076
4187.000000;1.081241
4186.000000;1.091796
4185.000000;1.098060
4184.000000;1.102782
4183.000000;1.109052
4182.000000;1.118524
4181.000000;1.127082
4180.000000;1.124549
4179.000000;1.107395
4178.000000;1.086740
4177.000000;1.077807
4176.000000;1.086918
4175.000000;1.108420
4174.000000;1.130311
4173.000000;1.144977
4172.000000;1.155342
4171.000000;1.168673
4170.000000;1.187389
4169.000000;1.206145
4168.000000;1.220220
4167.000000;1.237560
4166.000000;1.267603
4165.000000;1.300222
4164.000000;1.314268
4163.000000;1.311802
4162.000000;1.318615
4161.000000;1.346553
4160.000000;1.375195
4159.000000;1.379289
4158.000000;1.364457
4157.000000;1.350834
4156.000000;1.348612
4155.000000;1.356028
4154.000000;1.363408
4153.000000;1.359277
4152.000000;1.343482
4151.000000;1.335902
4150.000000;1.358273
4149.000000;1.403675
4148.000000;1.433348
4147.000000;1.430326
4146.000000;1.419018
4145.000000;1.429160
4144.000000;1.465320
4143.000000;1.503275
4142.000000;1.528343
4141.000000;1.545121
4140.000000;1.555107
4139.000000;1.568266
4138.000000;1.604751
4137.000000;1.663200
4136.000000;1.704669
4135.000000;1.712054
4134.000000;1.717568
4133.000000;1.741494
4132.000000;1.760357
4131.000000;1.730599
4130.000000;1.673200
4129.000000;1.647142
4128.000000;1.669886
4127.000000;1.712228
4126.000000;1.733985
4125.000000;1.733139
4124.000000;1.726056
4123.000000;1.723609
4122.000000;1.734568
4121.000000;1.748475
4120.000000;1.751375
4119.000000;1.722307
4118.000000;1.670138
4117.000000;1.649972
4116.000000;1.678927
4115.000000;1.717942
4114.000000;1.708148
4113.000000;1.664272
4112.000000;1.634062
4111.000000;1.632828
4110.000000;1.662875
4109.000000;1.708088
4108.000000;1.739353
4107.000000;1.746066
4106.000000;1.757884
4105.000000;1.809259
4104.000000;1.879332
4103.000000;1.883428
4102.000000;1.812894
4101.000000;1.758865
4100.000000;1.758563
4099.000000;1.798458
4098.000000;1.870792
4097.000000;1.964060
4096.000000;2.029784
4095.000000;2.027117
4094.000000;2.003686
4093.000000;2.042124
4092.000000;2.156477
4091.000000;2.218077
4090.000000;2.100576
4089.000000;1.959188
4088.000000;1.870536
4087.000000;1.815366
4086.000000;1.791035
4085.000000;1.812446
4084.000000;1.901096
4083.000000;2.047106
4082.000000;2.170990
4081.000000;2.184946
4080.000000;2.094921
4079.000000;1.988345
4078.000000;1.930516
4077.000000;1.921026
4076.000000;1.897956
4075.000000;1.861249
4074.000000;1.855709
4073.000000;1.859526
4072.000000;1.871124
4071.000000;1.932398
4070.000000;2.059893
4069.000000;2.307800
4068.000000;2.376755
4067.000000;2.165241
4066.000000;2.055074
4065.000000;1.998347
4064.000000;1.977570
4063.000000;1.991829
4062.000000;1.998266
4061.000000;1.984471
4060.000000;1.987064
4059.000000;2.037719
4058.000000;2.177820
4057.000000;2.420415
4056.000000;2.500702
4055.000000;2.379012
4054.000000;2.195070
4053.000000;2.029238
4052.000000;1.953294
4051.000000;1.972169
4050.000000;2.123968
4049.000000;2.401179
4048.000000;2.424160
4047.000000;2.115842
4046.000000;1.915484
4045.000000;1.878679
4044.000000;1.965946
4043.000000;1.921609
4042.000000;1.831988
4041.000000;1.909831
4040.000000;2.151066
4039.000000;2.010783
4038.000000;1.876578
4037.000000;1.847341
4036.000000;1.834665
4035.000000;1.924043
4034.000000;2.120858
4033.000000;1.946889
4032.000000;1.776651
4031.000000;1.759623
4030.000000;1.830459
4029.000000;2.008168
4028.000000;2.370485
4027.000000;2.149590
4026.000000;1.893849
4025.000000;1.879315
4024.000000;1.937533
4023.000000;2.015884
4022.000000;2.100712
4021.000000;2.202674
4020.000000;2.267169
4019.000000;2.224752
4018.000000;2.152624
4017.000000;2.141535
4016.000000;2.192494
4015.000000;2.237307
4014.000000;2.182796
4013.000000;2.077887
4012.000000;2.005271
4011.000000;1.970559
4010.000000;1.954641
4009.000000;1.955599
4008.000000;1.971502
4007.000000;1.979250
4006.000000;2.001072
4005.000000;2.103902
4004.000000;2.432417
4003.000000;2.556818
4002.000000;2.154665
4001.000000;2.073000
4000.000000;1.990574
3999.000000;1.961231
3998.000000;2.100520
3997.000000;2.632099
3996.000000;3.389107
3995.000000;2.499554
3994.000000;2.196757
3993.000000;2.168764
3992.000000;2.402228
3991.000000;2.335869
3990.000000;2.670430
3989.000000;2.358120
3988.000000;1.983339
3987.000000;1.946694
3986.000000;2.094203
3985.000000;2.357395
3984.000000;2.409297
3983.000000;2.201468
3982.000000;2.116578
3981.000000;2.201757
3980.000000;2.176351
3979.000000;2.127835
3978.000000;2.303150
3977.000000;2.422660
3976.000000;2.209698
3975.000000;2.173374
3974.000000;2.289349
3973.000000;2.420759
3972.000000;2.393202
3971.000000;2.279709
3970.000000;2.172087
3969.000000;2.136855
3968.000000;2.133576
3967.000000;2.161504
3966.000000;2.182762
3965.000000;2.130842
3964.000000;2.063826
3963.000000;2.031419
3962.000000;2.025406
3961.000000;2.032568
3960.000000;2.064495
3959.000000;2.118039
3958.000000;2.158916
3957.000000;2.217890
3956.000000;2.360319
3955.000000;2.512743
3954.000000;2.419680
3953.000000;2.324489
3952.000000;2.232709
3951.000000;2.113349
3950.000000;2.044342
3949.000000;1.971446
3948.000000;1.842896
3947.000000;1.757420
3946.000000;1.770284
3945.000000;1.856367
3944.000000;1.959177
3943.000000;2.067153
3942.000000;2.206620
3941.000000;2.169496
3940.000000;2.038291
3939.000000;1.952105
3938.000000;1.894101
3937.000000;1.898743
3936.000000;1.934644
3935.000000;1.956761
3934.000000;1.997687
3933.000000;2.114026
3932.000000;2.358343
3931.000000;2.802366
3930.000000;3.007185
3929.000000;2.586366
3928.000000;2.366465
3927.000000;2.299334
3926.000000;2.354905
3925.000000;2.556196
3924.000000;2.446336
3923.000000;2.229563
3922.000000;2.104088
3921.000000;1.939806
3920.000000;1.843970
3919.000000;1.860668
3918.000000;1.935625
3917.000000;1.943282
3916.000000;1.895515
3915.000000;1.950099
3914.000000;2.045073
3913.000000;2.041997
3912.000000;2.052547
3911.000000;2.120031
3910.000000;2.187655
3909.000000;2.255738
3908.000000;2.318666
3907.000000;2.263411
3906.000000;2.035418
3905.000000;1.815180
3904.000000;1.754502
3903.000000;1.957364
3902.000000;2.417497
3901.000000;2.208097
3900.000000;1.991031
3899.000000;2.060145
3898.000000;2.398715
3897.000000;2.266801
3896.000000;2.135162
3895.000000;2.119460
3894.000000;2.112731
3893.000000;2.131728
3892.000000;2.343095
3891.000000;2.779468
3890.000000;2.297752
3889.000000;2.632876
3888.000000;2.638149
3887.000000;2.412007
3886.000000;2.173798
3885.000000;1.963226
3884.000000;2.256675
3883.000000;2.596440
3882.000000;2.358793
3881.000000;2.433781
3880.000000;2.410157
3879.000000;1.969066
3878.000000;2.013524
3877.000000;2.331660
3876.000000;2.612498
3875.000000;3.345942
3874.000000;2.489878
3873.000000;2.329687
3872.000000;2.629526
3871.000000;2.500149
3870.000000;1.968287
3869.000000;1.845870
3868.000000;1.887200
3867.000000;2.056464
3866.000000;2.278624
3865.000000;2.137190
3864.000000;1.809629
3863.000000;1.708525
3862.000000;1.785468
3861.000000;2.055009
3860.000000;2.287704
3859.000000;2.064980
3858.000000;1.857739
3857.000000;1.835601
3856.000000;1.966631
3855.000000;2.310825
3854.000000;2.283867
3853.000000;2.050244
3852.000000;2.012088
3851.000000;2.163488
3850.000000;2.750562
3849.000000;2.218294
3848.000000;2.094638
3847.000000;2.351573
3846.000000;2.997090
3845.000000;3.076417
3844.000000;2.996967
3843.000000;2.623719
3842.000000;2.379763
3841.000000;2.346429
3840.000000;2.391250
3839.000000;2.410641
3838.000000;2.587130
3837.000000;2.498449
3836.000000;2.183386
3835.000000;2.177754
3834.000000;2.308277
3833.000000;2.762057
3832.000000;2.773497
3831.000000;2.258650
3830.000000;2.155882
3829.000000;2.202534
3828.000000;2.295303
3827.000000;2.398730
3826.000000;2.576333
3825.000000;2.820736
3824.000000;2.768026
3823.000000;2.631404
3822.000000;2.447475
3821.000000;2.306692
3820.000000;2.893088
3819.000000;2.236626
3818.000000;2.150326
3817.000000;2.228879
3816.000000;2.245144
3815.000000;2.036448
3814.000000;2.126277
3813.000000;2.249694
3812.000000;2.059924
3811.000000;1.914974
3810.000000;1.938651
3809.000000;2.075276
3808.000000;2.215580
3807.000000;2.383357
3806.000000;2.155583
3805.000000;2.155625
3804.000000;2.450943
3803.000000;2.647648
3802.000000;2.573360
3801.000000;2.325215
3800.000000;2.319294
3799.000000;2.499762
3798.000000;2.524744
3797.000000;2.360436
3796.000000;2.196960
3795.000000;2.222099
3794.000000;2.554381
3793.000000;2.658341
3792.000000;2.411123
3791.000000;2.433819
3790.000000;2.351680
3789.000000;2.183590
3788.000000;2.181498
3787.000000;2.281534
3786.000000;2.414465
3785.000000;2.431288
3784.000000;2.509439
3783.000000;2.752209
3782.000000;2.503361
3781.000000;2.285868
3780.000000;2.146813
3779.000000;2.020888
3778.000000;2.153526
3777.000000;2.448965
3776.000000;2.191157
3775.000000;2.156705
3774.000000;2.271334
3773.000000;2.190929
3772.000000;2.201052
3771.000000;2.291984
3770.000000;2.240803
3769.000000;2.237051
3768.000000;2.291524
3767.000000;2.166127
3766.000000;2.092492
3765.000000;2.145856
3764.000000;2.220073
3763.000000;2.267372
3762.000000;2.291068
3761.000000;2.276158
3760.000000;2.281792
3759.000000;2.508554
3758.000000;3.054592
3757.000000;2.615342
3756.000000;2.952304
3755.000000;3.515639
3754.000000;2.940552
3753.000000;2.530238
3752.000000;2.326355
3751.000000;2.269230
3750.000000;2.129617
3749.000000;2.000399
3748.000000;1.945143
3747.000000;1.959933
3746.000000;2.042457
3745.000000;2.284611
3744.000000;2.759032
3743.000000;2.474146
3742.000000;2.430047
3741.000000;2.673243
3740.000000;2.643489
3739.000000;2.538160
3738.000000;2.494950
3737.000000;2.323631
3736.000000;2.106660
3735.000000;1.984894
3734.000000;1.972726
3733.000000;2.016831
3732.000000;2.172043
3731.000000;2.480548
3730.000000;2.445445
3729.000000;2.309239
3728.000000;2.209580
3727.000000;2.069147
3726.000000;1.986974
3725.000000;2.016254
3724.000000;2.156680
3723.000000;2.411850
3722.000000;2.557274
3721.000000;2.521281
3720.000000;2.554234
3719.000000;2.405080
3718.000000;2.212984
3717.000000;2.284383
3716.000000;2.562061
3715.000000;2.272747
3714.000000;2.149465
3713.000000;2.144860
3712.000000;2.119091
3711.000000;2.168367
3710.000000;2.366652
3709.000000;2.538532
3708.000000;2.431746
3707.000000;2.282020
3706.000000;2.241850
3705.000000;2.335055
3704.000000;2.457005
3703.000000;2.491850
3702.000000;2.530974
3701.000000;2.817911
3700.000000;2.634582
3699.000000;2.366720
3698.000000;2.225928
3697.000000;2.044007
3696.000000;1.942396
3695.000000;1.987616
3694.000000;2.183402
3693.000000;2.466068
3692.000000;2.560608
3691.000000;2.386970
3690.000000;2.173716
3689.000000;1.947606
3688.000000;1.818188
3687.000000;1.857253
3686.000000;1.924267
3685.000000;2.015428
3684.000000;2.335121
3683.000000;2.498655
3682.000000;2.207300
3681.000000;2.156758
3680.000000;2.315932
3679.000000;2.439948
3678.000000;2.412692
3677.000000;2.434149
3676.000000;2.381515
3675.000000;2.134574
3674.000000;2.232235
3673.000000;2.193815
3672.000000;2.072581
3671.000000;2.035315
3670.000000;1.951784
3669.000000;1.994306
3668.000000;2.027670
3667.000000;1.995059
3666.000000;1.964208
3665.000000;1.926690
3664.000000;1.915735
3663.000000;1.963909
3662.000000;2.053961
3661.000000;2.136674
3660.000000;2.236364
3659.000000;2.299923
3658.000000;2.235215
3657.000000;2.199510
3656.000000;2.355228
3655.000000;1.953355
3654.000000;1.797162
3653.000000;1.948864
3652.000000;2.209779
3651.000000;2.447050
3650.000000;2.425414
3649.000000;2.152296
3648.000000;1.896983
3647.000000;1.845127
3646.000000;2.061869
3645.000000;2.146552
3644.000000;2.034158
3643.000000;2.082807
3642.000000;2.294187
3641.000000;2.590667
3640.000000;2.588221
3639.000000;2.490026
3638.000000;2.253321
3637.000000;2.072594
3636.000000;2.009292
3635.000000;1.997735
3634.000000;2.052229
3633.000000;2.391851
3632.000000;2.734619
3631.000000;2.307082
3630.000000;2.088490
3629.000000;1.806533
3628.000000;1.649212
3627.000000;1.708482
3626.000000;1.890053
3625.000000;2.076583
3624.000000;2.161539
3623.000000;2.137311
3622.000000;2.146301
3621.000000;2.108966
3620.000000;1.943868
3619.000000;1.783565
3618.000000;1.749502
3617.000000;1.838833
3616.000000;1.985715
3615.000000;2.164182
3614.000000;2.208592
3613.000000;1.893340
3612.000000;1.691611
3611.000000;1.649873
3610.000000;1.718383
3609.000000;1.898385
3608.000000;2.050817
3607.000000;1.977067
3606.000000;1.953168
3605.000000;2.089962
3604.000000;2.350552
3603.000000;2.598862
3602.000000;2.587563
3601.000000;2.444456
3600.000000;2.332213
3599.000000;2.331890
3598.000000;2.408896
3597.000000;2.453346
3596.000000;2.569925
3595.000000;2.760710
3594.000000;2.587324
3593.000000;2.088438
3592.000000;1.693027
3591.000000;1.570499
3590.000000;1.651639
3589.000000;1.830612
3588.000000;1.951502
3587.000000;1.796811
3586.000000;1.672644
3585.000000;1.710860
3584.000000;1.848139
3583.000000;2.094988
3582.000000;2.543372
3581.000000;2.754764
3580.000000;2.484709
3579.000000;2.419153
3578.000000;2.495861
3577.000000;2.417986
3576.000000;2.368760
3575.000000;2.314095
3574.000000;2.297683
3573.000000;2.525547
3572.000000;2.366624
3571.000000;2.305820
3570.000000;2.392643
3569.000000;2.162017
3568.000000;2.023538
3567.000000;1.967641
3566.000000;1.910620
3565.000000;1.866674
3564.000000;1.855720
3563.000000;1.880671
3562.000000;1.942809
3561.000000;2.024493
3560.000000;2.090697
3559.000000;2.181597
3558.000000;2.392282
3557.000000;2.856675
3556.000000;3.244586
3555.000000;2.815681
3554.000000;2.697486
3553.000000;2.664940
3552.000000;2.397158
3551.000000;2.174340
3550.000000;2.005088
3549.000000;1.910703
3548.000000;1.900769
3547.000000;1.976032
3546.000000;2.184489
3545.000000;2.079069
3544.000000;1.862036
3543.000000;1.850292
3542.000000;1.951903
3541.000000;2.163902
3540.000000;2.439220
3539.000000;2.350193
3538.000000;2.217257
3537.000000;2.456839
3536.000000;2.443752
3535.000000;2.138101
3534.000000;2.099793
3533.000000;2.057512
3532.000000;2.021853
3531.000000;2.122161
3530.000000;2.391049
3529.000000;2.705336
3528.000000;2.849914
3527.000000;2.721043
3526.000000;2.364161
3525.000000;2.245938
3524.000000;2.248087
3523.000000;2.228517
3522.000000;2.182980
3521.000000;2.199330
3520.000000;2.267160
3519.000000;2.394283
3518.000000;2.441921
3517.000000;2.159049
3516.000000;2.011253
3515.000000;1.986693
3514.000000;1.984818
3513.000000;2.039170
3512.000000;2.207364
3511.000000;2.284190
3510.000000;2.066787
3509.000000;1.924823
3508.000000;1.971227
3507.000000;2.348136
3506.000000;2.569009
3505.000000;2.226195
3504.000000;2.092249
3503.000000;2.205040
3502.000000;2.916659
3501.000000;2.297738
3500.000000;1.953943
3499.000000;1.792413
3498.000000;1.711087
3497.000000;1.735549
3496.000000;1.942391
3495.000000;2.378787
3494.000000;2.092737
3493.000000;2.051825
3492.000000;2.052208
3491.000000;1.902466
3490.000000;1.895710
3489.000000;1.861909
3488.000000;1.818711
3487.000000;1.996603
3486.000000;2.458025
3485.000000;2.287409
3484.000000;2.040436
3483.000000;1.908671
3482.000000;1.813174
3481.000000;1.863959
3480.000000;2.050484
3479.000000;2.050421
3478.000000;1.901241
3477.000000;1.817075
3476.000000;1.946999
3475.000000;2.466274
3474.000000;2.336121
3473.000000;2.414421
3472.000000;2.612338
3471.000000;2.190286
3470.000000;2.326267
3469.000000;2.725836
3468.000000;2.286857
3467.000000;2.084643
3466.000000;2.089975
3465.000000;2.207863
3464.000000;2.127350
3463.000000;1.947341
3462.000000;1.953559
3461.000000;2.164000
3460.000000;2.409535
3459.000000;2.283870
3458.000000;2.143065
3457.000000;2.014040
3456.000000;1.886378
3455.000000;1.830928
3454.000000;1.830366
3453.000000;1.828582
3452.000000;1.759639
3451.000000;1.687510
3450.000000;1.678585
3449.000000;1.786653
3448.000000;1.978529
3447.000000;1.921601
3446.000000;1.839636
3445.000000;2.111054
3444.000000;2.541289
3443.000000;2.162027
3442.000000;1.943038
3441.000000;1.674197
3440.000000;1.519770
3439.000000;1.529415
3438.000000;1.626952
3437.000000;1.702978
3436.000000;1.731902
3435.000000;1.809932
3434.000000;1.882492
3433.000000;1.977812
3432.000000;2.399662
3431.000000;2.548380
3430.000000;2.037155
3429.000000;1.939242
3428.000000;1.907752
3427.000000;1.836143
3426.000000;1.760374
3425.000000;1.801030
3424.000000;2.186458
3423.000000;2.279238
3422.000000;1.930247
3421.000000;1.850516
3420.000000;1.790890
3419.000000;1.745121
3418.000000;1.755582
3417.000000;1.745833
3416.000000;1.740284
3415.000000;1.816238
3414.000000;1.993919
3413.000000;2.010882
3412.000000;1.776416
3411.000000;1.614073
3410.000000;1.533924
3409.000000;1.535366
3408.000000;1.622663
3407.000000;1.787670
3406.000000;1.948295
3405.000000;2.007414
3404.000000;2.393170
3403.000000;2.419356
3402.000000;1.867311
3401.000000;1.693763
3400.000000;1.639604
3399.000000;1.647027
3398.000000;1.677416
3397.000000;1.676480
3396.000000;1.634526
3395.000000;1.586597
3394.000000;1.589130
3393.000000;1.656366
3392.000000;1.783495
3391.000000;1.950789
3390.000000;2.098583
3389.000000;2.111680
3388.000000;2.000362
3387.000000;1.862390
3386.000000;1.768211
3385.000000;1.757039
3384.000000;1.819510
3383.000000;1.897213
3382.000000;2.016451
3381.000000;2.125390
3380.000000;1.996106
3379.000000;1.853463
3378.000000;1.799802
3377.000000;1.842914
3376.000000;2.001660
3375.000000;2.090096
3374.000000;2.002284
3373.000000;1.831626
3372.000000;1.717333
3371.000000;1.732558
3370.000000;2.003522
3369.000000;2.416844
3368.000000;1.938290
3367.000000;1.691727
3366.000000;1.615723
3365.000000;1.614185
3364.000000;1.749891
3363.000000;1.996600
3362.000000;2.060537
3361.000000;1.986028
3360.000000;1.866199
3359.000000;1.734167
3358.000000;1.748493
3357.000000;1.879460
3356.000000;2.164127
3355.000000;2.383672
3354.000000;2.008861
3353.000000;1.825080
3352.000000;1.856745
3351.000000;2.085859
3350.000000;2.161644
3349.000000;1.910898
3348.000000;1.755686
3347.000000;1.654656
3346.000000;1.605857
3345.000000;1.606178
3344.000000;1.654058
3343.000000;1.753505
3342.000000;1.911220
3341.000000;2.136214
3340.000000;2.154683
3339.000000;1.975188
3338.000000;1.895943
3337.000000;1.921521
3336.000000;2.055823
3335.000000;2.124255
3334.000000;1.946684
3333.000000;1.846380
3332.000000;1.867594
3331.000000;1.973457
3330.000000;2.161634
3329.000000;2.162929
3328.000000;1.999901
3327.000000;1.945525
3326.000000;1.976971
3325.000000;2.019511
3324.000000;2.031511
3323.000000;2.010529
3322.000000;2.033524
3321.000000;2.154353
3320.000000;2.399865
3319.000000;2.905674
3318.000000;2.391405
3317.000000;2.122006
3316.000000;2.418256
3315.000000;2.430788
3314.000000;1.940666
3313.000000;1.738975
3312.000000;1.695024
3311.000000;1.784206
3310.000000;1.853983
3309.000000;1.763034
3308.000000;1.741662
3307.000000;1.810504
3306.000000;1.882395
3305.000000;1.942499
3304.000000;2.065102
3303.000000;2.426808
3302.000000;2.421894
3301.000000;2.048486
3300.000000;1.903938
3299.000000;1.834185
3298.000000;1.803933
3297.000000;1.792417
3296.000000;1.744269
3295.000000;1.687963
3294.000000;1.698289
3293.000000;1.834694
3292.000000;2.057918
3291.000000;2.023791
3290.000000;1.848662
3289.000000;1.818998
3288.000000;1.882216
3287.000000;1.910922
3286.000000;1.844937
3285.000000;1.695440
3284.000000;1.604454
3283.000000;1.639830
3282.000000;1.757211
3281.000000;1.885330
3280.000000;1.875768
3279.000000;1.784957
3278.000000;1.775922
3277.000000;1.957739
3276.000000;2.201719
3275.000000;2.056649
3274.000000;2.035282
3273.000000;1.957092
3272.000000;1.795794
3271.000000;1.787499
3270.000000;1.746945
3269.000000;1.643648
3268.000000;1.632061
3267.000000;1.756427
3266.000000;2.065168
3265.000000;2.701762
3264.000000;2.597947
3263.000000;2.119409
3262.000000;1.933796
3261.000000;1.885678
3260.000000;1.908325
3259.000000;1.950189
3258.000000;1.964451
3257.000000;1.943373
3256.000000;1.989491
3255.000000;2.050895
3254.000000;2.064263
3253.000000;1.963496
3252.000000;2.175766
3251.000000;2.662098
3250.000000;1.920001
3249.000000;1.739850
3248.000000;1.820431
3247.000000;2.032262
3246.000000;2.194794
3245.000000;2.230322
3244.000000;2.308310
3243.000000;2.001516
3242.000000;1.756883
3241.000000;1.616386
3240.000000;1.650634
3239.000000;2.136943
3238.000000;2.164702
3237.000000;1.867316
3236.000000;2.274872
3235.000000;2.290640
3234.000000;1.931631
3233.000000;1.875512
3232.000000;1.924958
3231.000000;2.042475
3230.000000;1.968658
3229.000000;1.855048
3228.000000;1.956269
3227.000000;2.092130
3226.000000;1.949425
3225.000000;1.994251
3224.000000;2.439296
3223.000000;2.429590
3222.000000;1.960171
3221.000000;1.782066
3220.000000;1.756119
3219.000000;1.794515
3218.000000;1.798673
3217.000000;1.809733
3216.000000;1.869681
3215.000000;1.898164
3214.000000;1.904729
3213.000000;2.098899
3212.000000;2.593658
3211.000000;2.192619
3210.000000;1.917820
3209.000000;1.900363
3208.000000;1.984859
3207.000000;2.222325
3206.000000;2.237778
3205.000000;1.868004
3204.000000;1.680660
3203.000000;1.683309
3202.000000;1.830672
3201.000000;1.992361
3200.000000;2.022826
3199.000000;2.106095
3198.000000;2.320230
3197.000000;2.372685
3196.000000;2.102395
3195.000000;1.923883
3194.000000;1.890041
3193.000000;1.959201
3192.000000;2.033331
3191.000000;2.032272
3190.000000;2.208506
3189.000000;2.291446
3188.000000;1.913228
3187.000000;1.742627
3186.000000;1.765795
3185.000000;1.904454
3184.000000;2.021283
3183.000000;1.999764
3182.000000;1.904801
3181.000000;1.818077
3180.000000;1.822184
3179.000000;1.932880
3178.000000;2.033669
3177.000000;1.970994
3176.000000;1.915958
3175.000000;1.975957
3174.000000;2.092483
3173.000000;2.178365
3172.000000;2.205629
3171.000000;2.113590
3170.000000;2.068826
3169.000000;2.235538
3168.000000;2.278296
3167.000000;2.273579
3166.000000;2.677594
3165.000000;2.669823
3164.000000;2.719344
3163.000000;2.540756
3162.000000;2.088882
3161.000000;1.950667
3160.000000;1.936922
3159.000000;2.037832
3158.000000;2.124693
3157.000000;2.051163
3156.000000;2.241802
3155.000000;2.552531
3154.000000;2.130531
3153.000000;1.952749
3152.000000;2.098426
3151.000000;2.518712
3150.000000;2.166067
3149.000000;2.002520
3148.000000;2.126979
3147.000000;2.045893
3146.000000;1.935008
3145.000000;1.971999
3144.000000;2.081005
3143.000000;2.071452
3142.000000;1.970344
3141.000000;1.913856
3140.000000;1.898729
3139.000000;1.869921
3138.000000;1.885617
3137.000000;1.904257
3136.000000;1.825967
3135.000000;1.787749
3134.000000;1.848742
3133.000000;1.959717
3132.000000;1.966025
3131.000000;1.803876
3130.000000;1.674398
3129.000000;1.644331
3128.000000;1.707744
3127.000000;1.851300
3126.000000;2.052930
3125.000000;2.239544
3124.000000;2.204255
3123.000000;1.973211
3122.000000;1.829725
3121.000000;1.842565
3120.000000;2.148567
3119.000000;2.340939
3118.000000;1.873198
3117.000000;1.708018
3116.000000;1.670683
3115.000000;1.743065
3114.000000;1.791672
3113.000000;1.630025
3112.000000;1.559157
3111.000000;1.659244
3110.000000;1.860745
3109.000000;1.969461
3108.000000;2.064554
3107.000000;2.198131
3106.000000;2.066838
3105.000000;1.944087
3104.000000;1.931445
3103.000000;2.139315
3102.000000;2.549084
3101.000000;2.182234
3100.000000;2.104023
3099.000000;2.335025
3098.000000;2.193684
3097.000000;2.301331
3096.000000;2.752152
3095.000000;2.315027
3094.000000;2.240725
3093.000000;2.105232
3092.000000;1.893594
3091.000000;1.872778
3090.000000;2.005315
3089.000000;2.297824
3088.000000;2.398815
3087.000000;2.165139
3086.000000;2.017117
3085.000000;1.994291
3084.000000;2.050626
3083.000000;2.012408
3082.000000;1.940925
3081.000000;1.980571
3080.000000;2.177933
3079.000000;2.668471
3078.000000;2.341327
3077.000000;1.876500
3076.000000;1.681289
3075.000000;1.614705
3074.000000;1.674897
3073.000000;1.803116
3072.000000;1.751559
3071.000000;1.628713
3070.000000;1.622788
3069.000000;1.719060
3068.000000;1.855238
3067.000000;1.950339
3066.000000;2.020960
3065.000000;2.111314
3064.000000;2.037447
3063.000000;1.889670
3062.000000;1.838974
3061.000000;1.846573
3060.000000;1.850976
3059.000000;1.824620
3058.000000;1.793402
3057.000000;1.792105
3056.000000;1.809087
3055.000000;1.795980
3054.000000;1.761008
3053.000000;1.743457
3052.000000;1.740712
3051.000000;1.811450
3050.000000;1.996113
3049.000000;2.053694
3048.000000;2.069936
3047.000000;2.272365
3046.000000;2.208522
3045.000000;1.998301
3044.000000;1.892150
3043.000000;1.842884
3042.000000;1.882724
3041.000000;2.043159
3040.000000;2.317287
3039.000000;2.650394
3038.000000;2.343451
3037.000000;1.930318
3036.000000;1.753484
3035.000000;1.728630
3034.000000;1.824587
3033.000000;1.930109
3032.000000;1.919095
3031.000000;1.912121
3030.000000;2.036511
3029.000000;2.345849
3028.000000;2.225327
3027.000000;2.004694
3026.000000;2.097646
3025.000000;2.226955
3024.000000;2.181254
3023.000000;2.072451
3022.000000;1.906294
3021.000000;1.866404
3020.000000;2.032113
3019.000000;2.214456
3018.000000;2.273960
3017.000000;2.392997
3016.000000;2.335422
3015.000000;2.339941
3014.000000;2.413845
3013.000000;2.141782
3012.000000;1.914577
3011.000000;1.822461
3010.000000;1.826956
3009.000000;1.892579
3008.000000;1.946915
3007.000000;2.006400
3006.000000;2.060670
3005.000000;1.961255
3004.000000;1.834341
3003.000000;1.857769
3002.000000;2.103639
3001.000000;2.193982
3000.000000;2.030639
2999.000000;1.975899
2998.000000;1.986417
2997.000000;2.015618
2996.000000;1.904493
2995.000000;1.797106
2994.000000;1.887939
2993.000000;2.337989
2992.000000;2.392726
2991.000000;2.081559
2990.000000;1.971398
2989.000000;1.791543
2988.000000;1.694185
2987.000000;1.722784
2986.000000;1.931322
2985.000000;2.040668
2984.000000;2.147959
2983.000000;2.666165
2982.000000;2.020512
2981.000000;1.819902
2980.000000;1.962776
2979.000000;2.336679
2978.000000;2.355014
2977.000000;1.910386
2976.000000;1.669592
2975.000000;1.611175
2974.000000;1.737010
2973.000000;2.060257
2972.000000;2.256601
2971.000000;2.064630
2970.000000;1.938502
2969.000000;2.000321
2968.000000;2.591944
2967.000000;2.607061
2966.000000;2.472123
2965.000000;2.756645
2964.000000;2.415346
2963.000000;2.186200
2962.000000;1.798568
2961.000000;1.603860
2960.000000;1.586027
2959.000000;1.648461
2958.000000;1.759013
2957.000000;1.837439
2956.000000;1.830259
2955.000000;1.794020
2954.000000;1.755674
2953.000000;1.747250
2952.000000;1.840316
2951.000000;2.132028
2950.000000;2.261805
2949.000000;2.195517
2948.000000;2.544531
2947.000000;2.183705
2946.000000;1.887407
2945.000000;1.907271
2944.000000;2.108389
2943.000000;2.620832
2942.000000;2.481643
2941.000000;2.318927
2940.000000;2.265188
2939.000000;1.879297
2938.000000;1.680328
2937.000000;1.682921
2936.000000;1.982082
2935.000000;2.226019
2934.000000;1.772482
2933.000000;1.615850
2932.000000;1.623629
2931.000000;1.736403
2930.000000;1.937856
2929.000000;1.959639
2928.000000;1.776358
2927.000000;1.648739
2926.000000;1.687104
2925.000000;2.021155
2924.000000;2.169133
2923.000000;1.853498
2922.000000;1.875457
2921.000000;2.036168
2920.000000;1.959594
2919.000000;1.680976
2918.000000;1.534419
2917.000000;1.556689
2916.000000;1.705257
2915.000000;1.866611
2914.000000;1.997420
2913.000000;2.192965
2912.000000;2.276892
2911.000000;2.265391
2910.000000;2.173646
2909.000000;2.124913
2908.000000;2.231814
2907.000000;2.372937
2906.000000;2.401269
2905.000000;2.312146
2904.000000;2.303874
2903.000000;2.309265
2902.000000;2.202832
2901.000000;2.133132
2900.000000;2.024573
2899.000000;1.949089
2898.000000;1.940958
2897.000000;2.337891
2896.000000;2.692607
2895.000000;2.021392
2894.000000;2.118817
2893.000000;2.161593
2892.000000;1.937865
2891.000000;1.818047
2890.000000;1.661028
2889.000000;1.589586
2888.000000;1.584265
2887.000000;1.544491
2886.000000;1.505747
2885.000000;1.510843
2884.000000;1.515629
2883.000000;1.518559
2882.000000;1.584376
2881.000000;1.750859
2880.000000;1.995448
2879.000000;2.224409
2878.000000;2.175249
2877.000000;2.160610
2876.000000;2.160423
2875.000000;1.891191
2874.000000;1.765052
2873.000000;1.846649
2872.000000;2.074085
2871.000000;2.098801
2870.000000;1.885434
2869.000000;1.760713
2868.000000;1.809684
2867.000000;2.002225
2866.000000;1.927851
2865.000000;1.876969
2864.000000;2.123586
2863.000000;2.055843
2862.000000;1.806197
2861.000000;1.715679
2860.000000;1.722831
2859.000000;1.848458
2858.000000;2.043259
2857.000000;2.072750
2856.000000;1.852886
2855.000000;1.645355
2854.000000;1.554916
2853.000000;1.591416
2852.000000;1.670651
2851.000000;1.654755
2850.000000;1.641630
2849.000000;1.727803
2848.000000;1.904315
2847.000000;2.124042
2846.000000;2.051571
2845.000000;1.828036
2844.000000;1.797542
2843.000000;2.016208
2842.000000;2.404038
2841.000000;2.360871
2840.000000;2.058326
2839.000000;1.809995
2838.000000;1.681969
2837.000000;1.632153
2836.000000;1.635688
2835.000000;1.687711
2834.000000;1.753749
2833.000000;1.794790
2832.000000;1.794562
2831.000000;1.792800
2830.000000;1.803321
2829.000000;1.825476
2828.000000;1.891081
2827.000000;1.959188
2826.000000;1.854000
2825.000000;1.690961
2824.000000;1.607846
2823.000000;1.588571
2822.000000;1.618618
2821.000000;1.659898
2820.000000;1.638843
2819.000000;1.587962
2818.000000;1.555215
2817.000000;1.581246
2816.000000;1.717455
2815.000000;1.915704
2814.000000;1.951788
2813.000000;1.901032
2812.000000;1.869447
2811.000000;1.813449
2810.000000;1.810870
2809.000000;1.977648
2808.000000;2.542329
2807.000000;2.568673
2806.000000;2.218136
2805.000000;2.243096
2804.000000;2.335546
2803.000000;2.295875
2802.000000;2.309991
2801.000000;2.566926
2800.000000;2.378604
2799.000000;2.144726
2798.000000;2.261108
2797.000000;2.268054
2796.000000;1.917298
2795.000000;1.831181
2794.000000;1.944841
2793.000000;2.186095
2792.000000;2.348391
2791.000000;2.213611
2790.000000;2.064824
2789.000000;1.899414
2788.000000;1.782635
2787.000000;1.706379
2786.000000;1.653198
2785.000000;1.611838
2784.000000;1.573494
2783.000000;1.553146
2782.000000;1.560256
2781.000000;1.590219
2780.000000;1.591940
2779.000000;1.588168
2778.000000;1.671434
2777.000000;1.830418
2776.000000;1.970885
2775.000000;1.948414
2774.000000;1.812229
2773.000000;1.785068
2772.000000;1.894204
2771.000000;1.955553
2770.000000;1.877462
2769.000000;2.101196
2768.000000;2.286163
2767.000000;1.779339
2766.000000;1.676421
2765.000000;1.741399
2764.000000;1.954122
2763.000000;2.250955
2762.000000;2.200698
2761.000000;2.120999
2760.000000;1.947557
2759.000000;1.824749
2758.000000;1.924504
2757.000000;1.991299
2756.000000;1.753008
2755.000000;1.608399
2754.000000;1.570645
2753.000000;1.563753
2752.000000;1.594784
2751.000000;1.672960
2750.000000;1.791301
2749.000000;1.876213
2748.000000;1.989901
2747.000000;2.192622
2746.000000;2.099497
2745.000000;2.025877
2744.000000;2.238612
2743.000000;2.490658
2742.000000;1.850560
2741.000000;1.567053
2740.000000;1.513511
2739.000000;1.603885
2738.000000;1.785627
2737.000000;1.936581
2736.000000;1.983713
2735.000000;1.954657
2734.000000;1.922112
2733.000000;2.064003
2732.000000;2.172911
2731.000000;1.829799
2730.000000;1.607898
2729.000000;1.522429
2728.000000;1.525745
2727.000000;1.636856
2726.000000;1.871091
2725.000000;2.046789
2724.000000;1.907395
2723.000000;1.684919
2722.000000;1.582349
2721.000000;1.620581
2720.000000;1.883892
2719.000000;2.084693
2718.000000;1.588229
2717.000000;1.393803
2716.000000;1.398180
2715.000000;1.532890
2714.000000;1.730591
2713.000000;1.922223
2712.000000;2.373313
2711.000000;2.480370
2710.000000;2.097228
2709.000000;1.956162
2708.000000;1.798172
2707.000000;1.809114
2706.000000;2.041227
2705.000000;1.900958
2704.000000;1.709401
2703.000000;1.749293
2702.000000;1.696573
2701.000000;1.534323
2700.000000;1.442320
2699.000000;1.446758
2698.000000;1.621351
2697.000000;2.169351
2696.000000;2.204850
2695.000000;1.975594
2694.000000;1.785718
2693.000000;1.582872
2692.000000;1.532580
2691.000000;1.641922
2690.000000;1.867650
2689.000000;2.019417
2688.000000;2.142301
2687.000000;2.222014
2686.000000;2.122841
2685.000000;1.853626
2684.000000;1.808721
2683.000000;2.030785
2682.000000;1.972584
2681.000000;1.624680
2680.000000;1.429076
2679.000000;1.353294
2678.000000;1.388362
2677.000000;1.549194
2676.000000;1.840632
2675.000000;2.141556
2674.000000;2.308646
2673.000000;2.056561
2672.000000;1.855493
2671.000000;1.747259
2670.000000;1.690765
2669.000000;1.769200
2668.000000;1.836208
2667.000000;2.002020
2666.000000;2.069607
2665.000000;1.975713
2664.000000;2.068886
2663.000000;1.668635
2662.000000;1.505097
2661.000000;1.553531
2660.000000;1.683583
2659.000000;1.787600
2658.000000;1.770736
2657.000000;1.686136
2656.000000;1.609358
2655.000000;1.576214
2654.000000;1.585178
2653.000000;1.667400
2652.000000;1.794870
2651.000000;1.765573
2650.000000;1.636802
2649.000000;1.588966
2648.000000;1.594561
2647.000000;1.656630
2646.000000;1.743837
2645.000000;1.582304
2644.000000;1.405934
2643.000000;1.387501
2642.000000;1.510697
2641.000000;1.772815
2640.000000;2.299296
2639.000000;1.948029
2638.000000;1.604269
2637.000000;1.512870
2636.000000;1.545143
2635.000000;1.631401
2634.000000;1.657494
2633.000000;1.627786
2632.000000;1.604309
2631.000000;1.525724
2630.000000;1.372984
2629.000000;1.263386
2628.000000;1.260633
2627.000000;1.381860
2626.000000;1.501549
2625.000000;1.390443
2624.000000;1.229038
2623.000000;1.138045
2622.000000;1.122338
2621.000000;1.199527
2620.000000;1.376421
2619.000000;1.549894
2618.000000;1.563132
2617.000000;1.676602
2616.000000;2.253475
2615.000000;1.871297
2614.000000;1.633690
2613.000000;1.785082
2612.000000;2.472057
2611.000000;1.832277
2610.000000;1.725485
2609.000000;2.101559
2608.000000;1.775759
2607.000000;1.473538
2606.000000;1.393239
2605.000000;1.436754
2604.000000;1.522435
2603.000000;1.577724
2602.000000;1.802686
2601.000000;1.869924
2600.000000;1.571481
2599.000000;1.563014
2598.000000;1.946296
2597.000000;2.211810
2596.000000;1.731346
2595.000000;1.621531
2594.000000;1.562053
2593.000000;1.546001
2592.000000;1.608102
2591.000000;1.737613
2590.000000;1.848664
2589.000000;1.877563
2588.000000;1.997273
2587.000000;2.207837
2586.000000;2.171470
2585.000000;2.199414
2584.000000;2.563065
2583.000000;2.537925
2582.000000;2.125493
2581.000000;2.002319
2580.000000;1.973986
2579.000000;1.848949
2578.000000;1.650612
2577.000000;1.525760
2576.000000;1.538072
2575.000000;1.702728
2574.000000;2.155819
2573.000000;2.597337
2572.000000;2.103004
2571.000000;1.979430
2570.000000;1.975521
2569.000000;2.278757
2568.000000;2.183073
2567.000000;1.879208
2566.000000;1.880321
2565.000000;2.028019
2564.000000;2.251436
2563.000000;2.101186
2562.000000;1.934605
2561.000000;1.978591
2560.000000;2.042251
2559.000000;1.803231
2558.000000;1.669091
2557.000000;1.651579
2556.000000;1.546949
2555.000000;1.457058
2554.000000;1.512483
2553.000000;1.759867
2552.000000;2.097520
2551.000000;2.202313
2550.000000;2.429500
2549.000000;2.250494
2548.000000;2.002735
2547.000000;1.876435
2546.000000;1.831521
2545.000000;1.878031
2544.000000;2.116306
2543.000000;2.259926
2542.000000;1.900134
2541.000000;1.682117
2540.000000;1.577245
2539.000000;1.547844
2538.000000;1.567576
2537.000000;1.596305
2536.000000;1.623399
2535.000000;1.665478
2534.000000;1.781083
2533.000000;2.074260
2532.000000;2.240334
2531.000000;2.012845
2530.000000;1.870390
2529.000000;1.846841
2528.000000;1.865316
2527.000000;1.785929
2526.000000;1.615236
2525.000000;1.510731
2524.000000;1.544125
2523.000000;1.657552
2522.000000;1.613650
2521.000000;1.477666
2520.000000;1.417062
2519.000000;1.438507
2518.000000;1.559440
2517.000000;1.814545
2516.000000;2.027745
2515.000000;1.795592
2514.000000;1.536128
2513.000000;1.429027
2512.000000;1.449413
2511.000000;1.518855
2510.000000;1.580227
2509.000000;1.696354
2508.000000;1.868120
2507.000000;1.892874
2506.000000;1.924318
2505.000000;1.699981
2504.000000;1.446899
2503.000000;1.356095
2502.000000;1.390126
2501.000000;1.533376
2500.000000;1.850084
2499.000000;1.976082
2498.000000;1.641234
2497.000000;1.616099
2496.000000;1.861840
2495.000000;1.904293
2494.000000;1.650475
2493.000000;1.647092
2492.000000;1.746454
2491.000000;1.856237
2490.000000;1.846175
2489.000000;1.776146
2488.000000;1.725043
2487.000000;1.655441
2486.000000;1.615969
2485.000000;1.631721
2484.000000;1.556094
2483.000000;1.441206
2482.000000;1.406284
2481.000000;1.456468
2480.000000;1.623970
2479.000000;2.010695
2478.000000;2.234759
2477.000000;1.945041
2476.000000;1.576560
2475.000000;1.402739
2474.000000;1.444502
2473.000000;1.807873
2472.000000;2.097355
2471.000000;1.656792
2470.000000;1.699527
2469.000000;1.868425
2468.000000;1.981029
2467.000000;1.976753
2466.000000;2.114344
2465.000000;2.409638
2464.000000;2.256100
2463.000000;2.208470
2462.000000;2.408390
2461.000000;2.048100
2460.000000;1.715625
2459.000000;1.636217
2458.000000;1.814935
2457.000000;2.311387
2456.000000;1.934327
2455.000000;1.725572
2454.000000;1.577290
2453.000000;1.467598
2452.000000;1.455526
2451.000000;1.434458
2450.000000;1.422308
2449.000000;1.512286
2448.000000;1.802317
2447.000000;2.080674
2446.000000;1.959469
2445.000000;2.243536
2444.000000;2.783840
2443.000000;2.617859
2442.000000;1.853814
2441.000000;1.542285
2440.000000;1.439821
2439.000000;1.437610
2438.000000;1.485618
2437.000000;1.548032
2436.000000;1.614171
2435.000000;1.684756
2434.000000;1.780806
2433.000000;1.773359
2432.000000;1.655843
2431.000000;1.644282
2430.000000;1.739167
2429.000000;1.864040
2428.000000;1.786919
2427.000000;1.541555
2426.000000;1.407917
2425.000000;1.419334
2424.000000;1.556619
2423.000000;1.731234
2422.000000;1.994659
2421.000000;2.539402
2420.000000;1.868411
2419.000000;1.764007
2418.000000;1.800876
2417.000000;1.721465
2416.000000;1.597769
2415.000000;1.605276
2414.000000;1.756102
2413.000000;2.244462
2412.000000;2.638426
2411.000000;1.984256
2410.000000;1.895257
2409.000000;1.876088
2408.000000;1.890057
2407.000000;2.009859
2406.000000;1.993180
2405.000000;1.695615
2404.000000;1.558621
2403.000000;1.558265
2402.000000;1.621785
2401.000000;1.689548
2400.000000;1.613397
2399.000000;1.450256
2398.000000;1.389183
2397.000000;1.478773
2396.000000;1.740423
2395.000000;2.055856
2394.000000;1.915928
2393.000000;1.748314
2392.000000;1.633657
2391.000000;1.613061
2390.000000;1.703429
2389.000000;1.860039
2388.000000;1.977675
2387.000000;2.072082
2386.000000;2.047888
2385.000000;1.874207
2384.000000;1.822228
2383.000000;1.935772
2382.000000;2.251122
2381.000000;2.241008
2380.000000;2.014749
2379.000000;1.961132
2378.000000;2.000703
2377.000000;2.158687
2376.000000;2.355118
2375.000000;2.378635
2374.000000;2.489466
2373.000000;2.570574
2372.000000;2.488450
2371.000000;2.794446
2370.000000;2.390382
2369.000000;2.136049
2368.000000;2.120119
2367.000000;2.182509
2366.000000;2.184476
2365.000000;2.199043
2364.000000;2.308894
2363.000000;2.454835
2362.000000;2.655198
2361.000000;2.820194
2360.000000;2.494957
2359.000000;2.491738
2358.000000;2.708319
2357.000000;2.402172
2356.000000;2.132337
2355.000000;2.086172
2354.000000;2.239306
2353.000000;2.358797
2352.000000;2.238739
2351.000000;2.248365
2350.000000;2.295853
2349.000000;2.273987
2348.000000;2.229804
2347.000000;2.226038
2346.000000;2.243388
2345.000000;2.216632
2344.000000;2.160535
2343.000000;2.215994
2342.000000;2.391101
2341.000000;2.395897
2340.000000;2.276491
2339.000000;2.148445
2338.000000;2.254014
2337.000000;2.628874
2336.000000;2.154300
2335.000000;2.041927
2334.000000;2.312616
2333.000000;2.974889
2332.000000;2.259909
2331.000000;2.605215
2330.000000;2.677970
2329.000000;2.064207
2328.000000;1.953533
2327.000000;2.001013
2326.000000;2.119694
2325.000000;1.985934
2324.000000;1.920950
2323.000000;2.070903
2322.000000;2.502909
2321.000000;2.341001
2320.000000;2.392451
2319.000000;2.331810
2318.000000;1.867154
2317.000000;1.754277
2316.000000;1.968441
2315.000000;2.109268
2314.000000;1.839497
2313.000000;1.980793
2312.000000;2.373703
2311.000000;1.682658
2310.000000;1.579738
2309.000000;1.723070
2308.000000;2.244431
2307.000000;2.248289
2306.000000;1.960922
2305.000000;2.137289
2304.000000;2.446477
2303.000000;2.228756
2302.000000;2.097441
2301.000000;1.845276
2300.000000;1.677757
2299.000000;1.704056
2298.000000;1.856287
2297.000000;1.999046
2296.000000;2.077843
2295.000000;2.755902
2294.000000;2.098677
2293.000000;1.782752
2292.000000;1.809568
2291.000000;2.227997
2290.000000;2.027138
2289.000000;1.741868
2288.000000;1.595178
2287.000000;1.537727
2286.000000;1.589178
2285.000000;1.635047
2284.000000;1.674379
2283.000000;1.813591
2282.000000;1.813668
2281.000000;1.787335
2280.000000;2.020299
2279.000000;1.937904
2278.000000;1.630356
2277.000000;1.784227
2276.000000;2.126208
2275.000000;1.587164
2274.000000;1.346967
2273.000000;1.305734
2272.000000;1.356555
2271.000000;1.405233
2270.000000;1.397376
2269.000000;1.353143
2268.000000;1.310153
2267.000000;1.326966
2266.000000;1.438224
2265.000000;1.675380
2264.000000;1.996452
2263.000000;1.739007
2262.000000;1.578527
2261.000000;1.585172
2260.000000;1.686637
2259.000000;1.767352
2258.000000;1.781878
2257.000000;1.933695
2256.000000;1.976185
2255.000000;1.697717
2254.000000;1.658353
2253.000000;1.921896
2252.000000;2.561110
2251.000000;2.208950
2250.000000;2.194151
2249.000000;1.891819
2248.000000;1.761147
2247.000000;1.762891
2246.000000;1.786355
2245.000000;1.746407
2244.000000;1.607027
2243.000000;1.570450
2242.000000;1.796507
2241.000000;1.834770
2240.000000;1.666123
2239.000000;1.877334
2238.000000;2.103137
2237.000000;1.603906
2236.000000;1.469698
2235.000000;1.513544
2234.000000;1.600194
2233.000000;1.656599
2232.000000;1.720695
2231.000000;1.927452
2230.000000;2.089824
2229.000000;2.306496
2228.000000;1.854336
2227.000000;1.491423
2226.000000;1.437854
2225.000000;1.637418
2224.000000;1.873693
2223.000000;1.553277
2222.000000;1.459675
2221.000000;1.520227
2220.000000;1.550542
2219.000000;1.479108
2218.000000;1.439966
2217.000000;1.444371
2216.000000;1.520194
2215.000000;1.666574
2214.000000;1.772308
2213.000000;1.704059
2212.000000;1.555939
2211.000000;1.458047
2210.000000;1.487281
2209.000000;1.666283
2208.000000;2.342434
2207.000000;1.762835
2206.000000;1.497767
2205.000000;1.418763
2204.000000;1.433638
2203.000000;1.476335
2202.000000;1.514072
2201.000000;1.555628
2200.000000;1.576910
2199.000000;1.544283
2198.000000;1.463846
2197.000000;1.406882
2196.000000;1.441754
2195.000000;1.645479
2194.000000;1.772763
2193.000000;1.534534
2192.000000;1.405901
2191.000000;1.435665
2190.000000;1.640908
2189.000000;1.553620
2188.000000;1.351880
2187.000000;1.308962
2186.000000;1.362525
2185.000000;1.468387
2184.000000;1.456709
2183.000000;1.283065
2182.000000;1.127481
2181.000000;1.065219
2180.000000;1.103096
2179.000000;1.216552
2178.000000;1.346853
2177.000000;1.452665
2176.000000;1.533871
2175.000000;1.606640
2174.000000;1.710942
2173.000000;1.831452
2172.000000;1.876193
2171.000000;1.821700
2170.000000;1.631022
2169.000000;1.407142
2168.000000;1.309306
2167.000000;1.376130
2166.000000;1.687737
2165.000000;2.025864
2164.000000;1.921607
2163.000000;1.747317
2162.000000;1.596615
2161.000000;1.614778
2160.000000;1.748381
2159.000000;1.773088
2158.000000;1.803619
2157.000000;1.829764
2156.000000;1.741516
2155.000000;1.761614
2154.000000;1.919290
2153.000000;1.859678
2152.000000;1.731184
2151.000000;1.895249
2150.000000;2.410926
2149.000000;1.762514
2148.000000;1.623226
2147.000000;1.590167
2146.000000;1.714516
2145.000000;1.850440
2144.000000;1.695657
2143.000000;1.657804
2142.000000;1.832105
2141.000000;2.104769
2140.000000;2.022746
2139.000000;1.610506
2138.000000;1.368195
2137.000000;1.329813
2136.000000;1.448841
2135.000000;1.664121
2134.000000;1.452629
2133.000000;1.225002
2132.000000;1.155426
2131.000000;1.149579
2130.000000;1.175802
2129.000000;1.288987
2128.000000;1.620718
2127.000000;2.012947
2126.000000;1.527052
2125.000000;1.342537
2124.000000;1.256360
2123.000000;1.242301
2122.000000;1.303515
2121.000000;1.404807
2120.000000;1.446958
2119.000000;1.478882
2118.000000;1.860209
2117.000000;2.256517
2116.000000;1.568792
2115.000000;1.558399
2114.000000;1.590660
2113.000000;1.680764
2112.000000;2.038225
2111.000000;2.241714
2110.000000;1.595737
2109.000000;1.336325
2108.000000;1.274244
2107.000000;1.370950
2106.000000;1.566603
2105.000000;1.679149
2104.000000;1.836231
2103.000000;1.893707
2102.000000;1.668374
2101.000000;1.497436
2100.000000;1.394707
2099.000000;1.418285
2098.000000;1.527310
2097.000000;1.401072
2096.000000;1.269121
2095.000000;1.257583
2094.000000;1.304214
2093.000000;1.348915
2092.000000;1.418801
2091.000000;1.501884
2090.000000;1.508525
2089.000000;1.451559
2088.000000;1.433562
2087.000000;1.537376
2086.000000;1.797610
2085.000000;2.009493
2084.000000;1.736091
2083.000000;1.481640
2082.000000;1.418161
2081.000000;1.619225
2080.000000;1.868275
2079.000000;1.774066
2078.000000;1.763525
2077.000000;1.469799
2076.000000;1.312041
2075.000000;1.348533
2074.000000;1.522437
2073.000000;1.786767
2072.000000;1.757808
2071.000000;1.521898
2070.000000;1.437219
2069.000000;1.512205
2068.000000;1.644547
2067.000000;1.616696
2066.000000;1.487615
2065.000000;1.349941
2064.000000;1.318513
2063.000000;1.432948
2062.000000;1.954933
2061.000000;2.299088
2060.000000;1.710954
2059.000000;1.764976
2058.000000;2.006303
2057.000000;1.854313
2056.000000;1.466955
2055.000000;1.340867
2054.000000;1.325405
2053.000000;1.369508
2052.000000;1.387920
2051.000000;1.373294
2050.000000;1.359378
2049.000000;1.429477
2048.000000;1.664789
2047.000000;2.582811
2046.000000;2.065680
2045.000000;1.875459
2044.000000;1.826724
2043.000000;1.858652
2042.000000;1.879924
2041.000000;1.808292
2040.000000;1.606985
2039.000000;1.449816
2038.000000;1.394983
2037.000000;1.404715
2036.000000;1.408907
2035.000000;1.354438
2034.000000;1.347269
2033.000000;1.585859
2032.000000;2.059691
2031.000000;1.785222
2030.000000;1.679481
2029.000000;1.824762
2028.000000;1.784010
2027.000000;1.660806
2026.000000;1.681068
2025.000000;2.112233
2024.000000;2.105072
2023.000000;1.627280
2022.000000;1.400790
2021.000000;1.289562
2020.000000;1.275904
2019.000000;1.339971
2018.000000;1.437234
2017.000000;1.443939
2016.000000;1.346060
2015.000000;1.253711
2014.000000;1.192450
2013.000000;1.183467
2012.000000;1.249104
2011.000000;1.384277
2010.000000;1.563229
2009.000000;1.746853
2008.000000;1.707917
2007.000000;1.500598
2006.000000;1.352548
2005.000000;1.280026
2004.000000;1.289667
2003.000000;1.378031
2002.000000;1.547173
2001.000000;1.611267
2000.000000;1.514988
1999.000000;1.487114
1998.000000;1.520767
1997.000000;1.422013
1996.000000;1.303203
1995.000000;1.308683
1994.000000;1.419443
1993.000000;1.479175
1992.000000;1.436889
1991.000000;1.420806
1990.000000;1.424172
1989.000000;1.383942
1988.000000;1.321536
1987.000000;1.291505
1986.000000;1.315674
1985.000000;1.404982
1984.000000;1.521824
1983.000000;1.580751
1982.000000;1.582214
1981.000000;1.576005
1980.000000;1.593235
1979.000000;1.624197
1978.000000;1.615945
1977.000000;1.467979
1976.000000;1.268601
1975.000000;1.152974
1974.000000;1.174951
1973.000000;1.360091
1972.000000;1.889399
1971.000000;1.913763
1970.000000;1.810098
1969.000000;2.297169
1968.000000;1.951873
1967.000000;1.811891
1966.000000;2.297014
1965.000000;1.652100
1964.000000;1.363779
1963.000000;1.289153
1962.000000;1.335423
1961.000000;1.470641
1960.000000;1.691638
1959.000000;1.857444
1958.000000;1.751629
1957.000000;1.613014
1956.000000;1.460541
1955.000000;1.336022
1954.000000;1.259470
1953.000000;1.214763
1952.000000;1.187673
1951.000000;1.199096
1950.000000;1.292696
1949.000000;1.587796
1948.000000;1.968893
1947.000000;2.159788
1946.000000;1.786403
1945.000000;1.461430
1944.000000;1.367834
1943.000000;1.287901
1942.000000;1.184654
1941.000000;1.154326
1940.000000;1.216810
1939.000000;1.343305
1938.000000;1.513077
1937.000000;1.678021
1936.000000;1.632111
1935.000000;1.419169
1934.000000;1.263272
1933.000000;1.222109
1932.000000;1.256500
1931.000000;1.256496
1930.000000;1.223306
1929.000000;1.218533
1928.000000;1.219230
1927.000000;1.203808
1926.000000;1.190171
1925.000000;1.218007
1924.000000;1.314141
1923.000000;1.520408
1922.000000;1.773584
1921.000000;1.791261
1920.000000;1.715488
1919.000000;1.526636
1918.000000;1.420998
1917.000000;1.473470
1916.000000;1.611548
1915.000000;1.662532
1914.000000;1.593088
1913.000000;1.636608
1912.000000;2.195809
1911.000000;1.727323
1910.000000;1.527153
1909.000000;1.678283
1908.000000;2.126919
1907.000000;1.807268
1906.000000;1.568028
1905.000000;1.426768
1904.000000;1.417590
1903.000000;1.553226
1902.000000;1.715645
1901.000000;1.824969
1900.000000;2.079262
1899.000000;1.638187
1898.000000;1.344849
1897.000000;1.302655
1896.000000;1.378147
1895.000000;1.535729
1894.000000;1.774501
1893.000000;2.231658
1892.000000;2.316429
1891.000000;2.051106
1890.000000;1.908425
1889.000000;2.267643
1888.000000;1.937481
1887.000000;1.530059
1886.000000;1.355549
1885.000000;1.277709
1884.000000;1.253400
1883.000000;1.239127
1882.000000;1.231859
1881.000000;1.265607
1880.000000;1.343299
1879.000000;1.389801
1878.000000;1.317975
1877.000000;1.246159
1876.000000;1.260070
1875.000000;1.311210
1874.000000;1.373093
1873.000000;1.595523
1872.000000;1.667162
1871.000000;1.453823
1870.000000;1.431483
1869.000000;1.365711
1868.000000;1.314411
1867.000000;1.381736
1866.000000;1.457429
1865.000000;1.455564
1864.000000;1.582164
1863.000000;1.509479
1862.000000;1.356664
1861.000000;1.458056
1860.000000;1.799286
1859.000000;1.419343
1858.000000;1.279537
1857.000000;1.435358
1856.000000;1.755897
1855.000000;1.503195
1854.000000;1.562883
1853.000000;1.791868
1852.000000;1.814104
1851.000000;2.146856
1850.000000;1.758323
1849.000000;1.597441
1848.000000;1.663725
1847.000000;2.050228
1846.000000;2.144355
1845.000000;1.642638
1844.000000;1.582029
1843.000000;1.564857
1842.000000;1.595970
1841.000000;1.669903
1840.000000;1.839997
1839.000000;1.636025
1838.000000;1.350784
1837.000000;1.244359
1836.000000;1.270742
1835.000000;1.408243
1834.000000;1.601678
1833.000000;1.757104
1832.000000;1.927825
1831.000000;1.876959
1830.000000;1.752747
1829.000000;1.721074
1828.000000;1.547427
1827.000000;1.341636
1826.000000;1.229526
1825.000000;1.244292
1824.000000;1.389707
1823.000000;1.553039
1822.000000;1.457679
1821.000000;1.314498
1820.000000;1.280808
1819.000000;1.429461
1818.000000;1.927379
1817.000000;1.702420
1816.000000;1.383243
1815.000000;1.299511
1814.000000;1.197725
1813.000000;1.164819
1812.000000;1.205169
1811.000000;1.277965
1810.000000;1.325337
1809.000000;1.349582
1808.000000;1.398104
1807.000000;1.505524
1806.000000;1.628767
1805.000000;1.705385
1804.000000;1.679705
1803.000000;1.495898
1802.000000;1.364981
1801.000000;1.309658
1800.000000;1.250399
1799.000000;1.177450
1798.000000;1.151149
1797.000000;1.151559
1796.000000;1.138718
1795.000000;1.141005
1794.000000;1.207593
1793.000000;1.322872
1792.000000;1.386613
1791.000000;1.374545
1790.000000;1.377276
1789.000000;1.533070
1788.000000;2.023714
1787.000000;1.668080
1786.000000;1.374528
1785.000000;1.331277
1784.000000;1.343144
1783.000000;1.434046
1782.000000;1.611457
1781.000000;1.486499
1780.000000;1.292328
1779.000000;1.258055
1778.000000;1.382389
1777.000000;1.676774
1776.000000;1.777786
1775.000000;1.570420
1774.000000;1.370989
1773.000000;1.380530
1772.000000;1.773874
1771.000000;1.853698
1770.000000;1.533350
1769.000000;1.594735
1768.000000;1.852222
1767.000000;1.799457
1766.000000;1.592887
1765.000000;1.565385
1764.000000;1.483030
1763.000000;1.323035
1762.000000;1.229686
1761.000000;1.234904
1760.000000;1.330772
1759.000000;1.456393
1758.000000;1.474028
1757.000000;1.446867
1756.000000;1.499380
1755.000000;1.532342
1754.000000;1.406153
1753.000000;1.311406
1752.000000;1.322221
1751.000000;1.387783
1750.000000;1.430425
1749.000000;1.387508
1748.000000;1.252655
1747.000000;1.141185
1746.000000;1.140868
1745.000000;1.305745
1744.000000;1.498590
1743.000000;1.296643
1742.000000;1.177773
1741.000000;1.432865
1740.000000;1.719203
1739.000000;1.422056
1738.000000;1.400757
1737.000000;1.204515
1736.000000;1.051989
1735.000000;1.143284
1734.000000;1.489097
1733.000000;1.617842
1732.000000;1.549152
1731.000000;1.739515
1730.000000;1.507191
1729.000000;1.343827
1728.000000;1.522431
1727.000000;1.572201
1726.000000;1.304833
1725.000000;1.196936
1724.000000;1.202450
1723.000000;1.227703
1722.000000;1.227968
1721.000000;1.235669
1720.000000;1.313887
1719.000000;1.622965
1718.000000;2.161918
1717.000000;1.868303
1716.000000;1.774128
1715.000000;1.689847
1714.000000;1.578235
1713.000000;1.539087
1712.000000;1.566666
1711.000000;1.623786
1710.000000;1.586776
1709.000000;1.389560
1708.000000;1.210086
1707.000000;1.123274
1706.000000;1.102507
1705.000000;1.149687
1704.000000;1.282294
1703.000000;1.523341
1702.000000;2.022324
1701.000000;2.146643
1700.000000;1.759352
1699.000000;1.691240
1698.000000;1.691714
1697.000000;1.683263
1696.000000;1.841688
1695.000000;2.174480
1694.000000;1.978467
1693.000000;1.840922
1692.000000;1.752640
1691.000000;1.513139
1690.000000;1.326013
1689.000000;1.252019
1688.000000;1.278688
1687.000000;1.394823
1686.000000;1.641062
1685.000000;1.854150
1684.000000;1.744671
1683.000000;1.572585
1682.000000;1.467555
1681.000000;1.525559
1680.000000;2.016700
1679.000000;2.050538
1678.000000;1.402851
1677.000000;1.131150
1676.000000;1.082208
1675.000000;1.253975
1674.000000;1.450532
1673.000000;1.349429
1672.000000;1.172953
1671.000000;1.101974
1670.000000;1.292978
1669.000000;1.920032
1668.000000;1.640526
1667.000000;1.532729
1666.000000;1.776898
1665.000000;2.074448
1664.000000;1.363621
1663.000000;1.263558
1662.000000;1.447525
1661.000000;1.494332
1660.000000;1.349280
1659.000000;1.276112
1658.000000;1.256639
1657.000000;1.345103
1656.000000;1.526881
1655.000000;1.533163
1654.000000;1.332500
1653.000000;1.294047
1652.000000;1.348542
1651.000000;1.349331
1650.000000;1.414923
1649.000000;1.852812
1648.000000;2.268823
1647.000000;2.205973
1646.000000;1.843121
1645.000000;1.656354
1644.000000;1.523177
1643.000000;1.499654
1642.000000;1.847701
1641.000000;1.596910
1640.000000;1.249503
1639.000000;1.133636
1638.000000;1.122215
1637.000000;1.203346
1636.000000;1.318013
1635.000000;1.465111
1634.000000;1.637082
1633.000000;1.670326
1632.000000;1.544331
1631.000000;1.408606
1630.000000;1.371739
1629.000000;1.343586
1628.000000;1.373086
1627.000000;1.475409
1626.000000;1.280854
1625.000000;1.054167
1624.000000;1.056150
1623.000000;1.358484
1622.000000;1.432369
1621.000000;1.239089
1620.000000;1.237610
1619.000000;1.386230
1618.000000;1.842907
1617.000000;1.805882
1616.000000;1.556546
1615.000000;1.464822
1614.000000;1.406209
1613.000000;1.354924
1612.000000;1.219276
1611.000000;1.101970
1610.000000;1.077516
1609.000000;1.110775
1608.000000;1.149960
1607.000000;1.190686
1606.000000;1.333652
1605.000000;1.739808
1604.000000;1.754646
1603.000000;1.779407
1602.000000;1.544816
1601.000000;1.065093
1600.000000;0.905526
1599.000000;0.896347
1598.000000;0.990824
1597.000000;1.128647
1596.000000;1.227319
1595.000000;1.257480
1594.000000;1.243313
1593.000000;1.271038
1592.000000;1.356699
1591.000000;1.357445
1590.000000;1.213631
1589.000000;1.053462
1588.000000;0.985223
1587.000000;1.078687
1586.000000;1.393713
1585.000000;2.032278
1584.000000;1.861281
1583.000000;1.393665
1582.000000;1.323170
1581.000000;1.696751
1580.000000;1.897140
1579.000000;1.406509
1578.000000;1.379696
1577.000000;1.360795
1576.000000;1.297592
1575.000000;1.300543
1574.000000;1.390098
1573.000000;1.387575
1572.000000;1.133110
1571.000000;0.991441
1570.000000;1.060079
1569.000000;1.366499
1568.000000;1.961997
1567.000000;1.789455
1566.000000;1.662741
1565.000000;1.689057
1564.000000;1.640337
1563.000000;1.786506
1562.000000;2.052615
1561.000000;1.659947
1560.000000;1.588652
1559.000000;1.907897
1558.000000;1.829313
1557.000000;1.553513
1556.000000;1.467189
1555.000000;1.763963
1554.000000;1.668514
1553.000000;1.209195
1552.000000;1.149837
1551.000000;1.258517
1550.000000;1.322971
1549.000000;1.279600
1548.000000;1.504290
1547.000000;1.873313
1546.000000;1.668438
1545.000000;1.963326
1544.000000;1.723597
1543.000000;1.303166
1542.000000;1.196830
1541.000000;1.243093
1540.000000;1.293895
1539.000000;1.286262
1538.000000;1.324630
1537.000000;1.463850
1536.000000;1.717539
1535.000000;1.329153
1534.000000;1.102072
1533.000000;1.096849
1532.000000;1.245867
1531.000000;1.570396
1530.000000;1.460931
1529.000000;1.232697
1528.000000;1.190056
1527.000000;1.222069
1526.000000;1.306410
1525.000000;1.475510
1524.000000;1.469825
1523.000000;1.446009
1522.000000;1.824511
1521.000000;1.539040
1520.000000;1.205967
1519.000000;1.201836
1518.000000;1.600333
1517.000000;1.466231
1516.000000;1.137164
1515.000000;1.114054
1514.000000;1.301673
1513.000000;1.890688
1512.000000;1.425166
1511.000000;1.211460
1510.000000;1.246176
1509.000000;1.310689
1508.000000;1.420974
1507.000000;1.426961
1506.000000;1.403980
1505.000000;1.446819
1504.000000;1.463215
1503.000000;1.384081
1502.000000;1.350199
1501.000000;1.437576
1500.000000;1.383314
1499.000000;1.218592
1498.000000;1.188294
1497.000000;1.239267
1496.000000;1.483413
1495.000000;1.806339
1494.000000;1.389344
1493.000000;1.167261
1492.000000;1.151631
1491.000000;1.196785
1490.000000;1.198752
1489.000000;1.158569
1488.000000;1.176431
1487.000000;1.282533
1486.000000;1.391472
1485.000000;1.538353
1484.000000;1.616064
1483.000000;1.351437
1482.000000;1.161379
1481.000000;1.123712
1480.000000;1.234730
1479.000000;1.566103
1478.000000;1.729550
1477.000000;1.567412
1476.000000;1.566225
1475.000000;1.396005
1474.000000;1.212110
1473.000000;1.191311
1472.000000;1.335858
1471.000000;1.407679
1470.000000;1.226452
1469.000000;1.104375
1468.000000;1.098354
1467.000000;1.227051
1466.000000;1.408729
1465.000000;1.358861
1464.000000;1.288526
1463.000000;1.347417
1462.000000;1.545022
1461.000000;1.893591
1460.000000;1.871373
1459.000000;1.727497
1458.000000;1.696724
1457.000000;1.764585
1456.000000;1.881560
1455.000000;1.662268
1454.000000;1.399091
1453.000000;1.277403
1452.000000;1.264008
1451.000000;1.300282
1450.000000;1.329514
1449.000000;1.323404
1448.000000;1.304279
1447.000000;1.262590
1446.000000;1.187587
1445.000000;1.123813
1444.000000;1.084450
1443.000000;1.070956
1442.000000;1.112817
1441.000000;1.242058
1440.000000;1.447301
1439.000000;1.714901
1438.000000;1.738468
1437.000000;1.422785
1436.000000;1.207503
1435.000000;1.122874
1434.000000;1.145619
1433.000000;1.314114
1432.000000;1.848090
1431.000000;1.838112
1430.000000;1.359511
1429.000000;1.177404
1428.000000;1.134979
1427.000000;1.229289
1426.000000;1.522926
1425.000000;2.041307
1424.000000;1.671600
1423.000000;1.271074
1422.000000;1.157803
1421.000000;1.228057
1420.000000;1.594828
1419.000000;2.180858
1418.000000;1.550518
1417.000000;1.329573
1416.000000;1.326943
1415.000000;1.489286
1414.000000;1.528821
1413.000000;1.254998
1412.000000;1.099914
1411.000000;1.087364
1410.000000;1.166967
1409.000000;1.239797
1408.000000;1.259844
1407.000000;1.274025
1406.000000;1.197499
1405.000000;1.119799
1404.000000;1.152605
1403.000000;1.265785
1402.000000;1.402721
1401.000000;1.390820
1400.000000;1.251144
1399.000000;1.200786
1398.000000;1.226430
1397.000000;1.236652
1396.000000;1.208084
1395.000000;1.210902
1394.000000;1.290997
1393.000000;1.394708
1392.000000;1.407367
1391.000000;1.340158
1390.000000;1.283258
1389.000000;1.234801
1388.000000;1.171501
1387.000000;1.131931
1386.000000;1.162870
1385.000000;1.302299
1384.000000;1.552728
1383.000000;1.750584
1382.000000;1.781526
1381.000000;1.764933
1380.000000;1.484502
1379.000000;1.338234
1378.000000;1.315077
1377.000000;1.444682
1376.000000;2.150959
1375.000000;1.508557
1374.000000;1.144722
1373.000000;1.078778
1372.000000;1.170675
1371.000000;1.347484
1370.000000;1.423746
1369.000000;1.496441
1368.000000;1.335723
1367.000000;1.226386
1366.000000;1.236739
1365.000000;1.206064
1364.000000;1.269407
1363.000000;1.421599
1362.000000;1.484040
1361.000000;1.454127
1360.000000;1.329572
1359.000000;1.237376
1358.000000;1.340187
1357.000000;2.011910
1356.000000;1.828675
1355.000000;1.288895
1354.000000;1.139904
1353.000000;1.052568
1352.000000;1.072458
1351.000000;1.176017
1350.000000;1.481801
1349.000000;1.783263
1348.000000;1.646862
1347.000000;1.894425
1346.000000;1.401278
1345.000000;1.224712
1344.000000;1.403528
1343.000000;1.509349
1342.000000;1.792305
1341.000000;1.984383
1340.000000;1.464073
1339.000000;1.325860
1338.000000;1.236799
1337.000000;1.149448
1336.000000;1.079013
1335.000000;1.014566
1334.000000;1.019189
1333.000000;1.172840
1332.000000;1.485502
1331.000000;1.519440
1330.000000;1.436999
1329.000000;1.430782
1328.000000;1.333042
1327.000000;1.273438
1326.000000;1.474881
1325.000000;1.790921
1324.000000;1.554179
1323.000000;1.510381
1322.000000;1.448644
1321.000000;1.295917
1320.000000;1.260708
1319.000000;1.317012
1318.000000;1.369407
1317.000000;1.358765
1316.000000;1.267600
1315.000000;1.096394
1314.000000;1.038679
1313.000000;1.084879
1312.000000;1.082134
1311.000000;0.969768
1310.000000;0.856061
1309.000000;0.818073
1308.000000;0.874555
1307.000000;1.034344
1306.000000;1.356777
1305.000000;1.712804
1304.000000;1.317102
1303.000000;0.991716
1302.000000;0.842282
1301.000000;0.815279
1300.000000;0.912198
1299.000000;1.092150
1298.000000;1.217423
1297.000000;1.170414
1296.000000;1.124285
1295.000000;1.174242
1294.000000;1.383535
1293.000000;1.931555
1292.000000;1.909259
1291.000000;1.608552
1290.000000;1.504512
1289.000000;1.415929
1288.000000;1.352316
1287.000000;1.314487
1286.000000;1.217186
1285.000000;1.048765
1284.000000;0.968159
1283.000000;0.998015
1282.000000;1.352312
1281.000000;1.608570
1280.000000;1.163838
1279.000000;1.334737
1278.000000;1.468119
1277.000000;1.154984
1276.000000;1.165969
1275.000000;1.356204
1274.000000;1.534846
1273.000000;1.621505
1272.000000;1.858839
1271.000000;2.260179
1270.000000;1.833938
1269.000000;1.514565
1268.000000;1.318916
1267.000000;1.263953
1266.000000;1.333556
1265.000000;1.651159
1264.000000;2.420257
1263.000000;1.643842
1262.000000;1.527551
1261.000000;1.476978
1260.000000;1.313498
1259.000000;1.175449
1258.000000;1.348828
1257.000000;1.699368
1256.000000;1.107726
1255.000000;0.914171
1254.000000;0.949920
1253.000000;1.140678
1252.000000;1.431822
1251.000000;1.287829
1250.000000;1.092123
1249.000000;1.049141
1248.000000;1.149478
1247.000000;1.438499
1246.000000;1.515512
1245.000000;1.416500
1244.000000;1.586744
1243.000000;1.636551
1242.000000;1.619442
1241.000000;1.778494
1240.000000;1.663333
1239.000000;1.451978
1238.000000;1.508712
1237.000000;1.622935
1236.000000;1.269892
1235.000000;0.953219
1234.000000;0.797518
1233.000000;0.776292
1232.000000;0.868928
1231.000000;1.024036
1230.000000;1.120346
1229.000000;1.064902
1228.000000;0.978717
1227.000000;0.956233
1226.000000;0.919913
1225.000000;0.843577
1224.000000;0.820909
1223.000000;0.836462
1222.000000;0.812886
1221.000000;0.759633
1220.000000;0.764769
1219.000000;0.890416
1218.000000;1.167969
1217.000000;1.495939
1216.000000;1.328427
1215.000000;1.063554
1214.000000;0.948647
1213.000000;0.938379
1212.000000;0.997173
1211.000000;1.076284
1210.000000;1.120297
1209.000000;1.136266
1208.000000;1.174789
1207.000000;1.225632
1206.000000;1.239262
1205.000000;1.315775
1204.000000;1.611258
1203.000000;1.641644
1202.000000;1.265158
1201.000000;1.088819
1200.000000;0.991125
