Criado como novo conjunto de dados;"2706_e01_daniel.spp","1082.0 Secs"
cm-1;Abs
10000.000000;1.970701
9999.000000;1.964277
9998.000000;1.958122
9997.000000;1.952939
9996.000000;1.950489
9995.000000;1.952314
9994.000000;1.957628
9993.000000;1.963304
9992.000000;1.966196
9991.000000;1.965653
9990.000000;1.964029
9989.000000;1.964499
9988.000000;1.967967
9987.000000;1.972144
9986.000000;1.973758
9985.000000;1.971766
9984.000000;1.968157
9983.000000;1.965580
9982.000000;1.964880
9981.000000;1.965077
9980.000000;1.964768
9979.000000;1.963128
9978.000000;1.960278
9977.000000;1.957376
9976.000000;1.956108
9975.000000;1.957479
9974.000000;1.961024
9973.000000;1.965197
9972.000000;1.968304
9971.000000;1.969303
9970.000000;1.968376
9969.000000;1.967082
9968.000000;1.967499
9967.000000;1.970440
9966.000000;1.974271
9965.000000;1.975793
9964.000000;1.972719
9963.000000;1.965738
9962.000000;1.958480
9961.000000;1.955252
9960.000000;1.957922
9959.000000;1.964231
9958.000000;1.969438
9957.000000;1.970476
9956.000000;1.968221
9955.000000;1.965339
9954.000000;1.963208
9953.000000;1.961705
9952.000000;1.960678
9951.000000;1.960383
9950.000000;1.960978
9949.000000;1.962398
9948.000000;1.964326
9947.000000;1.965765
9946.000000;1.965233
9945.000000;1.962471
9944.000000;1.959587
9943.000000;1.959197
9942.000000;1.961732
9941.000000;1.965682
9940.000000;1.969822
9939.000000;1.973545
9938.000000;1.975503
9937.000000;1.974354
9936.000000;1.971254
9935.000000;1.969163
9934.000000;1.968858
9933.000000;1.967848
9932.000000;1.964420
9931.000000;1.960586
9930.000000;1.959002
9929.000000;1.958844
9928.000000;1.957156
9927.000000;1.953578
9926.000000;1.951193
9925.000000;1.952566
9924.000000;1.956861
9923.000000;1.961131
9922.000000;1.963177
9921.000000;1.962654
9920.000000;1.960648
9919.000000;1.959059
9918.000000;1.959542
9917.000000;1.962021
9916.000000;1.964506
9915.000000;1.965240
9914.000000;1.964683
9913.000000;1.964462
9912.000000;1.964883
9911.000000;1.964820
9910.000000;1.964124
9909.000000;1.964605
9908.000000;1.967508
9907.000000;1.970747
9906.000000;1.970128
9905.000000;1.963867
9904.000000;1.954951
9903.000000;1.948511
9902.000000;1.947862
9901.000000;1.953116
9900.000000;1.961829
9899.000000;1.969973
9898.000000;1.973530
9897.000000;1.971086
9896.000000;1.965172
9895.000000;1.960202
9894.000000;1.958938
9893.000000;1.961197
9892.000000;1.965252
9891.000000;1.969384
9890.000000;1.972232
9889.000000;1.973016
9888.000000;1.972203
9887.000000;1.971335
9886.000000;1.971566
9885.000000;1.972543
9884.000000;1.972849
9883.000000;1.971260
9882.000000;1.967559
9881.000000;1.962729
9880.000000;1.958708
9879.000000;1.957221
9878.000000;1.958219
9877.000000;1.960166
9876.000000;1.962239
9875.000000;1.965156
9874.000000;1.969453
9873.000000;1.973950
9872.000000;1.976606
9871.000000;1.976446
9870.000000;1.974169
9869.000000;1.971493
9868.000000;1.970398
9867.000000;1.971942
9866.000000;1.974729
9865.000000;1.975450
9864.000000;1.972453
9863.000000;1.968180
9862.000000;1.966563
9861.000000;1.968701
9860.000000;1.972165
9859.000000;1.974133
9858.000000;1.973997
9857.000000;1.972762
9856.000000;1.971618
9855.000000;1.971571
9854.000000;1.972760
9853.000000;1.973507
9852.000000;1.971489
9851.000000;1.966832
9850.000000;1.962814
9849.000000;1.962474
9848.000000;1.965417
9847.000000;1.968698
9846.000000;1.970163
9845.000000;1.969909
9844.000000;1.968940
9843.000000;1.967982
9842.000000;1.967727
9841.000000;1.968965
9840.000000;1.971715
9839.000000;1.974489
9838.000000;1.975256
9837.000000;1.973497
9836.000000;1.970950
9835.000000;1.969854
9834.000000;1.970629
9833.000000;1.971822
9832.000000;1.972227
9831.000000;1.972528
9830.000000;1.974113
9829.000000;1.976360
9828.000000;1.976439
9827.000000;1.972725
9826.000000;1.967399
9825.000000;1.964582
9824.000000;1.966468
9823.000000;1.971617
9822.000000;1.976460
9821.000000;1.978129
9820.000000;1.976130
9819.000000;1.971981
9818.000000;1.967691
9817.000000;1.964458
9816.000000;1.962558
9815.000000;1.962135
9814.000000;1.963482
9813.000000;1.966150
9812.000000;1.968372
9811.000000;1.968351
9810.000000;1.966198
9809.000000;1.963878
9808.000000;1.963179
9807.000000;1.964375
9806.000000;1.966834
9805.000000;1.970002
9804.000000;1.973256
9803.000000;1.975592
9802.000000;1.976363
9801.000000;1.976119
9800.000000;1.975970
9799.000000;1.976227
9798.000000;1.976221
9797.000000;1.975438
9796.000000;1.974291
9795.000000;1.973522
9794.000000;1.973395
9793.000000;1.973770
9792.000000;1.974426
9791.000000;1.974904
9790.000000;1.974419
9789.000000;1.972527
9788.000000;1.969876
9787.000000;1.967842
9786.000000;1.967457
9785.000000;1.968890
9784.000000;1.971645
9783.000000;1.974767
9782.000000;1.977144
9781.000000;1.978307
9780.000000;1.978962
9779.000000;1.980097
9778.000000;1.981417
9777.000000;1.981310
9776.000000;1.978933
9775.000000;1.975693
9774.000000;1.973748
9773.000000;1.973497
9772.000000;1.973492
9771.000000;1.972586
9770.000000;1.971142
9769.000000;1.969888
9768.000000;1.968734
9767.000000;1.967507
9766.000000;1.966989
9765.000000;1.968021
9764.000000;1.970002
9763.000000;1.971470
9762.000000;1.972149
9761.000000;1.973225
9760.000000;1.975328
9759.000000;1.977417
9758.000000;1.978274
9757.000000;1.978164
9756.000000;1.978120
9755.000000;1.978087
9754.000000;1.977010
9753.000000;1.974878
9752.000000;1.973275
9751.000000;1.973286
9750.000000;1.973998
9749.000000;1.973973
9748.000000;1.973508
9747.000000;1.974152
9746.000000;1.976220
9745.000000;1.978139
9744.000000;1.978485
9743.000000;1.977381
9742.000000;1.975397
9741.000000;1.972289
9740.000000;1.967798
9739.000000;1.963163
9738.000000;1.960755
9737.000000;1.961946
9736.000000;1.965857
9735.000000;1.970308
9734.000000;1.973673
9733.000000;1.975741
9732.000000;1.977006
9731.000000;1.977464
9730.000000;1.976594
9729.000000;1.974520
9728.000000;1.972537
9727.000000;1.971944
9726.000000;1.972652
9725.000000;1.973578
9724.000000;1.974334
9723.000000;1.975500
9722.000000;1.977125
9721.000000;1.978576
9720.000000;1.979977
9719.000000;1.982291
9718.000000;1.985437
9717.000000;1.987461
9716.000000;1.986815
9715.000000;1.984370
9714.000000;1.981642
9713.000000;1.978430
9712.000000;1.974169
9711.000000;1.970569
9710.000000;1.970472
9709.000000;1.973990
9708.000000;1.977536
9707.000000;1.977604
9706.000000;1.974528
9705.000000;1.971372
9704.000000;1.970392
9703.000000;1.971668
9702.000000;1.973966
9701.000000;1.975809
9700.000000;1.976191
9699.000000;1.975293
9698.000000;1.974518
9697.000000;1.975275
9696.000000;1.977734
9695.000000;1.980874
9694.000000;1.983286
9693.000000;1.983801
9692.000000;1.982055
9691.000000;1.978960
9690.000000;1.976131
9689.000000;1.974425
9688.000000;1.973467
9687.000000;1.972833
9686.000000;1.972923
9685.000000;1.974173
9684.000000;1.976192
9683.000000;1.978248
9682.000000;1.979894
9681.000000;1.980482
9680.000000;1.979069
9679.000000;1.975971
9678.000000;1.973416
9677.000000;1.973170
9676.000000;1.974253
9675.000000;1.974395
9674.000000;1.973395
9673.000000;1.973417
9672.000000;1.975848
9671.000000;1.979360
9670.000000;1.981562
9669.000000;1.981613
9668.000000;1.980591
9667.000000;1.980113
9666.000000;1.981171
9665.000000;1.983315
9664.000000;1.984551
9663.000000;1.983188
9662.000000;1.979990
9661.000000;1.977565
9660.000000;1.977568
9659.000000;1.979184
9658.000000;1.980441
9657.000000;1.980368
9656.000000;1.979340
9655.000000;1.978067
9654.000000;1.977161
9653.000000;1.977112
9652.000000;1.977771
9651.000000;1.978069
9650.000000;1.976966
9649.000000;1.974695
9648.000000;1.972536
9647.000000;1.971459
9646.000000;1.971524
9645.000000;1.972428
9644.000000;1.974002
9643.000000;1.975854
9642.000000;1.976970
9641.000000;1.976371
9640.000000;1.974553
9639.000000;1.973767
9638.000000;1.976066
9637.000000;1.980835
9636.000000;1.984567
9635.000000;1.983876
9634.000000;1.978945
9633.000000;1.973244
9632.000000;1.970019
9631.000000;1.969854
9630.000000;1.971359
9629.000000;1.973383
9628.000000;1.976000
9627.000000;1.979603
9626.000000;1.983640
9625.000000;1.986256
9624.000000;1.985480
9623.000000;1.981344
9622.000000;1.976399
9621.000000;1.973376
9620.000000;1.972614
9619.000000;1.972450
9618.000000;1.971811
9617.000000;1.971257
9616.000000;1.971353
9615.000000;1.971493
9614.000000;1.971117
9613.000000;1.971023
9612.000000;1.972435
9611.000000;1.975355
9610.000000;1.978589
9609.000000;1.980822
9608.000000;1.981075
9607.000000;1.979003
9606.000000;1.975742
9605.000000;1.973660
9604.000000;1.974094
9603.000000;1.975754
9602.000000;1.976243
9601.000000;1.974838
9600.000000;1.972761
9599.000000;1.971110
9598.000000;1.969878
9597.000000;1.968897
9596.000000;1.968539
9595.000000;1.969271
9594.000000;1.971253
9593.000000;1.974337
9592.000000;1.977742
9591.000000;1.979830
9590.000000;1.979289
9589.000000;1.976702
9588.000000;1.974060
9587.000000;1.972861
9586.000000;1.973446
9585.000000;1.975549
9584.000000;1.978139
9583.000000;1.979213
9582.000000;1.977650
9581.000000;1.975394
9580.000000;1.975772
9579.000000;1.979197
9578.000000;1.982320
9577.000000;1.982136
9576.000000;1.979453
9575.000000;1.977149
9574.000000;1.976489
9573.000000;1.976692
9572.000000;1.976997
9571.000000;1.977322
9570.000000;1.977477
9569.000000;1.977462
9568.000000;1.978226
9567.000000;1.980608
9566.000000;1.983572
9565.000000;1.984764
9564.000000;1.983107
9563.000000;1.979902
9562.000000;1.977220
9561.000000;1.976255
9560.000000;1.977311
9559.000000;1.980144
9558.000000;1.983645
9557.000000;1.985863
9556.000000;1.985186
9555.000000;1.981654
9554.000000;1.976972
9553.000000;1.973304
9552.000000;1.971885
9551.000000;1.972356
9550.000000;1.973376
9549.000000;1.974025
9548.000000;1.974475
9547.000000;1.975255
9546.000000;1.976443
9545.000000;1.977907
9544.000000;1.979787
9543.000000;1.982114
9542.000000;1.984346
9541.000000;1.985956
9540.000000;1.987169
9539.000000;1.988428
9538.000000;1.989504
9537.000000;1.989922
9536.000000;1.989975
9535.000000;1.990408
9534.000000;1.991154
9533.000000;1.991318
9532.000000;1.990388
9531.000000;1.988526
9530.000000;1.985838
9529.000000;1.982539
9528.000000;1.979808
9527.000000;1.979168
9526.000000;1.980639
9525.000000;1.982375
9524.000000;1.982589
9523.000000;1.981176
9522.000000;1.979007
9521.000000;1.976479
9520.000000;1.973645
9519.000000;1.971195
9518.000000;1.970397
9517.000000;1.972133
9516.000000;1.976130
9515.000000;1.980768
9514.000000;1.983699
9513.000000;1.983527
9512.000000;1.981249
9511.000000;1.979345
9510.000000;1.979146
9509.000000;1.979669
9508.000000;1.979282
9507.000000;1.977865
9506.000000;1.976722
9505.000000;1.976868
9504.000000;1.978135
9503.000000;1.979686
9502.000000;1.980797
9501.000000;1.981285
9500.000000;1.981639
9499.000000;1.982641
9498.000000;1.984361
9497.000000;1.985622
9496.000000;1.984991
9495.000000;1.982322
9494.000000;1.979007
9493.000000;1.976717
9492.000000;1.976234
9491.000000;1.977337
9490.000000;1.979364
9489.000000;1.981649
9488.000000;1.983617
9487.000000;1.984858
9486.000000;1.985396
9485.000000;1.985722
9484.000000;1.986138
9483.000000;1.986095
9482.000000;1.984905
9481.000000;1.983344
9480.000000;1.983516
9479.000000;1.986249
9478.000000;1.989495
9477.000000;1.990596
9476.000000;1.989609
9475.000000;1.988603
9474.000000;1.988098
9473.000000;1.986581
9472.000000;1.984009
9471.000000;1.983083
9470.000000;1.985364
9469.000000;1.988161
9468.000000;1.987517
9467.000000;1.983480
9466.000000;1.979867
9465.000000;1.979285
9464.000000;1.980844
9463.000000;1.982485
9462.000000;1.983437
9461.000000;1.983811
9460.000000;1.983502
9459.000000;1.982618
9458.000000;1.981839
9457.000000;1.981499
9456.000000;1.981140
9455.000000;1.980438
9454.000000;1.979800
9453.000000;1.979665
9452.000000;1.980013
9451.000000;1.980932
9450.000000;1.982736
9449.000000;1.984912
9448.000000;1.985888
9447.000000;1.984824
9446.000000;1.982961
9445.000000;1.982110
9444.000000;1.982447
9443.000000;1.982812
9442.000000;1.982693
9441.000000;1.982808
9440.000000;1.983763
9439.000000;1.985027
9438.000000;1.985479
9437.000000;1.984473
9436.000000;1.982264
9435.000000;1.979913
9434.000000;1.978880
9433.000000;1.980038
9432.000000;1.982664
9431.000000;1.984719
9430.000000;1.984628
9429.000000;1.982757
9428.000000;1.980835
9427.000000;1.980120
9426.000000;1.980394
9425.000000;1.980574
9424.000000;1.980095
9423.000000;1.979580
9422.000000;1.980112
9421.000000;1.981883
9420.000000;1.983697
9419.000000;1.984148
9418.000000;1.983415
9417.000000;1.983397
9416.000000;1.985605
9415.000000;1.989151
9414.000000;1.991333
9413.000000;1.990430
9412.000000;1.987583
9411.000000;1.985430
9410.000000;1.985383
9409.000000;1.986882
9408.000000;1.988619
9407.000000;1.989528
9406.000000;1.988828
9405.000000;1.986301
9404.000000;1.983221
9403.000000;1.982166
9402.000000;1.984767
9401.000000;1.989639
9400.000000;1.993289
9399.000000;1.993477
9398.000000;1.991170
9397.000000;1.988801
9396.000000;1.987506
9395.000000;1.986716
9394.000000;1.985767
9393.000000;1.984805
9392.000000;1.983968
9391.000000;1.982635
9390.000000;1.980273
9389.000000;1.977595
9388.000000;1.976059
9387.000000;1.976247
9386.000000;1.977220
9385.000000;1.977723
9384.000000;1.977687
9383.000000;1.978042
9382.000000;1.979580
9381.000000;1.982503
9380.000000;1.986499
9379.000000;1.990578
9378.000000;1.993101
9377.000000;1.992967
9376.000000;1.990858
9375.000000;1.988619
9374.000000;1.987429
9373.000000;1.987176
9372.000000;1.987513
9371.000000;1.988558
9370.000000;1.990041
9369.000000;1.990668
9368.000000;1.989347
9367.000000;1.986601
9366.000000;1.983879
9365.000000;1.981872
9364.000000;1.980426
9363.000000;1.979831
9362.000000;1.980986
9361.000000;1.983906
9360.000000;1.986878
9359.000000;1.987944
9358.000000;1.987099
9357.000000;1.986373
9356.000000;1.987695
9355.000000;1.990995
9354.000000;1.994399
9353.000000;1.996028
9352.000000;1.995430
9351.000000;1.993372
9350.000000;1.990796
9349.000000;1.988294
9348.000000;1.986151
9347.000000;1.984405
9346.000000;1.982926
9345.000000;1.981852
9344.000000;1.981886
9343.000000;1.983626
9342.000000;1.986434
9341.000000;1.988506
9340.000000;1.988434
9339.000000;1.986316
9338.000000;1.983168
9337.000000;1.980034
9336.000000;1.978057
9335.000000;1.978480
9334.000000;1.981532
9333.000000;1.985558
9332.000000;1.988197
9331.000000;1.988598
9330.000000;1.987861
9329.000000;1.987382
9328.000000;1.987589
9327.000000;1.988271
9326.000000;1.989260
9325.000000;1.990412
9324.000000;1.991383
9323.000000;1.991801
9322.000000;1.991551
9321.000000;1.990868
9320.000000;1.990287
9319.000000;1.990286
9318.000000;1.990763
9317.000000;1.991110
9316.000000;1.990945
9315.000000;1.990354
9314.000000;1.989230
9313.000000;1.987200
9312.000000;1.984818
9311.000000;1.983939
9310.000000;1.985752
9309.000000;1.988802
9308.000000;1.990149
9307.000000;1.988796
9306.000000;1.986738
9305.000000;1.986181
9304.000000;1.986994
9303.000000;1.987422
9302.000000;1.986403
9301.000000;1.984482
9300.000000;1.982894
9299.000000;1.982465
9298.000000;1.983212
9297.000000;1.984409
9296.000000;1.985083
9295.000000;1.984857
9294.000000;1.984332
9293.000000;1.984473
9292.000000;1.985650
9291.000000;1.987336
9290.000000;1.988688
9289.000000;1.989342
9288.000000;1.989759
9287.000000;1.990832
9286.000000;1.992832
9285.000000;1.994776
9284.000000;1.995138
9283.000000;1.993217
9282.000000;1.989714
9281.000000;1.986154
9280.000000;1.983992
9279.000000;1.983980
9278.000000;1.985825
9277.000000;1.988422
9276.000000;1.990794
9275.000000;1.992659
9274.000000;1.993753
9273.000000;1.993310
9272.000000;1.991172
9271.000000;1.988935
9270.000000;1.988578
9269.000000;1.989777
9268.000000;1.989964
9267.000000;1.987723
9266.000000;1.984761
9265.000000;1.983549
9264.000000;1.984276
9263.000000;1.985331
9262.000000;1.985979
9261.000000;1.987059
9260.000000;1.989077
9259.000000;1.991008
9258.000000;1.991403
9257.000000;1.989979
9256.000000;1.987807
9255.000000;1.986430
9254.000000;1.986844
9253.000000;1.988715
9252.000000;1.990472
9251.000000;1.990665
9250.000000;1.989488
9249.000000;1.988736
9248.000000;1.990049
9247.000000;1.993235
9246.000000;1.996450
9245.000000;1.997920
9244.000000;1.997336
9243.000000;1.995677
9242.000000;1.993953
9241.000000;1.992376
9240.000000;1.990822
9239.000000;1.989655
9238.000000;1.989591
9237.000000;1.990671
9236.000000;1.991881
9235.000000;1.992204
9234.000000;1.991573
9233.000000;1.990480
9232.000000;1.989175
9231.000000;1.987811
9230.000000;1.987050
9229.000000;1.987774
9228.000000;1.989992
9227.000000;1.992500
9226.000000;1.993941
9225.000000;1.993995
9224.000000;1.993215
9223.000000;1.991865
9222.000000;1.989467
9221.000000;1.985811
9220.000000;1.982083
9219.000000;1.980284
9218.000000;1.981152
9217.000000;1.983087
9216.000000;1.983781
9215.000000;1.982876
9214.000000;1.982171
9213.000000;1.983151
9212.000000;1.985272
9211.000000;1.987019
9210.000000;1.987805
9209.000000;1.987991
9208.000000;1.987623
9207.000000;1.986469
9206.000000;1.985167
9205.000000;1.985167
9204.000000;1.987233
9203.000000;1.990321
9202.000000;1.992252
9201.000000;1.991698
9200.000000;1.989456
9199.000000;1.987691
9198.000000;1.987986
9197.000000;1.990141
9196.000000;1.992763
9195.000000;1.994760
9194.000000;1.996059
9193.000000;1.997038
9192.000000;1.997893
9191.000000;1.998758
9190.000000;1.999736
9189.000000;2.000260
9188.000000;1.999067
9187.000000;1.995580
9186.000000;1.991049
9185.000000;1.987701
9184.000000;1.986776
9183.000000;1.987678
9182.000000;1.988855
9181.000000;1.989190
9180.000000;1.988657
9179.000000;1.988004
9178.000000;1.987966
9177.000000;1.988629
9176.000000;1.989448
9175.000000;1.989844
9174.000000;1.989752
9173.000000;1.989695
9172.000000;1.990519
9171.000000;1.992796
9170.000000;1.995817
9169.000000;1.997199
9168.000000;1.994556
9167.000000;1.988249
9166.000000;1.981651
9165.000000;1.978059
9164.000000;1.977996
9163.000000;1.979804
9162.000000;1.982071
9161.000000;1.984622
9160.000000;1.987516
9159.000000;1.990282
9158.000000;1.992431
9157.000000;1.993959
9156.000000;1.995012
9155.000000;1.995506
9154.000000;1.995378
9153.000000;1.994811
9152.000000;1.994010
9151.000000;1.993196
9150.000000;1.992897
9149.000000;1.993670
9148.000000;1.995325
9147.000000;1.996893
9146.000000;1.997631
9145.000000;1.997649
9144.000000;1.997336
9143.000000;1.996700
9142.000000;1.995529
9141.000000;1.993740
9140.000000;1.991334
9139.000000;1.988475
9138.000000;1.985863
9137.000000;1.984554
9136.000000;1.985043
9135.000000;1.986796
9134.000000;1.988931
9133.000000;1.990988
9132.000000;1.992741
9131.000000;1.993748
9130.000000;1.993695
9129.000000;1.992996
9128.000000;1.992545
9127.000000;1.992800
9126.000000;1.993476
9125.000000;1.994085
9124.000000;1.994386
9123.000000;1.994273
9122.000000;1.993594
9121.000000;1.992276
9120.000000;1.990499
9119.000000;1.988597
9118.000000;1.986871
9117.000000;1.985586
9116.000000;1.985043
9115.000000;1.985458
9114.000000;1.986600
9113.000000;1.987661
9112.000000;1.987766
9111.000000;1.986874
9110.000000;1.986000
9109.000000;1.986243
9108.000000;1.987676
9107.000000;1.989512
9106.000000;1.991196
9105.000000;1.992752
9104.000000;1.993963
9103.000000;1.993964
9102.000000;1.992218
9101.000000;1.989495
9100.000000;1.987329
9099.000000;1.986708
9098.000000;1.987678
9097.000000;1.989823
9096.000000;1.992471
9095.000000;1.994581
9094.000000;1.995234
9093.000000;1.994506
9092.000000;1.993268
9091.000000;1.992025
9090.000000;1.990524
9089.000000;1.988684
9088.000000;1.987238
9087.000000;1.986979
9086.000000;1.987816
9085.000000;1.989120
9084.000000;1.990647
9083.000000;1.992427
9082.000000;1.993943
9081.000000;1.994323
9080.000000;1.993607
9079.000000;1.993097
9078.000000;1.993826
9077.000000;1.994968
9076.000000;1.994447
9075.000000;1.991383
9074.000000;1.987394
9073.000000;1.985117
9072.000000;1.985690
9071.000000;1.987848
9070.000000;1.989423
9069.000000;1.989471
9068.000000;1.988753
9067.000000;1.988338
9066.000000;1.988355
9065.000000;1.988470
9064.000000;1.988914
9063.000000;1.990245
9062.000000;1.992329
9061.000000;1.994346
9060.000000;1.995824
9059.000000;1.996956
9058.000000;1.997725
9057.000000;1.997563
9056.000000;1.996343
9055.000000;1.995048
9054.000000;1.994839
9053.000000;1.995777
9052.000000;1.996849
9051.000000;1.996988
9050.000000;1.995770
9049.000000;1.993452
9048.000000;1.990932
9047.000000;1.989384
9046.000000;1.989265
9045.000000;1.989833
9044.000000;1.990196
9043.000000;1.990553
9042.000000;1.991660
9041.000000;1.993221
9040.000000;1.993773
9039.000000;1.992425
9038.000000;1.990029
9037.000000;1.988340
9036.000000;1.988492
9035.000000;1.990360
9034.000000;1.992762
9033.000000;1.994113
9032.000000;1.993481
9031.000000;1.991443
9030.000000;1.989647
9029.000000;1.989424
9028.000000;1.991005
9027.000000;1.993799
9026.000000;1.996752
9025.000000;1.998442
9024.000000;1.997813
9023.000000;1.995379
9022.000000;1.993056
9021.000000;1.992335
9020.000000;1.993035
9019.000000;1.993910
9018.000000;1.993951
9017.000000;1.992920
9016.000000;1.991265
9015.000000;1.989967
9014.000000;1.989961
9013.000000;1.991135
9012.000000;1.992241
9011.000000;1.992194
9010.000000;1.991085
9009.000000;1.989568
9008.000000;1.987924
9007.000000;1.986434
9006.000000;1.986130
9005.000000;1.988096
9004.000000;1.991978
9003.000000;1.995814
9002.000000;1.997593
9001.000000;1.996875
9000.000000;1.994854
8999.000000;1.993133
8998.000000;1.992597
8997.000000;1.992990
8996.000000;1.993377
8995.000000;1.993172
8994.000000;1.992606
8993.000000;1.992269
8992.000000;1.992324
8991.000000;1.992294
8990.000000;1.991580
8989.000000;1.989949
8988.000000;1.987788
8987.000000;1.986114
8986.000000;1.985914
8985.000000;1.987243
8984.000000;1.989302
8983.000000;1.991563
8982.000000;1.994222
8981.000000;1.997120
8980.000000;1.999075
8979.000000;1.999193
8978.000000;1.998199
8977.000000;1.997415
8976.000000;1.996918
8975.000000;1.995921
8974.000000;1.994739
8973.000000;1.994911
8972.000000;1.996975
8971.000000;1.999202
8970.000000;1.999284
8969.000000;1.996830
8968.000000;1.993585
8967.000000;1.991612
8966.000000;1.991747
8965.000000;1.993304
8964.000000;1.994759
8963.000000;1.995066
8962.000000;1.994645
8961.000000;1.994731
8960.000000;1.995588
8959.000000;1.995960
8958.000000;1.994768
8957.000000;1.992789
8956.000000;1.991847
8955.000000;1.992574
8954.000000;1.993770
8953.000000;1.994037
8952.000000;1.993413
8951.000000;1.992997
8950.000000;1.993396
8949.000000;1.994060
8948.000000;1.994106
8947.000000;1.993389
8946.000000;1.992533
8945.000000;1.992019
8944.000000;1.991638
8943.000000;1.991072
8942.000000;1.990777
8941.000000;1.991759
8940.000000;1.994306
8939.000000;1.997287
8938.000000;1.999130
8937.000000;1.999391
8936.000000;1.998917
8935.000000;1.998538
8934.000000;1.998190
8933.000000;1.997483
8932.000000;1.996631
8931.000000;1.996279
8930.000000;1.996566
8929.000000;1.996867
8928.000000;1.996512
8927.000000;1.995442
8926.000000;1.993986
8925.000000;1.992385
8924.000000;1.990905
8923.000000;1.990110
8922.000000;1.990529
8921.000000;1.992123
8920.000000;1.994333
8919.000000;1.996543
8918.000000;1.998228
8917.000000;1.998834
8916.000000;1.997985
8915.000000;1.995889
8914.000000;1.993273
8913.000000;1.990937
8912.000000;1.989594
8911.000000;1.989869
8910.000000;1.991826
8909.000000;1.994382
8908.000000;1.995815
8907.000000;1.995277
8906.000000;1.993532
8905.000000;1.992099
8904.000000;1.991936
8903.000000;1.992949
8902.000000;1.994245
8901.000000;1.994648
8900.000000;1.993522
8899.000000;1.991406
8898.000000;1.989568
8897.000000;1.988716
8896.000000;1.988519
8895.000000;1.988656
8894.000000;1.989688
8893.000000;1.992198
8892.000000;1.995455
8891.000000;1.997571
8890.000000;1.996992
8889.000000;1.993667
8888.000000;1.989114
8887.000000;1.985712
8886.000000;1.985482
8885.000000;1.988582
8884.000000;1.992821
8883.000000;1.995408
8882.000000;1.995521
8881.000000;1.994648
8880.000000;1.994345
8879.000000;1.994539
8878.000000;1.994211
8877.000000;1.992863
8876.000000;1.990798
8875.000000;1.988532
8874.000000;1.986528
8873.000000;1.985265
8872.000000;1.985160
8871.000000;1.986373
8870.000000;1.988720
8869.000000;1.991662
8868.000000;1.994413
8867.000000;1.996290
8866.000000;1.997046
8865.000000;1.996807
8864.000000;1.995854
8863.000000;1.994643
8862.000000;1.993712
8861.000000;1.993145
8860.000000;1.992295
8859.000000;1.990667
8858.000000;1.989108
8857.000000;1.989371
8856.000000;1.992231
8855.000000;1.996434
8854.000000;1.999701
8853.000000;2.000540
8852.000000;1.998954
8851.000000;1.995840
8850.000000;1.992196
8849.000000;1.988765
8848.000000;1.986059
8847.000000;1.984573
8846.000000;1.984784
8845.000000;1.986595
8844.000000;1.988809
8843.000000;1.989826
8842.000000;1.989309
8841.000000;1.988673
8840.000000;1.989457
8839.000000;1.991595
8838.000000;1.993600
8837.000000;1.994089
8836.000000;1.992706
8835.000000;1.989901
8834.000000;1.986584
8833.000000;1.984104
8832.000000;1.983775
8831.000000;1.985781
8830.000000;1.988675
8829.000000;1.990395
8828.000000;1.990044
8827.000000;1.988583
8826.000000;1.987715
8825.000000;1.988242
8824.000000;1.989495
8823.000000;1.990188
8822.000000;1.989731
8821.000000;1.988697
8820.000000;1.988069
8819.000000;1.988191
8818.000000;1.988570
8817.000000;1.988637
8816.000000;1.988486
8815.000000;1.988691
8814.000000;1.989482
8813.000000;1.990377
8812.000000;1.990718
8811.000000;1.990322
8810.000000;1.989436
8809.000000;1.988312
8808.000000;1.987118
8807.000000;1.986110
8806.000000;1.985485
8805.000000;1.985049
8804.000000;1.984552
8803.000000;1.984415
8802.000000;1.985479
8801.000000;1.987739
8800.000000;1.989833
8799.000000;1.990297
8798.000000;1.989039
8797.000000;1.987167
8796.000000;1.985780
8795.000000;1.985364
8794.000000;1.985886
8793.000000;1.986800
8792.000000;1.987248
8791.000000;1.986932
8790.000000;1.986682
8789.000000;1.987398
8788.000000;1.988446
8787.000000;1.987925
8786.000000;1.984933
8785.000000;1.980965
8784.000000;1.978580
8783.000000;1.979209
8782.000000;1.982507
8781.000000;1.987099
8780.000000;1.991326
8779.000000;1.993615
8778.000000;1.993100
8777.000000;1.990322
8776.000000;1.986967
8775.000000;1.984700
8774.000000;1.984219
8773.000000;1.985119
8772.000000;1.986351
8771.000000;1.986778
8770.000000;1.985696
8769.000000;1.983204
8768.000000;1.980154
8767.000000;1.977641
8766.000000;1.976399
8765.000000;1.976488
8764.000000;1.977505
8763.000000;1.979025
8762.000000;1.980793
8761.000000;1.982564
8760.000000;1.983952
8759.000000;1.984481
8758.000000;1.983748
8757.000000;1.981694
8756.000000;1.979014
8755.000000;1.977176
8754.000000;1.977474
8753.000000;1.979813
8752.000000;1.982670
8751.000000;1.984549
8750.000000;1.985208
8749.000000;1.985201
8748.000000;1.984688
8747.000000;1.983302
8746.000000;1.980967
8745.000000;1.978246
8744.000000;1.975841
8743.000000;1.974250
8742.000000;1.973779
8741.000000;1.974347
8740.000000;1.975275
8739.000000;1.975827
8738.000000;1.975992
8737.000000;1.976263
8736.000000;1.976641
8735.000000;1.976558
8734.000000;1.975922
8733.000000;1.975510
8732.000000;1.975956
8731.000000;1.976853
8730.000000;1.977251
8729.000000;1.976715
8728.000000;1.975506
8727.000000;1.974024
8726.000000;1.972558
8725.000000;1.971509
8724.000000;1.971349
8723.000000;1.972214
8722.000000;1.973743
8721.000000;1.975352
8720.000000;1.976576
8719.000000;1.977163
8718.000000;1.976900
8717.000000;1.975563
8716.000000;1.973296
8715.000000;1.970976
8714.000000;1.969718
8713.000000;1.969690
8712.000000;1.969736
8711.000000;1.968700
8710.000000;1.966946
8709.000000;1.965956
8708.000000;1.966548
8707.000000;1.968163
8706.000000;1.969850
8705.000000;1.971239
8704.000000;1.972296
8703.000000;1.972824
8702.000000;1.972803
8701.000000;1.972754
8700.000000;1.973233
8699.000000;1.974199
8698.000000;1.975163
8697.000000;1.975660
8696.000000;1.975314
8695.000000;1.973912
8694.000000;1.971866
8693.000000;1.970222
8692.000000;1.969692
8691.000000;1.969954
8690.000000;1.970388
8689.000000;1.971156
8688.000000;1.972859
8687.000000;1.975245
8686.000000;1.977005
8685.000000;1.977081
8684.000000;1.975659
8683.000000;1.973695
8682.000000;1.971945
8681.000000;1.970697
8680.000000;1.970040
8679.000000;1.969987
8678.000000;1.970436
8677.000000;1.971248
8676.000000;1.972336
8675.000000;1.973614
8674.000000;1.974888
8673.000000;1.975839
8672.000000;1.976124
8671.000000;1.975575
8670.000000;1.974369
8669.000000;1.972982
8668.000000;1.971952
8667.000000;1.971619
8666.000000;1.972011
8665.000000;1.972850
8664.000000;1.973696
8663.000000;1.974214
8662.000000;1.974327
8661.000000;1.974074
8660.000000;1.973439
8659.000000;1.972506
8658.000000;1.971638
8657.000000;1.971125
8656.000000;1.970728
8655.000000;1.969986
8654.000000;1.968948
8653.000000;1.968093
8652.000000;1.967574
8651.000000;1.967108
8650.000000;1.966760
8649.000000;1.967125
8648.000000;1.968353
8647.000000;1.969617
8646.000000;1.970157
8645.000000;1.970411
8644.000000;1.971356
8643.000000;1.973050
8642.000000;1.974564
8641.000000;1.975237
8640.000000;1.975246
8639.000000;1.974883
8638.000000;1.974025
8637.000000;1.972652
8636.000000;1.971386
8635.000000;1.971069
8634.000000;1.971895
8633.000000;1.973074
8632.000000;1.973379
8631.000000;1.972205
8630.000000;1.970345
8629.000000;1.969477
8628.000000;1.970522
8627.000000;1.972577
8626.000000;1.973846
8625.000000;1.973591
8624.000000;1.972693
8623.000000;1.972265
8622.000000;1.972360
8621.000000;1.972187
8620.000000;1.971035
8619.000000;1.968754
8618.000000;1.965880
8617.000000;1.963594
8616.000000;1.963045
8615.000000;1.964159
8614.000000;1.965460
8613.000000;1.965639
8612.000000;1.965069
8611.000000;1.965151
8610.000000;1.966292
8609.000000;1.967371
8608.000000;1.967432
8607.000000;1.967075
8606.000000;1.967530
8605.000000;1.968798
8604.000000;1.969509
8603.000000;1.968732
8602.000000;1.967252
8601.000000;1.966656
8600.000000;1.967636
8599.000000;1.969569
8598.000000;1.971418
8597.000000;1.972540
8596.000000;1.972679
8595.000000;1.971748
8594.000000;1.970011
8593.000000;1.968163
8592.000000;1.966828
8591.000000;1.966144
8590.000000;1.966027
8589.000000;1.966584
8588.000000;1.967810
8587.000000;1.968936
8586.000000;1.968727
8585.000000;1.966928
8584.000000;1.964973
8583.000000;1.964704
8582.000000;1.966523
8581.000000;1.969081
8580.000000;1.970783
8579.000000;1.971200
8578.000000;1.970822
8577.000000;1.969967
8576.000000;1.968638
8575.000000;1.967232
8574.000000;1.966601
8573.000000;1.967081
8572.000000;1.967969
8571.000000;1.968347
8570.000000;1.968213
8569.000000;1.968410
8568.000000;1.969563
8567.000000;1.971440
8566.000000;1.973249
8565.000000;1.974213
8564.000000;1.973962
8563.000000;1.972778
8562.000000;1.971508
8561.000000;1.970862
8560.000000;1.970732
8559.000000;1.970426
8558.000000;1.969576
8557.000000;1.968503
8556.000000;1.967704
8555.000000;1.967382
8554.000000;1.967545
8553.000000;1.968132
8552.000000;1.968789
8551.000000;1.968923
8550.000000;1.968362
8549.000000;1.967620
8548.000000;1.967227
8547.000000;1.967137
8546.000000;1.966999
8545.000000;1.966696
8544.000000;1.966337
8543.000000;1.965991
8542.000000;1.965774
8541.000000;1.965991
8540.000000;1.966795
8539.000000;1.967882
8538.000000;1.968881
8537.000000;1.969842
8536.000000;1.970890
8535.000000;1.971533
8534.000000;1.970880
8533.000000;1.968774
8532.000000;1.966319
8531.000000;1.965057
8530.000000;1.965731
8529.000000;1.967780
8528.000000;1.969809
8527.000000;1.970654
8526.000000;1.970269
8525.000000;1.969574
8524.000000;1.969399
8523.000000;1.969781
8522.000000;1.970348
8521.000000;1.971043
8520.000000;1.972049
8519.000000;1.973115
8518.000000;1.973471
8517.000000;1.972543
8516.000000;1.970495
8515.000000;1.968083
8514.000000;1.966290
8513.000000;1.965941
8512.000000;1.967157
8511.000000;1.969090
8510.000000;1.970631
8509.000000;1.971487
8508.000000;1.972120
8507.000000;1.972637
8506.000000;1.972390
8505.000000;1.970938
8504.000000;1.968830
8503.000000;1.967033
8502.000000;1.966050
8501.000000;1.965921
8500.000000;1.966604
8499.000000;1.967794
8498.000000;1.968704
8497.000000;1.968733
8496.000000;1.968315
8495.000000;1.968522
8494.000000;1.969749
8493.000000;1.971231
8492.000000;1.971963
8491.000000;1.971721
8490.000000;1.970985
8489.000000;1.970170
8488.000000;1.969309
8487.000000;1.968324
8486.000000;1.967267
8485.000000;1.966257
8484.000000;1.965364
8483.000000;1.964684
8482.000000;1.964456
8481.000000;1.964940
8480.000000;1.966062
8479.000000;1.967290
8478.000000;1.968083
8477.000000;1.968490
8476.000000;1.969048
8475.000000;1.969970
8474.000000;1.970668
8473.000000;1.970318
8472.000000;1.968755
8471.000000;1.966613
8470.000000;1.964718
8469.000000;1.963585
8468.000000;1.963346
8467.000000;1.963757
8466.000000;1.964316
8465.000000;1.964668
8464.000000;1.964942
8463.000000;1.965432
8462.000000;1.966019
8461.000000;1.966231
8460.000000;1.965919
8459.000000;1.965500
8458.000000;1.965375
8457.000000;1.965445
8456.000000;1.965415
8455.000000;1.965298
8454.000000;1.965309
8453.000000;1.965457
8452.000000;1.965512
8451.000000;1.965340
8450.000000;1.965030
8449.000000;1.964725
8448.000000;1.964492
8447.000000;1.964393
8446.000000;1.964542
8445.000000;1.965057
8444.000000;1.965955
8443.000000;1.967069
8442.000000;1.968011
8441.000000;1.968422
8440.000000;1.968364
8439.000000;1.968231
8438.000000;1.968184
8437.000000;1.967921
8436.000000;1.967289
8435.000000;1.966854
8434.000000;1.967384
8433.000000;1.968830
8432.000000;1.970271
8431.000000;1.971029
8430.000000;1.971423
8429.000000;1.972113
8428.000000;1.972974
8427.000000;1.973019
8426.000000;1.971462
8425.000000;1.968659
8424.000000;1.966005
8423.000000;1.964998
8422.000000;1.966193
8421.000000;1.968707
8420.000000;1.970834
8419.000000;1.971452
8418.000000;1.970898
8417.000000;1.970326
8416.000000;1.970319
8415.000000;1.970436
8414.000000;1.970016
8413.000000;1.969042
8412.000000;1.968031
8411.000000;1.967355
8410.000000;1.966967
8409.000000;1.966750
8408.000000;1.966876
8407.000000;1.967624
8406.000000;1.968882
8405.000000;1.970006
8404.000000;1.970378
8403.000000;1.970085
8402.000000;1.969821
8401.000000;1.970003
8400.000000;1.970227
8399.000000;1.969835
8398.000000;1.968839
8397.000000;1.967938
8396.000000;1.967639
8395.000000;1.967702
8394.000000;1.967582
8393.000000;1.967162
8392.000000;1.966849
8391.000000;1.967082
8390.000000;1.967900
8389.000000;1.968880
8388.000000;1.969386
8387.000000;1.969014
8386.000000;1.967954
8385.000000;1.966902
8384.000000;1.966515
8383.000000;1.966951
8382.000000;1.967884
8381.000000;1.968797
8380.000000;1.969225
8379.000000;1.968988
8378.000000;1.968381
8377.000000;1.968047
8376.000000;1.968447
8375.000000;1.969406
8374.000000;1.970299
8373.000000;1.970714
8372.000000;1.970747
8371.000000;1.970646
8370.000000;1.970392
8369.000000;1.969813
8368.000000;1.968989
8367.000000;1.968286
8366.000000;1.968010
8365.000000;1.968233
8364.000000;1.969002
8363.000000;1.970423
8362.000000;1.972319
8361.000000;1.973938
8360.000000;1.974434
8359.000000;1.973798
8358.000000;1.972999
8357.000000;1.972922
8356.000000;1.973321
8355.000000;1.973165
8354.000000;1.971954
8353.000000;1.970281
8352.000000;1.969019
8351.000000;1.968390
8350.000000;1.968021
8349.000000;1.967569
8348.000000;1.966994
8347.000000;1.966470
8346.000000;1.966394
8345.000000;1.967291
8344.000000;1.969216
8343.000000;1.971275
8342.000000;1.972161
8341.000000;1.971347
8340.000000;1.969494
8339.000000;1.967564
8338.000000;1.965943
8337.000000;1.964584
8336.000000;1.963540
8335.000000;1.962982
8334.000000;1.962928
8333.000000;1.963281
8332.000000;1.963997
8331.000000;1.964950
8330.000000;1.965775
8329.000000;1.966194
8328.000000;1.966395
8327.000000;1.966774
8326.000000;1.967402
8325.000000;1.968061
8324.000000;1.968620
8323.000000;1.968990
8322.000000;1.968848
8321.000000;1.967934
8320.000000;1.966669
8319.000000;1.965904
8318.000000;1.965923
8317.000000;1.966200
8316.000000;1.966291
8315.000000;1.966349
8314.000000;1.966548
8313.000000;1.966644
8312.000000;1.966514
8311.000000;1.966500
8310.000000;1.966718
8309.000000;1.966626
8308.000000;1.965904
8307.000000;1.965279
8306.000000;1.965670
8305.000000;1.966872
8304.000000;1.967916
8303.000000;1.968522
8302.000000;1.969210
8301.000000;1.970008
8300.000000;1.970159
8299.000000;1.969406
8298.000000;1.968587
8297.000000;1.968479
8296.000000;1.968828
8295.000000;1.969021
8294.000000;1.969058
8293.000000;1.969203
8292.000000;1.969224
8291.000000;1.968771
8290.000000;1.968160
8289.000000;1.968029
8288.000000;1.968467
8287.000000;1.969032
8286.000000;1.969419
8285.000000;1.969587
8284.000000;1.969407
8283.000000;1.968778
8282.000000;1.968110
8281.000000;1.968114
8280.000000;1.968927
8279.000000;1.969854
8278.000000;1.970065
8277.000000;1.969308
8276.000000;1.967929
8275.000000;1.966581
8274.000000;1.965910
8273.000000;1.966227
8272.000000;1.967387
8271.000000;1.969036
8270.000000;1.970863
8269.000000;1.972483
8268.000000;1.973340
8267.000000;1.973160
8266.000000;1.972357
8265.000000;1.971556
8264.000000;1.970903
8263.000000;1.970310
8262.000000;1.970131
8261.000000;1.970820
8260.000000;1.971868
8259.000000;1.971893
8258.000000;1.970180
8257.000000;1.967627
8256.000000;1.965778
8255.000000;1.965394
8254.000000;1.966198
8253.000000;1.967450
8252.000000;1.968368
8251.000000;1.968511
8250.000000;1.968264
8249.000000;1.968634
8248.000000;1.970020
8247.000000;1.971381
8246.000000;1.971240
8245.000000;1.969522
8244.000000;1.967748
8243.000000;1.967299
8242.000000;1.968023
8241.000000;1.968771
8240.000000;1.968864
8239.000000;1.968581
8238.000000;1.968355
8237.000000;1.968040
8236.000000;1.967260
8235.000000;1.966206
8234.000000;1.965674
8233.000000;1.966271
8232.000000;1.967833
8231.000000;1.969716
8230.000000;1.971393
8229.000000;1.972553
8228.000000;1.972864
8227.000000;1.972116
8226.000000;1.970697
8225.000000;1.969475
8224.000000;1.968980
8223.000000;1.968971
8222.000000;1.968957
8221.000000;1.968923
8220.000000;1.969308
8219.000000;1.970401
8218.000000;1.971956
8217.000000;1.973309
8216.000000;1.973738
8215.000000;1.972859
8214.000000;1.970943
8213.000000;1.968784
8212.000000;1.967119
8211.000000;1.966184
8210.000000;1.965860
8209.000000;1.966133
8208.000000;1.967217
8207.000000;1.969151
8206.000000;1.971404
8205.000000;1.973071
8204.000000;1.973551
8203.000000;1.973013
8202.000000;1.972126
8201.000000;1.971308
8200.000000;1.970350
8199.000000;1.968911
8198.000000;1.967233
8197.000000;1.966102
8196.000000;1.966062
8195.000000;1.966898
8194.000000;1.967906
8193.000000;1.968502
8192.000000;1.968531
8191.000000;1.968169
8190.000000;1.967721
8189.000000;1.967517
8188.000000;1.967857
8187.000000;1.968908
8186.000000;1.970537
8185.000000;1.972224
8184.000000;1.973358
8183.000000;1.973764
8182.000000;1.973771
8181.000000;1.973570
8180.000000;1.972767
8179.000000;1.970960
8178.000000;1.968567
8177.000000;1.966579
8176.000000;1.965533
8175.000000;1.965230
8174.000000;1.965476
8173.000000;1.966494
8172.000000;1.968308
8171.000000;1.970269
8170.000000;1.971669
8169.000000;1.972535
8168.000000;1.973364
8167.000000;1.974288
8166.000000;1.974942
8165.000000;1.974979
8164.000000;1.974316
8163.000000;1.973001
8162.000000;1.971281
8161.000000;1.969769
8160.000000;1.969152
8159.000000;1.969606
8158.000000;1.970674
8157.000000;1.971650
8156.000000;1.971901
8155.000000;1.971088
8154.000000;1.969482
8153.000000;1.968067
8152.000000;1.967860
8151.000000;1.968969
8150.000000;1.970481
8149.000000;1.971369
8148.000000;1.971354
8147.000000;1.970841
8146.000000;1.970331
8145.000000;1.970087
8144.000000;1.970177
8143.000000;1.970572
8142.000000;1.971197
8141.000000;1.971952
8140.000000;1.972680
8139.000000;1.973140
8138.000000;1.973108
8137.000000;1.972652
8136.000000;1.972312
8135.000000;1.972754
8134.000000;1.974054
8133.000000;1.975425
8132.000000;1.975892
8131.000000;1.975300
8130.000000;1.974370
8129.000000;1.973696
8128.000000;1.973065
8127.000000;1.972087
8126.000000;1.971102
8125.000000;1.970806
8124.000000;1.971137
8123.000000;1.971269
8122.000000;1.970846
8121.000000;1.970505
8120.000000;1.970791
8119.000000;1.971159
8118.000000;1.970673
8117.000000;1.969329
8116.000000;1.968097
8115.000000;1.967854
8114.000000;1.968754
8113.000000;1.970385
8112.000000;1.971952
8111.000000;1.972554
8110.000000;1.971944
8109.000000;1.971001
8108.000000;1.970862
8107.000000;1.971592
8106.000000;1.972222
8105.000000;1.972110
8104.000000;1.971601
8103.000000;1.971216
8102.000000;1.970905
8101.000000;1.970533
8100.000000;1.970486
8099.000000;1.971169
8098.000000;1.972184
8097.000000;1.972612
8096.000000;1.972129
8095.000000;1.971469
8094.000000;1.971746
8093.000000;1.973428
8092.000000;1.975908
8091.000000;1.977980
8090.000000;1.978806
8089.000000;1.978455
8088.000000;1.977489
8087.000000;1.976218
8086.000000;1.974673
8085.000000;1.973218
8084.000000;1.972606
8083.000000;1.973174
8082.000000;1.974314
8081.000000;1.974999
8080.000000;1.974696
8079.000000;1.973656
8078.000000;1.972578
8077.000000;1.972221
8076.000000;1.973005
8075.000000;1.974595
8074.000000;1.975948
8073.000000;1.976096
8072.000000;1.975026
8071.000000;1.973648
8070.000000;1.972920
8069.000000;1.973087
8068.000000;1.973617
8067.000000;1.973700
8066.000000;1.972963
8065.000000;1.971824
8064.000000;1.971042
8063.000000;1.970888
8062.000000;1.970948
8061.000000;1.970767
8060.000000;1.970385
8059.000000;1.970135
8058.000000;1.970319
8057.000000;1.971256
8056.000000;1.973159
8055.000000;1.975513
8054.000000;1.976945
8053.000000;1.976398
8052.000000;1.974365
8051.000000;1.972396
8050.000000;1.971523
8049.000000;1.971698
8048.000000;1.972523
8047.000000;1.973735
8046.000000;1.974910
8045.000000;1.975452
8044.000000;1.975334
8043.000000;1.975283
8042.000000;1.975737
8041.000000;1.976073
8040.000000;1.975507
8039.000000;1.974485
8038.000000;1.974381
8037.000000;1.975774
8036.000000;1.977651
8035.000000;1.978510
8034.000000;1.977850
8033.000000;1.976289
8032.000000;1.974624
8031.000000;1.973301
8030.000000;1.972619
8029.000000;1.972831
8028.000000;1.973768
8027.000000;1.974709
8026.000000;1.975058
8025.000000;1.975071
8024.000000;1.975569
8023.000000;1.976927
8022.000000;1.978629
8021.000000;1.979888
8020.000000;1.980385
8019.000000;1.980164
8018.000000;1.979195
8017.000000;1.977516
8016.000000;1.975652
8015.000000;1.974411
8014.000000;1.974167
8013.000000;1.974609
8012.000000;1.975157
8011.000000;1.975340
8010.000000;1.974902
8009.000000;1.974038
8008.000000;1.973443
8007.000000;1.973459
8006.000000;1.973113
8005.000000;1.970897
8004.000000;1.967066
8003.000000;1.964269
8002.000000;1.964939
8001.000000;1.968401
8000.000000;1.971354
7999.000000;1.971418
7998.000000;1.969546
7997.000000;1.968450
7996.000000;1.969500
7995.000000;1.971807
7994.000000;1.973752
7993.000000;1.974699
7992.000000;1.975175
7991.000000;1.975869
7990.000000;1.976712
7989.000000;1.976921
7988.000000;1.975965
7987.000000;1.974410
7986.000000;1.973511
7985.000000;1.973859
7984.000000;1.974719
7983.000000;1.974934
7982.000000;1.974264
7981.000000;1.973540
7980.000000;1.973614
7979.000000;1.974526
7978.000000;1.975658
7977.000000;1.976383
7976.000000;1.976458
7975.000000;1.976014
7974.000000;1.975322
7973.000000;1.974539
7972.000000;1.973707
7971.000000;1.973019
7970.000000;1.972934
7969.000000;1.973777
7968.000000;1.975226
7967.000000;1.976392
7966.000000;1.976591
7965.000000;1.976010
7964.000000;1.975539
7963.000000;1.975915
7962.000000;1.977000
7961.000000;1.977882
7960.000000;1.977760
7959.000000;1.976793
7958.000000;1.975935
7957.000000;1.975906
7956.000000;1.976535
7955.000000;1.977157
7954.000000;1.977367
7953.000000;1.977126
7952.000000;1.976417
7951.000000;1.975262
7950.000000;1.974075
7949.000000;1.973550
7948.000000;1.974040
7947.000000;1.975211
7946.000000;1.976346
7945.000000;1.976860
7944.000000;1.976560
7943.000000;1.975716
7942.000000;1.974963
7941.000000;1.974850
7940.000000;1.975338
7939.000000;1.975916
7938.000000;1.976242
7937.000000;1.976380
7936.000000;1.976309
7935.000000;1.975621
7934.000000;1.974079
7933.000000;1.972306
7932.000000;1.971520
7931.000000;1.972499
7930.000000;1.974920
7929.000000;1.977634
7928.000000;1.979490
7927.000000;1.979984
7926.000000;1.979403
7925.000000;1.978465
7924.000000;1.977773
7923.000000;1.977506
7922.000000;1.977508
7921.000000;1.977560
7920.000000;1.977574
7919.000000;1.977653
7918.000000;1.977979
7917.000000;1.978552
7916.000000;1.979039
7915.000000;1.979063
7914.000000;1.978681
7913.000000;1.978383
7912.000000;1.978533
7911.000000;1.979036
7910.000000;1.979604
7909.000000;1.980062
7908.000000;1.980236
7907.000000;1.979867
7906.000000;1.978972
7905.000000;1.978081
7904.000000;1.977714
7903.000000;1.977713
7902.000000;1.977465
7901.000000;1.976808
7900.000000;1.976316
7899.000000;1.976570
7898.000000;1.977411
7897.000000;1.978113
7896.000000;1.978117
7895.000000;1.977485
7894.000000;1.976743
7893.000000;1.976413
7892.000000;1.976639
7891.000000;1.977117
7890.000000;1.977418
7889.000000;1.977407
7888.000000;1.977323
7887.000000;1.977475
7886.000000;1.977974
7885.000000;1.978692
7884.000000;1.979329
7883.000000;1.979484
7882.000000;1.978905
7881.000000;1.977787
7880.000000;1.976703
7879.000000;1.976139
7878.000000;1.976172
7877.000000;1.976597
7876.000000;1.977175
7875.000000;1.977640
7874.000000;1.977644
7873.000000;1.976954
7872.000000;1.975753
7871.000000;1.974540
7870.000000;1.973705
7869.000000;1.973307
7868.000000;1.973330
7867.000000;1.973954
7866.000000;1.975379
7865.000000;1.977399
7864.000000;1.979267
7863.000000;1.980143
7862.000000;1.979749
7861.000000;1.978608
7860.000000;1.977633
7859.000000;1.977475
7858.000000;1.978139
7857.000000;1.979037
7856.000000;1.979386
7855.000000;1.978755
7854.000000;1.977400
7853.000000;1.976065
7852.000000;1.975389
7851.000000;1.975478
7850.000000;1.975974
7849.000000;1.976451
7848.000000;1.976701
7847.000000;1.976769
7846.000000;1.976807
7845.000000;1.976849
7844.000000;1.976684
7843.000000;1.976058
7842.000000;1.975091
7841.000000;1.974341
7840.000000;1.974281
7839.000000;1.974796
7838.000000;1.975404
7837.000000;1.975884
7836.000000;1.976420
7835.000000;1.977082
7834.000000;1.977500
7833.000000;1.977248
7832.000000;1.976421
7831.000000;1.975609
7830.000000;1.975355
7829.000000;1.975708
7828.000000;1.976268
7827.000000;1.976584
7826.000000;1.976548
7825.000000;1.976425
7824.000000;1.976453
7823.000000;1.976467
7822.000000;1.976081
7821.000000;1.975238
7820.000000;1.974384
7819.000000;1.974025
7818.000000;1.974269
7817.000000;1.974934
7816.000000;1.975878
7815.000000;1.976992
7814.000000;1.977983
7813.000000;1.978440
7812.000000;1.978159
7811.000000;1.977310
7810.000000;1.976315
7809.000000;1.975657
7808.000000;1.975668
7807.000000;1.976267
7806.000000;1.976912
7805.000000;1.976983
7804.000000;1.976302
7803.000000;1.975226
7802.000000;1.974293
7801.000000;1.973913
7800.000000;1.974296
7799.000000;1.975340
7798.000000;1.976539
7797.000000;1.977284
7796.000000;1.977444
7795.000000;1.977487
7794.000000;1.977871
7793.000000;1.978458
7792.000000;1.978683
7791.000000;1.978227
7790.000000;1.977334
7789.000000;1.976492
7788.000000;1.975996
7787.000000;1.975843
7786.000000;1.975866
7785.000000;1.975861
7784.000000;1.975631
7783.000000;1.975055
7782.000000;1.974178
7781.000000;1.973230
7780.000000;1.972516
7779.000000;1.972238
7778.000000;1.972414
7777.000000;1.972933
7776.000000;1.973640
7775.000000;1.974322
7774.000000;1.974725
7773.000000;1.974744
7772.000000;1.974606
7771.000000;1.974686
7770.000000;1.975019
7769.000000;1.975159
7768.000000;1.974671
7767.000000;1.973745
7766.000000;1.973123
7765.000000;1.973339
7764.000000;1.974200
7763.000000;1.975054
7762.000000;1.975456
7761.000000;1.975425
7760.000000;1.975100
7759.000000;1.974426
7758.000000;1.973321
7757.000000;1.972014
7756.000000;1.971012
7755.000000;1.970703
7754.000000;1.971114
7753.000000;1.972028
7752.000000;1.973160
7751.000000;1.974120
7750.000000;1.974405
7749.000000;1.973747
7748.000000;1.972535
7747.000000;1.971700
7746.000000;1.971959
7745.000000;1.973138
7744.000000;1.974298
7743.000000;1.974550
7742.000000;1.973794
7741.000000;1.972714
7740.000000;1.972188
7739.000000;1.972628
7738.000000;1.973697
7737.000000;1.974573
7736.000000;1.974597
7735.000000;1.973790
7734.000000;1.972772
7733.000000;1.972164
7732.000000;1.972108
7731.000000;1.972318
7730.000000;1.972456
7729.000000;1.972349
7728.000000;1.972005
7727.000000;1.971633
7726.000000;1.971670
7725.000000;1.972481
7724.000000;1.973838
7723.000000;1.974797
7722.000000;1.974417
7721.000000;1.972713
7720.000000;1.970767
7719.000000;1.969828
7718.000000;1.970356
7717.000000;1.971824
7716.000000;1.973223
7715.000000;1.973735
7714.000000;1.973170
7713.000000;1.972010
7712.000000;1.971003
7711.000000;1.970560
7710.000000;1.970544
7709.000000;1.970643
7708.000000;1.970823
7707.000000;1.971242
7706.000000;1.971828
7705.000000;1.972232
7704.000000;1.972262
7703.000000;1.972144
7702.000000;1.972171
7701.000000;1.972282
7700.000000;1.972152
7699.000000;1.971640
7698.000000;1.970967
7697.000000;1.970452
7696.000000;1.970212
7695.000000;1.970184
7694.000000;1.970331
7693.000000;1.970711
7692.000000;1.971306
7691.000000;1.971859
7690.000000;1.971990
7689.000000;1.971513
7688.000000;1.970567
7687.000000;1.969400
7686.000000;1.968115
7685.000000;1.966820
7684.000000;1.965959
7683.000000;1.966154
7682.000000;1.967561
7681.000000;1.969529
7680.000000;1.971057
7679.000000;1.971548
7678.000000;1.971074
7677.000000;1.970046
7676.000000;1.968896
7675.000000;1.968062
7674.000000;1.967981
7673.000000;1.968849
7672.000000;1.970357
7671.000000;1.971766
7670.000000;1.972371
7669.000000;1.972006
7668.000000;1.971129
7667.000000;1.970355
7666.000000;1.969902
7665.000000;1.969547
7664.000000;1.969074
7663.000000;1.968562
7662.000000;1.968143
7661.000000;1.967716
7660.000000;1.967106
7659.000000;1.966406
7658.000000;1.965915
7657.000000;1.965790
7656.000000;1.965946
7655.000000;1.966276
7654.000000;1.966707
7653.000000;1.967051
7652.000000;1.967105
7651.000000;1.966983
7650.000000;1.967097
7649.000000;1.967622
7648.000000;1.968186
7647.000000;1.968326
7646.000000;1.968095
7645.000000;1.967925
7644.000000;1.967934
7643.000000;1.967680
7642.000000;1.966750
7641.000000;1.965400
7640.000000;1.964377
7639.000000;1.964129
7638.000000;1.964368
7637.000000;1.964495
7636.000000;1.964322
7635.000000;1.964172
7634.000000;1.964276
7633.000000;1.964392
7632.000000;1.964235
7631.000000;1.964063
7630.000000;1.964428
7629.000000;1.965360
7628.000000;1.966183
7627.000000;1.966325
7626.000000;1.965997
7625.000000;1.965823
7624.000000;1.966017
7623.000000;1.966271
7622.000000;1.966316
7621.000000;1.966205
7620.000000;1.965985
7619.000000;1.965471
7618.000000;1.964535
7617.000000;1.963437
7616.000000;1.962616
7615.000000;1.962231
7614.000000;1.962103
7613.000000;1.962071
7612.000000;1.962184
7611.000000;1.962435
7610.000000;1.962514
7609.000000;1.962100
7608.000000;1.961390
7607.000000;1.961044
7606.000000;1.961417
7605.000000;1.962042
7604.000000;1.962130
7603.000000;1.961488
7602.000000;1.960638
7601.000000;1.960039
7600.000000;1.959616
7599.000000;1.959174
7598.000000;1.958887
7597.000000;1.959032
7596.000000;1.959495
7595.000000;1.959923
7594.000000;1.960260
7593.000000;1.960709
7592.000000;1.961183
7591.000000;1.961217
7590.000000;1.960554
7589.000000;1.959524
7588.000000;1.958683
7587.000000;1.958288
7586.000000;1.958270
7585.000000;1.958533
7584.000000;1.958966
7583.000000;1.959233
7582.000000;1.958914
7581.000000;1.958019
7580.000000;1.957130
7579.000000;1.956851
7578.000000;1.957175
7577.000000;1.957509
7576.000000;1.957329
7575.000000;1.956666
7574.000000;1.955895
7573.000000;1.955152
7572.000000;1.954178
7571.000000;1.952791
7570.000000;1.951385
7569.000000;1.950765
7568.000000;1.951444
7567.000000;1.953086
7566.000000;1.954641
7565.000000;1.955086
7564.000000;1.954175
7563.000000;1.952608
7562.000000;1.951419
7561.000000;1.951137
7560.000000;1.951492
7559.000000;1.951912
7558.000000;1.952207
7557.000000;1.952635
7556.000000;1.953357
7555.000000;1.954087
7554.000000;1.954398
7553.000000;1.954234
7552.000000;1.953924
7551.000000;1.953744
7550.000000;1.953596
7549.000000;1.953157
7548.000000;1.952245
7547.000000;1.951018
7546.000000;1.949898
7545.000000;1.949326
7544.000000;1.949484
7543.000000;1.950090
7542.000000;1.950453
7541.000000;1.949954
7540.000000;1.948656
7539.000000;1.947434
7538.000000;1.947274
7537.000000;1.948316
7536.000000;1.949611
7535.000000;1.949930
7534.000000;1.948888
7533.000000;1.947214
7532.000000;1.945956
7531.000000;1.945542
7530.000000;1.945634
7529.000000;1.945695
7528.000000;1.945549
7527.000000;1.945380
7526.000000;1.945400
7525.000000;1.945644
7524.000000;1.946017
7523.000000;1.946326
7522.000000;1.946231
7521.000000;1.945393
7520.000000;1.943886
7519.000000;1.942364
7518.000000;1.941613
7517.000000;1.941857
7516.000000;1.942618
7515.000000;1.943223
7514.000000;1.943314
7513.000000;1.942888
7512.000000;1.942121
7511.000000;1.941336
7510.000000;1.940909
7509.000000;1.940963
7508.000000;1.941152
7507.000000;1.940965
7506.000000;1.940242
7505.000000;1.939312
7504.000000;1.938691
7503.000000;1.938517
7502.000000;1.938828
7501.000000;1.939308
7500.000000;1.939490
7499.000000;1.939076
7498.000000;1.938210
7497.000000;1.937289
7496.000000;1.936498
7495.000000;1.935698
7494.000000;1.934819
7493.000000;1.934161
7492.000000;1.934150
7491.000000;1.934856
7490.000000;1.935831
7489.000000;1.936358
7488.000000;1.935861
7487.000000;1.934277
7486.000000;1.932241
7485.000000;1.930821
7484.000000;1.930807
7483.000000;1.932107
7482.000000;1.933810
7481.000000;1.934914
7480.000000;1.935064
7479.000000;1.934630
7478.000000;1.934136
7477.000000;1.933683
7476.000000;1.932936
7475.000000;1.931633
7474.000000;1.930005
7473.000000;1.928639
7472.000000;1.927983
7471.000000;1.928065
7470.000000;1.928625
7469.000000;1.929360
7468.000000;1.930055
7467.000000;1.930602
7466.000000;1.930981
7465.000000;1.931137
7464.000000;1.930895
7463.000000;1.930165
7462.000000;1.929264
7461.000000;1.928789
7460.000000;1.928996
7459.000000;1.929428
7458.000000;1.929397
7457.000000;1.928779
7456.000000;1.928102
7455.000000;1.927855
7454.000000;1.928008
7453.000000;1.928264
7452.000000;1.928491
7451.000000;1.928666
7450.000000;1.928533
7449.000000;1.927672
7448.000000;1.925989
7447.000000;1.923990
7446.000000;1.922452
7445.000000;1.921868
7444.000000;1.922214
7443.000000;1.923072
7442.000000;1.923892
7441.000000;1.924259
7440.000000;1.924094
7439.000000;1.923647
7438.000000;1.923259
7437.000000;1.923098
7436.000000;1.923137
7435.000000;1.923337
7434.000000;1.923721
7433.000000;1.924255
7432.000000;1.924747
7431.000000;1.924942
7430.000000;1.924691
7429.000000;1.924027
7428.000000;1.923115
7427.000000;1.922156
7426.000000;1.921330
7425.000000;1.920762
7424.000000;1.920497
7423.000000;1.920438
7422.000000;1.920333
7421.000000;1.919893
7420.000000;1.919039
7419.000000;1.918032
7418.000000;1.917316
7417.000000;1.917224
7416.000000;1.917837
7415.000000;1.919039
7414.000000;1.920589
7413.000000;1.922128
7412.000000;1.923187
7411.000000;1.923279
7410.000000;1.922138
7409.000000;1.920031
7408.000000;1.917806
7407.000000;1.916445
7406.000000;1.916371
7405.000000;1.917176
7404.000000;1.918044
7403.000000;1.918443
7402.000000;1.918376
7401.000000;1.918101
7400.000000;1.917799
7399.000000;1.917541
7398.000000;1.917373
7397.000000;1.917263
7396.000000;1.917046
7395.000000;1.916547
7394.000000;1.915772
7393.000000;1.914934
7392.000000;1.914334
7391.000000;1.914231
7390.000000;1.914662
7389.000000;1.915296
7388.000000;1.915653
7387.000000;1.915566
7386.000000;1.915262
7385.000000;1.914907
7384.000000;1.914360
7383.000000;1.913482
7382.000000;1.912419
7381.000000;1.911401
7380.000000;1.910517
7379.000000;1.909864
7378.000000;1.909722
7377.000000;1.910300
7376.000000;1.911360
7375.000000;1.912305
7374.000000;1.912656
7373.000000;1.912352
7372.000000;1.911720
7371.000000;1.911329
7370.000000;1.911633
7369.000000;1.912403
7368.000000;1.912657
7367.000000;1.911603
7366.000000;1.909631
7365.000000;1.908023
7364.000000;1.907689
7363.000000;1.908401
7362.000000;1.909205
7361.000000;1.909290
7360.000000;1.908586
7359.000000;1.907704
7358.000000;1.907289
7357.000000;1.907272
7356.000000;1.906881
7355.000000;1.905562
7354.000000;1.903633
7353.000000;1.901807
7352.000000;1.900353
7351.000000;1.899214
7350.000000;1.898657
7349.000000;1.899145
7348.000000;1.900459
7347.000000;1.901524
7346.000000;1.901482
7345.000000;1.900515
7344.000000;1.899489
7343.000000;1.899139
7342.000000;1.899593
7341.000000;1.900269
7340.000000;1.900227
7339.000000;1.899027
7338.000000;1.897334
7337.000000;1.896367
7336.000000;1.896643
7335.000000;1.897537
7334.000000;1.898058
7333.000000;1.897816
7332.000000;1.897150
7331.000000;1.896629
7330.000000;1.896601
7329.000000;1.897034
7328.000000;1.897612
7327.000000;1.897936
7326.000000;1.897818
7325.000000;1.897451
7324.000000;1.897124
7323.000000;1.896944
7322.000000;1.896892
7321.000000;1.896869
7320.000000;1.896577
7319.000000;1.895644
7318.000000;1.894059
7317.000000;1.892291
7316.000000;1.890858
7315.000000;1.889835
7314.000000;1.888861
7313.000000;1.887515
7312.000000;1.885713
7311.000000;1.883891
7310.000000;1.882826
7309.000000;1.883081
7308.000000;1.884419
7307.000000;1.885763
7306.000000;1.885946
7305.000000;1.884698
7304.000000;1.882836
7303.000000;1.881508
7302.000000;1.881267
7301.000000;1.881713
7300.000000;1.881892
7299.000000;1.881188
7298.000000;1.880002
7297.000000;1.879408
7296.000000;1.880084
7295.000000;1.881673
7294.000000;1.883148
7293.000000;1.883666
7292.000000;1.883159
7291.000000;1.882159
7290.000000;1.881207
7289.000000;1.880490
7288.000000;1.879892
7287.000000;1.879228
7286.000000;1.878460
7285.000000;1.877683
7284.000000;1.876953
7283.000000;1.876262
7282.000000;1.875631
7281.000000;1.875069
7280.000000;1.874439
7279.000000;1.873503
7278.000000;1.872199
7277.000000;1.870798
7276.000000;1.869671
7275.000000;1.868932
7274.000000;1.868387
7273.000000;1.867760
7272.000000;1.866891
7271.000000;1.865794
7270.000000;1.864643
7269.000000;1.863677
7268.000000;1.862947
7267.000000;1.862171
7266.000000;1.861007
7265.000000;1.859509
7264.000000;1.858190
7263.000000;1.857564
7262.000000;1.857675
7261.000000;1.858064
7260.000000;1.858039
7259.000000;1.857077
7258.000000;1.855214
7257.000000;1.852989
7256.000000;1.850815
7255.000000;1.848523
7254.000000;1.845844
7253.000000;1.843209
7252.000000;1.841608
7251.000000;1.841369
7250.000000;1.841456
7249.000000;1.840473
7248.000000;1.838124
7247.000000;1.835338
7246.000000;1.833061
7245.000000;1.831329
7244.000000;1.829690
7243.000000;1.828165
7242.000000;1.827362
7241.000000;1.827654
7240.000000;1.828515
7239.000000;1.828889
7238.000000;1.828076
7237.000000;1.826005
7236.000000;1.822933
7235.000000;1.819333
7234.000000;1.815925
7233.000000;1.813349
7232.000000;1.811746
7231.000000;1.810723
7230.000000;1.809706
7229.000000;1.808398
7228.000000;1.806926
7227.000000;1.805583
7226.000000;1.804417
7225.000000;1.803036
7224.000000;1.800929
7223.000000;1.797982
7222.000000;1.794553
7221.000000;1.791080
7220.000000;1.787698
7219.000000;1.784259
7218.000000;1.780690
7217.000000;1.777261
7216.000000;1.774428
7215.000000;1.772425
7214.000000;1.771039
7213.000000;1.769714
7212.000000;1.767906
7211.000000;1.765384
7210.000000;1.762269
7209.000000;1.758871
7208.000000;1.755521
7207.000000;1.752420
7206.000000;1.749517
7205.000000;1.746580
7204.000000;1.743481
7203.000000;1.740309
7202.000000;1.737134
7201.000000;1.733819
7200.000000;1.730148
7199.000000;1.726068
7198.000000;1.721753
7197.000000;1.717511
7196.000000;1.713668
7195.000000;1.710365
7194.000000;1.707383
7193.000000;1.704297
7192.000000;1.700908
7191.000000;1.697405
7190.000000;1.693997
7189.000000;1.690495
7188.000000;1.686407
7187.000000;1.681476
7186.000000;1.676053
7185.000000;1.670936
7184.000000;1.666783
7183.000000;1.663577
7182.000000;1.660642
7181.000000;1.657243
7180.000000;1.653189
7179.000000;1.648865
7178.000000;1.644693
7177.000000;1.640759
7176.000000;1.636946
7175.000000;1.633026
7174.000000;1.628538
7173.000000;1.623064
7172.000000;1.616898
7171.000000;1.611042
7170.000000;1.606276
7169.000000;1.602382
7168.000000;1.598548
7167.000000;1.594318
7166.000000;1.589727
7165.000000;1.584765
7164.000000;1.579367
7163.000000;1.573904
7162.000000;1.569064
7161.000000;1.565088
7160.000000;1.561426
7159.000000;1.557333
7158.000000;1.552620
7157.000000;1.547640
7156.000000;1.542735
7155.000000;1.537947
7154.000000;1.533184
7153.000000;1.528403
7152.000000;1.523610
7151.000000;1.518888
7150.000000;1.514425
7149.000000;1.510287
7148.000000;1.506233
7147.000000;1.501946
7146.000000;1.497368
7145.000000;1.492621
7144.000000;1.487733
7143.000000;1.482691
7142.000000;1.477638
7141.000000;1.472708
7140.000000;1.467712
7139.000000;1.462239
7138.000000;1.456100
7137.000000;1.449530
7136.000000;1.443017
7135.000000;1.437022
7134.000000;1.431784
7133.000000;1.427187
7132.000000;1.422769
7131.000000;1.418008
7130.000000;1.412685
7129.000000;1.407033
7128.000000;1.401619
7127.000000;1.397021
7126.000000;1.393311
7125.000000;1.389740
7124.000000;1.385190
7123.000000;1.379116
7122.000000;1.372004
7121.000000;1.364916
7120.000000;1.358655
7119.000000;1.353358
7118.000000;1.348739
7117.000000;1.344479
7116.000000;1.340397
7115.000000;1.336394
7114.000000;1.332317
7113.000000;1.327928
7112.000000;1.323111
7111.000000;1.318058
7110.000000;1.313077
7109.000000;1.308171
7108.000000;1.303062
7107.000000;1.297758
7106.000000;1.292848
7105.000000;1.288883
7104.000000;1.285597
7103.000000;1.282088
7102.000000;1.277664
7101.000000;1.272171
7100.000000;1.265743
7099.000000;1.258720
7098.000000;1.251787
7097.000000;1.245689
7096.000000;1.240685
7095.000000;1.236493
7094.000000;1.232717
7093.000000;1.229036
7092.000000;1.225098
7091.000000;1.220649
7090.000000;1.215810
7089.000000;1.210918
7088.000000;1.206073
7087.000000;1.201126
7086.000000;1.196051
7085.000000;1.191007
7084.000000;1.186050
7083.000000;1.181106
7082.000000;1.176233
7081.000000;1.171666
7080.000000;1.167618
7079.000000;1.164204
7078.000000;1.161389
7077.000000;1.158723
7076.000000;1.155255
7075.000000;1.150206
7074.000000;1.143806
7073.000000;1.137197
7072.000000;1.131450
7071.000000;1.126846
7070.000000;1.122922
7069.000000;1.118903
7068.000000;1.114233
7067.000000;1.109099
7066.000000;1.104320
7065.000000;1.100399
7064.000000;1.096877
7063.000000;1.093006
7062.000000;1.088848
7061.000000;1.085119
7060.000000;1.082097
7059.000000;1.079309
7058.000000;1.076300
7057.000000;1.073075
7056.000000;1.069668
7055.000000;1.065874
7054.000000;1.061649
7053.000000;1.057287
7052.000000;1.052965
7051.000000;1.048532
7050.000000;1.043968
7049.000000;1.039576
7048.000000;1.035470
7047.000000;1.031345
7046.000000;1.027045
7045.000000;1.022910
7044.000000;1.019143
7043.000000;1.015215
7042.000000;1.010489
7041.000000;1.005278
7040.000000;1.000742
7039.000000;0.997666
7038.000000;0.995651
7037.000000;0.993544
7036.000000;0.990507
7035.000000;0.986548
7034.000000;0.982190
7033.000000;0.977870
7032.000000;0.973700
7031.000000;0.969634
7030.000000;0.965636
7029.000000;0.961629
7028.000000;0.957484
7027.000000;0.953219
7026.000000;0.949124
7025.000000;0.945499
7024.000000;0.942326
7023.000000;0.939297
7022.000000;0.936083
7021.000000;0.932488
7020.000000;0.928516
7019.000000;0.924447
7018.000000;0.920726
7017.000000;0.917552
7016.000000;0.914648
7015.000000;0.911546
7014.000000;0.908011
7013.000000;0.904069
7012.000000;0.899852
7011.000000;0.895673
7010.000000;0.892075
7009.000000;0.889464
7008.000000;0.887673
7007.000000;0.886023
7006.000000;0.883749
7005.000000;0.880350
7004.000000;0.875825
7003.000000;0.870809
7002.000000;0.866242
7001.000000;0.862556
7000.000000;0.859273
6999.000000;0.855695
6998.000000;0.851814
6997.000000;0.848240
6996.000000;0.845357
6995.000000;0.842956
6994.000000;0.840632
6993.000000;0.838191
6992.000000;0.835618
6991.000000;0.832896
6990.000000;0.829938
6989.000000;0.826682
6988.000000;0.823297
6987.000000;0.820247
6986.000000;0.817849
6985.000000;0.815652
6984.000000;0.812665
6983.000000;0.808532
6982.000000;0.804141
6981.000000;0.800657
6980.000000;0.798226
6979.000000;0.796057
6978.000000;0.793560
6977.000000;0.790862
6976.000000;0.788342
6975.000000;0.786135
6974.000000;0.784103
6973.000000;0.781908
6972.000000;0.779120
6971.000000;0.775578
6970.000000;0.771643
6969.000000;0.767874
6968.000000;0.764533
6967.000000;0.761606
6966.000000;0.759119
6965.000000;0.757112
6964.000000;0.755478
6963.000000;0.754127
6962.000000;0.753142
6961.000000;0.752404
6960.000000;0.751289
6959.000000;0.749117
6958.000000;0.745871
6957.000000;0.742182
6956.000000;0.738713
6955.000000;0.735814
6954.000000;0.733537
6953.000000;0.731605
6952.000000;0.729496
6951.000000;0.726959
6950.000000;0.724329
6949.000000;0.722021
6948.000000;0.719905
6947.000000;0.717622
6946.000000;0.715270
6945.000000;0.713265
6944.000000;0.711578
6943.000000;0.709647
6942.000000;0.707127
6941.000000;0.704317
6940.000000;0.701746
6939.000000;0.699633
6938.000000;0.697840
6937.000000;0.696089
6936.000000;0.694168
6935.000000;0.692085
6934.000000;0.690042
6933.000000;0.688200
6932.000000;0.686561
6931.000000;0.685156
6930.000000;0.684145
6929.000000;0.683518
6928.000000;0.682914
6927.000000;0.681958
6926.000000;0.680639
6925.000000;0.679209
6924.000000;0.677890
6923.000000;0.676812
6922.000000;0.676008
6921.000000;0.675205
6920.000000;0.673900
6919.000000;0.671927
6918.000000;0.669790
6917.000000;0.668156
6916.000000;0.667209
6915.000000;0.666667
6914.000000;0.666215
6913.000000;0.665622
6912.000000;0.664643
6911.000000;0.663192
6910.000000;0.661528
6909.000000;0.660017
6908.000000;0.658722
6907.000000;0.657442
6906.000000;0.656129
6905.000000;0.655073
6904.000000;0.654642
6903.000000;0.654905
6902.000000;0.655426
6901.000000;0.655475
6900.000000;0.654576
6899.000000;0.652829
6898.000000;0.650622
6897.000000;0.648200
6896.000000;0.645770
6895.000000;0.643879
6894.000000;0.643213
6893.000000;0.643889
6892.000000;0.645235
6891.000000;0.646285
6890.000000;0.646242
6889.000000;0.644684
6888.000000;0.641961
6887.000000;0.639375
6886.000000;0.638342
6885.000000;0.639087
6884.000000;0.640505
6883.000000;0.641426
6882.000000;0.641573
6881.000000;0.641215
6880.000000;0.640513
6879.000000;0.639474
6878.000000;0.638184
6877.000000;0.636837
6876.000000;0.635840
6875.000000;0.635812
6874.000000;0.636978
6873.000000;0.638585
6872.000000;0.639516
6871.000000;0.639517
6870.000000;0.639136
6869.000000;0.638517
6868.000000;0.637248
6867.000000;0.635588
6866.000000;0.634772
6865.000000;0.635511
6864.000000;0.637071
6863.000000;0.638456
6862.000000;0.639655
6861.000000;0.641019
6860.000000;0.642166
6859.000000;0.642437
6858.000000;0.642022
6857.000000;0.641824
6856.000000;0.642411
6855.000000;0.643618
6854.000000;0.644950
6853.000000;0.645872
6852.000000;0.646045
6851.000000;0.645687
6850.000000;0.645485
6849.000000;0.645849
6848.000000;0.646603
6847.000000;0.647681
6846.000000;0.649453
6845.000000;0.651835
6844.000000;0.653694
6843.000000;0.653958
6842.000000;0.653054
6841.000000;0.652580
6840.000000;0.653645
6839.000000;0.656025
6838.000000;0.658748
6837.000000;0.660935
6836.000000;0.662242
6835.000000;0.662997
6834.000000;0.663922
6833.000000;0.665483
6832.000000;0.667557
6831.000000;0.669795
6830.000000;0.671971
6829.000000;0.673891
6828.000000;0.675487
6827.000000;0.677237
6826.000000;0.679942
6825.000000;0.683673
6824.000000;0.687406
6823.000000;0.690145
6822.000000;0.691966
6821.000000;0.693556
6820.000000;0.695321
6819.000000;0.697442
6818.000000;0.700152
6817.000000;0.703246
6816.000000;0.705791
6815.000000;0.707144
6814.000000;0.708022
6813.000000;0.709820
6812.000000;0.712972
6811.000000;0.716623
6810.000000;0.719838
6809.000000;0.722563
6808.000000;0.725343
6807.000000;0.728532
6806.000000;0.731864
6805.000000;0.734607
6804.000000;0.736271
6803.000000;0.737346
6802.000000;0.738974
6801.000000;0.741659
6800.000000;0.744777
6799.000000;0.747723
6798.000000;0.750948
6797.000000;0.755131
6796.000000;0.759735
6795.000000;0.763347
6794.000000;0.765430
6793.000000;0.766949
6792.000000;0.769160
6791.000000;0.772431
6790.000000;0.776425
6789.000000;0.780778
6788.000000;0.785192
6787.000000;0.789256
6786.000000;0.792628
6785.000000;0.795329
6784.000000;0.797665
6783.000000;0.799936
6782.000000;0.802323
6781.000000;0.804959
6780.000000;0.807972
6779.000000;0.811379
6778.000000;0.814954
6777.000000;0.818266
6776.000000;0.821027
6775.000000;0.823465
6774.000000;0.826165
6773.000000;0.829436
6772.000000;0.833022
6771.000000;0.836512
6770.000000;0.839772
6769.000000;0.842840
6768.000000;0.845726
6767.000000;0.848587
6766.000000;0.851876
6765.000000;0.855909
6764.000000;0.860386
6763.000000;0.864623
6762.000000;0.868232
6761.000000;0.871369
6760.000000;0.874449
6759.000000;0.877870
6758.000000;0.881882
6757.000000;0.886366
6756.000000;0.890739
6755.000000;0.894386
6754.000000;0.897233
6753.000000;0.899746
6752.000000;0.902407
6751.000000;0.905386
6750.000000;0.908598
6749.000000;0.911795
6748.000000;0.914654
6747.000000;0.917111
6746.000000;0.919585
6745.000000;0.922564
6744.000000;0.925998
6743.000000;0.929364
6742.000000;0.932382
6741.000000;0.935300
6740.000000;0.938387
6739.000000;0.941493
6738.000000;0.944355
6737.000000;0.947106
6736.000000;0.950186
6735.000000;0.953810
6734.000000;0.957753
6733.000000;0.961621
6732.000000;0.965226
6731.000000;0.968693
6730.000000;0.972259
6729.000000;0.975953
6728.000000;0.979437
6727.000000;0.982314
6726.000000;0.984646
6725.000000;0.987061
6724.000000;0.990173
6723.000000;0.993947
6722.000000;0.997745
6721.000000;1.001028
6720.000000;1.003863
6719.000000;1.006725
6718.000000;1.009933
6717.000000;1.013427
6716.000000;1.016986
6715.000000;1.020451
6714.000000;1.023714
6713.000000;1.026727
6712.000000;1.029451
6711.000000;1.032059
6710.000000;1.034499
6709.000000;1.036978
6708.000000;1.040040
6707.000000;1.043494
6706.000000;1.047227
6705.000000;1.050820
6704.000000;1.054149
6703.000000;1.057427
6702.000000;1.060861
6701.000000;1.064201
6700.000000;1.066964
6699.000000;1.069056
6698.000000;1.070993
6697.000000;1.073432
6696.000000;1.076610
6695.000000;1.080235
6694.000000;1.083802
6693.000000;1.086960
6692.000000;1.089656
6691.000000;1.092043
6690.000000;1.094253
6689.000000;1.096356
6688.000000;1.098577
6687.000000;1.101410
6686.000000;1.105257
6685.000000;1.109876
6684.000000;1.114349
6683.000000;1.117788
6682.000000;1.120094
6681.000000;1.122014
6680.000000;1.124509
6679.000000;1.128008
6678.000000;1.132092
6677.000000;1.135793
6676.000000;1.138411
6675.000000;1.140183
6674.000000;1.142076
6673.000000;1.144820
6672.000000;1.148223
6671.000000;1.151505
6670.000000;1.154176
6669.000000;1.156453
6668.000000;1.158848
6667.000000;1.161600
6666.000000;1.164587
6665.000000;1.167622
6664.000000;1.170686
6663.000000;1.173899
6662.000000;1.177343
6661.000000;1.180931
6660.000000;1.184396
6659.000000;1.187447
6658.000000;1.189970
6657.000000;1.192106
6656.000000;1.194120
6655.000000;1.196195
6654.000000;1.198371
6653.000000;1.200668
6652.000000;1.203220
6651.000000;1.206222
6650.000000;1.209686
6649.000000;1.213284
6648.000000;1.216504
6647.000000;1.219053
6646.000000;1.221144
6645.000000;1.223303
6644.000000;1.225866
6643.000000;1.228674
6642.000000;1.231290
6641.000000;1.233493
6640.000000;1.235491
6639.000000;1.237682
6638.000000;1.240287
6637.000000;1.243226
6636.000000;1.246193
6635.000000;1.248800
6634.000000;1.250828
6633.000000;1.252518
6632.000000;1.254508
6631.000000;1.257278
6630.000000;1.260626
6629.000000;1.263881
6628.000000;1.266603
6627.000000;1.268913
6626.000000;1.271123
6625.000000;1.273338
6624.000000;1.275545
6623.000000;1.277818
6622.000000;1.280175
6621.000000;1.282405
6620.000000;1.284325
6619.000000;1.286157
6618.000000;1.288379
6617.000000;1.291166
6616.000000;1.294193
6615.000000;1.297038
6614.000000;1.299608
6613.000000;1.302083
6612.000000;1.304601
6611.000000;1.307149
6610.000000;1.309667
6609.000000;1.312107
6608.000000;1.314392
6607.000000;1.316448
6606.000000;1.318360
6605.000000;1.320407
6604.000000;1.322831
6603.000000;1.325544
6602.000000;1.328135
6601.000000;1.330258
6600.000000;1.332008
6599.000000;1.333842
6598.000000;1.336141
6597.000000;1.338859
6596.000000;1.341578
6595.000000;1.343874
6594.000000;1.345679
6593.000000;1.347342
6592.000000;1.349267
6591.000000;1.351472
6590.000000;1.353607
6589.000000;1.355499
6588.000000;1.357506
6587.000000;1.360056
6586.000000;1.362955
6585.000000;1.365532
6584.000000;1.367495
6583.000000;1.369260
6582.000000;1.371277
6581.000000;1.373414
6580.000000;1.375310
6579.000000;1.377071
6578.000000;1.379169
6577.000000;1.381739
6576.000000;1.384342
6575.000000;1.386479
6574.000000;1.388087
6573.000000;1.389479
6572.000000;1.390985
6571.000000;1.392735
6570.000000;1.394642
6569.000000;1.396549
6568.000000;1.398432
6567.000000;1.400438
6566.000000;1.402665
6565.000000;1.404963
6564.000000;1.407106
6563.000000;1.409114
6562.000000;1.411227
6561.000000;1.413574
6560.000000;1.415992
6559.000000;1.418201
6558.000000;1.420067
6557.000000;1.421703
6556.000000;1.423408
6555.000000;1.425444
6554.000000;1.427780
6553.000000;1.430109
6552.000000;1.432200
6551.000000;1.434141
6550.000000;1.436096
6549.000000;1.437967
6548.000000;1.439524
6547.000000;1.440823
6546.000000;1.442224
6545.000000;1.443990
6544.000000;1.446076
6543.000000;1.448317
6542.000000;1.450585
6541.000000;1.452704
6540.000000;1.454422
6539.000000;1.455630
6538.000000;1.456514
6537.000000;1.457452
6536.000000;1.458802
6535.000000;1.460776
6534.000000;1.463340
6533.000000;1.466197
6532.000000;1.468959
6531.000000;1.471364
6530.000000;1.473263
6529.000000;1.474523
6528.000000;1.475172
6527.000000;1.475603
6526.000000;1.476343
6525.000000;1.477567
6524.000000;1.479060
6523.000000;1.480692
6522.000000;1.482638
6521.000000;1.485003
6520.000000;1.487474
6519.000000;1.489583
6518.000000;1.491219
6517.000000;1.492674
6516.000000;1.494260
6515.000000;1.496038
6514.000000;1.497848
6513.000000;1.499462
6512.000000;1.500756
6511.000000;1.501845
6510.000000;1.503034
6509.000000;1.504540
6508.000000;1.506307
6507.000000;1.508117
6506.000000;1.509841
6505.000000;1.511503
6504.000000;1.513191
6503.000000;1.514964
6502.000000;1.516776
6501.000000;1.518424
6500.000000;1.519655
6499.000000;1.520434
6498.000000;1.521049
6497.000000;1.521868
6496.000000;1.523014
6495.000000;1.524334
6494.000000;1.525676
6493.000000;1.527105
6492.000000;1.528808
6491.000000;1.530820
6490.000000;1.532886
6489.000000;1.534678
6488.000000;1.536171
6487.000000;1.537666
6486.000000;1.539359
6485.000000;1.541015
6484.000000;1.542263
6483.000000;1.543105
6482.000000;1.543906
6481.000000;1.544914
6480.000000;1.546069
6479.000000;1.547303
6478.000000;1.548710
6477.000000;1.550313
6476.000000;1.551929
6475.000000;1.553462
6474.000000;1.555093
6473.000000;1.556981
6472.000000;1.558936
6471.000000;1.560616
6470.000000;1.561936
6469.000000;1.563087
6468.000000;1.564242
6467.000000;1.565465
6466.000000;1.566787
6465.000000;1.568173
6464.000000;1.569445
6463.000000;1.570456
6462.000000;1.571316
6461.000000;1.572300
6460.000000;1.573536
6459.000000;1.574922
6458.000000;1.576301
6457.000000;1.577577
6456.000000;1.578737
6455.000000;1.579918
6454.000000;1.581376
6453.000000;1.583199
6452.000000;1.585109
6451.000000;1.586746
6450.000000;1.588094
6449.000000;1.589386
6448.000000;1.590629
6447.000000;1.591561
6446.000000;1.592129
6445.000000;1.592703
6444.000000;1.593637
6443.000000;1.594861
6442.000000;1.596093
6441.000000;1.597274
6440.000000;1.598562
6439.000000;1.599987
6438.000000;1.601363
6437.000000;1.602536
6436.000000;1.603522
6435.000000;1.604426
6434.000000;1.605384
6433.000000;1.606597
6432.000000;1.608226
6431.000000;1.610125
6430.000000;1.611807
6429.000000;1.612857
6428.000000;1.613360
6427.000000;1.613831
6426.000000;1.614676
6425.000000;1.615826
6424.000000;1.616928
6423.000000;1.617820
6422.000000;1.618723
6421.000000;1.619978
6420.000000;1.621668
6419.000000;1.623520
6418.000000;1.625107
6417.000000;1.626145
6416.000000;1.626653
6415.000000;1.626925
6414.000000;1.627325
6413.000000;1.628056
6412.000000;1.629086
6411.000000;1.630291
6410.000000;1.631598
6409.000000;1.632999
6408.000000;1.634467
6407.000000;1.635928
6406.000000;1.637302
6405.000000;1.638525
6404.000000;1.639573
6403.000000;1.640510
6402.000000;1.641465
6401.000000;1.642494
6400.000000;1.643486
6399.000000;1.644295
6398.000000;1.644977
6397.000000;1.645777
6396.000000;1.646858
6395.000000;1.648094
6394.000000;1.649206
6393.000000;1.650068
6392.000000;1.650814
6391.000000;1.651629
6390.000000;1.652527
6389.000000;1.653384
6388.000000;1.654152
6387.000000;1.654916
6386.000000;1.655744
6385.000000;1.656578
6384.000000;1.657368
6383.000000;1.658229
6382.000000;1.659323
6381.000000;1.660621
6380.000000;1.661914
6379.000000;1.663076
6378.000000;1.664155
6377.000000;1.665159
6376.000000;1.665933
6375.000000;1.666373
6374.000000;1.666659
6373.000000;1.667105
6372.000000;1.667841
6371.000000;1.668748
6370.000000;1.669677
6369.000000;1.670589
6368.000000;1.671493
6367.000000;1.672387
6366.000000;1.673296
6365.000000;1.674277
6364.000000;1.675326
6363.000000;1.676369
6362.000000;1.677348
6361.000000;1.678282
6360.000000;1.679213
6359.000000;1.680132
6358.000000;1.680966
6357.000000;1.681610
6356.000000;1.681991
6355.000000;1.682180
6354.000000;1.682396
6353.000000;1.682836
6352.000000;1.683478
6351.000000;1.684145
6350.000000;1.684765
6349.000000;1.685470
6348.000000;1.686422
6347.000000;1.687603
6346.000000;1.688853
6345.000000;1.690050
6344.000000;1.691192
6343.000000;1.692312
6342.000000;1.693375
6341.000000;1.694258
6340.000000;1.694827
6339.000000;1.695055
6338.000000;1.695059
6337.000000;1.695048
6336.000000;1.695243
6335.000000;1.695803
6334.000000;1.696778
6333.000000;1.698059
6332.000000;1.699381
6331.000000;1.700445
6330.000000;1.701110
6329.000000;1.701508
6328.000000;1.702003
6327.000000;1.702966
6326.000000;1.704452
6325.000000;1.706021
6324.000000;1.706990
6323.000000;1.707021
6322.000000;1.706445
6321.000000;1.705947
6320.000000;1.705947
6319.000000;1.706379
6318.000000;1.706994
6317.000000;1.707741
6316.000000;1.708773
6315.000000;1.710174
6314.000000;1.711753
6313.000000;1.713110
6312.000000;1.713931
6311.000000;1.714267
6310.000000;1.714509
6309.000000;1.715025
6308.000000;1.715819
6307.000000;1.716600
6306.000000;1.717148
6305.000000;1.717513
6304.000000;1.717856
6303.000000;1.718193
6302.000000;1.718407
6301.000000;1.718449
6300.000000;1.718479
6299.000000;1.718777
6298.000000;1.719522
6297.000000;1.720624
6296.000000;1.721782
6295.000000;1.722751
6294.000000;1.723498
6293.000000;1.724067
6292.000000;1.724397
6291.000000;1.724431
6290.000000;1.724349
6289.000000;1.724483
6288.000000;1.724955
6287.000000;1.725570
6286.000000;1.726141
6285.000000;1.726752
6284.000000;1.727556
6283.000000;1.728476
6282.000000;1.729275
6281.000000;1.729875
6280.000000;1.730426
6279.000000;1.731099
6278.000000;1.731905
6277.000000;1.732687
6276.000000;1.733206
6275.000000;1.733330
6274.000000;1.733295
6273.000000;1.733653
6272.000000;1.734749
6271.000000;1.736215
6270.000000;1.737233
6269.000000;1.737361
6268.000000;1.736950
6267.000000;1.736661
6266.000000;1.736796
6265.000000;1.737204
6264.000000;1.737650
6263.000000;1.738054
6262.000000;1.738464
6261.000000;1.738995
6260.000000;1.739779
6259.000000;1.740774
6258.000000;1.741660
6257.000000;1.742113
6256.000000;1.742219
6255.000000;1.742445
6254.000000;1.743111
6253.000000;1.744048
6252.000000;1.744879
6251.000000;1.745503
6250.000000;1.746097
6249.000000;1.746706
6248.000000;1.747065
6247.000000;1.746956
6246.000000;1.746623
6245.000000;1.746657
6244.000000;1.747404
6243.000000;1.748558
6242.000000;1.749416
6241.000000;1.749557
6240.000000;1.749231
6239.000000;1.749054
6238.000000;1.749378
6237.000000;1.750079
6236.000000;1.750909
6235.000000;1.751823
6234.000000;1.752822
6233.000000;1.753653
6232.000000;1.753961
6231.000000;1.753759
6230.000000;1.753546
6229.000000;1.753826
6228.000000;1.754636
6227.000000;1.755614
6226.000000;1.756405
6225.000000;1.756922
6224.000000;1.757271
6223.000000;1.757560
6222.000000;1.757777
6221.000000;1.757815
6220.000000;1.757670
6219.000000;1.757617
6218.000000;1.758072
6217.000000;1.759164
6216.000000;1.760509
6215.000000;1.761538
6214.000000;1.762026
6213.000000;1.762177
6212.000000;1.762266
6211.000000;1.762366
6210.000000;1.762441
6209.000000;1.762509
6208.000000;1.762629
6207.000000;1.762842
6206.000000;1.763191
6205.000000;1.763716
6204.000000;1.764372
6203.000000;1.765000
6202.000000;1.765455
6201.000000;1.765706
6200.000000;1.765802
6199.000000;1.765818
6198.000000;1.765871
6197.000000;1.766117
6196.000000;1.766636
6195.000000;1.767351
6194.000000;1.768076
6193.000000;1.768615
6192.000000;1.768818
6191.000000;1.768667
6190.000000;1.768379
6189.000000;1.768311
6188.000000;1.768658
6187.000000;1.769320
6186.000000;1.770116
6185.000000;1.771011
6184.000000;1.771989
6183.000000;1.772850
6182.000000;1.773350
6181.000000;1.773553
6180.000000;1.773779
6179.000000;1.774180
6178.000000;1.774550
6177.000000;1.774663
6176.000000;1.774617
6175.000000;1.774672
6174.000000;1.774867
6173.000000;1.774981
6172.000000;1.774855
6171.000000;1.774577
6170.000000;1.774356
6169.000000;1.774341
6168.000000;1.774569
6167.000000;1.774982
6166.000000;1.775451
6165.000000;1.775855
6164.000000;1.776210
6163.000000;1.776657
6162.000000;1.777269
6161.000000;1.777940
6160.000000;1.778488
6159.000000;1.778835
6158.000000;1.779047
6157.000000;1.779228
6156.000000;1.779414
6155.000000;1.779557
6154.000000;1.779598
6153.000000;1.779582
6152.000000;1.779701
6151.000000;1.780151
6150.000000;1.780918
6149.000000;1.781749
6148.000000;1.782392
6147.000000;1.782810
6146.000000;1.783092
6145.000000;1.783259
6144.000000;1.783299
6143.000000;1.783339
6142.000000;1.783599
6141.000000;1.784119
6140.000000;1.784681
6139.000000;1.785056
6138.000000;1.785231
6137.000000;1.785309
6136.000000;1.785329
6135.000000;1.785308
6134.000000;1.785362
6133.000000;1.785601
6132.000000;1.785932
6131.000000;1.786135
6130.000000;1.786172
6129.000000;1.786260
6128.000000;1.786574
6127.000000;1.787057
6126.000000;1.787592
6125.000000;1.788227
6124.000000;1.789036
6123.000000;1.789821
6122.000000;1.790183
6121.000000;1.789965
6120.000000;1.789495
6119.000000;1.789277
6118.000000;1.789482
6117.000000;1.789814
6116.000000;1.789862
6115.000000;1.789520
6114.000000;1.789061
6113.000000;1.788866
6112.000000;1.789115
6111.000000;1.789686
6110.000000;1.790299
6109.000000;1.790742
6108.000000;1.791010
6107.000000;1.791245
6106.000000;1.791546
6105.000000;1.791877
6104.000000;1.792167
6103.000000;1.792437
6102.000000;1.792772
6101.000000;1.793154
6100.000000;1.793445
6099.000000;1.793579
6098.000000;1.793712
6097.000000;1.794088
6096.000000;1.794763
6095.000000;1.795544
6094.000000;1.796171
6093.000000;1.796489
6092.000000;1.796471
6091.000000;1.796183
6090.000000;1.795782
6089.000000;1.795462
6088.000000;1.795345
6087.000000;1.795426
6086.000000;1.795645
6085.000000;1.795964
6084.000000;1.796345
6083.000000;1.796717
6082.000000;1.796996
6081.000000;1.797123
6080.000000;1.797083
6079.000000;1.796916
6078.000000;1.796722
6077.000000;1.796605
6076.000000;1.796591
6075.000000;1.796648
6074.000000;1.796811
6073.000000;1.797216
6072.000000;1.797945
6071.000000;1.798864
6070.000000;1.799690
6069.000000;1.800195
6068.000000;1.800315
6067.000000;1.800112
6066.000000;1.799744
6065.000000;1.799447
6064.000000;1.799408
6063.000000;1.799635
6062.000000;1.799991
6061.000000;1.800380
6060.000000;1.800834
6059.000000;1.801413
6058.000000;1.802094
6057.000000;1.802770
6056.000000;1.803289
6055.000000;1.803499
6054.000000;1.803340
6053.000000;1.802951
6052.000000;1.802592
6051.000000;1.802431
6050.000000;1.802435
6049.000000;1.802510
6048.000000;1.802671
6047.000000;1.802975
6046.000000;1.803355
6045.000000;1.803637
6044.000000;1.803791
6043.000000;1.804053
6042.000000;1.804698
6041.000000;1.805666
6040.000000;1.806467
6039.000000;1.806568
6038.000000;1.805918
6037.000000;1.805039
6036.000000;1.804542
6035.000000;1.804581
6034.000000;1.804840
6033.000000;1.805001
6032.000000;1.805070
6031.000000;1.805219
6030.000000;1.805496
6029.000000;1.805802
6028.000000;1.806072
6027.000000;1.806308
6026.000000;1.806460
6025.000000;1.806447
6024.000000;1.806324
6023.000000;1.806328
6022.000000;1.806674
6021.000000;1.807339
6020.000000;1.808094
6019.000000;1.808714
6018.000000;1.809116
6017.000000;1.809318
6016.000000;1.809312
6015.000000;1.809034
6014.000000;1.808497
6013.000000;1.807922
6012.000000;1.807626
6011.000000;1.807715
6010.000000;1.807958
6009.000000;1.808082
6008.000000;1.808131
6007.000000;1.808414
6006.000000;1.809097
6005.000000;1.809975
6004.000000;1.810657
6003.000000;1.810873
6002.000000;1.810581
6001.000000;1.809914
6000.000000;1.809137
5999.000000;1.808585
5998.000000;1.808483
5997.000000;1.808816
5996.000000;1.809381
5995.000000;1.809950
5994.000000;1.810381
5993.000000;1.810638
5992.000000;1.810794
5991.000000;1.810975
5990.000000;1.811237
5989.000000;1.811520
5988.000000;1.811746
5987.000000;1.811928
5986.000000;1.812101
5985.000000;1.812208
5984.000000;1.812136
5983.000000;1.811860
5982.000000;1.811506
5981.000000;1.811244
5980.000000;1.811141
5979.000000;1.811085
5978.000000;1.810861
5977.000000;1.810404
5976.000000;1.809979
5975.000000;1.810004
5974.000000;1.810574
5973.000000;1.811269
5972.000000;1.811552
5971.000000;1.811346
5970.000000;1.811083
5969.000000;1.811187
5968.000000;1.811652
5967.000000;1.812138
5966.000000;1.812350
5965.000000;1.812253
5964.000000;1.812018
5963.000000;1.811883
5962.000000;1.812014
5961.000000;1.812424
5960.000000;1.812968
5959.000000;1.813429
5958.000000;1.813599
5957.000000;1.813360
5956.000000;1.812775
5955.000000;1.812124
5954.000000;1.811747
5953.000000;1.811800
5952.000000;1.812177
5951.000000;1.812670
5950.000000;1.813162
5949.000000;1.813622
5948.000000;1.813986
5947.000000;1.814138
5946.000000;1.814032
5945.000000;1.813801
5944.000000;1.813682
5943.000000;1.813804
5942.000000;1.814026
5941.000000;1.814052
5940.000000;1.813730
5939.000000;1.813237
5938.000000;1.812913
5937.000000;1.812970
5936.000000;1.813388
5935.000000;1.814012
5934.000000;1.814638
5933.000000;1.815013
5932.000000;1.814920
5931.000000;1.814359
5930.000000;1.813599
5929.000000;1.812984
5928.000000;1.812675
5927.000000;1.812601
5926.000000;1.812608
5925.000000;1.812650
5924.000000;1.812809
5923.000000;1.813142
5922.000000;1.813539
5921.000000;1.813820
5920.000000;1.813970
5919.000000;1.814151
5918.000000;1.814397
5917.000000;1.814463
5916.000000;1.814147
5915.000000;1.813662
5914.000000;1.813425
5913.000000;1.813500
5912.000000;1.813513
5911.000000;1.813205
5910.000000;1.812814
5909.000000;1.812759
5908.000000;1.813121
5907.000000;1.813615
5906.000000;1.813939
5905.000000;1.813978
5904.000000;1.813752
5903.000000;1.813350
5902.000000;1.812911
5901.000000;1.812519
5900.000000;1.812130
5899.000000;1.811683
5898.000000;1.811265
5897.000000;1.811047
5896.000000;1.811098
5895.000000;1.811343
5894.000000;1.811675
5893.000000;1.812005
5892.000000;1.812230
5891.000000;1.812273
5890.000000;1.812179
5889.000000;1.812099
5888.000000;1.812141
5887.000000;1.812278
5886.000000;1.812341
5885.000000;1.812100
5884.000000;1.811436
5883.000000;1.810527
5882.000000;1.809798
5881.000000;1.809562
5880.000000;1.809746
5879.000000;1.810049
5878.000000;1.810316
5877.000000;1.810616
5876.000000;1.810967
5875.000000;1.811195
5874.000000;1.811095
5873.000000;1.810664
5872.000000;1.810091
5871.000000;1.809613
5870.000000;1.809391
5869.000000;1.809452
5868.000000;1.809688
5867.000000;1.809946
5866.000000;1.810140
5865.000000;1.810248
5864.000000;1.810265
5863.000000;1.810226
5862.000000;1.810220
5861.000000;1.810281
5860.000000;1.810308
5859.000000;1.810191
5858.000000;1.810004
5857.000000;1.809920
5856.000000;1.809952
5855.000000;1.809913
5854.000000;1.809697
5853.000000;1.809435
5852.000000;1.809291
5851.000000;1.809226
5850.000000;1.809092
5849.000000;1.808875
5848.000000;1.808733
5847.000000;1.808788
5846.000000;1.808959
5845.000000;1.809021
5844.000000;1.808808
5843.000000;1.808342
5842.000000;1.807804
5841.000000;1.807380
5840.000000;1.807151
5839.000000;1.807111
5838.000000;1.807229
5837.000000;1.807420
5836.000000;1.807507
5835.000000;1.807318
5834.000000;1.806844
5833.000000;1.806256
5832.000000;1.805762
5831.000000;1.805493
5830.000000;1.805451
5829.000000;1.805492
5828.000000;1.805398
5827.000000;1.805071
5826.000000;1.804646
5825.000000;1.804302
5824.000000;1.804008
5823.000000;1.803596
5822.000000;1.803079
5821.000000;1.802723
5820.000000;1.802748
5819.000000;1.803089
5818.000000;1.803484
5817.000000;1.803666
5816.000000;1.803437
5815.000000;1.802769
5814.000000;1.801915
5813.000000;1.801282
5812.000000;1.801040
5811.000000;1.800963
5810.000000;1.800746
5809.000000;1.800360
5808.000000;1.799976
5807.000000;1.799684
5806.000000;1.799452
5805.000000;1.799284
5804.000000;1.799209
5803.000000;1.799140
5802.000000;1.798918
5801.000000;1.798525
5800.000000;1.798133
5799.000000;1.797916
5798.000000;1.797889
5797.000000;1.797927
5796.000000;1.797848
5795.000000;1.797530
5794.000000;1.797026
5793.000000;1.796538
5792.000000;1.796163
5791.000000;1.795723
5790.000000;1.794998
5789.000000;1.794082
5788.000000;1.793362
5787.000000;1.793116
5786.000000;1.793277
5785.000000;1.793597
5784.000000;1.793866
5783.000000;1.793901
5782.000000;1.793512
5781.000000;1.792671
5780.000000;1.791672
5779.000000;1.790953
5778.000000;1.790713
5777.000000;1.790786
5776.000000;1.790879
5775.000000;1.790856
5774.000000;1.790739
5773.000000;1.790539
5772.000000;1.790202
5771.000000;1.789723
5770.000000;1.789208
5769.000000;1.788748
5768.000000;1.788302
5767.000000;1.787807
5766.000000;1.787351
5765.000000;1.787089
5764.000000;1.786987
5763.000000;1.786774
5762.000000;1.786221
5761.000000;1.785356
5760.000000;1.784342
5759.000000;1.783286
5758.000000;1.782301
5757.000000;1.781608
5756.000000;1.781384
5755.000000;1.781505
5754.000000;1.781638
5753.000000;1.781570
5752.000000;1.781335
5751.000000;1.780992
5750.000000;1.780469
5749.000000;1.779720
5748.000000;1.778890
5747.000000;1.778237
5746.000000;1.777903
5745.000000;1.777819
5744.000000;1.777784
5743.000000;1.777600
5742.000000;1.777185
5741.000000;1.776597
5740.000000;1.775939
5739.000000;1.775279
5738.000000;1.774685
5737.000000;1.774273
5736.000000;1.774095
5735.000000;1.774020
5734.000000;1.773846
5733.000000;1.773513
5732.000000;1.773079
5731.000000;1.772509
5730.000000;1.771711
5729.000000;1.770785
5728.000000;1.769996
5727.000000;1.769392
5726.000000;1.768680
5725.000000;1.767683
5724.000000;1.766718
5723.000000;1.766245
5722.000000;1.766244
5721.000000;1.766211
5720.000000;1.765744
5719.000000;1.764895
5718.000000;1.763920
5717.000000;1.762971
5716.000000;1.762129
5715.000000;1.761506
5714.000000;1.761091
5713.000000;1.760635
5712.000000;1.759904
5711.000000;1.759005
5710.000000;1.758282
5709.000000;1.757866
5708.000000;1.757484
5707.000000;1.756765
5706.000000;1.755714
5705.000000;1.754693
5704.000000;1.754180
5703.000000;1.754200
5702.000000;1.754320
5701.000000;1.754186
5700.000000;1.753580
5699.000000;1.752609
5698.000000;1.751481
5697.000000;1.750394
5696.000000;1.749489
5695.000000;1.748860
5694.000000;1.748492
5693.000000;1.748220
5692.000000;1.747806
5691.000000;1.747114
5690.000000;1.746215
5689.000000;1.745321
5688.000000;1.744590
5687.000000;1.743995
5686.000000;1.743394
5685.000000;1.742730
5684.000000;1.742114
5683.000000;1.741691
5682.000000;1.741484
5681.000000;1.741378
5680.000000;1.741196
5679.000000;1.740734
5678.000000;1.739814
5677.000000;1.738452
5676.000000;1.736980
5675.000000;1.735847
5674.000000;1.735234
5673.000000;1.734921
5672.000000;1.734561
5671.000000;1.734002
5670.000000;1.733318
5669.000000;1.732643
5668.000000;1.732055
5667.000000;1.731545
5666.000000;1.730991
5665.000000;1.730210
5664.000000;1.729165
5663.000000;1.728084
5662.000000;1.727269
5661.000000;1.726799
5660.000000;1.726482
5659.000000;1.726098
5658.000000;1.725598
5657.000000;1.725071
5656.000000;1.724601
5655.000000;1.724194
5654.000000;1.723785
5653.000000;1.723298
5652.000000;1.722732
5651.000000;1.722188
5650.000000;1.721761
5649.000000;1.721416
5648.000000;1.721039
5647.000000;1.720588
5646.000000;1.720095
5645.000000;1.719513
5644.000000;1.718690
5643.000000;1.717587
5642.000000;1.716427
5641.000000;1.715536
5640.000000;1.715038
5639.000000;1.714774
5638.000000;1.714501
5637.000000;1.714132
5636.000000;1.713772
5635.000000;1.713572
5634.000000;1.713573
5633.000000;1.713681
5632.000000;1.713757
5631.000000;1.713693
5630.000000;1.713419
5629.000000;1.712914
5628.000000;1.712279
5627.000000;1.711705
5626.000000;1.711286
5625.000000;1.710899
5624.000000;1.710385
5623.000000;1.709799
5622.000000;1.709329
5621.000000;1.708988
5620.000000;1.708574
5619.000000;1.707971
5618.000000;1.707325
5617.000000;1.706808
5616.000000;1.706379
5615.000000;1.705909
5614.000000;1.705436
5613.000000;1.705131
5612.000000;1.705071
5611.000000;1.705170
5610.000000;1.705303
5609.000000;1.705376
5608.000000;1.705321
5607.000000;1.705151
5606.000000;1.704986
5605.000000;1.704919
5604.000000;1.704882
5603.000000;1.704746
5602.000000;1.704520
5601.000000;1.704295
5600.000000;1.704041
5599.000000;1.703660
5598.000000;1.703248
5597.000000;1.703107
5596.000000;1.703400
5595.000000;1.703921
5594.000000;1.704315
5593.000000;1.704424
5592.000000;1.704326
5591.000000;1.704124
5590.000000;1.703837
5589.000000;1.703489
5588.000000;1.703190
5587.000000;1.703083
5586.000000;1.703238
5585.000000;1.703578
5584.000000;1.703900
5583.000000;1.704003
5582.000000;1.703821
5581.000000;1.703464
5580.000000;1.703119
5579.000000;1.702950
5578.000000;1.703015
5577.000000;1.703203
5576.000000;1.703252
5575.000000;1.702977
5574.000000;1.702516
5573.000000;1.702276
5572.000000;1.702562
5571.000000;1.703265
5570.000000;1.703939
5569.000000;1.704151
5568.000000;1.703791
5567.000000;1.703161
5566.000000;1.702807
5565.000000;1.703107
5564.000000;1.703925
5563.000000;1.704699
5562.000000;1.704999
5561.000000;1.704953
5560.000000;1.705037
5559.000000;1.705539
5558.000000;1.706299
5557.000000;1.706939
5556.000000;1.707191
5555.000000;1.707034
5554.000000;1.706612
5553.000000;1.706098
5552.000000;1.705586
5551.000000;1.705124
5550.000000;1.704806
5549.000000;1.704749
5548.000000;1.704914
5547.000000;1.705066
5546.000000;1.705063
5545.000000;1.705109
5544.000000;1.705568
5543.000000;1.706505
5542.000000;1.707509
5541.000000;1.707973
5540.000000;1.707533
5539.000000;1.706291
5538.000000;1.704756
5537.000000;1.703571
5536.000000;1.703163
5535.000000;1.703540
5534.000000;1.704368
5533.000000;1.705243
5532.000000;1.705920
5531.000000;1.706369
5530.000000;1.706724
5529.000000;1.707166
5528.000000;1.707750
5527.000000;1.708307
5526.000000;1.708589
5525.000000;1.708586
5524.000000;1.708425
5523.000000;1.708525
5522.000000;1.708606
5521.000000;1.709035
5520.000000;1.708383
5519.000000;1.706000
5518.000000;1.706752
5517.000000;1.706749
5516.000000;1.706797
5515.000000;1.706678
5514.000000;1.706775
5513.000000;1.706911
5512.000000;1.707023
5511.000000;1.706844
5510.000000;1.706723
5509.000000;1.706310
5508.000000;1.706654
5507.000000;1.708624
5506.000000;1.708023
5505.000000;1.708259
5504.000000;1.708456
5503.000000;1.708575
5502.000000;1.708338
5501.000000;1.708273
5500.000000;1.708932
5499.000000;1.710360
5498.000000;1.711857
5497.000000;1.712621
5496.000000;1.712415
5495.000000;1.711614
5494.000000;1.710690
5493.000000;1.709759
5492.000000;1.708639
5491.000000;1.707209
5490.000000;1.705658
5489.000000;1.704459
5488.000000;1.704040
5487.000000;1.704340
5486.000000;1.704771
5485.000000;1.704739
5484.000000;1.704288
5483.000000;1.704156
5482.000000;1.704928
5481.000000;1.706155
5480.000000;1.706662
5479.000000;1.705798
5478.000000;1.704184
5477.000000;1.703142
5476.000000;1.703508
5475.000000;1.705032
5474.000000;1.706695
5473.000000;1.707428
5472.000000;1.706778
5471.000000;1.705119
5470.000000;1.703317
5469.000000;1.702189
5468.000000;1.702042
5467.000000;1.702423
5466.000000;1.702486
5465.000000;1.701805
5464.000000;1.700803
5463.000000;1.700274
5462.000000;1.700527
5461.000000;1.701085
5460.000000;1.701229
5459.000000;1.700708
5458.000000;1.699813
5457.000000;1.698909
5456.000000;1.697989
5455.000000;1.696743
5454.000000;1.695153
5453.000000;1.693761
5452.000000;1.693103
5451.000000;1.693018
5450.000000;1.692788
5449.000000;1.692078
5448.000000;1.691355
5447.000000;1.691299
5446.000000;1.691392
5445.000000;1.690982
5444.000000;1.689042
5443.000000;1.687720
5442.000000;1.691221
5441.000000;1.689597
5440.000000;1.688412
5439.000000;1.686992
5438.000000;1.685981
5437.000000;1.685309
5436.000000;1.685019
5435.000000;1.684753
5434.000000;1.684190
5433.000000;1.683224
5432.000000;1.681969
5431.000000;1.680672
5430.000000;1.679383
5429.000000;1.678315
5428.000000;1.678097
5427.000000;1.677170
5426.000000;1.675966
5425.000000;1.674602
5424.000000;1.673084
5423.000000;1.671267
5422.000000;1.669293
5421.000000;1.667494
5420.000000;1.666001
5419.000000;1.664606
5418.000000;1.663160
5417.000000;1.661890
5416.000000;1.661022
5415.000000;1.660263
5414.000000;1.659050
5413.000000;1.657290
5412.000000;1.655540
5411.000000;1.654240
5410.000000;1.653149
5409.000000;1.651729
5408.000000;1.649720
5407.000000;1.647285
5406.000000;1.644757
5405.000000;1.642330
5404.000000;1.640004
5403.000000;1.637537
5402.000000;1.634681
5401.000000;1.631539
5400.000000;1.628469
5399.000000;1.625694
5398.000000;1.623213
5397.000000;1.621060
5396.000000;1.619277
5395.000000;1.617651
5394.000000;1.615852
5393.000000;1.613829
5392.000000;1.611764
5391.000000;1.609561
5390.000000;1.606783
5389.000000;1.603282
5388.000000;1.599441
5387.000000;1.595549
5386.000000;1.591369
5385.000000;1.586716
5384.000000;1.582130
5383.000000;1.578422
5382.000000;1.575693
5381.000000;1.573216
5380.000000;1.570343
5379.000000;1.567094
5378.000000;1.563724
5377.000000;1.560220
5376.000000;1.556426
5375.000000;1.552284
5374.000000;1.547841
5373.000000;1.543214
5372.000000;1.538592
5371.000000;1.534073
5370.000000;1.529451
5369.000000;1.524273
5368.000000;1.518192
5367.000000;1.511270
5366.000000;1.503847
5365.000000;1.496242
5364.000000;1.488566
5363.000000;1.480840
5362.000000;1.473347
5361.000000;1.466720
5360.000000;1.461252
5359.000000;1.455981
5358.000000;1.449180
5357.000000;1.440127
5356.000000;1.429792
5355.000000;1.419483
5354.000000;1.409472
5353.000000;1.399421
5352.000000;1.389614
5351.000000;1.380700
5350.000000;1.372127
5349.000000;1.362035
5348.000000;1.349343
5347.000000;1.335212
5346.000000;1.321897
5345.000000;1.310545
5344.000000;1.300423
5343.000000;1.289847
5342.000000;1.277569
5341.000000;1.263622
5340.000000;1.248984
5339.000000;1.234394
5338.000000;1.219707
5337.000000;1.204247
5336.000000;1.187675
5335.000000;1.170460
5334.000000;1.153343
5333.000000;1.136462
5332.000000;1.119277
5331.000000;1.101263
5330.000000;1.082416
5329.000000;1.063031
5328.000000;1.043117
5327.000000;1.022251
5326.000000;1.000049
5325.000000;0.976669
5324.000000;0.952753
5323.000000;0.928741
5322.000000;0.904301
5321.000000;0.878654
5320.000000;0.851407
5319.000000;0.822642
5318.000000;0.792330
5317.000000;0.760310
5316.000000;0.726887
5315.000000;0.692752
5314.000000;0.658090
5313.000000;0.622470
5312.000000;0.585723
5311.000000;0.548051
5310.000000;0.509111
5309.000000;0.468057
5308.000000;0.424748
5307.000000;0.379842
5306.000000;0.333418
5305.000000;0.284897
5304.000000;0.234661
5303.000000;0.184139
5302.000000;0.134130
5301.000000;0.085167
5300.000000;0.039552
5299.000000;0.000688
5298.000000;-0.029021
5297.000000;-0.047855
5296.000000;-0.055188
5295.000000;-0.053145
5294.000000;-0.044151
5293.000000;-0.028479
5292.000000;-0.007206
5291.000000;0.015671
5290.000000;0.036117
5289.000000;0.052550
5288.000000;0.065636
5287.000000;0.077477
5286.000000;0.090109
5285.000000;0.103220
5284.000000;0.114322
5283.000000;0.122508
5282.000000;0.130162
5281.000000;0.139316
5280.000000;0.148512
5279.000000;0.155291
5278.000000;0.159790
5277.000000;0.163740
5276.000000;0.167585
5275.000000;0.170822
5274.000000;0.173785
5273.000000;0.177031
5272.000000;0.180189
5271.000000;0.183092
5270.000000;0.186633
5269.000000;0.190920
5268.000000;0.194378
5267.000000;0.196493
5266.000000;0.199369
5265.000000;0.204315
5264.000000;0.208928
5263.000000;0.210148
5262.000000;0.208469
5261.000000;0.206483
5260.000000;0.204914
5259.000000;0.203101
5258.000000;0.202176
5257.000000;0.204398
5256.000000;0.209489
5255.000000;0.214270
5254.000000;0.216075
5253.000000;0.214995
5252.000000;0.213216
5251.000000;0.213371
5250.000000;0.216784
5249.000000;0.221757
5248.000000;0.224481
5247.000000;0.223248
5246.000000;0.220656
5245.000000;0.220033
5244.000000;0.221199
5243.000000;0.221804
5242.000000;0.221295
5241.000000;0.220986
5240.000000;0.221177
5239.000000;0.220846
5238.000000;0.219825
5237.000000;0.218998
5236.000000;0.218501
5235.000000;0.217794
5234.000000;0.217324
5233.000000;0.218134
5232.000000;0.219797
5231.000000;0.220579
5230.000000;0.219907
5229.000000;0.219268
5228.000000;0.220259
5227.000000;0.222854
5226.000000;0.225806
5225.000000;0.227734
5224.000000;0.227672
5223.000000;0.225548
5222.000000;0.222624
5221.000000;0.220621
5220.000000;0.220033
5219.000000;0.219919
5218.000000;0.219289
5217.000000;0.218067
5216.000000;0.216867
5215.000000;0.216585
5214.000000;0.218007
5213.000000;0.220946
5212.000000;0.223849
5211.000000;0.225294
5210.000000;0.225793
5209.000000;0.227038
5208.000000;0.229439
5207.000000;0.231541
5206.000000;0.231848
5205.000000;0.230444
5204.000000;0.228712
5203.000000;0.227857
5202.000000;0.227844
5201.000000;0.227661
5200.000000;0.226754
5199.000000;0.226171
5198.000000;0.227497
5197.000000;0.230499
5196.000000;0.232904
5195.000000;0.233070
5194.000000;0.231899
5193.000000;0.231338
5192.000000;0.231883
5191.000000;0.232490
5190.000000;0.232281
5189.000000;0.231308
5188.000000;0.230097
5187.000000;0.229295
5186.000000;0.229379
5185.000000;0.229989
5184.000000;0.230031
5183.000000;0.229056
5182.000000;0.227977
5181.000000;0.227806
5180.000000;0.228340
5179.000000;0.228715
5178.000000;0.228657
5177.000000;0.228371
5176.000000;0.227729
5175.000000;0.226556
5174.000000;0.225425
5173.000000;0.225268
5172.000000;0.226277
5171.000000;0.227780
5170.000000;0.228996
5169.000000;0.229468
5168.000000;0.229201
5167.000000;0.228899
5166.000000;0.229636
5165.000000;0.231736
5164.000000;0.234232
5163.000000;0.235779
5162.000000;0.235752
5161.000000;0.234331
5160.000000;0.232250
5159.000000;0.230744
5158.000000;0.230934
5157.000000;0.232620
5156.000000;0.234196
5155.000000;0.234243
5154.000000;0.232802
5153.000000;0.230868
5152.000000;0.229328
5151.000000;0.228775
5150.000000;0.229519
5149.000000;0.231158
5148.000000;0.232680
5147.000000;0.233492
5146.000000;0.233802
5145.000000;0.233679
5144.000000;0.232562
5143.000000;0.230352
5142.000000;0.228260
5141.000000;0.227725
5140.000000;0.228878
5139.000000;0.230652
5138.000000;0.231960
5137.000000;0.232323
5136.000000;0.231865
5135.000000;0.231179
5134.000000;0.230715
5133.000000;0.230028
5132.000000;0.228320
5131.000000;0.225975
5130.000000;0.224678
5129.000000;0.225503
5128.000000;0.227664
5127.000000;0.229715
5126.000000;0.231144
5125.000000;0.232142
5124.000000;0.232596
5123.000000;0.232279
5122.000000;0.231591
5121.000000;0.231255
5120.000000;0.231489
5119.000000;0.231996
5118.000000;0.232502
5117.000000;0.232857
5116.000000;0.232918
5115.000000;0.232765
5114.000000;0.232714
5113.000000;0.232829
5112.000000;0.232822
5111.000000;0.232640
5110.000000;0.232593
5109.000000;0.232661
5108.000000;0.232321
5107.000000;0.231419
5106.000000;0.230551
5105.000000;0.230225
5104.000000;0.230259
5103.000000;0.230351
5102.000000;0.230617
5101.000000;0.231207
5100.000000;0.231977
5099.000000;0.232797
5098.000000;0.233598
5097.000000;0.233926
5096.000000;0.233187
5095.000000;0.231613
5094.000000;0.230167
5093.000000;0.229154
5092.000000;0.227888
5091.000000;0.226192
5090.000000;0.225215
5089.000000;0.225946
5088.000000;0.227736
5087.000000;0.229135
5086.000000;0.229533
5085.000000;0.229304
5084.000000;0.229022
5083.000000;0.229213
5082.000000;0.230277
5081.000000;0.231961
5080.000000;0.233398
5079.000000;0.234180
5078.000000;0.234812
5077.000000;0.235574
5076.000000;0.235588
5075.000000;0.233807
5074.000000;0.230494
5073.000000;0.227078
5072.000000;0.224885
5071.000000;0.224514
5070.000000;0.225904
5069.000000;0.228270
5068.000000;0.230289
5067.000000;0.231085
5066.000000;0.230877
5065.000000;0.230327
5064.000000;0.229634
5063.000000;0.228699
5062.000000;0.227767
5061.000000;0.227330
5060.000000;0.227578
5059.000000;0.228299
5058.000000;0.229106
5057.000000;0.229560
5056.000000;0.229451
5055.000000;0.229194
5054.000000;0.229473
5053.000000;0.230269
5052.000000;0.230812
5051.000000;0.230701
5050.000000;0.230406
5049.000000;0.230412
5048.000000;0.230568
5047.000000;0.230629
5046.000000;0.230694
5045.000000;0.230660
5044.000000;0.230000
5043.000000;0.228619
5042.000000;0.227266
5041.000000;0.226568
5040.000000;0.226305
5039.000000;0.226191
5038.000000;0.226604
5037.000000;0.227849
5036.000000;0.229342
5035.000000;0.230319
5034.000000;0.230818
5033.000000;0.231179
5032.000000;0.231119
5031.000000;0.230133
5030.000000;0.228514
5029.000000;0.227199
5028.000000;0.226677
5027.000000;0.226659
5026.000000;0.226685
5025.000000;0.226497
5024.000000;0.226026
5023.000000;0.225513
5022.000000;0.225455
5021.000000;0.226040
5020.000000;0.226769
5019.000000;0.226969
5018.000000;0.226505
5017.000000;0.225696
5016.000000;0.224779
5015.000000;0.223745
5014.000000;0.222494
5013.000000;0.220979
5012.000000;0.219407
5011.000000;0.218322
5010.000000;0.218147
5009.000000;0.218581
5008.000000;0.219045
5007.000000;0.219447
5006.000000;0.220243
5005.000000;0.221052
5004.000000;0.220764
5003.000000;0.219116
5002.000000;0.217106
5001.000000;0.215640
5000.000000;0.214496
4999.000000;0.213346
4998.000000;0.212778
4997.000000;0.213353
4996.000000;0.214317
4995.000000;0.214359
4994.000000;0.213320
4993.000000;0.212189
4992.000000;0.211580
4991.000000;0.211086
4990.000000;0.210166
4989.000000;0.208945
4988.000000;0.207944
4987.000000;0.207480
4986.000000;0.207471
4985.000000;0.207547
4984.000000;0.207240
4983.000000;0.206268
4982.000000;0.204625
4981.000000;0.202407
4980.000000;0.199778
4979.000000;0.197223
4978.000000;0.195447
4977.000000;0.194779
4976.000000;0.194875
4975.000000;0.195081
4974.000000;0.194849
4973.000000;0.193854
4972.000000;0.192197
4971.000000;0.190570
4970.000000;0.189693
4969.000000;0.189428
4968.000000;0.188932
4967.000000;0.187766
4966.000000;0.186288
4965.000000;0.184812
4964.000000;0.183111
4963.000000;0.181084
4962.000000;0.179238
4961.000000;0.178050
4960.000000;0.177350
4959.000000;0.176738
4958.000000;0.176104
4957.000000;0.175327
4956.000000;0.174061
4955.000000;0.172269
4954.000000;0.170494
4953.000000;0.169117
4952.000000;0.167756
4951.000000;0.165774
4950.000000;0.163025
4949.000000;0.159854
4948.000000;0.156796
4947.000000;0.154555
4946.000000;0.153665
4945.000000;0.153727
4944.000000;0.153491
4943.000000;0.152179
4942.000000;0.150353
4941.000000;0.148992
4940.000000;0.148133
4939.000000;0.147025
4938.000000;0.145294
4937.000000;0.143325
4936.000000;0.141587
4935.000000;0.140055
4934.000000;0.138214
4933.000000;0.135473
4932.000000;0.131769
4931.000000;0.127918
4930.000000;0.125155
4929.000000;0.124102
4928.000000;0.124290
4927.000000;0.124587
4926.000000;0.123777
4925.000000;0.121018
4924.000000;0.116564
4923.000000;0.112162
4922.000000;0.109838
4921.000000;0.109808
4920.000000;0.110237
4919.000000;0.109361
4918.000000;0.107160
4917.000000;0.104700
4916.000000;0.102606
4915.000000;0.100734
4914.000000;0.098724
4913.000000;0.096224
4912.000000;0.092935
4911.000000;0.089065
4910.000000;0.085530
4909.000000;0.083168
4908.000000;0.081838
4907.000000;0.080666
4906.000000;0.078982
4905.000000;0.076681
4904.000000;0.074014
4903.000000;0.071422
4902.000000;0.069167
4901.000000;0.066827
4900.000000;0.063519
4899.000000;0.059089
4898.000000;0.054852
4897.000000;0.052577
4896.000000;0.052725
4895.000000;0.053998
4894.000000;0.054621
4893.000000;0.053751
4892.000000;0.051785
4891.000000;0.049799
4890.000000;0.048872
4889.000000;0.049591
4888.000000;0.051762
4887.000000;0.054504
4886.000000;0.056758
4885.000000;0.057897
4884.000000;0.057985
4883.000000;0.057601
4882.000000;0.057465
4881.000000;0.058083
4880.000000;0.059482
4879.000000;0.061191
4878.000000;0.062652
4877.000000;0.063787
4876.000000;0.064980
4875.000000;0.066500
4874.000000;0.068300
4873.000000;0.070455
4872.000000;0.073306
4871.000000;0.076915
4870.000000;0.080895
4869.000000;0.085117
4868.000000;0.090034
4867.000000;0.095775
4866.000000;0.101474
4865.000000;0.106176
4864.000000;0.109987
4863.000000;0.113785
4862.000000;0.118105
4861.000000;0.122932
4860.000000;0.128297
4859.000000;0.134215
4858.000000;0.140207
4857.000000;0.145758
4856.000000;0.151266
4855.000000;0.157817
4854.000000;0.165763
4853.000000;0.174091
4852.000000;0.181548
4851.000000;0.188026
4850.000000;0.194488
4849.000000;0.201684
4848.000000;0.209304
4847.000000;0.216510
4846.000000;0.223090
4845.000000;0.229695
4844.000000;0.236912
4843.000000;0.244513
4842.000000;0.251943
4841.000000;0.259198
4840.000000;0.266728
4839.000000;0.274652
4838.000000;0.282617
4837.000000;0.290323
4836.000000;0.297714
4835.000000;0.304747
4834.000000;0.311528
4833.000000;0.318566
4832.000000;0.326261
4831.000000;0.334156
4830.000000;0.341396
4829.000000;0.347985
4828.000000;0.354864
4827.000000;0.362594
4826.000000;0.370668
4825.000000;0.378374
4824.000000;0.385596
4823.000000;0.392411
4822.000000;0.398678
4821.000000;0.404616
4820.000000;0.411158
4819.000000;0.419028
4818.000000;0.427747
4817.000000;0.436124
4816.000000;0.443491
4815.000000;0.450011
4814.000000;0.456132
4813.000000;0.462277
4812.000000;0.468889
4811.000000;0.476209
4810.000000;0.483962
4809.000000;0.491648
4808.000000;0.499136
4807.000000;0.506641
4806.000000;0.514168
4805.000000;0.521329
4804.000000;0.527826
4803.000000;0.533853
4802.000000;0.539877
4801.000000;0.546165
4800.000000;0.552636
4799.000000;0.559080
4798.000000;0.565398
4797.000000;0.571650
4796.000000;0.577947
4795.000000;0.584399
4794.000000;0.591156
4793.000000;0.598313
4792.000000;0.605659
4791.000000;0.612651
4790.000000;0.618858
4789.000000;0.624388
4788.000000;0.629689
4787.000000;0.635020
4786.000000;0.640334
4785.000000;0.645646
4784.000000;0.651210
4783.000000;0.657211
4782.000000;0.663504
4781.000000;0.669796
4780.000000;0.675926
4779.000000;0.681889
4778.000000;0.687712
4777.000000;0.693396
4776.000000;0.698909
4775.000000;0.704228
4774.000000;0.709465
4773.000000;0.714918
4772.000000;0.720840
4771.000000;0.727131
4770.000000;0.733354
4769.000000;0.739029
4768.000000;0.743858
4767.000000;0.747796
4766.000000;0.751178
4765.000000;0.754718
4764.000000;0.759094
4763.000000;0.764406
4762.000000;0.770171
4761.000000;0.775861
4760.000000;0.781297
4759.000000;0.786517
4758.000000;0.791513
4757.000000;0.796246
4756.000000;0.800804
4755.000000;0.805433
4754.000000;0.810402
4753.000000;0.815798
4752.000000;0.821375
4751.000000;0.826669
4750.000000;0.831400
4749.000000;0.835690
4748.000000;0.839804
4747.000000;0.843811
4746.000000;0.847699
4745.000000;0.851674
4744.000000;0.856052
4743.000000;0.860885
4742.000000;0.865935
4741.000000;0.871009
4740.000000;0.876013
4739.000000;0.880689
4738.000000;0.884646
4737.000000;0.887838
4736.000000;0.890797
4735.000000;0.894220
4734.000000;0.898427
4733.000000;0.903235
4732.000000;0.908174
4731.000000;0.912759
4730.000000;0.916807
4729.000000;0.920592
4728.000000;0.924567
4727.000000;0.928862
4726.000000;0.933185
4725.000000;0.937206
4724.000000;0.940831
4723.000000;0.944098
4722.000000;0.947078
4721.000000;0.950012
4720.000000;0.953289
4719.000000;0.957076
4718.000000;0.961089
4717.000000;0.964882
4716.000000;0.968324
4715.000000;0.971698
4714.000000;0.975406
4713.000000;0.979572
4712.000000;0.983829
4711.000000;0.987523
4710.000000;0.990305
4709.000000;0.992579
4708.000000;0.995131
4707.000000;0.998312
4706.000000;1.001816
4705.000000;1.005288
4704.000000;1.008818
4703.000000;1.012639
4702.000000;1.016629
4701.000000;1.020393
4700.000000;1.023690
4699.000000;1.026553
4698.000000;1.029126
4697.000000;1.031626
4696.000000;1.034336
4695.000000;1.037366
4694.000000;1.040472
4693.000000;1.043334
4692.000000;1.045964
4691.000000;1.048608
4690.000000;1.051289
4689.000000;1.053727
4688.000000;1.055769
4687.000000;1.057687
4686.000000;1.059928
4685.000000;1.062643
4684.000000;1.065530
4683.000000;1.068114
4682.000000;1.070190
4681.000000;1.072035
4680.000000;1.074145
4679.000000;1.076707
4678.000000;1.079437
4677.000000;1.082022
4676.000000;1.084601
4675.000000;1.087582
4674.000000;1.091018
4673.000000;1.094431
4672.000000;1.097362
4671.000000;1.099916
4670.000000;1.102594
4669.000000;1.105649
4668.000000;1.108739
4667.000000;1.111248
4666.000000;1.112874
4665.000000;1.113902
4664.000000;1.114973
4663.000000;1.116621
4662.000000;1.118986
4661.000000;1.121864
4660.000000;1.124947
4659.000000;1.127986
4658.000000;1.130811
4657.000000;1.133304
4656.000000;1.135432
4655.000000;1.137283
4654.000000;1.139043
4653.000000;1.140890
4652.000000;1.142874
4651.000000;1.144877
4650.000000;1.146713
4649.000000;1.148282
4648.000000;1.149651
4647.000000;1.150995
4646.000000;1.152469
4645.000000;1.154109
4644.000000;1.155816
4643.000000;1.157439
4642.000000;1.158902
4641.000000;1.160295
4640.000000;1.161814
4639.000000;1.163590
4638.000000;1.165559
4637.000000;1.167476
4636.000000;1.169109
4635.000000;1.170462
4634.000000;1.171831
4633.000000;1.173590
4632.000000;1.175858
4631.000000;1.178387
4630.000000;1.180798
4629.000000;1.182873
4628.000000;1.184613
4627.000000;1.186070
4626.000000;1.187228
4625.000000;1.188066
4624.000000;1.188697
4623.000000;1.189454
4622.000000;1.190778
4621.000000;1.192873
4620.000000;1.195375
4619.000000;1.197532
4618.000000;1.198914
4617.000000;1.199870
4616.000000;1.201096
4615.000000;1.202815
4614.000000;1.204606
4613.000000;1.205997
4612.000000;1.206933
4611.000000;1.207642
4610.000000;1.208373
4609.000000;1.209432
4608.000000;1.211157
4607.000000;1.213555
4606.000000;1.216051
4605.000000;1.217914
4604.000000;1.218916
4603.000000;1.219394
4602.000000;1.219705
4601.000000;1.219912
4600.000000;1.220020
4599.000000;1.220276
4598.000000;1.221059
4597.000000;1.222556
4596.000000;1.224578
4595.000000;1.226667
4594.000000;1.228378
4593.000000;1.229554
4592.000000;1.230422
4591.000000;1.231346
4590.000000;1.232447
4589.000000;1.233479
4588.000000;1.234126
4587.000000;1.234366
4586.000000;1.234492
4585.000000;1.234837
4584.000000;1.235577
4583.000000;1.236746
4582.000000;1.238292
4581.000000;1.240043
4580.000000;1.241701
4579.000000;1.243015
4578.000000;1.243929
4577.000000;1.244505
4576.000000;1.244762
4575.000000;1.244786
4574.000000;1.244910
4573.000000;1.245538
4572.000000;1.246642
4571.000000;1.247679
4570.000000;1.248174
4569.000000;1.248259
4568.000000;1.248421
4567.000000;1.248870
4566.000000;1.249449
4565.000000;1.250048
4564.000000;1.250760
4563.000000;1.251600
4562.000000;1.252425
4561.000000;1.253241
4560.000000;1.254267
4559.000000;1.255508
4558.000000;1.256540
4557.000000;1.256975
4556.000000;1.256980
4555.000000;1.257064
4554.000000;1.257474
4553.000000;1.258065
4552.000000;1.258656
4551.000000;1.259205
4550.000000;1.259643
4549.000000;1.259816
4548.000000;1.259698
4547.000000;1.259506
4546.000000;1.259508
4545.000000;1.259802
4544.000000;1.260288
4543.000000;1.260744
4542.000000;1.260951
4541.000000;1.260908
4540.000000;1.260968
4539.000000;1.261567
4538.000000;1.262716
4537.000000;1.263840
4536.000000;1.264266
4535.000000;1.263854
4534.000000;1.263078
4533.000000;1.262525
4532.000000;1.262393
4531.000000;1.262467
4530.000000;1.262462
4529.000000;1.262338
4528.000000;1.262283
4527.000000;1.262463
4526.000000;1.262857
4525.000000;1.263312
4524.000000;1.263707
4523.000000;1.264026
4522.000000;1.264339
4521.000000;1.264740
4520.000000;1.265254
4519.000000;1.265736
4518.000000;1.265903
4517.000000;1.265565
4516.000000;1.264806
4515.000000;1.263883
4514.000000;1.263003
4513.000000;1.262251
4512.000000;1.261660
4511.000000;1.261204
4510.000000;1.260726
4509.000000;1.260019
4508.000000;1.259091
4507.000000;1.258266
4506.000000;1.257923
4505.000000;1.258123
4504.000000;1.258514
4503.000000;1.258628
4502.000000;1.258251
4501.000000;1.257522
4500.000000;1.256718
4499.000000;1.256055
4498.000000;1.255716
4497.000000;1.255903
4496.000000;1.256626
4495.000000;1.257403
4494.000000;1.257398
4493.000000;1.256087
4492.000000;1.253808
4491.000000;1.251525
4490.000000;1.250037
4489.000000;1.249440
4488.000000;1.249266
4487.000000;1.249014
4486.000000;1.248547
4485.000000;1.248083
4484.000000;1.247845
4483.000000;1.247745
4482.000000;1.247476
4481.000000;1.246933
4480.000000;1.246426
4479.000000;1.246313
4478.000000;1.246506
4477.000000;1.246515
4476.000000;1.246017
4475.000000;1.245192
4474.000000;1.244402
4473.000000;1.243715
4472.000000;1.242891
4471.000000;1.241783
4470.000000;1.240561
4469.000000;1.239538
4468.000000;1.238854
4467.000000;1.238376
4466.000000;1.237853
4465.000000;1.237097
4464.000000;1.236023
4463.000000;1.234597
4462.000000;1.232840
4461.000000;1.230936
4460.000000;1.229204
4459.000000;1.227846
4458.000000;1.226750
4457.000000;1.225680
4456.000000;1.224622
4455.000000;1.223767
4454.000000;1.223099
4453.000000;1.222247
4452.000000;1.220933
4451.000000;1.219415
4450.000000;1.218230
4449.000000;1.217491
4448.000000;1.216671
4447.000000;1.215167
4446.000000;1.212967
4445.000000;1.210630
4444.000000;1.208735
4443.000000;1.207461
4442.000000;1.206609
4441.000000;1.205859
4440.000000;1.204989
4439.000000;1.203917
4438.000000;1.202609
4437.000000;1.200975
4436.000000;1.198966
4435.000000;1.196773
4434.000000;1.194843
4433.000000;1.193560
4432.000000;1.192917
4431.000000;1.192499
4430.000000;1.191770
4429.000000;1.190347
4428.000000;1.188175
4427.000000;1.185597
4426.000000;1.183199
4425.000000;1.181363
4424.000000;1.179897
4423.000000;1.178248
4422.000000;1.176149
4421.000000;1.173897
4420.000000;1.171909
4419.000000;1.170172
4418.000000;1.168281
4417.000000;1.165930
4416.000000;1.163228
4415.000000;1.160581
4414.000000;1.158392
4413.000000;1.156792
4412.000000;1.155554
4411.000000;1.154284
4410.000000;1.152807
4409.000000;1.151272
4408.000000;1.149782
4407.000000;1.148038
4406.000000;1.145553
4405.000000;1.142226
4404.000000;1.138536
4403.000000;1.135184
4402.000000;1.132639
4401.000000;1.130906
4400.000000;1.129495
4399.000000;1.127680
4398.000000;1.125141
4397.000000;1.122425
4396.000000;1.120467
4395.000000;1.119479
4394.000000;1.118529
4393.000000;1.116440
4392.000000;1.112968
4391.000000;1.108904
4390.000000;1.105160
4389.000000;1.102062
4388.000000;1.099524
4387.000000;1.097499
4386.000000;1.095971
4385.000000;1.094539
4384.000000;1.092362
4383.000000;1.088801
4382.000000;1.084106
4381.000000;1.079247
4380.000000;1.074973
4379.000000;1.071209
4378.000000;1.067488
4377.000000;1.063731
4376.000000;1.060284
4375.000000;1.057291
4374.000000;1.054407
4373.000000;1.051265
4372.000000;1.047919
4371.000000;1.044664
4370.000000;1.041620
4369.000000;1.038709
4368.000000;1.035875
4367.000000;1.033095
4366.000000;1.030274
4365.000000;1.027316
4364.000000;1.024270
4363.000000;1.021279
4362.000000;1.018394
4361.000000;1.015466
4360.000000;1.012182
4359.000000;1.008231
4358.000000;1.003577
4357.000000;0.998674
4356.000000;0.994326
4355.000000;0.991156
4354.000000;0.989124
4353.000000;0.987488
4352.000000;0.985188
4351.000000;0.981426
4350.000000;0.976206
4349.000000;0.970381
4348.000000;0.964953
4347.000000;0.960288
4346.000000;0.956145
4345.000000;0.952321
4344.000000;0.948851
4343.000000;0.945531
4342.000000;0.941757
4341.000000;0.937192
4340.000000;0.932297
4339.000000;0.927779
4338.000000;0.923703
4337.000000;0.919502
4336.000000;0.914781
4335.000000;0.909814
4334.000000;0.905220
4333.000000;0.901359
4332.000000;0.897966
4331.000000;0.894175
4330.000000;0.888990
4329.000000;0.882104
4328.000000;0.874340
4327.000000;0.867168
4326.000000;0.861703
4325.000000;0.858089
4324.000000;0.855496
4323.000000;0.852494
4322.000000;0.847834
4321.000000;0.841428
4320.000000;0.834532
4319.000000;0.828615
4318.000000;0.824017
4317.000000;0.819927
4316.000000;0.815575
4315.000000;0.811007
4314.000000;0.806618
4313.000000;0.802336
4312.000000;0.797666
4311.000000;0.792450
4310.000000;0.787213
4309.000000;0.782483
4308.000000;0.778071
4307.000000;0.773476
4306.000000;0.768866
4305.000000;0.764985
4304.000000;0.761918
4303.000000;0.758450
4302.000000;0.753238
4301.000000;0.746499
4300.000000;0.739888
4299.000000;0.734708
4298.000000;0.730812
4297.000000;0.727240
4296.000000;0.723277
4295.000000;0.718678
4294.000000;0.713553
4293.000000;0.708542
4292.000000;0.704574
4291.000000;0.701783
4290.000000;0.699066
4289.000000;0.695352
4288.000000;0.690956
4287.000000;0.687053
4286.000000;0.684052
4285.000000;0.681173
4284.000000;0.677554
4283.000000;0.673148
4282.000000;0.668608
4281.000000;0.664959
4280.000000;0.663250
4279.000000;0.663629
4278.000000;0.664635
4277.000000;0.664274
4276.000000;0.662097
4275.000000;0.659624
4274.000000;0.658456
4273.000000;0.658645
4272.000000;0.659324
4271.000000;0.660059
4270.000000;0.660787
4269.000000;0.661106
4268.000000;0.660724
4267.000000;0.660374
4266.000000;0.661189
4265.000000;0.663056
4264.000000;0.664596
4263.000000;0.665187
4262.000000;0.666036
4261.000000;0.668566
4260.000000;0.672472
4259.000000;0.676199
4258.000000;0.678901
4257.000000;0.681097
4256.000000;0.683513
4255.000000;0.686165
4254.000000;0.688881
4253.000000;0.691970
4252.000000;0.695827
4251.000000;0.700429
4250.000000;0.705155
4249.000000;0.709342
4248.000000;0.712470
4247.000000;0.714311
4246.000000;0.715295
4245.000000;0.716574
4244.000000;0.719296
4243.000000;0.723722
4242.000000;0.729146
4241.000000;0.734698
4240.000000;0.740175
4239.000000;0.746082
4238.000000;0.753016
4237.000000;0.760959
4236.000000;0.769048
4235.000000;0.775977
4234.000000;0.780748
4233.000000;0.783334
4232.000000;0.784842
4231.000000;0.786999
4230.000000;0.791120
4229.000000;0.797187
4228.000000;0.803833
4227.000000;0.809478
4226.000000;0.813645
4225.000000;0.817235
4224.000000;0.821518
4223.000000;0.826954
4222.000000;0.833071
4221.000000;0.839271
4220.000000;0.845353
4219.000000;0.851180
4218.000000;0.856268
4217.000000;0.860165
4216.000000;0.863155
4215.000000;0.866142
4214.000000;0.869749
4213.000000;0.873701
4212.000000;0.877265
4211.000000;0.880331
4210.000000;0.883987
4209.000000;0.889822
4208.000000;0.898364
4207.000000;0.908065
4206.000000;0.916134
4205.000000;0.920923
4204.000000;0.923564
4203.000000;0.926772
4202.000000;0.932086
4201.000000;0.938784
4200.000000;0.945341
4199.000000;0.951101
4198.000000;0.956137
4197.000000;0.960275
4196.000000;0.963257
4195.000000;0.965630
4194.000000;0.968582
4193.000000;0.972839
4192.000000;0.978215
4191.000000;0.984148
4190.000000;0.990182
4189.000000;0.995870
4188.000000;1.000751
4187.000000;1.004580
4186.000000;1.007282
4185.000000;1.008792
4184.000000;1.009502
4183.000000;1.010956
4182.000000;1.015269
4181.000000;1.023337
4180.000000;1.033937
4179.000000;1.044789
4178.000000;1.054148
4177.000000;1.061287
4176.000000;1.065992
4175.000000;1.068453
4174.000000;1.069565
4173.000000;1.070638
4172.000000;1.072674
4171.000000;1.076056
4170.000000;1.080819
4169.000000;1.086894
4168.000000;1.093907
4167.000000;1.101002
4166.000000;1.107262
4165.000000;1.112237
4164.000000;1.115917
4163.000000;1.118432
4162.000000;1.120216
4161.000000;1.122383
4160.000000;1.126176
4159.000000;1.131720
4158.000000;1.137524
4157.000000;1.141854
4156.000000;1.144662
4155.000000;1.147284
4154.000000;1.150410
4153.000000;1.153522
4152.000000;1.156626
4151.000000;1.161297
4150.000000;1.169021
4149.000000;1.179096
4148.000000;1.188813
4147.000000;1.195483
4146.000000;1.198185
4145.000000;1.198170
4144.000000;1.198040
4143.000000;1.200135
4142.000000;1.204840
4141.000000;1.210293
4140.000000;1.214311
4139.000000;1.216415
4138.000000;1.217770
4137.000000;1.219911
4136.000000;1.224110
4135.000000;1.231229
4134.000000;1.240960
4133.000000;1.251144
4132.000000;1.258885
4131.000000;1.262833
4130.000000;1.263989
4129.000000;1.264449
4128.000000;1.265893
4127.000000;1.268631
4126.000000;1.271457
4125.000000;1.273000
4124.000000;1.273867
4123.000000;1.276802
4122.000000;1.283628
4121.000000;1.292575
4120.000000;1.299853
4119.000000;1.303622
4118.000000;1.304813
4117.000000;1.304634
4116.000000;1.303791
4115.000000;1.304098
4114.000000;1.308070
4113.000000;1.315864
4112.000000;1.324590
4111.000000;1.331826
4110.000000;1.337836
4109.000000;1.343036
4108.000000;1.345861
4107.000000;1.345554
4106.000000;1.345106
4105.000000;1.349421
4104.000000;1.360263
4103.000000;1.373432
4102.000000;1.382239
4101.000000;1.382851
4100.000000;1.377184
4099.000000;1.371793
4098.000000;1.371729
4097.000000;1.375953
4096.000000;1.379515
4095.000000;1.380054
4094.000000;1.380750
4093.000000;1.385884
4092.000000;1.395623
4091.000000;1.406667
4090.000000;1.416303
4089.000000;1.423297
4088.000000;1.425999
4087.000000;1.423548
4086.000000;1.419123
4085.000000;1.418387
4084.000000;1.424235
4083.000000;1.435129
4082.000000;1.447647
4081.000000;1.458083
4080.000000;1.462426
4079.000000;1.458851
4078.000000;1.451387
4077.000000;1.447505
4076.000000;1.450348
4075.000000;1.455895
4074.000000;1.459325
4073.000000;1.461897
4072.000000;1.468497
4071.000000;1.480108
4070.000000;1.492118
4069.000000;1.499900
4068.000000;1.503559
4067.000000;1.506069
4066.000000;1.508979
4065.000000;1.511396
4064.000000;1.511892
4063.000000;1.510197
4062.000000;1.507315
4061.000000;1.505344
4060.000000;1.507256
4059.000000;1.514254
4058.000000;1.522749
4057.000000;1.526485
4056.000000;1.523236
4055.000000;1.517983
4054.000000;1.517802
4053.000000;1.524431
4052.000000;1.532946
4051.000000;1.537354
4050.000000;1.536958
4049.000000;1.537141
4048.000000;1.544656
4047.000000;1.562620
4046.000000;1.588084
4045.000000;1.612467
4044.000000;1.626216
4043.000000;1.626894
4042.000000;1.621766
4041.000000;1.619388
4040.000000;1.621059
4039.000000;1.622629
4038.000000;1.621774
4037.000000;1.619364
4036.000000;1.614932
4035.000000;1.606569
4034.000000;1.597195
4033.000000;1.595193
4032.000000;1.605338
4031.000000;1.621929
4030.000000;1.632732
4029.000000;1.631149
4028.000000;1.622328
4027.000000;1.615535
4026.000000;1.616279
4025.000000;1.625760
4024.000000;1.641582
4023.000000;1.657394
4022.000000;1.666202
4021.000000;1.666605
4020.000000;1.663718
4019.000000;1.664167
4018.000000;1.671715
4017.000000;1.685164
4016.000000;1.697619
4015.000000;1.700247
4014.000000;1.690942
4013.000000;1.678130
4012.000000;1.673961
4011.000000;1.684887
4010.000000;1.708858
4009.000000;1.738453
4008.000000;1.763255
4007.000000;1.770715
4006.000000;1.756080
4005.000000;1.731617
4004.000000;1.715256
4003.000000;1.714657
4002.000000;1.723880
4001.000000;1.731800
4000.000000;1.732251
3999.000000;1.727558
3998.000000;1.726472
3997.000000;1.737205
3996.000000;1.759672
3995.000000;1.784469
3994.000000;1.800348
3993.000000;1.804016
3992.000000;1.801081
3991.000000;1.796073
3990.000000;1.787800
3989.000000;1.777987
3988.000000;1.776209
3987.000000;1.789667
3986.000000;1.811464
3985.000000;1.825083
3984.000000;1.825332
3983.000000;1.824786
3982.000000;1.833036
3981.000000;1.842796
3980.000000;1.840957
3979.000000;1.827385
3978.000000;1.814116
3977.000000;1.809466
3976.000000;1.810928
3975.000000;1.812785
3974.000000;1.815267
3973.000000;1.823878
3972.000000;1.842007
3971.000000;1.867289
3970.000000;1.894938
3969.000000;1.919966
3968.000000;1.934349
3967.000000;1.927871
3966.000000;1.899727
3965.000000;1.866903
3964.000000;1.850336
3963.000000;1.855557
3962.000000;1.869357
3961.000000;1.874198
3960.000000;1.869214
3959.000000;1.869075
3958.000000;1.881852
3957.000000;1.899682
3956.000000;1.911926
3955.000000;1.923375
3954.000000;1.949967
3953.000000;1.997042
3952.000000;2.049698
3951.000000;2.082135
3950.000000;2.074024
3949.000000;2.024969
3948.000000;1.959368
3947.000000;1.911822
3946.000000;1.903541
3945.000000;1.929721
3944.000000;1.970067
3943.000000;2.011205
3942.000000;2.052833
3941.000000;2.090928
3940.000000;2.104985
3939.000000;2.087142
3938.000000;2.059456
3937.000000;2.038418
3936.000000;2.022461
3935.000000;2.008337
3934.000000;2.004302
3933.000000;2.024216
3932.000000;2.066337
3931.000000;2.102439
3930.000000;2.102192
3929.000000;2.071367
3928.000000;2.042521
3927.000000;2.035191
3926.000000;2.047604
3925.000000;2.075858
3924.000000;2.121132
3923.000000;2.179427
3922.000000;2.238518
3921.000000;2.284546
3920.000000;2.303106
3919.000000;2.291760
3918.000000;2.273783
3917.000000;2.274707
3916.000000;2.295908
3915.000000;2.321873
3914.000000;2.335150
3913.000000;2.318444
3912.000000;2.281494
3911.000000;2.263342
3910.000000;2.283081
3909.000000;2.318954
3908.000000;2.355614
3907.000000;2.410148
3906.000000;2.443204
3905.000000;2.401607
3904.000000;2.338017
3903.000000;2.310738
3902.000000;2.319076
3901.000000;2.324949
3900.000000;2.298121
3899.000000;2.248486
3898.000000;2.213823
3897.000000;2.228841
3896.000000;2.304547
3895.000000;2.435135
3894.000000;2.590718
3893.000000;2.715850
3892.000000;2.760747
3891.000000;2.727373
3890.000000;2.698192
3889.000000;2.752519
3888.000000;2.928799
3887.000000;3.134411
3886.000000;3.381287
3885.000000;3.417520
3884.000000;2.882321
3883.000000;2.695269
3882.000000;2.720245
3881.000000;2.687493
3880.000000;2.488192
3879.000000;2.323587
3878.000000;2.274527
3877.000000;2.265883
3876.000000;2.245146
3875.000000;2.229073
3874.000000;2.246984
3873.000000;2.327735
3872.000000;2.434937
3871.000000;2.497511
3870.000000;2.540645
3869.000000;2.684843
3868.000000;3.008418
3867.000000;2.875954
3866.000000;2.562741
3865.000000;2.455879
3864.000000;2.476000
3863.000000;2.657241
3862.000000;2.926792
3861.000000;2.847441
3860.000000;2.788615
3859.000000;2.882319
3858.000000;2.997316
3857.000000;3.157417
3856.000000;3.337963
3855.000000;3.338068
3854.000000;3.168836
3853.000000;3.005862
3852.000000;3.036185
3851.000000;3.325621
3850.000000;3.389237
3849.000000;3.484743
3848.000000;2.981185
3847.000000;2.542536
3846.000000;2.347475
3845.000000;2.255567
3844.000000;2.213448
3843.000000;2.231872
3842.000000;2.307068
3841.000000;2.398267
3840.000000;2.546358
3839.000000;2.748430
3838.000000;2.718454
3837.000000;2.622300
3836.000000;2.828765
3835.000000;3.411184
3834.000000;3.356127
3833.000000;3.371019
3832.000000;3.981287
3831.000000;3.499159
3830.000000;2.993497
3829.000000;2.670453
3828.000000;2.490269
3827.000000;2.422613
3826.000000;2.428803
3825.000000;2.471237
3824.000000;2.525357
3823.000000;2.599841
3822.000000;2.648363
3821.000000;2.629601
3820.000000;2.619508
3819.000000;2.716967
3818.000000;2.893381
3817.000000;2.964979
3816.000000;2.828367
3815.000000;2.617294
3814.000000;2.484157
3813.000000;2.474342
3812.000000;2.604170
3811.000000;2.845086
3810.000000;2.922918
3809.000000;2.827136
3808.000000;2.679975
3807.000000;2.545699
3806.000000;2.504243
3805.000000;2.523231
3804.000000;2.555945
3803.000000;2.676253
3802.000000;3.142646
3801.000000;3.281002
3800.000000;2.939934
3799.000000;2.898076
3798.000000;2.974056
3797.000000;3.117376
3796.000000;3.100550
3795.000000;3.111796
3794.000000;3.032053
3793.000000;2.967243
3792.000000;3.088164
3791.000000;3.062253
3790.000000;3.276298
3789.000000;3.142185
3788.000000;2.622162
3787.000000;2.494461
3786.000000;2.542629
3785.000000;2.706083
3784.000000;3.043916
3783.000000;3.205349
3782.000000;2.962819
3781.000000;2.834318
3780.000000;2.745946
3779.000000;2.644602
3778.000000;2.627767
3777.000000;2.680693
3776.000000;2.743231
3775.000000;2.672133
3774.000000;2.554269
3773.000000;2.558895
3772.000000;2.741294
3771.000000;3.087837
3770.000000;3.153341
3769.000000;3.100214
3768.000000;3.143404
3767.000000;3.078556
3766.000000;2.958757
3765.000000;2.709274
3764.000000;2.490742
3763.000000;2.423193
3762.000000;2.535036
3761.000000;2.793432
3760.000000;2.945089
3759.000000;2.952932
3758.000000;3.297500
3757.000000;3.513731
3756.000000;2.949965
3755.000000;2.715828
3754.000000;2.622447
3753.000000;2.623373
3752.000000;2.730924
3751.000000;2.957063
3750.000000;3.029060
3749.000000;2.971228
3748.000000;3.063928
3747.000000;3.180661
3746.000000;3.199059
3745.000000;3.284258
3744.000000;3.073763
3743.000000;2.592008
3742.000000;2.370004
3741.000000;2.306261
3740.000000;2.299573
3739.000000;2.347275
3738.000000;2.457080
3737.000000;2.659804
3736.000000;2.949906
3735.000000;3.094985
3734.000000;3.128764
3733.000000;3.308667
3732.000000;3.605839
3731.000000;3.541150
3730.000000;3.165003
3729.000000;2.932797
3728.000000;2.763401
3727.000000;2.613221
3726.000000;2.531769
3725.000000;2.564105
3724.000000;2.710531
3723.000000;2.914233
3722.000000;3.055795
3721.000000;2.986369
3720.000000;2.831942
3719.000000;2.760621
3718.000000;2.800695
3717.000000;3.096193
3716.000000;3.279683
3715.000000;2.983077
3714.000000;2.969991
3713.000000;2.899152
3712.000000;2.812744
3711.000000;2.849819
3710.000000;2.924916
3709.000000;3.144646
3708.000000;3.193742
3707.000000;2.910763
3706.000000;2.818777
3705.000000;2.823898
3704.000000;2.829731
3703.000000;2.853217
3702.000000;2.829525
3701.000000;2.763369
3700.000000;2.714678
3699.000000;2.692898
3698.000000;2.663006
3697.000000;2.653519
3696.000000;2.693938
3695.000000;2.763664
3694.000000;2.601619
3693.000000;2.447925
3692.000000;2.521234
3691.000000;2.739165
3690.000000;2.976302
3689.000000;3.161728
3688.000000;3.270561
3687.000000;3.216014
3686.000000;3.043157
3685.000000;2.915985
3684.000000;2.739634
3683.000000;2.484410
3682.000000;2.271291
3681.000000;2.141624
3680.000000;2.083603
3679.000000;2.142110
3678.000000;2.331137
3677.000000;2.551801
3676.000000;2.710855
3675.000000;2.747631
3674.000000;2.622446
3673.000000;2.480691
3672.000000;2.431676
3671.000000;2.439529
3670.000000;2.473736
3669.000000;2.575263
3668.000000;2.787091
3667.000000;3.069131
3666.000000;3.132413
3665.000000;2.984429
3664.000000;2.917821
3663.000000;3.033682
3662.000000;3.125549
3661.000000;2.954681
3660.000000;2.818840
3659.000000;2.748905
3658.000000;2.689980
3657.000000;2.600351
3656.000000;2.509544
3655.000000;2.460130
3654.000000;2.512073
3653.000000;2.705589
3652.000000;2.720324
3651.000000;2.616516
3650.000000;2.653766
3649.000000;2.741140
3648.000000;2.889927
3647.000000;3.197589
3646.000000;3.482908
3645.000000;3.056476
3644.000000;2.755657
3643.000000;2.623684
3642.000000;2.600464
3641.000000;2.616589
3640.000000;2.574868
3639.000000;2.525329
3638.000000;2.521537
3637.000000;2.533693
3636.000000;2.576580
3635.000000;2.690058
3634.000000;2.786664
3633.000000;2.782690
3632.000000;2.805255
3631.000000;2.941348
3630.000000;3.127103
3629.000000;3.055619
3628.000000;3.008878
3627.000000;2.919685
3626.000000;2.667329
3625.000000;2.585483
3624.000000;2.668691
3623.000000;2.830239
3622.000000;2.932163
3621.000000;2.947404
3620.000000;3.123000
3619.000000;3.142540
3618.000000;2.836423
3617.000000;2.729382
3616.000000;2.837898
3615.000000;3.197629
3614.000000;3.425927
3613.000000;3.124051
3612.000000;2.955715
3611.000000;2.835728
3610.000000;2.756421
3609.000000;2.740236
3608.000000;2.779997
3607.000000;2.782248
3606.000000;2.611274
3605.000000;2.420257
3604.000000;2.346495
3603.000000;2.412214
3602.000000;2.593572
3601.000000;2.767050
3600.000000;2.787288
3599.000000;2.760002
3598.000000;2.888373
3597.000000;3.197870
3596.000000;3.299665
3595.000000;3.696503
3594.000000;3.997941
3593.000000;3.382765
3592.000000;3.379741
3591.000000;3.523544
3590.000000;3.668417
3589.000000;3.198844
3588.000000;2.918445
3587.000000;2.869051
3586.000000;2.886069
3585.000000;2.902927
3584.000000;2.845728
3583.000000;2.756365
3582.000000;2.774582
3581.000000;2.990628
3580.000000;3.151196
3579.000000;2.938041
3578.000000;2.850833
3577.000000;3.031206
3576.000000;3.003201
3575.000000;2.666247
3574.000000;2.532910
3573.000000;2.521302
3572.000000;2.585394
3571.000000;2.762597
3570.000000;3.255217
3569.000000;3.463091
3568.000000;3.041958
3567.000000;3.052644
3566.000000;3.000759
3565.000000;2.897620
3564.000000;2.861264
3563.000000;2.938252
3562.000000;3.133920
3561.000000;3.067821
3560.000000;2.854442
3559.000000;2.773405
3558.000000;2.899641
3557.000000;2.905362
3556.000000;2.668974
3555.000000;2.627755
3554.000000;2.912063
3553.000000;3.248234
3552.000000;2.874777
3551.000000;2.773500
3550.000000;2.840739
3549.000000;2.967860
3548.000000;3.033788
3547.000000;2.932562
3546.000000;2.884712
3545.000000;2.903057
3544.000000;2.979931
3543.000000;3.059141
3542.000000;3.106105
3541.000000;3.302119
3540.000000;3.221746
3539.000000;2.894708
3538.000000;2.767553
3537.000000;2.726938
3536.000000;2.710584
3535.000000;2.702682
3534.000000;2.717313
3533.000000;2.793586
3532.000000;2.847395
3531.000000;2.771360
3530.000000;2.713194
3529.000000;2.737886
3528.000000;2.843856
3527.000000;2.990491
3526.000000;2.956843
3525.000000;2.839451
3524.000000;2.757820
3523.000000;2.704435
3522.000000;2.671059
3521.000000;2.674592
3520.000000;2.761566
3519.000000;3.096027
3518.000000;3.253375
3517.000000;2.863774
3516.000000;2.751352
3515.000000;2.681281
3514.000000;2.615686
3513.000000;2.648793
3512.000000;2.998862
3511.000000;3.070511
3510.000000;2.668257
3509.000000;2.638758
3508.000000;2.766024
3507.000000;3.033228
3506.000000;3.644950
3505.000000;3.192773
3504.000000;2.972917
3503.000000;3.002724
3502.000000;2.953764
3501.000000;2.815837
3500.000000;2.704014
3499.000000;2.690134
3498.000000;2.739906
3497.000000;2.932963
3496.000000;3.357189
3495.000000;3.032518
3494.000000;2.783434
3493.000000;2.724028
3492.000000;2.797478
3491.000000;2.870555
3490.000000;2.744461
3489.000000;2.658645
3488.000000;2.667152
3487.000000;2.727828
3486.000000;2.813134
3485.000000;2.920056
3484.000000;2.993293
3483.000000;2.893215
3482.000000;2.733418
3481.000000;2.628278
3480.000000;2.612454
3479.000000;2.703912
3478.000000;2.946096
3477.000000;3.403332
3476.000000;3.291631
3475.000000;3.092231
3474.000000;3.095988
3473.000000;3.072405
3472.000000;2.910999
3471.000000;2.747222
3470.000000;2.652162
3469.000000;2.631312
3468.000000;2.698554
3467.000000;2.851409
3466.000000;3.042736
3465.000000;3.114863
3464.000000;3.027318
3463.000000;2.917523
3462.000000;2.768584
3461.000000;2.631680
3460.000000;2.578243
3459.000000;2.629699
3458.000000;2.797619
3457.000000;3.125089
3456.000000;3.748618
3455.000000;3.439665
3454.000000;3.107386
3453.000000;3.008374
3452.000000;3.075021
3451.000000;3.464841
3450.000000;3.214672
3449.000000;2.953759
3448.000000;3.040542
3447.000000;3.570550
3446.000000;3.205689
3445.000000;2.976330
3444.000000;3.061730
3443.000000;3.193643
3442.000000;2.984276
3441.000000;2.856657
3440.000000;2.916056
3439.000000;3.263053
3438.000000;4.040448
3437.000000;3.362777
3436.000000;3.371886
3435.000000;3.177232
3434.000000;2.827909
3433.000000;2.646751
3432.000000;2.578827
3431.000000;2.619304
3430.000000;2.850566
3429.000000;3.300185
3428.000000;3.116962
3427.000000;3.054022
3426.000000;3.076776
3425.000000;2.875633
3424.000000;2.877332
3423.000000;3.201128
3422.000000;3.284020
3421.000000;3.154275
3420.000000;3.206827
3419.000000;3.123843
3418.000000;2.986951
3417.000000;2.887761
3416.000000;2.848451
3415.000000;2.894127
3414.000000;3.006394
3413.000000;3.141586
3412.000000;3.207933
3411.000000;3.058124
3410.000000;2.856460
3409.000000;2.767794
3408.000000;2.836566
3407.000000;3.060802
3406.000000;3.169176
3405.000000;3.092779
3404.000000;3.029247
3403.000000;2.991830
3402.000000;2.993180
3401.000000;2.903761
3400.000000;2.828179
3399.000000;2.846785
3398.000000;2.906217
3397.000000;3.008106
3396.000000;3.042462
3395.000000;2.892442
3394.000000;2.790260
3393.000000;2.781913
3392.000000;2.834125
3391.000000;2.952658
3390.000000;3.146836
3389.000000;3.234409
3388.000000;3.367913
3387.000000;3.924524
3386.000000;3.386111
3385.000000;3.073892
3384.000000;2.938719
3383.000000;2.891407
3382.000000;2.864025
3381.000000;2.802574
3380.000000;2.767470
3379.000000;2.760556
3378.000000;2.725689
3377.000000;2.702459
3376.000000;2.755790
3375.000000;2.850638
3374.000000;2.841738
3373.000000;2.784056
3372.000000;2.788659
3371.000000;2.849726
3370.000000;3.032403
3369.000000;3.280078
3368.000000;3.409311
3367.000000;3.577715
3366.000000;3.046276
3365.000000;2.926662
3364.000000;3.099677
3363.000000;2.995954
3362.000000;2.786378
3361.000000;2.726163
3360.000000;2.774561
3359.000000;2.886345
3358.000000;3.001373
3357.000000;3.169469
3356.000000;3.164516
3355.000000;2.890058
3354.000000;2.712209
3353.000000;2.638887
3352.000000;2.668598
3351.000000;2.840495
3350.000000;3.123615
3349.000000;2.978008
3348.000000;2.800439
3347.000000;2.830053
3346.000000;2.966288
3345.000000;2.982020
3344.000000;2.861124
3343.000000;2.807191
3342.000000;2.831387
3341.000000;2.944075
3340.000000;3.061407
3339.000000;3.055697
3338.000000;3.155472
3337.000000;3.012739
3336.000000;2.826774
3335.000000;2.752666
3334.000000;2.648667
3333.000000;2.582498
3332.000000;2.634393
3331.000000;2.834494
3330.000000;3.057036
3329.000000;2.975420
3328.000000;2.874373
3327.000000;2.774512
3326.000000;2.678457
3325.000000;2.644241
3324.000000;2.693164
3323.000000;2.775607
3322.000000;2.777761
3321.000000;2.715498
3320.000000;2.703438
3319.000000;2.775767
3318.000000;2.853784
3317.000000;2.873392
3316.000000;2.891624
3315.000000;2.986238
3314.000000;3.110781
3313.000000;2.875550
3312.000000;2.720982
3311.000000;2.757339
3310.000000;2.972999
3309.000000;3.507365
3308.000000;3.513507
3307.000000;3.187999
3306.000000;3.106380
3305.000000;3.164809
3304.000000;3.327973
3303.000000;3.272783
3302.000000;3.141122
3301.000000;3.117494
3300.000000;3.195066
3299.000000;3.146209
3298.000000;2.925058
3297.000000;2.777035
3296.000000;2.747049
3295.000000;2.833530
3294.000000;2.950719
3293.000000;2.982221
3292.000000;3.008454
3291.000000;3.272616
3290.000000;3.350101
3289.000000;3.097733
3288.000000;2.912164
3287.000000;2.818297
3286.000000;2.851122
3285.000000;2.973295
3284.000000;3.111419
3283.000000;3.187458
3282.000000;3.177871
3281.000000;3.135991
3280.000000;3.121124
3279.000000;3.128492
3278.000000;3.091663
3277.000000;3.082683
3276.000000;3.145016
3275.000000;3.187307
3274.000000;3.175255
3273.000000;3.170940
3272.000000;3.311873
3271.000000;3.301809
3270.000000;3.013254
3269.000000;2.833077
3268.000000;2.711930
3267.000000;2.667132
3266.000000;2.743279
3265.000000;2.980232
3264.000000;3.046154
3263.000000;2.970511
3262.000000;3.059597
3261.000000;3.265562
3260.000000;3.539371
3259.000000;3.851889
3258.000000;3.785640
3257.000000;3.973700
3256.000000;3.443461
3255.000000;2.990271
3254.000000;2.817389
3253.000000;2.821757
3252.000000;2.884554
3251.000000;2.776844
3250.000000;2.600069
3249.000000;2.472301
3248.000000;2.419948
3247.000000;2.450618
3246.000000;2.553163
3245.000000;2.710274
3244.000000;2.806012
3243.000000;2.737942
3242.000000;2.680342
3241.000000;2.692178
3240.000000;2.731305
3239.000000;2.713744
3238.000000;2.629084
3237.000000;2.588214
3236.000000;2.657457
3235.000000;2.834548
3234.000000;3.006576
3233.000000;3.118808
3232.000000;3.160893
3231.000000;3.040567
3230.000000;3.047304
3229.000000;3.516712
3228.000000;3.280868
3227.000000;3.005449
3226.000000;2.945677
3225.000000;2.817995
3224.000000;2.650991
3223.000000;2.582709
3222.000000;2.638810
3221.000000;2.837175
3220.000000;3.142681
3219.000000;3.290833
3218.000000;3.373480
3217.000000;3.532775
3216.000000;3.420525
3215.000000;3.061300
3214.000000;2.823830
3213.000000;2.726868
3212.000000;2.737040
3211.000000;2.820184
3210.000000;2.924175
3209.000000;3.256656
3208.000000;3.493330
3207.000000;3.146707
3206.000000;3.104160
3205.000000;3.257071
3204.000000;3.469090
3203.000000;3.144963
3202.000000;3.035931
3201.000000;3.297604
3200.000000;3.309603
3199.000000;2.954279
3198.000000;2.991118
3197.000000;3.037235
3196.000000;2.851315
3195.000000;2.815306
3194.000000;2.952571
3193.000000;3.176826
3192.000000;3.231025
3191.000000;3.210182
3190.000000;3.191471
3189.000000;3.146275
3188.000000;3.087369
3187.000000;3.039022
3186.000000;3.057473
3185.000000;3.091899
3184.000000;3.159920
3183.000000;3.231354
3182.000000;2.954288
3181.000000;2.836369
3180.000000;3.016892
3179.000000;3.079592
3178.000000;2.914811
3177.000000;2.888467
3176.000000;2.918745
3175.000000;2.971850
3174.000000;3.214144
3173.000000;3.469662
3172.000000;2.954134
3171.000000;2.953567
3170.000000;3.230739
3169.000000;3.169898
3168.000000;3.039451
3167.000000;3.048507
3166.000000;2.882454
3165.000000;2.763678
3164.000000;2.757893
3163.000000;2.924402
3162.000000;3.255374
3161.000000;3.119941
3160.000000;2.983823
3159.000000;3.352101
3158.000000;3.574940
3157.000000;3.167133
3156.000000;3.123493
3155.000000;3.039461
3154.000000;2.928371
3153.000000;2.977906
3152.000000;3.238984
3151.000000;3.380112
3150.000000;3.711379
3149.000000;3.646964
3148.000000;3.326710
3147.000000;3.274878
3146.000000;3.323096
3145.000000;3.417540
3144.000000;3.045290
3143.000000;2.944906
3142.000000;2.950852
3141.000000;3.098995
3140.000000;3.034268
3139.000000;2.707242
3138.000000;2.631028
3137.000000;2.810882
3136.000000;3.160691
3135.000000;2.861404
3134.000000;2.688641
3133.000000;2.685480
3132.000000;2.768449
3131.000000;2.949175
3130.000000;3.415224
3129.000000;3.091029
3128.000000;2.755639
3127.000000;2.650460
3126.000000;2.670715
3125.000000;2.827202
3124.000000;3.052429
3123.000000;3.144146
3122.000000;3.007622
3121.000000;2.813277
3120.000000;2.673044
3119.000000;2.633931
3118.000000;2.693233
3117.000000;2.815755
3116.000000;2.969953
3115.000000;3.340558
3114.000000;3.657450
3113.000000;3.055842
3112.000000;2.887804
3111.000000;2.734618
3110.000000;2.663751
3109.000000;2.664537
3108.000000;2.699301
3107.000000;2.770877
3106.000000;2.895572
3105.000000;3.406385
3104.000000;3.317549
3103.000000;2.928733
3102.000000;2.902310
3101.000000;3.092633
3100.000000;3.579268
3099.000000;3.044094
3098.000000;2.896128
3097.000000;2.972898
3096.000000;3.033457
3095.000000;3.017217
3094.000000;2.930352
3093.000000;2.830157
3092.000000;2.778012
3091.000000;2.782595
3090.000000;2.835577
3089.000000;2.884444
3088.000000;2.904143
3087.000000;2.973052
3086.000000;3.386970
3085.000000;3.887045
3084.000000;3.055652
3083.000000;2.880638
3082.000000;2.829329
3081.000000;2.939875
3080.000000;3.099217
3079.000000;3.178752
3078.000000;3.376385
3077.000000;3.381775
3076.000000;3.185031
3075.000000;3.081934
3074.000000;2.949838
3073.000000;2.783901
3072.000000;2.667569
3071.000000;2.671871
3070.000000;2.778182
3069.000000;2.831208
3068.000000;2.876332
3067.000000;3.063277
3066.000000;3.292761
3065.000000;3.329319
3064.000000;3.138802
3063.000000;2.880372
3062.000000;2.749643
3061.000000;2.719016
3060.000000;2.734041
3059.000000;2.764623
3058.000000;2.858135
3057.000000;3.001139
3056.000000;2.951438
3055.000000;2.847752
3054.000000;2.823956
3053.000000;2.780861
3052.000000;2.776135
3051.000000;2.953395
3050.000000;3.222552
3049.000000;3.467120
3048.000000;3.412830
3047.000000;2.994801
3046.000000;2.892372
3045.000000;3.083547
3044.000000;3.692990
3043.000000;3.023694
3042.000000;2.772140
3041.000000;2.677915
3040.000000;2.633979
3039.000000;2.634519
3038.000000;2.665819
3037.000000;2.748758
3036.000000;2.948664
3035.000000;3.095216
3034.000000;3.134284
3033.000000;3.476205
3032.000000;2.980232
3031.000000;2.654423
3030.000000;2.606462
3029.000000;2.746145
3028.000000;3.218667
3027.000000;3.440857
3026.000000;3.002183
3025.000000;2.858673
3024.000000;2.882349
3023.000000;2.948403
3022.000000;2.811588
3021.000000;2.711865
3020.000000;2.742482
3019.000000;2.931105
3018.000000;3.047364
3017.000000;2.791882
3016.000000;2.622195
3015.000000;2.559767
3014.000000;2.585988
3013.000000;2.730489
3012.000000;2.854570
3011.000000;2.712187
3010.000000;2.680469
3009.000000;2.888466
3008.000000;2.913611
3007.000000;2.616544
3006.000000;2.561253
3005.000000;2.747709
3004.000000;3.199996
3003.000000;2.870577
3002.000000;2.576060
3001.000000;2.473052
3000.000000;2.408684
2999.000000;2.390116
2998.000000;2.455792
2997.000000;2.648324
2996.000000;3.244131
2995.000000;3.483514
2994.000000;3.322753
2993.000000;3.208711
2992.000000;2.811408
2991.000000;2.664124
2990.000000;2.688051
2989.000000;2.846179
2988.000000;3.083579
2987.000000;3.194951
2986.000000;3.095396
2985.000000;2.946478
2984.000000;2.804327
2983.000000;2.714377
2982.000000;2.713611
2981.000000;2.848912
2980.000000;3.298890
2979.000000;3.321791
2978.000000;2.841876
2977.000000;2.695990
2976.000000;2.644814
2975.000000;2.695110
2974.000000;2.796173
2973.000000;2.819353
2972.000000;2.750479
2971.000000;2.689925
2970.000000;2.686282
2969.000000;2.759178
2968.000000;2.921460
2967.000000;3.080424
2966.000000;2.965887
2965.000000;2.782631
2964.000000;2.709940
2963.000000;2.748784
2962.000000;2.845107
2961.000000;2.883599
2960.000000;2.845434
2959.000000;2.831588
2958.000000;2.859801
2957.000000;2.883151
2956.000000;2.931690
2955.000000;3.190148
2954.000000;3.456640
2953.000000;3.122143
2952.000000;3.015024
2951.000000;2.869836
2950.000000;2.807266
2949.000000;2.806281
2948.000000;2.710961
2947.000000;2.656920
2946.000000;2.821660
2945.000000;3.085674
2944.000000;2.822519
2943.000000;2.646911
2942.000000;2.674318
2941.000000;2.852922
2940.000000;3.184617
2939.000000;3.103704
2938.000000;2.887945
2937.000000;2.767966
2936.000000;2.719435
2935.000000;2.754986
2934.000000;2.817351
2933.000000;2.843784
2932.000000;2.842263
2931.000000;2.842356
2930.000000;2.806351
2929.000000;2.747598
2928.000000;2.752124
2927.000000;2.945909
2926.000000;3.366101
2925.000000;3.177765
2924.000000;3.065465
2923.000000;3.441254
2922.000000;3.284146
2921.000000;2.952314
2920.000000;3.230785
2919.000000;3.283730
2918.000000;2.902542
2917.000000;2.834910
2916.000000;2.868650
2915.000000;2.891546
2914.000000;2.803665
2913.000000;2.729180
2912.000000;2.780094
2911.000000;2.844109
2910.000000;2.754554
2909.000000;2.715908
2908.000000;2.810404
2907.000000;2.976600
2906.000000;3.130715
2905.000000;2.989655
2904.000000;2.854805
2903.000000;2.847149
2902.000000;3.074538
2901.000000;3.631095
2900.000000;3.074046
2899.000000;2.932260
2898.000000;2.869193
2897.000000;2.722808
2896.000000;2.681492
2895.000000;2.775221
2894.000000;3.199313
2893.000000;3.673785
2892.000000;3.447492
2891.000000;3.402289
2890.000000;2.994016
2889.000000;2.798904
2888.000000;2.802914
2887.000000;3.142150
2886.000000;3.220847
2885.000000;2.827589
2884.000000;2.814802
2883.000000;3.007857
2882.000000;3.033288
2881.000000;3.040523
2880.000000;3.192673
2879.000000;3.171996
2878.000000;3.103910
2877.000000;3.360308
2876.000000;3.057827
2875.000000;2.687191
2874.000000;2.635393
2873.000000;2.750891
2872.000000;2.894132
2871.000000;3.097593
2870.000000;3.160101
2869.000000;2.889235
2868.000000;2.831975
2867.000000;2.923046
2866.000000;2.975179
2865.000000;2.912876
2864.000000;2.802782
2863.000000;2.756312
2862.000000;2.779192
2861.000000;2.770812
2860.000000;2.661661
2859.000000;2.539151
2858.000000;2.480915
2857.000000;2.496170
2856.000000;2.580027
2855.000000;2.756843
2854.000000;3.114723
2853.000000;3.516813
2852.000000;3.335254
2851.000000;3.085570
2850.000000;2.852881
2849.000000;2.725351
2848.000000;2.732090
2847.000000;2.841775
2846.000000;2.818846
2845.000000;2.676284
2844.000000;2.641809
2843.000000;2.683259
2842.000000;2.717911
2841.000000;2.746886
2840.000000;2.802570
2839.000000;2.789268
2838.000000;2.694883
2837.000000;2.661701
2836.000000;2.737518
2835.000000;2.830963
2834.000000;2.836491
2833.000000;2.792123
2832.000000;2.707468
2831.000000;2.628649
2830.000000;2.599605
2829.000000;2.623719
2828.000000;2.739122
2827.000000;2.970017
2826.000000;3.085374
2825.000000;3.029098
2824.000000;3.091389
2823.000000;3.214233
2822.000000;3.168559
2821.000000;3.138841
2820.000000;3.076803
2819.000000;2.879776
2818.000000;2.724709
2817.000000;2.626695
2816.000000;2.580726
2815.000000;2.605770
2814.000000;2.723857
2813.000000;2.936026
2812.000000;3.169839
2811.000000;3.217568
2810.000000;3.085765
2809.000000;2.950640
2808.000000;2.834231
2807.000000;2.711310
2806.000000;2.654560
2805.000000;2.695516
2804.000000;2.875370
2803.000000;3.408163
2802.000000;3.457643
2801.000000;3.067300
2800.000000;2.955146
2799.000000;2.957382
2798.000000;3.056307
2797.000000;3.295233
2796.000000;3.582582
2795.000000;3.227834
2794.000000;2.983148
2793.000000;2.912088
2792.000000;2.797886
2791.000000;2.624437
2790.000000;2.545166
2789.000000;2.585837
2788.000000;2.728316
2787.000000;3.036852
2786.000000;3.286364
2785.000000;3.033782
2784.000000;2.911168
2783.000000;2.990947
2782.000000;3.144993
2781.000000;3.181567
2780.000000;3.197631
2779.000000;3.157906
2778.000000;3.074941
2777.000000;3.089875
2776.000000;3.166301
2775.000000;3.211832
2774.000000;3.074056
2773.000000;2.929031
2772.000000;2.867391
2771.000000;2.806985
2770.000000;2.779651
2769.000000;2.858259
2768.000000;3.130193
2767.000000;3.671261
2766.000000;3.504917
2765.000000;3.189831
2764.000000;3.044580
2763.000000;2.971062
2762.000000;2.921804
2761.000000;2.882301
2760.000000;2.924319
2759.000000;2.969130
2758.000000;2.825577
2757.000000;2.672047
2756.000000;2.663474
2755.000000;2.776882
2754.000000;2.940890
2753.000000;3.031213
2752.000000;3.096257
2751.000000;3.152352
2750.000000;2.881354
2749.000000;2.741246
2748.000000;2.812029
2747.000000;3.105179
2746.000000;3.699375
2745.000000;3.201391
2744.000000;2.954281
2743.000000;2.913847
2742.000000;2.957990
2741.000000;3.033117
2740.000000;3.196619
2739.000000;3.368411
2738.000000;3.006277
2737.000000;2.831949
2736.000000;2.852322
2735.000000;2.899497
2734.000000;2.914611
2733.000000;2.975548
2732.000000;3.097675
2731.000000;3.373196
2730.000000;3.532466
2729.000000;3.107500
2728.000000;2.848647
2727.000000;2.711587
2726.000000;2.657165
2725.000000;2.676971
2724.000000;2.733011
2723.000000;2.814345
2722.000000;2.911883
2721.000000;3.060036
2720.000000;3.152165
2719.000000;3.008767
2718.000000;2.897434
2717.000000;3.008400
2716.000000;3.465738
2715.000000;3.392074
2714.000000;3.050196
2713.000000;2.989931
2712.000000;3.031395
2711.000000;3.013852
2710.000000;2.895209
2709.000000;2.812876
2708.000000;2.768801
2707.000000;2.724722
2706.000000;2.673424
2705.000000;2.638556
2704.000000;2.636001
2703.000000;2.657370
2702.000000;2.703631
2701.000000;2.773364
2700.000000;2.822552
2699.000000;2.793935
2698.000000;2.709571
2697.000000;2.595723
2696.000000;2.523985
2695.000000;2.550131
2694.000000;2.729206
2693.000000;2.965650
2692.000000;3.026011
2691.000000;3.159068
2690.000000;2.982193
2689.000000;2.731079
2688.000000;2.690916
2687.000000;2.810963
2686.000000;3.115296
2685.000000;3.540081
2684.000000;3.413036
2683.000000;3.047719
2682.000000;2.868601
2681.000000;2.916616
2680.000000;3.114135
2679.000000;2.934319
2678.000000;2.769052
2677.000000;2.809974
2676.000000;2.982033
2675.000000;3.509809
2674.000000;3.478219
2673.000000;3.104607
2672.000000;3.149243
2671.000000;3.230323
2670.000000;3.256170
2669.000000;3.359687
2668.000000;3.308174
2667.000000;3.141867
2666.000000;3.142883
2665.000000;3.318964
2664.000000;3.342353
2663.000000;3.333441
2662.000000;3.442861
2661.000000;3.536922
2660.000000;3.859581
2659.000000;3.450244
2658.000000;3.139474
2657.000000;3.132620
2656.000000;3.495991
2655.000000;3.616270
2654.000000;3.054114
2653.000000;2.914213
2652.000000;3.107165
2651.000000;3.226429
2650.000000;2.890399
2649.000000;2.765164
2648.000000;2.859325
2647.000000;3.292119
2646.000000;3.541480
2645.000000;3.380495
2644.000000;3.708313
2643.000000;3.351271
2642.000000;3.222587
2641.000000;3.162096
2640.000000;3.062407
2639.000000;3.286359
2638.000000;3.493469
2637.000000;3.080344
2636.000000;2.977271
2635.000000;3.011741
2634.000000;3.307638
2633.000000;3.804384
2632.000000;3.134307
2631.000000;3.014608
2630.000000;3.074118
2629.000000;3.124506
2628.000000;3.293344
2627.000000;3.413911
2626.000000;3.053885
2625.000000;2.847639
2624.000000;2.919483
2623.000000;2.956264
2622.000000;2.778914
2621.000000;2.688702
2620.000000;2.722799
2619.000000;2.834730
2618.000000;3.016223
2617.000000;3.161174
2616.000000;3.149170
2615.000000;2.965164
2614.000000;2.760340
2613.000000;2.621495
2612.000000;2.560057
2611.000000;2.603206
2610.000000;2.805745
2609.000000;3.073342
2608.000000;3.095370
2607.000000;3.116946
2606.000000;3.151873
2605.000000;3.108694
2604.000000;3.052144
2603.000000;3.044612
2602.000000;3.058237
2601.000000;2.943013
2600.000000;2.838354
2599.000000;2.871840
2598.000000;2.990393
2597.000000;2.969241
2596.000000;2.901218
2595.000000;2.876625
2594.000000;2.835898
2593.000000;2.885902
2592.000000;2.891401
2591.000000;2.734421
2590.000000;2.652961
2589.000000;2.692613
2588.000000;2.823456
2587.000000;3.028008
2586.000000;3.223563
2585.000000;3.247320
2584.000000;3.137756
2583.000000;3.014982
2582.000000;2.927478
2581.000000;2.882493
2580.000000;2.907490
2579.000000;3.061655
2578.000000;3.319862
2577.000000;3.359016
2576.000000;3.176284
2575.000000;2.980539
2574.000000;2.871610
2573.000000;2.877024
2572.000000;3.040988
2571.000000;3.570858
2570.000000;3.438591
2569.000000;3.123291
2568.000000;3.275527
2567.000000;3.452954
2566.000000;3.293823
2565.000000;3.123190
2564.000000;3.007228
2563.000000;2.911989
2562.000000;2.850073
2561.000000;2.871809
2560.000000;3.011056
2559.000000;3.327013
2558.000000;3.604238
2557.000000;3.305220
2556.000000;3.303225
2555.000000;3.479144
2554.000000;3.136726
2553.000000;2.909416
2552.000000;2.836582
2551.000000;2.833847
2550.000000;2.875339
2549.000000;2.902984
2548.000000;2.932189
2547.000000;3.066368
2546.000000;3.213408
2545.000000;3.045091
2544.000000;2.991131
2543.000000;3.404489
2542.000000;3.333279
2541.000000;2.919184
2540.000000;2.892716
2539.000000;3.077774
2538.000000;3.328331
2537.000000;3.192697
2536.000000;3.186749
2535.000000;3.383181
2534.000000;3.213904
2533.000000;3.220328
2532.000000;3.398461
2531.000000;3.248854
2530.000000;3.140538
2529.000000;3.395066
2528.000000;3.561902
2527.000000;2.989787
2526.000000;2.806456
2525.000000;2.847745
2524.000000;3.053371
2523.000000;3.423165
2522.000000;3.473500
2521.000000;3.214761
2520.000000;3.233258
2519.000000;3.335809
2518.000000;3.117786
2517.000000;2.998159
2516.000000;2.962424
2515.000000;2.849332
2514.000000;2.722640
2513.000000;2.679805
2512.000000;2.731086
2511.000000;2.832835
2510.000000;2.912780
2509.000000;2.948160
2508.000000;3.008864
2507.000000;3.110039
2506.000000;3.216766
2505.000000;3.254731
2504.000000;3.378406
2503.000000;3.521062
2502.000000;3.079152
2501.000000;2.783734
2500.000000;2.640519
2499.000000;2.594978
2498.000000;2.645523
2497.000000;2.742518
2496.000000;2.761980
2495.000000;2.709853
2494.000000;2.692659
2493.000000;2.693393
2492.000000;2.688775
2491.000000;2.698458
2490.000000;2.704470
2489.000000;2.714514
2488.000000;2.711418
2487.000000;2.674907
2486.000000;2.665526
2485.000000;2.794728
2484.000000;3.192935
2483.000000;3.228344
2482.000000;3.053860
2481.000000;3.161167
2480.000000;3.198308
2479.000000;3.042906
2478.000000;2.989649
2477.000000;2.997929
2476.000000;2.866076
2475.000000;2.836136
2474.000000;2.963747
2473.000000;2.995324
2472.000000;2.951728
2471.000000;2.998013
2470.000000;3.066579
2469.000000;3.020843
2468.000000;2.920253
2467.000000;2.833561
2466.000000;2.746529
2465.000000;2.724592
2464.000000;2.795028
2463.000000;2.900485
2462.000000;2.977076
2461.000000;3.093384
2460.000000;3.264453
2459.000000;3.115593
2458.000000;2.982410
2457.000000;2.976466
2456.000000;3.132658
2455.000000;3.354628
2454.000000;2.922158
2453.000000;2.732755
2452.000000;2.770312
2451.000000;2.860692
2450.000000;2.905261
2449.000000;2.885185
2448.000000;2.837813
2447.000000;2.771767
2446.000000;2.736166
2445.000000;2.791127
2444.000000;2.938946
2443.000000;3.086629
2442.000000;3.211318
2441.000000;3.253201
2440.000000;3.057119
2439.000000;2.847391
2438.000000;2.734155
2437.000000;2.773986
2436.000000;3.035407
2435.000000;3.148194
2434.000000;2.951377
2433.000000;2.900229
2432.000000;2.840136
2431.000000;2.758004
2430.000000;2.763104
2429.000000;2.926497
2428.000000;3.338068
2427.000000;3.651654
2426.000000;3.261526
2425.000000;2.958317
2424.000000;2.841225
2423.000000;2.857801
2422.000000;2.981605
2421.000000;3.302040
2420.000000;3.318153
2419.000000;3.008716
2418.000000;2.963581
2417.000000;3.078424
2416.000000;3.338521
2415.000000;3.418868
2414.000000;3.093778
2413.000000;2.917303
2412.000000;2.844807
2411.000000;2.859318
2410.000000;2.966769
2409.000000;2.885753
2408.000000;2.658950
2407.000000;2.548823
2406.000000;2.550213
2405.000000;2.643586
2404.000000;2.801189
2403.000000;2.953767
2402.000000;2.988172
2401.000000;2.938052
2400.000000;2.937151
2399.000000;2.945129
2398.000000;2.820374
2397.000000;2.667007
2396.000000;2.618102
2395.000000;2.743593
2394.000000;2.978530
2393.000000;2.934487
2392.000000;2.915077
2391.000000;2.987010
2390.000000;3.060889
2389.000000;3.081122
2388.000000;2.952391
2387.000000;2.848513
2386.000000;2.858851
2385.000000;2.926304
2384.000000;2.864682
2383.000000;2.784735
2382.000000;2.880951
2381.000000;3.271510
2380.000000;3.039920
2379.000000;2.724581
2378.000000;2.697289
2377.000000;2.783326
2376.000000;2.903350
2375.000000;2.944933
2374.000000;2.924739
2373.000000;2.895994
2372.000000;2.857098
2371.000000;2.810834
2370.000000;2.806788
2369.000000;2.922587
2368.000000;3.227223
2367.000000;3.260854
2366.000000;3.026773
2365.000000;2.923215
2364.000000;2.869840
2363.000000;2.853432
2362.000000;2.884958
2361.000000;3.052399
2360.000000;3.259788
2359.000000;3.064762
2358.000000;2.936319
2357.000000;2.898916
2356.000000;2.865701
2355.000000;2.886668
2354.000000;2.986184
2353.000000;3.047424
2352.000000;2.953587
2351.000000;2.900722
2350.000000;2.946636
2349.000000;2.985939
2348.000000;2.986975
2347.000000;3.036843
2346.000000;3.221581
2345.000000;3.440775
2344.000000;3.291104
2343.000000;3.032901
2342.000000;2.913405
2341.000000;2.890175
2340.000000;2.869717
2339.000000;2.892990
2338.000000;3.057608
2337.000000;3.087505
2336.000000;2.870994
2335.000000;2.821718
2334.000000;2.950553
2333.000000;3.142990
2332.000000;3.123347
2331.000000;3.086014
2330.000000;3.117142
2329.000000;3.208606
2328.000000;3.288843
2327.000000;3.095008
2326.000000;2.988839
2325.000000;3.095144
2324.000000;3.041403
2323.000000;2.866088
2322.000000;2.861068
2321.000000;3.046768
2320.000000;3.151770
2319.000000;3.034944
2318.000000;3.025306
2317.000000;3.008828
2316.000000;2.957184
2315.000000;2.996525
2314.000000;3.109110
2313.000000;3.332083
2312.000000;3.613154
2311.000000;3.042603
2310.000000;2.858053
2309.000000;2.860716
2308.000000;3.063995
2307.000000;3.445764
2306.000000;3.160284
2305.000000;2.980287
2304.000000;3.147495
2303.000000;3.373112
2302.000000;3.034162
2301.000000;2.872106
2300.000000;2.923232
2299.000000;3.262417
2298.000000;3.055517
2297.000000;2.747217
2296.000000;2.705683
2295.000000;2.772699
2294.000000;2.930219
2293.000000;3.106534
2292.000000;3.210899
2291.000000;3.639614
2290.000000;3.496211
2289.000000;3.152838
2288.000000;3.128094
2287.000000;3.210944
2286.000000;3.237046
2285.000000;3.087449
2284.000000;3.070697
2283.000000;3.301797
2282.000000;3.564023
2281.000000;3.743274
2280.000000;3.480842
2279.000000;3.099664
2278.000000;3.239390
2277.000000;3.574441
2276.000000;3.057640
2275.000000;2.821795
2274.000000;2.800298
2273.000000;2.941505
2272.000000;2.992803
2271.000000;2.891459
2270.000000;2.961882
2269.000000;3.028272
2268.000000;2.968945
2267.000000;3.033556
2266.000000;3.435644
2265.000000;3.161949
2264.000000;2.849389
2263.000000;2.763684
2262.000000;2.806699
2261.000000;2.973692
2260.000000;3.228161
2259.000000;3.272199
2258.000000;2.942343
2257.000000;2.752557
2256.000000;2.764728
2255.000000;2.962417
2254.000000;3.233994
2253.000000;3.194273
2252.000000;2.923149
2251.000000;2.710114
2250.000000;2.598350
2249.000000;2.562481
2248.000000;2.589851
2247.000000;2.680713
2246.000000;2.832107
2245.000000;3.066049
2244.000000;3.423631
2243.000000;3.600812
2242.000000;3.435635
2241.000000;2.989329
2240.000000;2.786130
2239.000000;2.804431
2238.000000;2.951842
2237.000000;3.088654
2236.000000;3.018132
2235.000000;2.837335
2234.000000;2.687772
2233.000000;2.606657
2232.000000;2.600972
2231.000000;2.666197
2230.000000;2.782672
2229.000000;2.964425
2228.000000;3.365494
2227.000000;3.197258
2226.000000;2.780284
2225.000000;2.676853
2224.000000;2.719484
2223.000000;2.905199
2222.000000;2.908573
2221.000000;2.720785
2220.000000;2.695113
2219.000000;2.873607
2218.000000;3.328852
2217.000000;3.290715
2216.000000;3.029968
2215.000000;2.844615
2214.000000;2.756847
2213.000000;2.799819
2212.000000;2.897481
2211.000000;3.066117
2210.000000;3.385110
2209.000000;4.036638
2208.000000;4.007329
2207.000000;3.377962
2206.000000;3.055380
2205.000000;2.864362
2204.000000;2.741467
2203.000000;2.684396
2202.000000;2.717423
2201.000000;2.881426
2200.000000;3.221907
2199.000000;3.237237
2198.000000;3.059636
2197.000000;3.093040
2196.000000;3.111998
2195.000000;3.111203
2194.000000;3.332557
2193.000000;3.366630
2192.000000;3.066545
2191.000000;3.042838
2190.000000;3.216179
2189.000000;3.654948
2188.000000;3.592939
2187.000000;3.309873
2186.000000;3.155251
2185.000000;3.074985
2184.000000;3.096803
2183.000000;3.183578
2182.000000;3.161468
2181.000000;3.000174
2180.000000;2.918296
2179.000000;3.049503
2178.000000;3.262359
2177.000000;2.768153
2176.000000;2.561468
2175.000000;2.488651
2174.000000;2.505069
2173.000000;2.587783
2172.000000;2.739144
2171.000000;2.945542
2170.000000;3.126400
2169.000000;3.139463
2168.000000;3.049320
2167.000000;2.944009
2166.000000;2.798222
2165.000000;2.688365
2164.000000;2.681182
2163.000000;2.749555
2162.000000;2.821376
2161.000000;2.876245
2160.000000;2.946766
2159.000000;3.055281
2158.000000;3.331484
2157.000000;3.512405
2156.000000;3.285846
2155.000000;3.142762
2154.000000;3.011102
2153.000000;2.964500
2152.000000;2.959578
2151.000000;2.909220
2150.000000;2.874893
2149.000000;2.919318
2148.000000;2.986244
2147.000000;3.069144
2146.000000;3.071919
2145.000000;2.879448
2144.000000;2.795597
2143.000000;2.837177
2142.000000;2.959703
2141.000000;3.176402
2140.000000;3.190430
2139.000000;2.963137
2138.000000;2.912449
2137.000000;2.984984
2136.000000;2.984329
2135.000000;2.859090
2134.000000;2.709962
2133.000000;2.580137
2132.000000;2.509203
2131.000000;2.515895
2130.000000;2.624482
2129.000000;2.705774
2128.000000;2.557736
2127.000000;2.454686
2126.000000;2.445968
2125.000000;2.482064
2124.000000;2.515117
2123.000000;2.514276
2122.000000;2.500257
2121.000000;2.511784
2120.000000;2.578443
2119.000000;2.718648
2118.000000;2.993945
2117.000000;3.492342
2116.000000;3.257522
2115.000000;3.053081
2114.000000;3.080661
2113.000000;3.246122
2112.000000;3.149498
2111.000000;2.998023
2110.000000;3.095164
2109.000000;3.661550
2108.000000;3.287036
2107.000000;2.815667
2106.000000;2.653771
2105.000000;2.659816
2104.000000;2.833437
2103.000000;3.376898
2102.000000;3.217433
2101.000000;2.996071
2100.000000;2.950994
2099.000000;2.965429
2098.000000;2.915505
2097.000000;2.761515
2096.000000;2.696215
2095.000000;2.706753
2094.000000;2.668355
2093.000000;2.592707
2092.000000;2.567896
2091.000000;2.599029
2090.000000;2.620994
2089.000000;2.566740
2088.000000;2.514219
2087.000000;2.531734
2086.000000;2.623787
2085.000000;2.792407
2084.000000;3.051494
2083.000000;3.494418
2082.000000;3.714353
2081.000000;3.354887
2080.000000;3.076605
2079.000000;2.874833
2078.000000;2.780736
2077.000000;2.798080
2076.000000;2.883880
2075.000000;2.894830
2074.000000;2.865092
2073.000000;2.931094
2072.000000;2.904749
2071.000000;2.726084
2070.000000;2.665220
2069.000000;2.759378
2068.000000;3.095883
2067.000000;3.479439
2066.000000;3.038235
2065.000000;3.027900
2064.000000;3.079044
2063.000000;3.008991
2062.000000;2.816819
2061.000000;2.703326
2060.000000;2.708291
2059.000000;2.768155
2058.000000;2.714894
2057.000000;2.608755
2056.000000;2.581526
2055.000000;2.651099
2054.000000;2.795400
2053.000000;2.941306
2052.000000;3.039246
2051.000000;3.108752
2050.000000;3.433208
2049.000000;3.356501
2048.000000;3.041393
2047.000000;3.010386
2046.000000;3.159993
2045.000000;3.123281
2044.000000;2.901457
2043.000000;2.797994
2042.000000;2.841978
2041.000000;2.992708
2040.000000;2.998879
2039.000000;3.142861
2038.000000;3.199855
2037.000000;2.766197
2036.000000;2.620908
2035.000000;2.589840
2034.000000;2.636822
2033.000000;2.713076
2032.000000;2.808276
2031.000000;2.909806
2030.000000;2.910556
2029.000000;2.893616
2028.000000;2.967812
2027.000000;3.509643
2026.000000;3.439818
2025.000000;3.000026
2024.000000;2.939275
2023.000000;3.040839
2022.000000;3.146882
2021.000000;3.264991
2020.000000;3.133511
2019.000000;2.957959
2018.000000;2.946705
2017.000000;2.993849
2016.000000;2.985785
2015.000000;3.139476
2014.000000;3.869882
2013.000000;2.956471
2012.000000;2.742381
2011.000000;2.662368
2010.000000;2.621583
2009.000000;2.619948
2008.000000;2.682410
2007.000000;2.779408
2006.000000;2.881993
2005.000000;2.977833
2004.000000;2.961427
2003.000000;2.821696
2002.000000;2.741365
2001.000000;2.806512
2000.000000;3.095471
1999.000000;3.477186
1998.000000;3.522252
1997.000000;3.596924
1996.000000;3.066515
1995.000000;2.795409
1994.000000;2.722560
1993.000000;2.765275
1992.000000;2.888692
1991.000000;3.041747
1990.000000;3.259413
1989.000000;3.583410
1988.000000;3.516384
1987.000000;3.218692
1986.000000;3.140093
1985.000000;3.338750
1984.000000;3.468771
1983.000000;3.332984
1982.000000;3.344758
1981.000000;3.662903
1980.000000;3.577137
1979.000000;3.037242
1978.000000;2.968369
1977.000000;3.203684
1976.000000;3.267610
1975.000000;3.054771
1974.000000;3.126260
1973.000000;3.299514
1972.000000;3.183120
1971.000000;3.083839
1970.000000;3.286322
1969.000000;3.332548
1968.000000;2.989806
1967.000000;2.888565
1966.000000;3.038376
1965.000000;3.331030
1964.000000;3.163547
1963.000000;3.205881
1962.000000;3.014544
1961.000000;2.737597
1960.000000;2.653358
1959.000000;2.686277
1958.000000;2.760132
1957.000000;2.773785
1956.000000;2.688402
1955.000000;2.567055
1954.000000;2.482132
1953.000000;2.472522
1952.000000;2.552928
1951.000000;2.705580
1950.000000;2.823641
1949.000000;2.821990
1948.000000;2.812741
1947.000000;2.871100
1946.000000;2.920024
1945.000000;2.929932
1944.000000;2.994544
1943.000000;3.134479
1942.000000;3.277279
1941.000000;3.348574
1940.000000;3.299519
1939.000000;2.951793
1938.000000;2.681097
1937.000000;2.558596
1936.000000;2.556136
1935.000000;2.630334
1934.000000;2.895584
1933.000000;3.592042
1932.000000;2.856900
1931.000000;2.677330
1930.000000;2.659294
1929.000000;2.726165
1928.000000;2.869827
1927.000000;3.110356
1926.000000;3.722407
1925.000000;3.558924
1924.000000;2.984693
1923.000000;2.743112
1922.000000;2.645828
1921.000000;2.703441
1920.000000;2.949736
1919.000000;3.326090
1918.000000;3.125050
1917.000000;3.013525
1916.000000;3.158682
1915.000000;3.399135
1914.000000;3.806308
1913.000000;3.668436
1912.000000;3.213750
1911.000000;3.069984
1910.000000;3.081369
1909.000000;3.162646
1908.000000;3.187683
1907.000000;3.090168
1906.000000;2.973848
1905.000000;2.893851
1904.000000;2.844612
1903.000000;2.788916
1902.000000;2.723351
1901.000000;2.668838
1900.000000;2.642878
1899.000000;2.667854
1898.000000;2.721459
1897.000000;2.702698
1896.000000;2.616181
1895.000000;2.579040
1894.000000;2.641637
1893.000000;2.797139
1892.000000;2.998758
1891.000000;3.211318
1890.000000;3.290539
1889.000000;3.346366
1888.000000;3.321282
1887.000000;2.902051
1886.000000;2.679924
1885.000000;2.627297
1884.000000;2.653346
1883.000000;2.738083
1882.000000;2.933845
1881.000000;3.390817
1880.000000;4.583174
1879.000000;3.535349
1878.000000;3.493463
1877.000000;3.768136
1876.000000;3.348608
1875.000000;3.105024
1874.000000;3.180484
1873.000000;3.451709
1872.000000;3.320515
1871.000000;3.037233
1870.000000;2.910701
1869.000000;2.883935
1868.000000;2.951840
1867.000000;3.037336
1866.000000;3.039908
1865.000000;3.010115
1864.000000;3.025213
1863.000000;3.034342
1862.000000;2.980067
1861.000000;2.841731
1860.000000;2.708970
1859.000000;2.671269
1858.000000;2.884920
1857.000000;3.270367
1856.000000;2.802668
1855.000000;2.691588
1854.000000;2.792282
1853.000000;2.987844
1852.000000;3.010478
1851.000000;2.811222
1850.000000;2.723500
1849.000000;2.739182
1848.000000;2.857963
1847.000000;3.009238
1846.000000;2.855774
1845.000000;2.629644
1844.000000;2.559332
1843.000000;2.650867
1842.000000;2.852440
1841.000000;2.703192
1840.000000;2.478751
1839.000000;2.411970
1838.000000;2.441452
1837.000000;2.547374
1836.000000;2.695197
1835.000000;2.901074
1834.000000;3.314317
1833.000000;3.547572
1832.000000;3.084209
1831.000000;2.943717
1830.000000;2.986523
1829.000000;2.910418
1828.000000;2.825937
1827.000000;2.818859
1826.000000;2.783314
1825.000000;2.691840
1824.000000;2.624106
1823.000000;2.633624
1822.000000;2.837130
1821.000000;3.277309
1820.000000;2.997051
1819.000000;2.706182
1818.000000;2.603700
1817.000000;2.609836
1816.000000;2.762510
1815.000000;2.893404
1814.000000;2.840479
1813.000000;2.841311
1812.000000;2.896447
1811.000000;2.988378
1810.000000;3.427298
1809.000000;3.268922
1808.000000;2.853894
1807.000000;2.723041
1806.000000;2.715228
1805.000000;2.784573
1804.000000;2.859908
1803.000000;2.886498
1802.000000;2.895582
1801.000000;2.955372
1800.000000;3.175504
1799.000000;3.655089
1798.000000;3.551714
1797.000000;3.269253
1796.000000;3.270286
1795.000000;3.315605
1794.000000;3.022982
1793.000000;2.740210
1792.000000;2.616374
1791.000000;2.629795
1790.000000;2.811695
1789.000000;3.099065
1788.000000;3.157758
1787.000000;3.254392
1786.000000;3.564261
1785.000000;3.467247
1784.000000;3.394669
1783.000000;3.487558
1782.000000;3.423686
1781.000000;3.273948
1780.000000;3.140281
1779.000000;3.112027
1778.000000;3.146376
1777.000000;3.052969
1776.000000;2.910095
1775.000000;2.819821
1774.000000;2.754644
1773.000000;2.888158
1772.000000;3.291395
1771.000000;3.196904
1770.000000;3.069119
1769.000000;3.318061
1768.000000;3.787404
1767.000000;3.249324
1766.000000;2.919768
1765.000000;2.797759
1764.000000;2.798601
1763.000000;2.936491
1762.000000;3.427756
1761.000000;3.509746
1760.000000;3.025761
1759.000000;2.833553
1758.000000;2.729141
1757.000000;2.749468
1756.000000;2.929704
1755.000000;3.112051
1754.000000;2.950450
1753.000000;2.810104
1752.000000;2.813750
1751.000000;2.948418
1750.000000;3.185084
1749.000000;3.210829
1748.000000;3.136911
1747.000000;3.108095
1746.000000;3.060444
1745.000000;2.969433
1744.000000;2.884785
1743.000000;2.860199
1742.000000;2.993588
1741.000000;3.438572
1740.000000;3.256144
1739.000000;3.001720
1738.000000;3.031091
1737.000000;3.052057
1736.000000;3.021743
1735.000000;2.974918
1734.000000;3.028321
1733.000000;3.176545
1732.000000;3.125207
1731.000000;2.975030
1730.000000;2.870207
1729.000000;2.869017
1728.000000;2.938965
1727.000000;3.150324
1726.000000;3.263652
1725.000000;3.291432
1724.000000;3.901464
1723.000000;3.021664
1722.000000;2.691545
1721.000000;2.653343
1720.000000;2.762727
1719.000000;2.899008
1718.000000;2.830830
1717.000000;2.820534
1716.000000;2.960084
1715.000000;3.287137
1714.000000;3.640267
1713.000000;3.416952
1712.000000;3.235183
1711.000000;3.146811
1710.000000;3.358500
1709.000000;3.468477
1708.000000;2.925122
1707.000000;2.668357
1706.000000;2.618454
1705.000000;2.711676
1704.000000;2.882081
1703.000000;3.108188
1702.000000;2.807113
1701.000000;2.552907
1700.000000;2.595055
1699.000000;2.766360
1698.000000;2.922203
1697.000000;2.911595
1696.000000;2.856676
1695.000000;2.795990
1694.000000;2.707232
1693.000000;2.747869
1692.000000;2.918647
1691.000000;3.179174
1690.000000;3.330316
1689.000000;3.162013
1688.000000;3.083732
1687.000000;3.154928
1686.000000;3.216686
1685.000000;3.154037
1684.000000;3.062128
1683.000000;2.924139
1682.000000;2.852942
1681.000000;2.821398
1680.000000;2.823356
1679.000000;2.900667
1678.000000;3.077850
1677.000000;3.774485
1676.000000;3.518922
1675.000000;3.034751
1674.000000;2.977882
1673.000000;2.969662
1672.000000;3.153085
1671.000000;3.731451
1670.000000;3.130920
1669.000000;2.941429
1668.000000;3.025797
1667.000000;3.096803
1666.000000;3.109837
1665.000000;3.068930
1664.000000;3.272881
1663.000000;3.374298
1662.000000;3.283407
1661.000000;3.212935
1660.000000;3.075635
1659.000000;3.027595
1658.000000;2.965252
1657.000000;2.921083
1656.000000;2.918155
1655.000000;2.887895
1654.000000;2.999978
1653.000000;3.056895
1652.000000;3.067767
1651.000000;3.191904
1650.000000;3.052458
1649.000000;2.868114
1648.000000;2.768229
1647.000000;2.818932
1646.000000;2.929935
1645.000000;2.942325
1644.000000;2.968191
1643.000000;2.993401
1642.000000;3.027466
1641.000000;3.081383
1640.000000;3.191209
1639.000000;3.257955
1638.000000;2.939505
1637.000000;2.665058
1636.000000;2.615104
1635.000000;2.691252
1634.000000;2.729760
1633.000000;2.679809
1632.000000;2.625926
1631.000000;2.635026
1630.000000;2.717775
1629.000000;3.098025
1628.000000;3.228121
1627.000000;2.737458
1626.000000;2.587541
1625.000000;2.596498
1624.000000;2.808400
1623.000000;3.176245
1622.000000;3.142517
1621.000000;3.028429
1620.000000;2.938856
1619.000000;2.816455
1618.000000;2.664637
1617.000000;2.575714
1616.000000;2.574043
1615.000000;2.647195
1614.000000;2.745935
1613.000000;3.015556
1612.000000;3.313784
1611.000000;2.878969
1610.000000;2.743456
1609.000000;2.776532
1608.000000;2.931444
1607.000000;3.394594
1606.000000;3.337793
1605.000000;2.998606
1604.000000;2.901919
1603.000000;2.910591
1602.000000;3.011963
1601.000000;3.049459
1600.000000;2.896944
1599.000000;2.776380
1598.000000;2.774138
1597.000000;2.879976
1596.000000;2.991710
1595.000000;3.054233
1594.000000;2.989078
1593.000000;3.008664
1592.000000;3.376698
1591.000000;3.479229
1590.000000;3.223642
1589.000000;3.396724
1588.000000;3.603701
1587.000000;3.277347
1586.000000;3.032729
1585.000000;3.146176
1584.000000;3.500135
1583.000000;3.136290
1582.000000;2.997479
1581.000000;2.956398
1580.000000;2.882465
1579.000000;2.910417
1578.000000;3.015363
1577.000000;3.171241
1576.000000;3.175571
1575.000000;3.077886
1574.000000;2.990555
1573.000000;2.886087
1572.000000;2.749467
1571.000000;2.604645
1570.000000;2.520924
1569.000000;2.541024
1568.000000;2.648967
1567.000000;2.779120
1566.000000;2.812458
1565.000000;2.886074
1564.000000;3.190993
1563.000000;3.284210
1562.000000;2.980922
1561.000000;2.822979
1560.000000;2.908863
1559.000000;2.957779
1558.000000;2.832830
1557.000000;2.842695
1556.000000;2.876111
1555.000000;2.854904
1554.000000;2.860264
1553.000000;2.944486
1552.000000;3.076934
1551.000000;3.554481
1550.000000;3.545904
1549.000000;2.947493
1548.000000;2.844612
1547.000000;2.849192
1546.000000;2.872479
1545.000000;2.909761
1544.000000;2.970570
1543.000000;3.369501
1542.000000;3.403788
1541.000000;2.861377
1540.000000;2.722530
1539.000000;2.750551
1538.000000;2.789762
1537.000000;2.806478
1536.000000;2.775266
1535.000000;2.774744
1534.000000;2.884890
1533.000000;3.151013
1532.000000;3.593601
1531.000000;3.618543
1530.000000;3.272613
1529.000000;3.160947
1528.000000;3.163732
1527.000000;3.178895
1526.000000;3.111789
1525.000000;2.983739
1524.000000;2.883666
1523.000000;2.828659
1522.000000;2.849373
1521.000000;3.013394
1520.000000;3.209869
1519.000000;3.138748
1518.000000;3.050709
1517.000000;3.053310
1516.000000;3.232513
1515.000000;3.606116
1514.000000;3.505111
1513.000000;3.320765
1512.000000;3.228370
1511.000000;3.208889
1510.000000;3.217503
1509.000000;3.190668
1508.000000;2.975806
1507.000000;2.871544
1506.000000;2.903565
1505.000000;3.057637
1504.000000;3.536105
1503.000000;3.406903
1502.000000;3.315689
1501.000000;3.701652
1500.000000;3.618235
1499.000000;3.261072
1498.000000;3.224987
1497.000000;3.294264
1496.000000;3.355163
1495.000000;3.209760
1494.000000;2.989811
1493.000000;2.871677
1492.000000;2.869551
1491.000000;2.904275
1490.000000;2.921867
1489.000000;2.908671
1488.000000;2.998441
1487.000000;3.562051
1486.000000;3.478599
1485.000000;3.183886
1484.000000;3.459747
1483.000000;3.146483
1482.000000;3.146823
1481.000000;3.953667
1480.000000;3.152228
1479.000000;2.984630
1478.000000;3.185880
1477.000000;3.265004
1476.000000;3.125626
1475.000000;3.055625
1474.000000;3.043555
1473.000000;3.191915
1472.000000;3.656232
1471.000000;3.339069
1470.000000;3.150957
1469.000000;2.991497
1468.000000;2.766700
1467.000000;2.626535
1466.000000;2.663287
1465.000000;2.859981
1464.000000;2.688338
1463.000000;2.538900
1462.000000;2.639200
1461.000000;2.894453
1460.000000;3.222880
1459.000000;3.286681
1458.000000;3.193697
1457.000000;3.146345
1456.000000;3.101916
1455.000000;3.015664
1454.000000;2.974591
1453.000000;2.962285
1452.000000;2.839501
1451.000000;2.673785
1450.000000;2.565647
1449.000000;2.546255
1448.000000;2.616289
1447.000000;2.870602
1446.000000;3.410621
1445.000000;3.147405
1444.000000;2.920175
1443.000000;2.947585
1442.000000;2.927337
1441.000000;2.829975
1440.000000;2.807616
1439.000000;2.891810
1438.000000;3.001290
1437.000000;3.103214
1436.000000;3.130356
1435.000000;3.019967
1434.000000;2.992791
1433.000000;3.196036
1432.000000;3.406846
1431.000000;3.205024
1430.000000;3.094011
1429.000000;3.090343
1428.000000;3.119666
1427.000000;3.151118
1426.000000;3.148124
1425.000000;3.122434
1424.000000;3.042835
1423.000000;2.961118
1422.000000;2.935598
1421.000000;2.944313
1420.000000;2.945274
1419.000000;2.934789
1418.000000;2.917772
1417.000000;2.887440
1416.000000;2.888272
1415.000000;2.957468
1414.000000;2.994934
1413.000000;2.947991
1412.000000;2.946756
1411.000000;3.063173
1410.000000;3.040858
1409.000000;2.829458
1408.000000;2.719346
1407.000000;2.685087
1406.000000;2.651413
1405.000000;2.613242
1404.000000;2.629630
1403.000000;2.751245
1402.000000;2.966563
1401.000000;3.113793
1400.000000;3.008831
1399.000000;2.848387
1398.000000;2.751849
1397.000000;2.717819
1396.000000;2.713021
1395.000000;2.712472
1394.000000;2.733279
1393.000000;2.726876
1392.000000;2.677000
1391.000000;2.661784
1390.000000;2.701923
1389.000000;2.796118
1388.000000;2.931423
1387.000000;3.384054
1386.000000;3.678884
1385.000000;3.138833
1384.000000;3.217549
1383.000000;3.342772
1382.000000;3.011392
1381.000000;2.824251
1380.000000;2.802657
1379.000000;2.919382
1378.000000;3.435822
1377.000000;3.375114
1376.000000;3.004594
1375.000000;2.936436
1374.000000;3.074335
1373.000000;3.653527
1372.000000;3.488807
1371.000000;3.286861
1370.000000;3.381303
1369.000000;3.325215
1368.000000;3.120975
1367.000000;2.997382
1366.000000;3.055441
1365.000000;3.203121
1364.000000;3.085600
1363.000000;2.860325
1362.000000;2.735888
1361.000000;2.727786
1360.000000;2.832969
1359.000000;3.012574
1358.000000;3.147707
1357.000000;3.055894
1356.000000;2.878987
1355.000000;2.762617
1354.000000;2.693181
1353.000000;2.632021
1352.000000;2.585871
1351.000000;2.606157
1350.000000;2.733092
1349.000000;3.085290
1348.000000;3.397205
1347.000000;3.036263
1346.000000;2.985731
1345.000000;3.145905
1344.000000;3.247238
1343.000000;3.278682
1342.000000;3.426210
1341.000000;3.375443
1340.000000;3.155375
1339.000000;3.004765
1338.000000;3.155827
1337.000000;3.510731
1336.000000;2.955232
1335.000000;2.745518
1334.000000;2.788137
1333.000000;2.997163
1332.000000;3.036632
1331.000000;2.856119
1330.000000;2.815811
1329.000000;2.890476
1328.000000;3.035933
1327.000000;3.037599
1326.000000;2.986194
1325.000000;3.067476
1324.000000;3.030297
1323.000000;2.800750
1322.000000;2.626654
1321.000000;2.569987
1320.000000;2.625275
1319.000000;2.871296
1318.000000;3.323458
1317.000000;2.888861
1316.000000;2.701395
1315.000000;2.683699
1314.000000;2.756321
1313.000000;2.860523
1312.000000;2.882224
1311.000000;2.943515
1310.000000;3.004753
1309.000000;2.951189
1308.000000;2.908306
1307.000000;2.937739
1306.000000;2.933090
1305.000000;2.859876
1304.000000;2.881413
1303.000000;2.916887
1302.000000;2.813447
1301.000000;2.709536
1300.000000;2.670929
1299.000000;2.677803
1298.000000;2.740318
1297.000000;2.912956
1296.000000;3.135908
1295.000000;3.102641
1294.000000;2.939862
1293.000000;2.825017
1292.000000;2.801704
1291.000000;2.790708
1290.000000;2.757462
1289.000000;2.753892
1288.000000;2.958667
1287.000000;3.524650
1286.000000;2.938512
1285.000000;2.730776
1284.000000;2.735836
1283.000000;2.840629
1282.000000;2.972974
1281.000000;3.092010
1280.000000;3.194210
1279.000000;3.202048
1278.000000;3.103908
1277.000000;3.058804
1276.000000;3.316955
1275.000000;3.337860
1274.000000;3.110669
1273.000000;3.181201
1272.000000;3.385088
1271.000000;3.096067
1270.000000;2.765751
1269.000000;2.621770
1268.000000;2.632714
1267.000000;2.786998
1266.000000;3.050148
1265.000000;3.292255
1264.000000;3.448762
1263.000000;3.304579
1262.000000;3.044631
1261.000000;2.845427
1260.000000;2.720092
1259.000000;2.676484
1258.000000;2.720201
1257.000000;2.855935
1256.000000;3.068176
1255.000000;3.306785
1254.000000;3.562506
1253.000000;3.626221
1252.000000;3.364442
1251.000000;3.058690
1250.000000;2.830030
1249.000000;2.750639
1248.000000;2.867733
1247.000000;3.421014
1246.000000;3.017579
1245.000000;2.704245
1244.000000;2.621468
1243.000000;2.564681
1242.000000;2.569820
1241.000000;2.653569
1240.000000;2.748150
1239.000000;2.730720
1238.000000;2.757746
1237.000000;2.993081
1236.000000;3.072800
1235.000000;2.795443
1234.000000;2.706278
1233.000000;2.703075
1232.000000;2.910242
1231.000000;3.301532
1230.000000;2.848799
1229.000000;2.668456
1228.000000;2.629076
1227.000000;2.655449
1226.000000;2.784686
1225.000000;3.314023
1224.000000;3.236699
1223.000000;2.897955
1222.000000;3.010849
1221.000000;2.924424
1220.000000;2.766693
1219.000000;2.734290
1218.000000;2.873351
1217.000000;2.962566
1216.000000;2.806982
1215.000000;2.766773
1214.000000;2.851356
1213.000000;3.025923
1212.000000;3.124047
1211.000000;2.819861
1210.000000;2.636825
1209.000000;2.598137
1208.000000;2.669256
1207.000000;2.896824
1206.000000;3.372361
1205.000000;3.197431
1204.000000;3.089897
1203.000000;3.029252
1202.000000;2.863631
1201.000000;2.800599
1200.000000;2.738352
