Criado como novo conjunto de dados;"2706_e01_daniel.spp","38884.1 Secs"
cm-1;Abs
10000.000000;0.708055
9999.000000;0.708067
9998.000000;0.708080
9997.000000;0.708093
9996.000000;0.708105
9995.000000;0.708118
9994.000000;0.708130
9993.000000;0.708145
9992.000000;0.708154
9991.000000;0.708173
9990.000000;0.708171
9989.000000;0.708277
9988.000000;0.708606
9987.000000;0.708949
9986.000000;0.708931
9985.000000;0.708323
9984.000000;0.707294
9983.000000;0.706254
9982.000000;0.705528
9981.000000;0.705195
9980.000000;0.705155
9979.000000;0.705244
9978.000000;0.705312
9977.000000;0.705327
9976.000000;0.705430
9975.000000;0.705793
9974.000000;0.706420
9973.000000;0.707140
9972.000000;0.707779
9971.000000;0.708216
9970.000000;0.708294
9969.000000;0.707894
9968.000000;0.707171
9967.000000;0.706511
9966.000000;0.706145
9965.000000;0.705920
9964.000000;0.705593
9963.000000;0.705204
9962.000000;0.704971
9961.000000;0.704891
9960.000000;0.704709
9959.000000;0.704313
9958.000000;0.703966
9957.000000;0.704013
9956.000000;0.704421
9955.000000;0.704761
9954.000000;0.704653
9953.000000;0.704174
9952.000000;0.703747
9951.000000;0.703654
9950.000000;0.703749
9949.000000;0.703712
9948.000000;0.703490
9947.000000;0.703318
9946.000000;0.703344
9945.000000;0.703427
9944.000000;0.703391
9943.000000;0.703291
9942.000000;0.703293
9941.000000;0.703392
9940.000000;0.703428
9939.000000;0.703348
9938.000000;0.703305
9937.000000;0.703465
9936.000000;0.703796
9935.000000;0.704072
9934.000000;0.704035
9933.000000;0.703586
9932.000000;0.702882
9931.000000;0.702245
9930.000000;0.701891
9929.000000;0.701747
9928.000000;0.701561
9927.000000;0.701217
9926.000000;0.700916
9925.000000;0.700996
9924.000000;0.701540
9923.000000;0.702165
9922.000000;0.702291
9921.000000;0.701698
9920.000000;0.700772
9919.000000;0.700147
9918.000000;0.700146
9917.000000;0.700591
9916.000000;0.701064
9915.000000;0.701252
9914.000000;0.701110
9913.000000;0.700838
9912.000000;0.700695
9911.000000;0.700728
9910.000000;0.700687
9909.000000;0.700320
9908.000000;0.699705
9907.000000;0.699171
9906.000000;0.698900
9905.000000;0.698778
9904.000000;0.698606
9903.000000;0.698277
9902.000000;0.697763
9901.000000;0.697141
9900.000000;0.696668
9899.000000;0.696638
9898.000000;0.697079
9897.000000;0.697728
9896.000000;0.698313
9895.000000;0.698713
9894.000000;0.698848
9893.000000;0.698645
9892.000000;0.698181
9891.000000;0.697679
9890.000000;0.697287
9889.000000;0.697047
9888.000000;0.697040
9887.000000;0.697305
9886.000000;0.697584
9885.000000;0.697496
9884.000000;0.697081
9883.000000;0.696854
9882.000000;0.697126
9881.000000;0.697588
9880.000000;0.697807
9879.000000;0.697853
9878.000000;0.698091
9877.000000;0.698527
9876.000000;0.698740
9875.000000;0.698402
9874.000000;0.697576
9873.000000;0.696546
9872.000000;0.695620
9871.000000;0.695076
9870.000000;0.695043
9869.000000;0.695354
9868.000000;0.695668
9867.000000;0.695779
9866.000000;0.695745
9865.000000;0.695765
9864.000000;0.696021
9863.000000;0.696578
9862.000000;0.697301
9861.000000;0.697887
9860.000000;0.698082
9859.000000;0.697824
9858.000000;0.697165
9857.000000;0.696211
9856.000000;0.695239
9855.000000;0.694650
9854.000000;0.694600
9853.000000;0.694792
9852.000000;0.694827
9851.000000;0.694678
9850.000000;0.694611
9849.000000;0.694729
9848.000000;0.694837
9847.000000;0.694738
9846.000000;0.694467
9845.000000;0.694179
9844.000000;0.693952
9843.000000;0.693751
9842.000000;0.693520
9841.000000;0.693297
9840.000000;0.693253
9839.000000;0.693524
9838.000000;0.693963
9837.000000;0.694226
9836.000000;0.694200
9835.000000;0.694172
9834.000000;0.694440
9833.000000;0.694907
9832.000000;0.695240
9831.000000;0.695276
9830.000000;0.695052
9829.000000;0.694606
9828.000000;0.694011
9827.000000;0.693495
9826.000000;0.693248
9825.000000;0.693153
9824.000000;0.692957
9823.000000;0.692652
9822.000000;0.692445
9821.000000;0.692379
9820.000000;0.692297
9819.000000;0.692139
9818.000000;0.691997
9817.000000;0.691856
9816.000000;0.691574
9815.000000;0.691214
9814.000000;0.691095
9813.000000;0.691384
9812.000000;0.691842
9811.000000;0.692121
9810.000000;0.692120
9809.000000;0.691907
9808.000000;0.691489
9807.000000;0.690889
9806.000000;0.690317
9805.000000;0.690032
9804.000000;0.690066
9803.000000;0.690218
9802.000000;0.690325
9801.000000;0.690405
9800.000000;0.690541
9799.000000;0.690728
9798.000000;0.690887
9797.000000;0.690943
9796.000000;0.690860
9795.000000;0.690632
9794.000000;0.690319
9793.000000;0.690064
9792.000000;0.689985
9791.000000;0.690019
9790.000000;0.689933
9789.000000;0.689574
9788.000000;0.689109
9787.000000;0.688892
9786.000000;0.689081
9785.000000;0.689495
9784.000000;0.689851
9783.000000;0.690024
9782.000000;0.690005
9781.000000;0.689766
9780.000000;0.689305
9779.000000;0.688764
9778.000000;0.688351
9777.000000;0.688182
9776.000000;0.688254
9775.000000;0.688500
9774.000000;0.688763
9773.000000;0.688828
9772.000000;0.688620
9771.000000;0.688316
9770.000000;0.688142
9769.000000;0.688092
9768.000000;0.687972
9767.000000;0.687682
9766.000000;0.687315
9765.000000;0.687045
9764.000000;0.687029
9763.000000;0.687352
9762.000000;0.687884
9761.000000;0.688266
9760.000000;0.688201
9759.000000;0.687782
9758.000000;0.687354
9757.000000;0.687103
9756.000000;0.686967
9755.000000;0.686940
9754.000000;0.687183
9753.000000;0.687722
9752.000000;0.688238
9751.000000;0.688348
9750.000000;0.688007
9749.000000;0.687478
9748.000000;0.686966
9747.000000;0.686437
9746.000000;0.685813
9745.000000;0.685230
9744.000000;0.685009
9743.000000;0.685369
9742.000000;0.686155
9741.000000;0.686875
9740.000000;0.687042
9739.000000;0.686538
9738.000000;0.685689
9737.000000;0.685022
9736.000000;0.684920
9735.000000;0.685382
9734.000000;0.686036
9733.000000;0.686414
9732.000000;0.686307
9731.000000;0.685887
9730.000000;0.685495
9729.000000;0.685351
9728.000000;0.685476
9727.000000;0.685785
9726.000000;0.686130
9725.000000;0.686317
9724.000000;0.686209
9723.000000;0.685848
9722.000000;0.685439
9721.000000;0.685172
9720.000000;0.685099
9719.000000;0.685116
9718.000000;0.685037
9717.000000;0.684746
9716.000000;0.684331
9715.000000;0.684052
9714.000000;0.684107
9713.000000;0.684450
9712.000000;0.684876
9711.000000;0.685218
9710.000000;0.685421
9709.000000;0.685461
9708.000000;0.685326
9707.000000;0.685037
9706.000000;0.684616
9705.000000;0.684042
9704.000000;0.683347
9703.000000;0.682722
9702.000000;0.682426
9701.000000;0.682524
9700.000000;0.682799
9699.000000;0.682958
9698.000000;0.682898
9697.000000;0.682733
9696.000000;0.682624
9695.000000;0.682625
9694.000000;0.682680
9693.000000;0.682734
9692.000000;0.682793
9691.000000;0.682887
9690.000000;0.682993
9689.000000;0.683013
9688.000000;0.682842
9687.000000;0.682459
9686.000000;0.681991
9685.000000;0.681698
9684.000000;0.681820
9683.000000;0.682356
9682.000000;0.683000
9681.000000;0.683379
9680.000000;0.683341
9679.000000;0.683008
9678.000000;0.682589
9677.000000;0.682263
9676.000000;0.682154
9675.000000;0.682238
9674.000000;0.682261
9673.000000;0.681955
9672.000000;0.681403
9671.000000;0.681050
9670.000000;0.681224
9669.000000;0.681760
9668.000000;0.682187
9667.000000;0.682193
9666.000000;0.681820
9665.000000;0.681307
9664.000000;0.680871
9663.000000;0.680607
9662.000000;0.680484
9661.000000;0.680435
9660.000000;0.680457
9659.000000;0.680573
9658.000000;0.680698
9657.000000;0.680668
9656.000000;0.680447
9655.000000;0.680191
9654.000000;0.680035
9653.000000;0.679955
9652.000000;0.679913
9651.000000;0.679966
9650.000000;0.680094
9649.000000;0.680053
9648.000000;0.679616
9647.000000;0.678906
9646.000000;0.678344
9645.000000;0.678249
9644.000000;0.678577
9643.000000;0.679005
9642.000000;0.679171
9641.000000;0.678906
9640.000000;0.678372
9639.000000;0.677973
9638.000000;0.677991
9637.000000;0.678316
9636.000000;0.678593
9635.000000;0.678598
9634.000000;0.678383
9633.000000;0.678109
9632.000000;0.677886
9631.000000;0.677765
9630.000000;0.677756
9629.000000;0.677794
9628.000000;0.677764
9627.000000;0.677619
9626.000000;0.677469
9625.000000;0.677507
9624.000000;0.677838
9623.000000;0.678338
9622.000000;0.678714
9621.000000;0.678760
9620.000000;0.678552
9619.000000;0.678319
9618.000000;0.678129
9617.000000;0.677855
9616.000000;0.677473
9615.000000;0.677188
9614.000000;0.677165
9613.000000;0.677276
9612.000000;0.677300
9611.000000;0.677248
9610.000000;0.677284
9609.000000;0.677389
9608.000000;0.677325
9607.000000;0.676987
9606.000000;0.676615
9605.000000;0.676559
9604.000000;0.676903
9603.000000;0.677342
9602.000000;0.677435
9601.000000;0.677000
9600.000000;0.676309
9599.000000;0.675838
9598.000000;0.675772
9597.000000;0.675820
9596.000000;0.675612
9595.000000;0.675178
9594.000000;0.674889
9593.000000;0.674971
9592.000000;0.675265
9591.000000;0.675496
9590.000000;0.675586
9589.000000;0.675618
9588.000000;0.675623
9587.000000;0.675534
9586.000000;0.675333
9585.000000;0.675118
9584.000000;0.675023
9583.000000;0.675090
9582.000000;0.675258
9581.000000;0.675444
9580.000000;0.675582
9579.000000;0.675601
9578.000000;0.675387
9577.000000;0.674878
9576.000000;0.674187
9575.000000;0.673581
9574.000000;0.673292
9573.000000;0.673367
9572.000000;0.673688
9571.000000;0.674061
9570.000000;0.674268
9569.000000;0.674158
9568.000000;0.673786
9567.000000;0.673431
9566.000000;0.673361
9565.000000;0.673583
9564.000000;0.673867
9563.000000;0.673975
9562.000000;0.673842
9561.000000;0.673566
9560.000000;0.673306
9559.000000;0.673177
9558.000000;0.673184
9557.000000;0.673215
9556.000000;0.673138
9555.000000;0.672918
9554.000000;0.672654
9553.000000;0.672502
9552.000000;0.672540
9551.000000;0.672691
9550.000000;0.672789
9549.000000;0.672771
9548.000000;0.672756
9547.000000;0.672869
9546.000000;0.673019
9545.000000;0.672978
9544.000000;0.672708
9543.000000;0.672452
9542.000000;0.672445
9541.000000;0.672618
9540.000000;0.672688
9539.000000;0.672470
9538.000000;0.672044
9537.000000;0.671658
9536.000000;0.671522
9535.000000;0.671644
9534.000000;0.671814
9533.000000;0.671780
9532.000000;0.671506
9531.000000;0.671207
9530.000000;0.671124
9529.000000;0.671317
9528.000000;0.671673
9527.000000;0.672019
9526.000000;0.672176
9525.000000;0.672018
9524.000000;0.671581
9523.000000;0.671049
9522.000000;0.670582
9521.000000;0.670228
9520.000000;0.670005
9519.000000;0.669964
9518.000000;0.670063
9517.000000;0.670106
9516.000000;0.669940
9515.000000;0.669656
9514.000000;0.669462
9513.000000;0.669396
9512.000000;0.669308
9511.000000;0.669104
9510.000000;0.668906
9509.000000;0.668905
9508.000000;0.669137
9507.000000;0.669447
9506.000000;0.669637
9505.000000;0.669604
9504.000000;0.669354
9503.000000;0.668940
9502.000000;0.668466
9501.000000;0.668159
9500.000000;0.668286
9499.000000;0.668881
9498.000000;0.669580
9497.000000;0.669894
9496.000000;0.669686
9495.000000;0.669250
9494.000000;0.668917
9493.000000;0.668712
9492.000000;0.668491
9491.000000;0.668255
9490.000000;0.668184
9489.000000;0.668399
9488.000000;0.668800
9487.000000;0.669149
9486.000000;0.669246
9485.000000;0.669044
9484.000000;0.668658
9483.000000;0.668286
9482.000000;0.668078
9481.000000;0.668085
9480.000000;0.668271
9479.000000;0.668509
9478.000000;0.668587
9477.000000;0.668328
9476.000000;0.667758
9475.000000;0.667125
9474.000000;0.666703
9473.000000;0.666617
9472.000000;0.666827
9471.000000;0.667184
9470.000000;0.667486
9469.000000;0.667568
9468.000000;0.667413
9467.000000;0.667145
9466.000000;0.666886
9465.000000;0.666665
9464.000000;0.666440
9463.000000;0.666183
9462.000000;0.665922
9461.000000;0.665757
9460.000000;0.665802
9459.000000;0.666064
9458.000000;0.666405
9457.000000;0.666658
9456.000000;0.666738
9455.000000;0.666621
9454.000000;0.666314
9453.000000;0.665949
9452.000000;0.665739
9451.000000;0.665707
9450.000000;0.665584
9449.000000;0.665198
9448.000000;0.664823
9447.000000;0.664860
9446.000000;0.665244
9445.000000;0.665485
9444.000000;0.665304
9443.000000;0.664912
9442.000000;0.664615
9441.000000;0.664469
9440.000000;0.664424
9439.000000;0.664510
9438.000000;0.664723
9437.000000;0.664976
9436.000000;0.665280
9435.000000;0.665727
9434.000000;0.666150
9433.000000;0.666098
9432.000000;0.665380
9431.000000;0.664426
9430.000000;0.663861
9429.000000;0.663869
9428.000000;0.664185
9427.000000;0.664492
9426.000000;0.664610
9425.000000;0.664447
9424.000000;0.664024
9423.000000;0.663507
9422.000000;0.663040
9421.000000;0.662657
9420.000000;0.662448
9419.000000;0.662609
9418.000000;0.663121
9417.000000;0.663547
9416.000000;0.663470
9415.000000;0.663018
9414.000000;0.662723
9413.000000;0.662892
9412.000000;0.663345
9411.000000;0.663687
9410.000000;0.663622
9409.000000;0.663086
9408.000000;0.662310
9407.000000;0.661754
9406.000000;0.661737
9405.000000;0.662105
9404.000000;0.662409
9403.000000;0.662384
9402.000000;0.662103
9401.000000;0.661749
9400.000000;0.661459
9399.000000;0.661375
9398.000000;0.661599
9397.000000;0.662019
9396.000000;0.662382
9395.000000;0.662559
9394.000000;0.662618
9393.000000;0.662622
9392.000000;0.662538
9391.000000;0.662351
9390.000000;0.662103
9389.000000;0.661779
9388.000000;0.661315
9387.000000;0.660771
9386.000000;0.660346
9385.000000;0.660173
9384.000000;0.660194
9383.000000;0.660272
9382.000000;0.660337
9381.000000;0.660373
9380.000000;0.660354
9379.000000;0.660278
9378.000000;0.660199
9377.000000;0.660187
9376.000000;0.660298
9375.000000;0.660549
9374.000000;0.660872
9373.000000;0.661084
9372.000000;0.661011
9371.000000;0.660661
9370.000000;0.660247
9369.000000;0.660021
9368.000000;0.660076
9367.000000;0.660276
9366.000000;0.660367
9365.000000;0.660210
9364.000000;0.659917
9363.000000;0.659702
9362.000000;0.659606
9361.000000;0.659472
9360.000000;0.659227
9359.000000;0.659019
9358.000000;0.658982
9357.000000;0.659000
9356.000000;0.658889
9355.000000;0.658682
9354.000000;0.658584
9353.000000;0.658699
9352.000000;0.658961
9351.000000;0.659268
9350.000000;0.659526
9349.000000;0.659595
9348.000000;0.659405
9347.000000;0.659101
9346.000000;0.658916
9345.000000;0.658885
9344.000000;0.658825
9343.000000;0.658619
9342.000000;0.658359
9341.000000;0.658192
9340.000000;0.658128
9339.000000;0.658066
9338.000000;0.657908
9337.000000;0.657606
9336.000000;0.657196
9335.000000;0.656806
9334.000000;0.656604
9333.000000;0.656685
9332.000000;0.657005
9331.000000;0.657396
9330.000000;0.657647
9329.000000;0.657637
9328.000000;0.657447
9327.000000;0.657287
9326.000000;0.657274
9325.000000;0.657343
9324.000000;0.657387
9323.000000;0.657367
9322.000000;0.657237
9321.000000;0.656913
9320.000000;0.656442
9319.000000;0.656074
9318.000000;0.656017
9317.000000;0.656204
9316.000000;0.656428
9315.000000;0.656609
9314.000000;0.656768
9313.000000;0.656860
9312.000000;0.656829
9311.000000;0.656759
9310.000000;0.656780
9309.000000;0.656827
9308.000000;0.656730
9307.000000;0.656524
9306.000000;0.656451
9305.000000;0.656615
9304.000000;0.656793
9303.000000;0.656688
9302.000000;0.656260
9301.000000;0.655762
9300.000000;0.655513
9299.000000;0.655631
9298.000000;0.655909
9297.000000;0.655989
9296.000000;0.655733
9295.000000;0.655378
9294.000000;0.655230
9293.000000;0.655290
9292.000000;0.655352
9291.000000;0.655350
9290.000000;0.655387
9289.000000;0.655441
9288.000000;0.655327
9287.000000;0.655023
9286.000000;0.654790
9285.000000;0.654856
9284.000000;0.655124
9283.000000;0.655312
9282.000000;0.655259
9281.000000;0.654997
9280.000000;0.654626
9279.000000;0.654238
9278.000000;0.653927
9277.000000;0.653762
9276.000000;0.653754
9275.000000;0.653854
9274.000000;0.653959
9273.000000;0.653956
9272.000000;0.653824
9271.000000;0.653671
9270.000000;0.653607
9269.000000;0.653617
9268.000000;0.653659
9267.000000;0.653795
9266.000000;0.654066
9265.000000;0.654263
9264.000000;0.654064
9263.000000;0.653451
9262.000000;0.652800
9261.000000;0.652483
9260.000000;0.652535
9259.000000;0.652767
9258.000000;0.653029
9257.000000;0.653233
9256.000000;0.653260
9255.000000;0.653033
9254.000000;0.652639
9253.000000;0.652268
9252.000000;0.652050
9251.000000;0.652014
9250.000000;0.652110
9249.000000;0.652213
9248.000000;0.652135
9247.000000;0.651774
9246.000000;0.651243
9245.000000;0.650802
9244.000000;0.650651
9243.000000;0.650796
9242.000000;0.651083
9241.000000;0.651338
9240.000000;0.651509
9239.000000;0.651680
9238.000000;0.651923
9237.000000;0.652147
9236.000000;0.652192
9235.000000;0.652023
9234.000000;0.651745
9233.000000;0.651426
9232.000000;0.651078
9231.000000;0.650819
9230.000000;0.650837
9229.000000;0.651072
9228.000000;0.651107
9227.000000;0.650599
9226.000000;0.649735
9225.000000;0.649085
9224.000000;0.649006
9223.000000;0.649363
9222.000000;0.649805
9221.000000;0.650129
9220.000000;0.650314
9219.000000;0.650362
9218.000000;0.650258
9217.000000;0.650049
9216.000000;0.649864
9215.000000;0.649826
9214.000000;0.649976
9213.000000;0.650248
9212.000000;0.650496
9211.000000;0.650578
9210.000000;0.650456
9209.000000;0.650205
9208.000000;0.649912
9207.000000;0.649599
9206.000000;0.649278
9205.000000;0.649025
9204.000000;0.648935
9203.000000;0.648988
9202.000000;0.649029
9201.000000;0.648914
9200.000000;0.648659
9199.000000;0.648415
9198.000000;0.648319
9197.000000;0.648394
9196.000000;0.648538
9195.000000;0.648591
9194.000000;0.648434
9193.000000;0.648092
9192.000000;0.647746
9191.000000;0.647576
9190.000000;0.647599
9189.000000;0.647690
9188.000000;0.647761
9187.000000;0.647850
9186.000000;0.648004
9185.000000;0.648166
9184.000000;0.648243
9183.000000;0.648249
9182.000000;0.648288
9181.000000;0.648409
9180.000000;0.648518
9179.000000;0.648448
9178.000000;0.648120
9177.000000;0.647654
9176.000000;0.647311
9175.000000;0.647284
9174.000000;0.647508
9173.000000;0.647706
9172.000000;0.647660
9171.000000;0.647392
9170.000000;0.647051
9169.000000;0.646715
9168.000000;0.646405
9167.000000;0.646220
9166.000000;0.646307
9165.000000;0.646645
9164.000000;0.646980
9163.000000;0.647047
9162.000000;0.646826
9161.000000;0.646520
9160.000000;0.646310
9159.000000;0.646202
9158.000000;0.646091
9157.000000;0.645905
9156.000000;0.645666
9155.000000;0.645457
9154.000000;0.645377
9153.000000;0.645497
9152.000000;0.645820
9151.000000;0.646237
9150.000000;0.646570
9149.000000;0.646652
9148.000000;0.646417
9147.000000;0.645935
9146.000000;0.645393
9145.000000;0.645018
9144.000000;0.644920
9143.000000;0.644982
9142.000000;0.644947
9141.000000;0.644676
9140.000000;0.644274
9139.000000;0.643944
9138.000000;0.643796
9137.000000;0.643852
9136.000000;0.644124
9135.000000;0.644561
9134.000000;0.644957
9133.000000;0.645074
9132.000000;0.644879
9131.000000;0.644547
9130.000000;0.644234
9129.000000;0.643968
9128.000000;0.643798
9127.000000;0.643847
9126.000000;0.644131
9125.000000;0.644435
9124.000000;0.644501
9123.000000;0.644294
9122.000000;0.643996
9121.000000;0.643798
9120.000000;0.643778
9119.000000;0.643901
9118.000000;0.644041
9117.000000;0.644044
9116.000000;0.643873
9115.000000;0.643659
9114.000000;0.643518
9113.000000;0.643385
9112.000000;0.643111
9111.000000;0.642709
9110.000000;0.642378
9109.000000;0.642270
9108.000000;0.642341
9107.000000;0.642434
9106.000000;0.642454
9105.000000;0.642412
9104.000000;0.642353
9103.000000;0.642276
9102.000000;0.642139
9101.000000;0.641941
9100.000000;0.641789
9099.000000;0.641819
9098.000000;0.642020
9097.000000;0.642182
9096.000000;0.642083
9095.000000;0.641726
9094.000000;0.641318
9093.000000;0.641048
9092.000000;0.640966
9091.000000;0.641045
9090.000000;0.641275
9089.000000;0.641620
9088.000000;0.641927
9087.000000;0.641973
9086.000000;0.641667
9085.000000;0.641195
9084.000000;0.640902
9083.000000;0.640978
9082.000000;0.641258
9081.000000;0.641398
9080.000000;0.641219
9079.000000;0.640840
9078.000000;0.640478
9077.000000;0.640240
9076.000000;0.640114
9075.000000;0.640067
9074.000000;0.640065
9073.000000;0.640081
9072.000000;0.640141
9071.000000;0.640313
9070.000000;0.640577
9069.000000;0.640780
9068.000000;0.640794
9067.000000;0.640677
9066.000000;0.640595
9065.000000;0.640613
9064.000000;0.640648
9063.000000;0.640589
9062.000000;0.640398
9061.000000;0.640101
9060.000000;0.639771
9059.000000;0.639529
9058.000000;0.639472
9057.000000;0.639583
9056.000000;0.639728
9055.000000;0.639763
9054.000000;0.639631
9053.000000;0.639374
9052.000000;0.639106
9051.000000;0.638935
9050.000000;0.638870
9049.000000;0.638809
9048.000000;0.638664
9047.000000;0.638473
9046.000000;0.638359
9045.000000;0.638398
9044.000000;0.638561
9043.000000;0.638751
9042.000000;0.638863
9041.000000;0.638843
9040.000000;0.638740
9039.000000;0.638665
9038.000000;0.638645
9037.000000;0.638556
9036.000000;0.638292
9035.000000;0.637963
9034.000000;0.637812
9033.000000;0.637919
9032.000000;0.638087
9031.000000;0.638063
9030.000000;0.637830
9029.000000;0.637625
9028.000000;0.637668
9027.000000;0.637930
9026.000000;0.638157
9025.000000;0.638113
9024.000000;0.637795
9023.000000;0.637413
9022.000000;0.637187
9021.000000;0.637178
9020.000000;0.637274
9019.000000;0.637291
9018.000000;0.637080
9017.000000;0.636643
9016.000000;0.636197
9015.000000;0.636050
9014.000000;0.636327
9013.000000;0.636817
9012.000000;0.637140
9011.000000;0.637085
9010.000000;0.636763
9009.000000;0.636464
9008.000000;0.636411
9007.000000;0.636623
9006.000000;0.636932
9005.000000;0.637119
9004.000000;0.637080
9003.000000;0.636887
9002.000000;0.636689
9001.000000;0.636560
9000.000000;0.636459
8999.000000;0.636308
8998.000000;0.636070
8997.000000;0.635769
8996.000000;0.635479
8995.000000;0.635306
8994.000000;0.635322
8993.000000;0.635479
8992.000000;0.635602
8991.000000;0.635510
8990.000000;0.635183
8989.000000;0.634816
8988.000000;0.634665
8987.000000;0.634815
8986.000000;0.635098
8985.000000;0.635272
8984.000000;0.635264
8983.000000;0.635195
8982.000000;0.635199
8981.000000;0.635268
8980.000000;0.635294
8979.000000;0.635207
8978.000000;0.635046
8977.000000;0.634935
8976.000000;0.634973
8975.000000;0.635122
8974.000000;0.635205
8973.000000;0.635065
8972.000000;0.634712
8971.000000;0.634291
8970.000000;0.633917
8969.000000;0.633618
8968.000000;0.633416
8967.000000;0.633348
8966.000000;0.633399
8965.000000;0.633498
8964.000000;0.633612
8963.000000;0.633748
8962.000000;0.633856
8961.000000;0.633820
8960.000000;0.633602
8959.000000;0.633300
8958.000000;0.633028
8957.000000;0.632822
8956.000000;0.632721
8955.000000;0.632799
8954.000000;0.633035
8953.000000;0.633250
8952.000000;0.633304
8951.000000;0.633295
8950.000000;0.633408
8949.000000;0.633620
8948.000000;0.633690
8947.000000;0.633457
8946.000000;0.633024
8945.000000;0.632626
8944.000000;0.632410
8943.000000;0.632395
8942.000000;0.632527
8941.000000;0.632721
8940.000000;0.632879
8939.000000;0.632936
8938.000000;0.632895
8937.000000;0.632802
8936.000000;0.632690
8935.000000;0.632551
8934.000000;0.632349
8933.000000;0.632060
8932.000000;0.631714
8931.000000;0.631399
8930.000000;0.631180
8929.000000;0.631039
8928.000000;0.630911
8927.000000;0.630786
8926.000000;0.630727
8925.000000;0.630796
8924.000000;0.630961
8923.000000;0.631100
8922.000000;0.631091
8921.000000;0.630926
8920.000000;0.630726
8919.000000;0.630634
8918.000000;0.630699
8917.000000;0.630851
8916.000000;0.630980
8915.000000;0.631005
8914.000000;0.630909
8913.000000;0.630739
8912.000000;0.630591
8911.000000;0.630529
8910.000000;0.630533
8909.000000;0.630559
8908.000000;0.630636
8907.000000;0.630794
8906.000000;0.630935
8905.000000;0.630880
8904.000000;0.630614
8903.000000;0.630366
8902.000000;0.630348
8901.000000;0.630502
8900.000000;0.630596
8899.000000;0.630524
8898.000000;0.630383
8897.000000;0.630270
8896.000000;0.630131
8895.000000;0.629867
8894.000000;0.629504
8893.000000;0.629192
8892.000000;0.629049
8891.000000;0.629060
8890.000000;0.629127
8889.000000;0.629198
8888.000000;0.629305
8887.000000;0.629488
8886.000000;0.629697
8885.000000;0.629809
8884.000000;0.629733
8883.000000;0.629488
8882.000000;0.629191
8881.000000;0.628985
8880.000000;0.628959
8879.000000;0.629088
8878.000000;0.629233
8877.000000;0.629257
8876.000000;0.629149
8875.000000;0.629005
8874.000000;0.628890
8873.000000;0.628783
8872.000000;0.628648
8871.000000;0.628497
8870.000000;0.628352
8869.000000;0.628208
8868.000000;0.628063
8867.000000;0.627958
8866.000000;0.627946
8865.000000;0.628051
8864.000000;0.628251
8863.000000;0.628483
8862.000000;0.628646
8861.000000;0.628653
8860.000000;0.628504
8859.000000;0.628265
8858.000000;0.627997
8857.000000;0.627747
8856.000000;0.627586
8855.000000;0.627581
8854.000000;0.627683
8853.000000;0.627747
8852.000000;0.627687
8851.000000;0.627572
8850.000000;0.627531
8849.000000;0.627610
8848.000000;0.627760
8847.000000;0.627892
8846.000000;0.627937
8845.000000;0.627876
8844.000000;0.627750
8843.000000;0.627603
8842.000000;0.627424
8841.000000;0.627193
8840.000000;0.626979
8839.000000;0.626885
8838.000000;0.626902
8837.000000;0.626910
8836.000000;0.626841
8835.000000;0.626736
8834.000000;0.626619
8833.000000;0.626437
8832.000000;0.626208
8831.000000;0.626086
8830.000000;0.626196
8829.000000;0.626465
8828.000000;0.626722
8827.000000;0.626877
8826.000000;0.626933
8825.000000;0.626895
8824.000000;0.626774
8823.000000;0.626634
8822.000000;0.626520
8821.000000;0.626402
8820.000000;0.626236
8819.000000;0.626053
8818.000000;0.625886
8817.000000;0.625711
8816.000000;0.625549
8815.000000;0.625551
8814.000000;0.625844
8813.000000;0.626300
8812.000000;0.626603
8811.000000;0.626553
8810.000000;0.626218
8809.000000;0.625784
8808.000000;0.625402
8807.000000;0.625171
8806.000000;0.625138
8805.000000;0.625247
8804.000000;0.625354
8803.000000;0.625356
8802.000000;0.625258
8801.000000;0.625120
8800.000000;0.624988
8799.000000;0.624893
8798.000000;0.624860
8797.000000;0.624860
8796.000000;0.624815
8795.000000;0.624694
8794.000000;0.624576
8793.000000;0.624588
8792.000000;0.624783
8791.000000;0.625107
8790.000000;0.625455
8789.000000;0.625736
8788.000000;0.625897
8787.000000;0.625921
8786.000000;0.625829
8785.000000;0.625663
8784.000000;0.625463
8783.000000;0.625238
8782.000000;0.624972
8781.000000;0.624672
8780.000000;0.624393
8779.000000;0.624189
8778.000000;0.624056
8777.000000;0.623950
8776.000000;0.623866
8775.000000;0.623830
8774.000000;0.623832
8773.000000;0.623818
8772.000000;0.623788
8771.000000;0.623842
8770.000000;0.624062
8769.000000;0.624397
8768.000000;0.624683
8767.000000;0.624771
8766.000000;0.624616
8765.000000;0.624301
8764.000000;0.624000
8763.000000;0.623871
8762.000000;0.623923
8761.000000;0.624006
8760.000000;0.623969
8759.000000;0.623802
8758.000000;0.623609
8757.000000;0.623478
8756.000000;0.623434
8755.000000;0.623463
8754.000000;0.623546
8753.000000;0.623648
8752.000000;0.623738
8751.000000;0.623786
8750.000000;0.623755
8749.000000;0.623633
8748.000000;0.623487
8747.000000;0.623435
8746.000000;0.623514
8745.000000;0.623615
8744.000000;0.623619
8743.000000;0.623550
8742.000000;0.623523
8741.000000;0.623590
8740.000000;0.623684
8739.000000;0.623727
8738.000000;0.623721
8737.000000;0.623697
8736.000000;0.623633
8735.000000;0.623464
8734.000000;0.623169
8733.000000;0.622852
8732.000000;0.622694
8731.000000;0.622800
8730.000000;0.623069
8729.000000;0.623266
8728.000000;0.623236
8727.000000;0.623039
8726.000000;0.622842
8725.000000;0.622742
8724.000000;0.622721
8723.000000;0.622744
8722.000000;0.622823
8721.000000;0.622967
8720.000000;0.623129
8719.000000;0.623221
8718.000000;0.623183
8717.000000;0.623037
8716.000000;0.622884
8715.000000;0.622835
8714.000000;0.622935
8713.000000;0.623134
8712.000000;0.623317
8711.000000;0.623359
8710.000000;0.623183
8709.000000;0.622834
8708.000000;0.622485
8707.000000;0.622320
8706.000000;0.622381
8705.000000;0.622541
8704.000000;0.622643
8703.000000;0.622628
8702.000000;0.622552
8701.000000;0.622528
8700.000000;0.622635
8699.000000;0.622838
8698.000000;0.622985
8697.000000;0.622944
8696.000000;0.622745
8695.000000;0.622536
8694.000000;0.622400
8693.000000;0.622289
8692.000000;0.622156
8691.000000;0.622066
8690.000000;0.622122
8689.000000;0.622342
8688.000000;0.622640
8687.000000;0.622868
8686.000000;0.622890
8685.000000;0.622661
8684.000000;0.622295
8683.000000;0.621977
8682.000000;0.621784
8681.000000;0.621656
8680.000000;0.621566
8679.000000;0.621597
8678.000000;0.621777
8677.000000;0.621935
8676.000000;0.621841
8675.000000;0.621464
8674.000000;0.621017
8673.000000;0.620756
8672.000000;0.620786
8671.000000;0.621013
8670.000000;0.621233
8669.000000;0.621277
8668.000000;0.621136
8667.000000;0.620948
8666.000000;0.620816
8665.000000;0.620703
8664.000000;0.620551
8663.000000;0.620432
8662.000000;0.620497
8661.000000;0.620769
8660.000000;0.621077
8659.000000;0.621202
8658.000000;0.621050
8657.000000;0.620688
8656.000000;0.620283
8655.000000;0.619985
8654.000000;0.619821
8653.000000;0.619693
8652.000000;0.619502
8651.000000;0.619285
8650.000000;0.619169
8649.000000;0.619217
8648.000000;0.619347
8647.000000;0.619433
8646.000000;0.619431
8645.000000;0.619401
8644.000000;0.619406
8643.000000;0.619405
8642.000000;0.619272
8641.000000;0.618944
8640.000000;0.618531
8639.000000;0.618235
8638.000000;0.618150
8637.000000;0.618192
8636.000000;0.618228
8635.000000;0.618217
8634.000000;0.618197
8633.000000;0.618186
8632.000000;0.618161
8631.000000;0.618106
8630.000000;0.618033
8629.000000;0.617970
8628.000000;0.617921
8627.000000;0.617840
8626.000000;0.617640
8625.000000;0.617281
8624.000000;0.616857
8623.000000;0.616543
8622.000000;0.616436
8621.000000;0.616483
8620.000000;0.616577
8619.000000;0.616656
8618.000000;0.616687
8617.000000;0.616644
8616.000000;0.616543
8615.000000;0.616426
8614.000000;0.616258
8613.000000;0.615951
8612.000000;0.615532
8611.000000;0.615228
8610.000000;0.615249
8609.000000;0.615544
8608.000000;0.615840
8607.000000;0.615914
8606.000000;0.615734
8605.000000;0.615391
8604.000000;0.615001
8603.000000;0.614684
8602.000000;0.614518
8601.000000;0.614491
8600.000000;0.614528
8599.000000;0.614581
8598.000000;0.614650
8597.000000;0.614718
8596.000000;0.614726
8595.000000;0.614631
8594.000000;0.614455
8593.000000;0.614273
8592.000000;0.614170
8591.000000;0.614181
8590.000000;0.614223
8589.000000;0.614121
8588.000000;0.613769
8587.000000;0.613274
8586.000000;0.612876
8585.000000;0.612707
8584.000000;0.612675
8583.000000;0.612598
8582.000000;0.612410
8581.000000;0.612209
8580.000000;0.612131
8579.000000;0.612195
8578.000000;0.612292
8577.000000;0.612289
8576.000000;0.612170
8575.000000;0.612045
8574.000000;0.612029
8573.000000;0.612130
8572.000000;0.612249
8571.000000;0.612278
8570.000000;0.612178
8569.000000;0.612000
8568.000000;0.611827
8567.000000;0.611690
8566.000000;0.611528
8565.000000;0.611274
8564.000000;0.610975
8563.000000;0.610777
8562.000000;0.610739
8561.000000;0.610742
8560.000000;0.610635
8559.000000;0.610433
8558.000000;0.610279
8557.000000;0.610223
8556.000000;0.610152
8555.000000;0.609965
8554.000000;0.609731
8553.000000;0.609592
8552.000000;0.609573
8551.000000;0.609553
8550.000000;0.609437
8549.000000;0.609281
8548.000000;0.609195
8547.000000;0.609181
8546.000000;0.609128
8545.000000;0.608978
8544.000000;0.608815
8543.000000;0.608738
8542.000000;0.608706
8541.000000;0.608593
8540.000000;0.608370
8539.000000;0.608158
8538.000000;0.608081
8537.000000;0.608139
8536.000000;0.608243
8535.000000;0.608316
8534.000000;0.608312
8533.000000;0.608197
8532.000000;0.607969
8531.000000;0.607670
8530.000000;0.607353
8529.000000;0.607069
8528.000000;0.606894
8527.000000;0.606908
8526.000000;0.607084
8525.000000;0.607230
8524.000000;0.607143
8523.000000;0.606812
8522.000000;0.606437
8521.000000;0.606229
8520.000000;0.606226
8519.000000;0.606301
8518.000000;0.606299
8517.000000;0.606147
8516.000000;0.605871
8515.000000;0.605550
8514.000000;0.605263
8513.000000;0.605061
8512.000000;0.604965
8511.000000;0.604956
8510.000000;0.604989
8509.000000;0.605022
8508.000000;0.605052
8507.000000;0.605108
8506.000000;0.605195
8505.000000;0.605269
8504.000000;0.605269
8503.000000;0.605173
8502.000000;0.605013
8501.000000;0.604840
8500.000000;0.604681
8499.000000;0.604521
8498.000000;0.604326
8497.000000;0.604115
8496.000000;0.603962
8495.000000;0.603909
8494.000000;0.603887
8493.000000;0.603790
8492.000000;0.603604
8491.000000;0.603411
8490.000000;0.603270
8489.000000;0.603155
8488.000000;0.603033
8487.000000;0.602933
8486.000000;0.602892
8485.000000;0.602867
8484.000000;0.602765
8483.000000;0.602543
8482.000000;0.602250
8481.000000;0.601978
8480.000000;0.601800
8479.000000;0.601735
8478.000000;0.601747
8477.000000;0.601770
8476.000000;0.601746
8475.000000;0.601650
8474.000000;0.601505
8473.000000;0.601383
8472.000000;0.601352
8471.000000;0.601391
8470.000000;0.601377
8469.000000;0.601215
8468.000000;0.600979
8467.000000;0.600850
8466.000000;0.600897
8465.000000;0.600988
8464.000000;0.600931
8463.000000;0.600688
8462.000000;0.600399
8461.000000;0.600243
8460.000000;0.600272
8459.000000;0.600374
8458.000000;0.600368
8457.000000;0.600180
8456.000000;0.599908
8455.000000;0.599703
8454.000000;0.599601
8453.000000;0.599524
8452.000000;0.599431
8451.000000;0.599380
8450.000000;0.599412
8449.000000;0.599454
8448.000000;0.599388
8447.000000;0.599186
8446.000000;0.598923
8445.000000;0.598703
8444.000000;0.598596
8443.000000;0.598611
8442.000000;0.598696
8441.000000;0.598777
8440.000000;0.598826
8439.000000;0.598850
8438.000000;0.598824
8437.000000;0.598686
8436.000000;0.598439
8435.000000;0.598196
8434.000000;0.598074
8433.000000;0.598065
8432.000000;0.598044
8431.000000;0.597909
8430.000000;0.597660
8429.000000;0.597378
8428.000000;0.597165
8427.000000;0.597096
8426.000000;0.597181
8425.000000;0.597355
8424.000000;0.597500
8423.000000;0.597516
8422.000000;0.597377
8421.000000;0.597152
8420.000000;0.596954
8419.000000;0.596838
8418.000000;0.596756
8417.000000;0.596635
8416.000000;0.596471
8415.000000;0.596308
8414.000000;0.596161
8413.000000;0.596017
8412.000000;0.595915
8411.000000;0.595929
8410.000000;0.596054
8409.000000;0.596169
8408.000000;0.596154
8407.000000;0.596001
8406.000000;0.595785
8405.000000;0.595574
8404.000000;0.595399
8403.000000;0.595271
8402.000000;0.595186
8401.000000;0.595140
8400.000000;0.595165
8399.000000;0.595290
8398.000000;0.595448
8397.000000;0.595481
8396.000000;0.595312
8395.000000;0.595069
8394.000000;0.594969
8393.000000;0.595074
8392.000000;0.595226
8391.000000;0.595231
8390.000000;0.595055
8389.000000;0.594817
8388.000000;0.594609
8387.000000;0.594402
8386.000000;0.594129
8385.000000;0.593826
8384.000000;0.593608
8383.000000;0.593511
8382.000000;0.593434
8381.000000;0.593282
8380.000000;0.593096
8379.000000;0.592968
8378.000000;0.592888
8377.000000;0.592758
8376.000000;0.592572
8375.000000;0.592455
8374.000000;0.592506
8373.000000;0.592672
8372.000000;0.592824
8371.000000;0.592884
8370.000000;0.592851
8369.000000;0.592761
8368.000000;0.592655
8367.000000;0.592560
8366.000000;0.592455
8365.000000;0.592289
8364.000000;0.592063
8363.000000;0.591850
8362.000000;0.591705
8361.000000;0.591613
8360.000000;0.591544
8359.000000;0.591504
8358.000000;0.591492
8357.000000;0.591454
8356.000000;0.591339
8355.000000;0.591175
8354.000000;0.591030
8353.000000;0.590919
8352.000000;0.590782
8351.000000;0.590583
8350.000000;0.590366
8349.000000;0.590220
8348.000000;0.590174
8347.000000;0.590168
8346.000000;0.590122
8345.000000;0.590040
8344.000000;0.590005
8343.000000;0.590078
8342.000000;0.590219
8341.000000;0.590335
8340.000000;0.590355
8339.000000;0.590268
8338.000000;0.590103
8337.000000;0.589938
8336.000000;0.589861
8335.000000;0.589867
8334.000000;0.589823
8333.000000;0.589627
8332.000000;0.589357
8331.000000;0.589192
8330.000000;0.589177
8329.000000;0.589187
8328.000000;0.589118
8327.000000;0.589002
8326.000000;0.588902
8325.000000;0.588807
8324.000000;0.588681
8323.000000;0.588564
8322.000000;0.588509
8321.000000;0.588489
8320.000000;0.588422
8319.000000;0.588286
8318.000000;0.588145
8317.000000;0.588063
8316.000000;0.588029
8315.000000;0.587963
8314.000000;0.587804
8313.000000;0.587592
8312.000000;0.587450
8311.000000;0.587450
8310.000000;0.587518
8309.000000;0.587500
8308.000000;0.587337
8307.000000;0.587126
8306.000000;0.586989
8305.000000;0.586944
8304.000000;0.586915
8303.000000;0.586823
8302.000000;0.586657
8301.000000;0.586476
8300.000000;0.586375
8299.000000;0.586394
8298.000000;0.586469
8297.000000;0.586491
8296.000000;0.586414
8295.000000;0.586283
8294.000000;0.586170
8293.000000;0.586139
8292.000000;0.586236
8291.000000;0.586436
8290.000000;0.586598
8289.000000;0.586548
8288.000000;0.586247
8287.000000;0.585825
8286.000000;0.585438
8285.000000;0.585152
8284.000000;0.584964
8283.000000;0.584860
8282.000000;0.584801
8281.000000;0.584729
8280.000000;0.584624
8279.000000;0.584537
8278.000000;0.584521
8277.000000;0.584575
8276.000000;0.584654
8275.000000;0.584719
8274.000000;0.584752
8273.000000;0.584773
8272.000000;0.584822
8271.000000;0.584895
8270.000000;0.584909
8269.000000;0.584789
8268.000000;0.584572
8267.000000;0.584362
8266.000000;0.584183
8265.000000;0.583977
8264.000000;0.583740
8263.000000;0.583558
8262.000000;0.583490
8261.000000;0.583485
8260.000000;0.583467
8259.000000;0.583421
8258.000000;0.583365
8257.000000;0.583302
8256.000000;0.583244
8255.000000;0.583212
8254.000000;0.583184
8253.000000;0.583113
8252.000000;0.583008
8251.000000;0.582926
8250.000000;0.582865
8249.000000;0.582759
8248.000000;0.582610
8247.000000;0.582521
8246.000000;0.582532
8245.000000;0.582536
8244.000000;0.582435
8243.000000;0.582300
8242.000000;0.582277
8241.000000;0.582372
8240.000000;0.582442
8239.000000;0.582365
8238.000000;0.582150
8237.000000;0.581900
8236.000000;0.581724
8235.000000;0.581669
8234.000000;0.581688
8233.000000;0.581677
8232.000000;0.581593
8231.000000;0.581493
8230.000000;0.581449
8229.000000;0.581466
8228.000000;0.581509
8227.000000;0.581542
8226.000000;0.581486
8225.000000;0.581236
8224.000000;0.580820
8223.000000;0.580455
8222.000000;0.580364
8221.000000;0.580520
8220.000000;0.580681
8219.000000;0.580667
8218.000000;0.580534
8217.000000;0.580455
8216.000000;0.580512
8215.000000;0.580631
8214.000000;0.580679
8213.000000;0.580585
8212.000000;0.580370
8211.000000;0.580102
8210.000000;0.579832
8209.000000;0.579604
8208.000000;0.579477
8207.000000;0.579482
8206.000000;0.579542
8205.000000;0.579512
8204.000000;0.579322
8203.000000;0.579057
8202.000000;0.578840
8201.000000;0.578712
8200.000000;0.578653
8199.000000;0.578663
8198.000000;0.578748
8197.000000;0.578858
8196.000000;0.578890
8195.000000;0.578790
8194.000000;0.578608
8193.000000;0.578457
8192.000000;0.578409
8191.000000;0.578421
8190.000000;0.578363
8189.000000;0.578174
8188.000000;0.577958
8187.000000;0.577879
8186.000000;0.577952
8185.000000;0.578026
8184.000000;0.577983
8183.000000;0.577867
8182.000000;0.577783
8181.000000;0.577748
8180.000000;0.577718
8179.000000;0.577671
8178.000000;0.577607
8177.000000;0.577501
8176.000000;0.577340
8175.000000;0.577160
8174.000000;0.577006
8173.000000;0.576875
8172.000000;0.576762
8171.000000;0.576694
8170.000000;0.576683
8169.000000;0.576673
8168.000000;0.576623
8167.000000;0.576568
8166.000000;0.576560
8165.000000;0.576569
8164.000000;0.576529
8163.000000;0.576439
8162.000000;0.576361
8161.000000;0.576328
8160.000000;0.576330
8159.000000;0.576353
8158.000000;0.576374
8157.000000;0.576335
8156.000000;0.576202
8155.000000;0.576033
8154.000000;0.575915
8153.000000;0.575843
8152.000000;0.575745
8151.000000;0.575612
8150.000000;0.575514
8149.000000;0.575482
8148.000000;0.575451
8147.000000;0.575353
8146.000000;0.575209
8145.000000;0.575093
8144.000000;0.575049
8143.000000;0.575068
8142.000000;0.575117
8141.000000;0.575145
8140.000000;0.575103
8139.000000;0.574975
8138.000000;0.574807
8137.000000;0.574678
8136.000000;0.574644
8135.000000;0.574692
8134.000000;0.574754
8133.000000;0.574753
8132.000000;0.574659
8131.000000;0.574509
8130.000000;0.574375
8129.000000;0.574312
8128.000000;0.574336
8127.000000;0.574419
8126.000000;0.574489
8125.000000;0.574470
8124.000000;0.574346
8123.000000;0.574168
8122.000000;0.573999
8121.000000;0.573852
8120.000000;0.573714
8119.000000;0.573594
8118.000000;0.573523
8117.000000;0.573507
8116.000000;0.573514
8115.000000;0.573483
8114.000000;0.573381
8113.000000;0.573244
8112.000000;0.573170
8111.000000;0.573225
8110.000000;0.573361
8109.000000;0.573455
8108.000000;0.573433
8107.000000;0.573325
8106.000000;0.573201
8105.000000;0.573092
8104.000000;0.572990
8103.000000;0.572873
8102.000000;0.572708
8101.000000;0.572491
8100.000000;0.572288
8099.000000;0.572193
8098.000000;0.572221
8097.000000;0.572278
8096.000000;0.572286
8095.000000;0.572259
8094.000000;0.572242
8093.000000;0.572218
8092.000000;0.572139
8091.000000;0.572018
8090.000000;0.571918
8089.000000;0.571881
8088.000000;0.571906
8087.000000;0.571963
8086.000000;0.572001
8085.000000;0.571959
8084.000000;0.571826
8083.000000;0.571670
8082.000000;0.571575
8081.000000;0.571554
8080.000000;0.571558
8079.000000;0.571539
8078.000000;0.571470
8077.000000;0.571329
8076.000000;0.571118
8075.000000;0.570899
8074.000000;0.570754
8073.000000;0.570711
8072.000000;0.570726
8071.000000;0.570748
8070.000000;0.570757
8069.000000;0.570759
8068.000000;0.570758
8067.000000;0.570751
8066.000000;0.570723
8065.000000;0.570672
8064.000000;0.570614
8063.000000;0.570560
8062.000000;0.570485
8061.000000;0.570353
8060.000000;0.570178
8059.000000;0.570034
8058.000000;0.569977
8057.000000;0.569983
8056.000000;0.569975
8055.000000;0.569890
8054.000000;0.569714
8053.000000;0.569484
8052.000000;0.569291
8051.000000;0.569225
8050.000000;0.569291
8049.000000;0.569396
8048.000000;0.569431
8047.000000;0.569345
8046.000000;0.569163
8045.000000;0.568958
8044.000000;0.568824
8043.000000;0.568824
8042.000000;0.568926
8041.000000;0.569034
8040.000000;0.569089
8039.000000;0.569098
8038.000000;0.569068
8037.000000;0.568970
8036.000000;0.568807
8035.000000;0.568631
8034.000000;0.568480
8033.000000;0.568345
8032.000000;0.568238
8031.000000;0.568209
8030.000000;0.568255
8029.000000;0.568282
8028.000000;0.568229
8027.000000;0.568169
8026.000000;0.568218
8025.000000;0.568375
8024.000000;0.568540
8023.000000;0.568631
8022.000000;0.568623
8021.000000;0.568486
8020.000000;0.568213
8019.000000;0.567879
8018.000000;0.567598
8017.000000;0.567413
8016.000000;0.567294
8015.000000;0.567238
8014.000000;0.567278
8013.000000;0.567392
8012.000000;0.567478
8011.000000;0.567468
8010.000000;0.567394
8009.000000;0.567329
8008.000000;0.567289
8007.000000;0.567238
8006.000000;0.567160
8005.000000;0.567068
8004.000000;0.566978
8003.000000;0.566878
8002.000000;0.566745
8001.000000;0.566579
8000.000000;0.566419
7999.000000;0.566312
7998.000000;0.566269
7997.000000;0.566261
7996.000000;0.566263
7995.000000;0.566282
7994.000000;0.566323
7993.000000;0.566351
7992.000000;0.566334
7991.000000;0.566290
7990.000000;0.566259
7989.000000;0.566240
7988.000000;0.566186
7987.000000;0.566066
7986.000000;0.565902
7985.000000;0.565743
7984.000000;0.565635
7983.000000;0.565596
7982.000000;0.565593
7981.000000;0.565549
7980.000000;0.565403
7979.000000;0.565180
7978.000000;0.564979
7977.000000;0.564882
7976.000000;0.564893
7975.000000;0.564958
7974.000000;0.565020
7973.000000;0.565049
7972.000000;0.565055
7971.000000;0.565057
7970.000000;0.565057
7969.000000;0.565042
7968.000000;0.565001
7967.000000;0.564946
7966.000000;0.564898
7965.000000;0.564868
7964.000000;0.564847
7963.000000;0.564814
7962.000000;0.564742
7961.000000;0.564617
7960.000000;0.564452
7959.000000;0.564262
7958.000000;0.564065
7957.000000;0.563907
7956.000000;0.563870
7955.000000;0.563983
7954.000000;0.564140
7953.000000;0.564177
7952.000000;0.564042
7951.000000;0.563855
7950.000000;0.563754
7949.000000;0.563757
7948.000000;0.563796
7947.000000;0.563809
7946.000000;0.563750
7945.000000;0.563578
7944.000000;0.563312
7943.000000;0.563070
7942.000000;0.562976
7941.000000;0.563023
7940.000000;0.563099
7939.000000;0.563121
7938.000000;0.563098
7937.000000;0.563075
7936.000000;0.563082
7935.000000;0.563128
7934.000000;0.563193
7933.000000;0.563213
7932.000000;0.563105
7931.000000;0.562850
7930.000000;0.562528
7929.000000;0.562268
7928.000000;0.562164
7927.000000;0.562228
7926.000000;0.562374
7925.000000;0.562475
7924.000000;0.562463
7923.000000;0.562393
7922.000000;0.562369
7921.000000;0.562430
7920.000000;0.562507
7919.000000;0.562510
7918.000000;0.562405
7917.000000;0.562230
7916.000000;0.562047
7915.000000;0.561890
7914.000000;0.561739
7913.000000;0.561564
7912.000000;0.561395
7911.000000;0.561321
7910.000000;0.561383
7909.000000;0.561481
7908.000000;0.561468
7907.000000;0.561318
7906.000000;0.561160
7905.000000;0.561121
7904.000000;0.561190
7903.000000;0.561253
7902.000000;0.561238
7901.000000;0.561177
7900.000000;0.561148
7899.000000;0.561183
7898.000000;0.561228
7897.000000;0.561189
7896.000000;0.561037
7895.000000;0.560852
7894.000000;0.560757
7893.000000;0.560785
7892.000000;0.560859
7891.000000;0.560873
7890.000000;0.560797
7889.000000;0.560665
7888.000000;0.560512
7887.000000;0.560367
7886.000000;0.560285
7885.000000;0.560327
7884.000000;0.560478
7883.000000;0.560614
7882.000000;0.560601
7881.000000;0.560423
7880.000000;0.560200
7879.000000;0.560058
7878.000000;0.560008
7877.000000;0.559968
7876.000000;0.559859
7875.000000;0.559677
7874.000000;0.559478
7873.000000;0.559345
7872.000000;0.559334
7871.000000;0.559430
7870.000000;0.559532
7869.000000;0.559527
7868.000000;0.559398
7867.000000;0.559234
7866.000000;0.559137
7865.000000;0.559143
7864.000000;0.559218
7863.000000;0.559310
7862.000000;0.559369
7861.000000;0.559356
7860.000000;0.559264
7859.000000;0.559134
7858.000000;0.559034
7857.000000;0.559007
7856.000000;0.559032
7855.000000;0.559040
7854.000000;0.558977
7853.000000;0.558853
7852.000000;0.558741
7851.000000;0.558702
7850.000000;0.558713
7849.000000;0.558703
7848.000000;0.558629
7847.000000;0.558507
7846.000000;0.558370
7845.000000;0.558236
7844.000000;0.558128
7843.000000;0.558078
7842.000000;0.558093
7841.000000;0.558146
7840.000000;0.558207
7839.000000;0.558259
7838.000000;0.558275
7837.000000;0.558210
7836.000000;0.558059
7835.000000;0.557891
7834.000000;0.557795
7833.000000;0.557789
7832.000000;0.557809
7831.000000;0.557774
7830.000000;0.557661
7829.000000;0.557512
7828.000000;0.557399
7827.000000;0.557371
7826.000000;0.557421
7825.000000;0.557505
7824.000000;0.557561
7823.000000;0.557535
7822.000000;0.557408
7821.000000;0.557218
7820.000000;0.557051
7819.000000;0.556961
7818.000000;0.556915
7817.000000;0.556853
7816.000000;0.556789
7815.000000;0.556793
7814.000000;0.556872
7813.000000;0.556932
7812.000000;0.556892
7811.000000;0.556787
7810.000000;0.556693
7809.000000;0.556620
7808.000000;0.556516
7807.000000;0.556380
7806.000000;0.556289
7805.000000;0.556296
7804.000000;0.556354
7803.000000;0.556370
7802.000000;0.556298
7801.000000;0.556176
7800.000000;0.556062
7799.000000;0.555976
7798.000000;0.555903
7797.000000;0.555832
7796.000000;0.555773
7795.000000;0.555744
7794.000000;0.555743
7793.000000;0.555751
7792.000000;0.555743
7791.000000;0.555703
7790.000000;0.555633
7789.000000;0.555561
7788.000000;0.555520
7787.000000;0.555509
7786.000000;0.555490
7785.000000;0.555430
7784.000000;0.555342
7783.000000;0.555250
7782.000000;0.555145
7781.000000;0.555020
7780.000000;0.554920
7779.000000;0.554903
7778.000000;0.554952
7777.000000;0.554975
7776.000000;0.554906
7775.000000;0.554765
7774.000000;0.554622
7773.000000;0.554537
7772.000000;0.554527
7771.000000;0.554563
7770.000000;0.554583
7769.000000;0.554540
7768.000000;0.554464
7767.000000;0.554416
7766.000000;0.554394
7765.000000;0.554320
7764.000000;0.554158
7763.000000;0.553984
7762.000000;0.553890
7761.000000;0.553878
7760.000000;0.553878
7759.000000;0.553859
7758.000000;0.553854
7757.000000;0.553875
7756.000000;0.553873
7755.000000;0.553789
7754.000000;0.553634
7753.000000;0.553488
7752.000000;0.553426
7751.000000;0.553441
7750.000000;0.553454
7749.000000;0.553394
7748.000000;0.553276
7747.000000;0.553179
7746.000000;0.553149
7745.000000;0.553163
7744.000000;0.553164
7743.000000;0.553122
7742.000000;0.553028
7741.000000;0.552887
7740.000000;0.552728
7739.000000;0.552603
7738.000000;0.552547
7737.000000;0.552550
7736.000000;0.552579
7735.000000;0.552612
7734.000000;0.552628
7733.000000;0.552604
7732.000000;0.552533
7731.000000;0.552429
7730.000000;0.552308
7729.000000;0.552170
7728.000000;0.552029
7727.000000;0.551940
7726.000000;0.551948
7725.000000;0.552032
7724.000000;0.552111
7723.000000;0.552116
7722.000000;0.552041
7721.000000;0.551919
7720.000000;0.551792
7719.000000;0.551685
7718.000000;0.551616
7717.000000;0.551583
7716.000000;0.551570
7715.000000;0.551549
7714.000000;0.551509
7713.000000;0.551458
7712.000000;0.551418
7711.000000;0.551395
7710.000000;0.551377
7709.000000;0.551342
7708.000000;0.551269
7707.000000;0.551139
7706.000000;0.550955
7705.000000;0.550763
7704.000000;0.550627
7703.000000;0.550578
7702.000000;0.550605
7701.000000;0.550690
7700.000000;0.550829
7699.000000;0.550987
7698.000000;0.551076
7697.000000;0.551033
7696.000000;0.550890
7695.000000;0.550733
7694.000000;0.550623
7693.000000;0.550582
7692.000000;0.550615
7691.000000;0.550700
7690.000000;0.550760
7689.000000;0.550727
7688.000000;0.550614
7687.000000;0.550484
7686.000000;0.550351
7685.000000;0.550190
7684.000000;0.550026
7683.000000;0.549946
7682.000000;0.549985
7681.000000;0.550070
7680.000000;0.550104
7679.000000;0.550050
7678.000000;0.549933
7677.000000;0.549794
7676.000000;0.549685
7675.000000;0.549645
7674.000000;0.549651
7673.000000;0.549642
7672.000000;0.549596
7671.000000;0.549541
7670.000000;0.549479
7669.000000;0.549365
7668.000000;0.549192
7667.000000;0.549037
7666.000000;0.548969
7665.000000;0.548953
7664.000000;0.548912
7663.000000;0.548834
7662.000000;0.548785
7661.000000;0.548820
7660.000000;0.548927
7659.000000;0.549059
7658.000000;0.549166
7657.000000;0.549203
7656.000000;0.549142
7655.000000;0.548993
7654.000000;0.548801
7653.000000;0.548629
7652.000000;0.548520
7651.000000;0.548468
7650.000000;0.548426
7649.000000;0.548356
7648.000000;0.548286
7647.000000;0.548276
7646.000000;0.548331
7645.000000;0.548390
7644.000000;0.548392
7643.000000;0.548337
7642.000000;0.548258
7641.000000;0.548179
7640.000000;0.548107
7639.000000;0.548038
7638.000000;0.547953
7637.000000;0.547851
7636.000000;0.547775
7635.000000;0.547764
7634.000000;0.547777
7633.000000;0.547726
7632.000000;0.547598
7631.000000;0.547481
7630.000000;0.547439
7629.000000;0.547433
7628.000000;0.547395
7627.000000;0.547327
7626.000000;0.547265
7625.000000;0.547222
7624.000000;0.547202
7623.000000;0.547237
7622.000000;0.547323
7621.000000;0.547377
7620.000000;0.547324
7619.000000;0.547207
7618.000000;0.547139
7617.000000;0.547146
7616.000000;0.547146
7615.000000;0.547080
7614.000000;0.546988
7613.000000;0.546933
7612.000000;0.546917
7611.000000;0.546897
7610.000000;0.546853
7609.000000;0.546809
7608.000000;0.546783
7607.000000;0.546765
7606.000000;0.546725
7605.000000;0.546657
7604.000000;0.546587
7603.000000;0.546549
7602.000000;0.546533
7601.000000;0.546484
7600.000000;0.546356
7599.000000;0.546167
7598.000000;0.545987
7597.000000;0.545886
7596.000000;0.545888
7595.000000;0.545955
7594.000000;0.546020
7593.000000;0.546034
7592.000000;0.546010
7591.000000;0.545993
7590.000000;0.545994
7589.000000;0.545975
7588.000000;0.545921
7587.000000;0.545872
7586.000000;0.545874
7585.000000;0.545912
7584.000000;0.545925
7583.000000;0.545873
7582.000000;0.545760
7581.000000;0.545621
7580.000000;0.545514
7579.000000;0.545493
7578.000000;0.545560
7577.000000;0.545652
7576.000000;0.545698
7575.000000;0.545687
7574.000000;0.545667
7573.000000;0.545680
7572.000000;0.545729
7571.000000;0.545782
7570.000000;0.545791
7569.000000;0.545712
7568.000000;0.545547
7567.000000;0.545364
7566.000000;0.545248
7565.000000;0.545233
7564.000000;0.545286
7563.000000;0.545344
7562.000000;0.545354
7561.000000;0.545298
7560.000000;0.545199
7559.000000;0.545108
7558.000000;0.545056
7557.000000;0.545022
7556.000000;0.544964
7555.000000;0.544881
7554.000000;0.544819
7553.000000;0.544818
7552.000000;0.544875
7551.000000;0.544949
7550.000000;0.545000
7549.000000;0.545008
7548.000000;0.544964
7547.000000;0.544871
7546.000000;0.544758
7545.000000;0.544673
7544.000000;0.544655
7543.000000;0.544688
7542.000000;0.544710
7541.000000;0.544673
7540.000000;0.544596
7539.000000;0.544537
7538.000000;0.544536
7537.000000;0.544586
7536.000000;0.544643
7535.000000;0.544651
7534.000000;0.544586
7533.000000;0.544485
7532.000000;0.544427
7531.000000;0.544441
7530.000000;0.544466
7529.000000;0.544434
7528.000000;0.544357
7527.000000;0.544298
7526.000000;0.544286
7525.000000;0.544295
7524.000000;0.544314
7523.000000;0.544346
7522.000000;0.544363
7521.000000;0.544330
7520.000000;0.544275
7519.000000;0.544275
7518.000000;0.544357
7517.000000;0.544454
7516.000000;0.544493
7515.000000;0.544470
7514.000000;0.544419
7513.000000;0.544358
7512.000000;0.544295
7511.000000;0.544240
7510.000000;0.544185
7509.000000;0.544115
7508.000000;0.544057
7507.000000;0.544062
7506.000000;0.544131
7505.000000;0.544189
7504.000000;0.544182
7503.000000;0.544136
7502.000000;0.544094
7501.000000;0.544043
7500.000000;0.543958
7499.000000;0.543873
7498.000000;0.543843
7497.000000;0.543873
7496.000000;0.543922
7495.000000;0.543966
7494.000000;0.543999
7493.000000;0.544000
7492.000000;0.543941
7491.000000;0.543828
7490.000000;0.543727
7489.000000;0.543667
7488.000000;0.543693
7487.000000;0.543796
7486.000000;0.543923
7485.000000;0.544019
7484.000000;0.544069
7483.000000;0.544095
7482.000000;0.544102
7481.000000;0.544057
7480.000000;0.543960
7479.000000;0.543872
7478.000000;0.543860
7477.000000;0.543922
7476.000000;0.543996
7475.000000;0.544025
7474.000000;0.543986
7473.000000;0.543892
7472.000000;0.543794
7471.000000;0.543751
7470.000000;0.543765
7469.000000;0.543779
7468.000000;0.543759
7467.000000;0.543734
7466.000000;0.543740
7465.000000;0.543757
7464.000000;0.543751
7463.000000;0.543730
7462.000000;0.543732
7461.000000;0.543770
7460.000000;0.543827
7459.000000;0.543883
7458.000000;0.543920
7457.000000;0.543919
7456.000000;0.543890
7455.000000;0.543877
7454.000000;0.543900
7453.000000;0.543924
7452.000000;0.543918
7451.000000;0.543905
7450.000000;0.543926
7449.000000;0.543969
7448.000000;0.544004
7447.000000;0.544046
7446.000000;0.544134
7445.000000;0.544249
7444.000000;0.544322
7443.000000;0.544326
7442.000000;0.544316
7441.000000;0.544354
7440.000000;0.544432
7439.000000;0.544479
7438.000000;0.544442
7437.000000;0.544341
7436.000000;0.544251
7435.000000;0.544238
7434.000000;0.544302
7433.000000;0.544397
7432.000000;0.544489
7431.000000;0.544576
7430.000000;0.544650
7429.000000;0.544698
7428.000000;0.544731
7427.000000;0.544783
7426.000000;0.544849
7425.000000;0.544880
7424.000000;0.544852
7423.000000;0.544818
7422.000000;0.544839
7421.000000;0.544891
7420.000000;0.544904
7419.000000;0.544851
7418.000000;0.544768
7417.000000;0.544700
7416.000000;0.544678
7415.000000;0.544730
7414.000000;0.544868
7413.000000;0.545048
7412.000000;0.545193
7411.000000;0.545262
7410.000000;0.545263
7409.000000;0.545221
7408.000000;0.545158
7407.000000;0.545093
7406.000000;0.545037
7405.000000;0.544991
7404.000000;0.544954
7403.000000;0.544942
7402.000000;0.544975
7401.000000;0.545046
7400.000000;0.545126
7399.000000;0.545188
7398.000000;0.545231
7397.000000;0.545275
7396.000000;0.545337
7395.000000;0.545403
7394.000000;0.545424
7393.000000;0.545390
7392.000000;0.545361
7391.000000;0.545409
7390.000000;0.545533
7389.000000;0.545681
7388.000000;0.545836
7387.000000;0.546013
7386.000000;0.546176
7385.000000;0.546253
7384.000000;0.546250
7383.000000;0.546273
7382.000000;0.546366
7381.000000;0.546443
7380.000000;0.546428
7379.000000;0.546411
7378.000000;0.546534
7377.000000;0.546780
7376.000000;0.546989
7375.000000;0.547065
7374.000000;0.547074
7373.000000;0.547120
7372.000000;0.547213
7371.000000;0.547287
7370.000000;0.547286
7369.000000;0.547203
7368.000000;0.547093
7367.000000;0.547043
7366.000000;0.547099
7365.000000;0.547209
7364.000000;0.547272
7363.000000;0.547233
7362.000000;0.547124
7361.000000;0.547016
7360.000000;0.546988
7359.000000;0.547096
7358.000000;0.547312
7357.000000;0.547510
7356.000000;0.547575
7355.000000;0.547540
7354.000000;0.547541
7353.000000;0.547648
7352.000000;0.547811
7351.000000;0.547970
7350.000000;0.548107
7349.000000;0.548210
7348.000000;0.548262
7347.000000;0.548294
7346.000000;0.548360
7345.000000;0.548446
7344.000000;0.548493
7343.000000;0.548524
7342.000000;0.548654
7341.000000;0.548917
7340.000000;0.549206
7339.000000;0.549420
7338.000000;0.549582
7337.000000;0.549738
7336.000000;0.549830
7335.000000;0.549774
7334.000000;0.549602
7333.000000;0.549447
7332.000000;0.549400
7331.000000;0.549457
7330.000000;0.549566
7329.000000;0.549655
7328.000000;0.549657
7327.000000;0.549595
7326.000000;0.549603
7325.000000;0.549788
7324.000000;0.550087
7323.000000;0.550354
7322.000000;0.550537
7321.000000;0.550694
7320.000000;0.550861
7319.000000;0.550975
7318.000000;0.550957
7317.000000;0.550812
7316.000000;0.550633
7315.000000;0.550519
7314.000000;0.550511
7313.000000;0.550598
7312.000000;0.550734
7311.000000;0.550894
7310.000000;0.551117
7309.000000;0.551443
7308.000000;0.551811
7307.000000;0.552077
7306.000000;0.552167
7305.000000;0.552187
7304.000000;0.552305
7303.000000;0.552553
7302.000000;0.552783
7301.000000;0.552828
7300.000000;0.552675
7299.000000;0.552482
7298.000000;0.552459
7297.000000;0.552704
7296.000000;0.553119
7295.000000;0.553482
7294.000000;0.553649
7293.000000;0.553691
7292.000000;0.553804
7291.000000;0.554066
7290.000000;0.554345
7289.000000;0.554470
7288.000000;0.554444
7287.000000;0.554426
7286.000000;0.554544
7285.000000;0.554785
7284.000000;0.555054
7283.000000;0.555284
7282.000000;0.555465
7281.000000;0.555604
7280.000000;0.555711
7279.000000;0.555800
7278.000000;0.555870
7277.000000;0.555922
7276.000000;0.556002
7275.000000;0.556180
7274.000000;0.556465
7273.000000;0.556777
7272.000000;0.557034
7271.000000;0.557262
7270.000000;0.557542
7269.000000;0.557883
7268.000000;0.558189
7267.000000;0.558383
7266.000000;0.558505
7265.000000;0.558662
7264.000000;0.558907
7263.000000;0.559209
7262.000000;0.559515
7261.000000;0.559806
7260.000000;0.560094
7259.000000;0.560383
7258.000000;0.560650
7257.000000;0.560874
7256.000000;0.561062
7255.000000;0.561255
7254.000000;0.561484
7253.000000;0.561759
7252.000000;0.562094
7251.000000;0.562502
7250.000000;0.562963
7249.000000;0.563409
7248.000000;0.563785
7247.000000;0.564113
7246.000000;0.564493
7245.000000;0.564994
7244.000000;0.565555
7243.000000;0.566035
7242.000000;0.566364
7241.000000;0.566631
7240.000000;0.566979
7239.000000;0.567451
7238.000000;0.567966
7237.000000;0.568429
7236.000000;0.568839
7235.000000;0.569256
7234.000000;0.569685
7233.000000;0.570044
7232.000000;0.570270
7231.000000;0.570433
7230.000000;0.570708
7229.000000;0.571224
7228.000000;0.571957
7227.000000;0.572748
7226.000000;0.573417
7225.000000;0.573903
7224.000000;0.574277
7223.000000;0.574622
7222.000000;0.574932
7221.000000;0.575151
7220.000000;0.575288
7219.000000;0.575466
7218.000000;0.575808
7217.000000;0.576304
7216.000000;0.576824
7215.000000;0.577257
7214.000000;0.577607
7213.000000;0.577964
7212.000000;0.578406
7211.000000;0.578921
7210.000000;0.579415
7209.000000;0.579794
7208.000000;0.580060
7207.000000;0.580304
7206.000000;0.580626
7205.000000;0.581059
7204.000000;0.581593
7203.000000;0.582224
7202.000000;0.582949
7201.000000;0.583728
7200.000000;0.584485
7199.000000;0.585171
7198.000000;0.585794
7197.000000;0.586377
7196.000000;0.586914
7195.000000;0.587366
7194.000000;0.587717
7193.000000;0.588015
7192.000000;0.588354
7191.000000;0.588806
7190.000000;0.589376
7189.000000;0.590007
7188.000000;0.590628
7187.000000;0.591182
7186.000000;0.591643
7185.000000;0.592045
7184.000000;0.592488
7183.000000;0.593072
7182.000000;0.593811
7181.000000;0.594631
7180.000000;0.595446
7179.000000;0.596226
7178.000000;0.596958
7177.000000;0.597606
7176.000000;0.598121
7175.000000;0.598525
7174.000000;0.598943
7173.000000;0.599529
7172.000000;0.600321
7171.000000;0.601184
7170.000000;0.601940
7169.000000;0.602552
7168.000000;0.603114
7167.000000;0.603668
7166.000000;0.604153
7165.000000;0.604613
7164.000000;0.605270
7163.000000;0.606227
7162.000000;0.607248
7161.000000;0.608047
7160.000000;0.608727
7159.000000;0.609643
7158.000000;0.610807
7157.000000;0.611769
7156.000000;0.612191
7155.000000;0.612281
7154.000000;0.612495
7153.000000;0.612989
7152.000000;0.613592
7151.000000;0.614187
7150.000000;0.614830
7149.000000;0.615541
7148.000000;0.616207
7147.000000;0.616727
7146.000000;0.617131
7145.000000;0.617519
7144.000000;0.618007
7143.000000;0.618708
7142.000000;0.619663
7141.000000;0.620763
7140.000000;0.621818
7139.000000;0.622729
7138.000000;0.623493
7137.000000;0.624070
7136.000000;0.624388
7135.000000;0.624515
7134.000000;0.624705
7133.000000;0.625159
7132.000000;0.625785
7131.000000;0.626278
7130.000000;0.626417
7129.000000;0.626271
7128.000000;0.626135
7127.000000;0.626288
7126.000000;0.626770
7125.000000;0.627312
7124.000000;0.627519
7123.000000;0.627220
7122.000000;0.626677
7121.000000;0.626396
7120.000000;0.626689
7119.000000;0.627442
7118.000000;0.628305
7117.000000;0.629033
7116.000000;0.629618
7115.000000;0.630157
7114.000000;0.630701
7113.000000;0.631215
7112.000000;0.631592
7111.000000;0.631697
7110.000000;0.631482
7109.000000;0.631070
7108.000000;0.630626
7107.000000;0.630145
7106.000000;0.629488
7105.000000;0.628721
7104.000000;0.628228
7103.000000;0.628313
7102.000000;0.628769
7101.000000;0.629047
7100.000000;0.628829
7099.000000;0.628290
7098.000000;0.627790
7097.000000;0.627507
7096.000000;0.627389
7095.000000;0.627355
7094.000000;0.627374
7093.000000;0.627363
7092.000000;0.627123
7091.000000;0.626458
7090.000000;0.625372
7089.000000;0.624102
7088.000000;0.622906
7087.000000;0.621816
7086.000000;0.620705
7085.000000;0.619565
7084.000000;0.618608
7083.000000;0.618027
7082.000000;0.617771
7081.000000;0.617609
7080.000000;0.617312
7079.000000;0.616740
7078.000000;0.615860
7077.000000;0.614722
7076.000000;0.613345
7075.000000;0.611635
7074.000000;0.609590
7073.000000;0.607540
7072.000000;0.605955
7071.000000;0.604941
7070.000000;0.604154
7069.000000;0.603300
7068.000000;0.602445
7067.000000;0.601683
7066.000000;0.600815
7065.000000;0.599592
7064.000000;0.598034
7063.000000;0.596244
7062.000000;0.594173
7061.000000;0.591917
7060.000000;0.589981
7059.000000;0.588805
7058.000000;0.588097
7057.000000;0.587039
7056.000000;0.585175
7055.000000;0.582798
7054.000000;0.580480
7053.000000;0.578527
7052.000000;0.576923
7051.000000;0.575550
7050.000000;0.574323
7049.000000;0.573206
7048.000000;0.572128
7047.000000;0.570852
7046.000000;0.569097
7045.000000;0.566869
7044.000000;0.564479
7043.000000;0.562052
7042.000000;0.559302
7041.000000;0.556057
7040.000000;0.552742
7039.000000;0.550007
7038.000000;0.548026
7037.000000;0.546466
7036.000000;0.544955
7035.000000;0.543274
7034.000000;0.541278
7033.000000;0.539034
7032.000000;0.536899
7031.000000;0.535082
7030.000000;0.533232
7029.000000;0.530864
7028.000000;0.528055
7027.000000;0.525292
7026.000000;0.522749
7025.000000;0.520194
7024.000000;0.517478
7023.000000;0.514654
7022.000000;0.511710
7021.000000;0.508730
7020.000000;0.506244
7019.000000;0.504770
7018.000000;0.503953
7017.000000;0.502729
7016.000000;0.500486
7015.000000;0.497591
7014.000000;0.494662
7013.000000;0.491918
7012.000000;0.489326
7011.000000;0.486788
7010.000000;0.483997
7009.000000;0.480632
7008.000000;0.476922
7007.000000;0.473524
7006.000000;0.470712
7005.000000;0.468232
7004.000000;0.466060
7003.000000;0.464582
7002.000000;0.463650
7001.000000;0.462209
7000.000000;0.459449
6999.000000;0.455852
6998.000000;0.452548
6997.000000;0.450053
6996.000000;0.448089
6995.000000;0.446182
6994.000000;0.443893
6993.000000;0.440881
6992.000000;0.437359
6991.000000;0.434202
6990.000000;0.432033
6989.000000;0.430428
6988.000000;0.428532
6987.000000;0.426135
6986.000000;0.423566
6985.000000;0.420805
6984.000000;0.417461
6983.000000;0.413528
6982.000000;0.409536
6981.000000;0.405997
6980.000000;0.403178
6979.000000;0.401277
6978.000000;0.400236
6977.000000;0.399373
6976.000000;0.397790
6975.000000;0.395186
6974.000000;0.391873
6973.000000;0.388085
6972.000000;0.383873
6971.000000;0.379636
6970.000000;0.376115
6969.000000;0.373651
6968.000000;0.371859
6967.000000;0.370173
6966.000000;0.368367
6965.000000;0.366497
6964.000000;0.364666
6963.000000;0.362853
6962.000000;0.360721
6961.000000;0.357711
6960.000000;0.353762
6959.000000;0.349760
6958.000000;0.346736
6957.000000;0.344655
6956.000000;0.342558
6955.000000;0.339922
6954.000000;0.337263
6953.000000;0.335292
6952.000000;0.334061
6951.000000;0.333104
6950.000000;0.331873
6949.000000;0.329855
6948.000000;0.326824
6947.000000;0.323237
6946.000000;0.319928
6945.000000;0.317193
6944.000000;0.314550
6943.000000;0.311592
6942.000000;0.308640
6941.000000;0.306244
6940.000000;0.304441
6939.000000;0.302798
6938.000000;0.300929
6937.000000;0.298771
6936.000000;0.296588
6935.000000;0.294830
6934.000000;0.293676
6933.000000;0.292588
6932.000000;0.290683
6931.000000;0.287722
6930.000000;0.284392
6929.000000;0.281457
6928.000000;0.279056
6927.000000;0.276949
6926.000000;0.274950
6925.000000;0.272912
6924.000000;0.270774
6923.000000;0.268822
6922.000000;0.267419
6921.000000;0.266249
6920.000000;0.264400
6919.000000;0.261533
6918.000000;0.258460
6917.000000;0.256171
6916.000000;0.254748
6915.000000;0.253696
6914.000000;0.252858
6913.000000;0.252318
6912.000000;0.251763
6911.000000;0.250648
6910.000000;0.248838
6909.000000;0.246586
6908.000000;0.243995
6907.000000;0.241058
6906.000000;0.238159
6905.000000;0.235982
6904.000000;0.234788
6903.000000;0.234134
6902.000000;0.233392
6901.000000;0.232299
6900.000000;0.230984
6899.000000;0.229693
6898.000000;0.228508
6897.000000;0.227180
6896.000000;0.225299
6895.000000;0.222869
6894.000000;0.220606
6893.000000;0.219352
6892.000000;0.219152
6891.000000;0.219138
6890.000000;0.218338
6889.000000;0.216489
6888.000000;0.214122
6887.000000;0.212068
6886.000000;0.210925
6885.000000;0.210751
6884.000000;0.211080
6883.000000;0.211197
6882.000000;0.210484
6881.000000;0.208715
6880.000000;0.206240
6879.000000;0.203832
6878.000000;0.202145
6877.000000;0.201262
6876.000000;0.200813
6875.000000;0.200437
6874.000000;0.199951
6873.000000;0.199257
6872.000000;0.198379
6871.000000;0.197484
6870.000000;0.196581
6869.000000;0.195316
6868.000000;0.193500
6867.000000;0.191722
6866.000000;0.190908
6865.000000;0.191183
6864.000000;0.191723
6863.000000;0.191867
6862.000000;0.191764
6861.000000;0.191704
6860.000000;0.191407
6859.000000;0.190430
6858.000000;0.188867
6857.000000;0.187248
6856.000000;0.185981
6855.000000;0.185228
6854.000000;0.185013
6853.000000;0.185062
6852.000000;0.184760
6851.000000;0.183671
6850.000000;0.182062
6849.000000;0.180718
6848.000000;0.180362
6847.000000;0.181277
6846.000000;0.183140
6845.000000;0.184956
6844.000000;0.185566
6843.000000;0.184675
6842.000000;0.183187
6841.000000;0.182273
6840.000000;0.182249
6839.000000;0.182595
6838.000000;0.182784
6837.000000;0.182685
6836.000000;0.182430
6835.000000;0.182331
6834.000000;0.182784
6833.000000;0.183821
6832.000000;0.184848
6831.000000;0.185179
6830.000000;0.184760
6829.000000;0.184071
6828.000000;0.183446
6827.000000;0.182899
6826.000000;0.182534
6825.000000;0.182593
6824.000000;0.183010
6823.000000;0.183317
6822.000000;0.183198
6821.000000;0.182897
6820.000000;0.182954
6819.000000;0.183665
6818.000000;0.184867
6817.000000;0.186094
6816.000000;0.186907
6815.000000;0.187206
6814.000000;0.187290
6813.000000;0.187492
6812.000000;0.187770
6811.000000;0.187835
6810.000000;0.187660
6809.000000;0.187631
6808.000000;0.188081
6807.000000;0.188861
6806.000000;0.189515
6805.000000;0.189828
6804.000000;0.190071
6803.000000;0.190664
6802.000000;0.191632
6801.000000;0.192456
6800.000000;0.192616
6799.000000;0.192283
6798.000000;0.192299
6797.000000;0.193289
6796.000000;0.194907
6795.000000;0.196189
6794.000000;0.196612
6793.000000;0.196561
6792.000000;0.196784
6791.000000;0.197662
6790.000000;0.199102
6789.000000;0.200791
6788.000000;0.202261
6787.000000;0.202931
6786.000000;0.202536
6785.000000;0.201576
6784.000000;0.201031
6783.000000;0.201455
6782.000000;0.202519
6781.000000;0.203513
6780.000000;0.204089
6779.000000;0.204375
6778.000000;0.204613
6777.000000;0.204987
6776.000000;0.205695
6775.000000;0.206818
6774.000000;0.208048
6773.000000;0.208808
6772.000000;0.208819
6771.000000;0.208428
6770.000000;0.208261
6769.000000;0.208653
6768.000000;0.209462
6767.000000;0.210338
6766.000000;0.211051
6765.000000;0.211648
6764.000000;0.212385
6763.000000;0.213444
6762.000000;0.214658
6761.000000;0.215593
6760.000000;0.216006
6759.000000;0.216170
6758.000000;0.216639
6757.000000;0.217700
6756.000000;0.219124
6755.000000;0.220429
6754.000000;0.221349
6753.000000;0.222043
6752.000000;0.222864
6751.000000;0.223880
6750.000000;0.224701
6749.000000;0.224897
6748.000000;0.224578
6747.000000;0.224382
6746.000000;0.224805
6745.000000;0.225700
6744.000000;0.226530
6743.000000;0.226985
6742.000000;0.227181
6741.000000;0.227352
6740.000000;0.227569
6739.000000;0.227814
6738.000000;0.228177
6737.000000;0.228875
6736.000000;0.230069
6735.000000;0.231647
6734.000000;0.233219
6733.000000;0.234390
6732.000000;0.235107
6731.000000;0.235666
6730.000000;0.236357
6729.000000;0.237197
6728.000000;0.238027
6727.000000;0.238753
6726.000000;0.239375
6725.000000;0.239910
6724.000000;0.240407
6723.000000;0.240959
6722.000000;0.241563
6721.000000;0.242044
6720.000000;0.242257
6719.000000;0.242331
6718.000000;0.242588
6717.000000;0.243225
6716.000000;0.244189
6715.000000;0.245327
6714.000000;0.246529
6713.000000;0.247693
6712.000000;0.248690
6711.000000;0.249428
6710.000000;0.249917
6709.000000;0.250258
6708.000000;0.250591
6707.000000;0.251022
6706.000000;0.251540
6705.000000;0.252033
6704.000000;0.252456
6703.000000;0.252920
6702.000000;0.253577
6701.000000;0.254430
6700.000000;0.255340
6699.000000;0.256160
6698.000000;0.256827
6697.000000;0.257279
6696.000000;0.257606
6695.000000;0.257993
6694.000000;0.258619
6693.000000;0.259508
6692.000000;0.260462
6691.000000;0.261281
6690.000000;0.261918
6689.000000;0.262447
6688.000000;0.262943
6687.000000;0.263433
6686.000000;0.263910
6685.000000;0.264362
6684.000000;0.264816
6683.000000;0.265354
6682.000000;0.266048
6681.000000;0.266858
6680.000000;0.267653
6679.000000;0.268338
6678.000000;0.268934
6677.000000;0.269518
6676.000000;0.270131
6675.000000;0.270773
6674.000000;0.271434
6673.000000;0.272088
6672.000000;0.272687
6671.000000;0.273220
6670.000000;0.273751
6669.000000;0.274371
6668.000000;0.275066
6667.000000;0.275687
6666.000000;0.276095
6665.000000;0.276339
6664.000000;0.276653
6663.000000;0.277234
6662.000000;0.278056
6661.000000;0.278925
6660.000000;0.279678
6659.000000;0.280290
6658.000000;0.280804
6657.000000;0.281248
6656.000000;0.281644
6655.000000;0.282034
6654.000000;0.282489
6653.000000;0.283087
6652.000000;0.283891
6651.000000;0.284868
6650.000000;0.285852
6649.000000;0.286637
6648.000000;0.287158
6647.000000;0.287528
6646.000000;0.287899
6645.000000;0.288313
6644.000000;0.288721
6643.000000;0.289079
6642.000000;0.289392
6641.000000;0.289713
6640.000000;0.290120
6639.000000;0.290660
6638.000000;0.291290
6637.000000;0.291915
6636.000000;0.292496
6635.000000;0.293078
6634.000000;0.293705
6633.000000;0.294348
6632.000000;0.294960
6631.000000;0.295538
6630.000000;0.296116
6629.000000;0.296721
6628.000000;0.297361
6627.000000;0.298011
6626.000000;0.298585
6625.000000;0.298991
6624.000000;0.299252
6623.000000;0.299512
6622.000000;0.299893
6621.000000;0.300404
6620.000000;0.300999
6619.000000;0.301658
6618.000000;0.302340
6617.000000;0.302946
6616.000000;0.303412
6615.000000;0.303810
6614.000000;0.304277
6613.000000;0.304859
6612.000000;0.305479
6611.000000;0.306062
6610.000000;0.306628
6609.000000;0.307265
6608.000000;0.308024
6607.000000;0.308846
6606.000000;0.309578
6605.000000;0.310075
6604.000000;0.310330
6603.000000;0.310475
6602.000000;0.310665
6601.000000;0.310965
6600.000000;0.311362
6599.000000;0.311817
6598.000000;0.312282
6597.000000;0.312716
6596.000000;0.313127
6595.000000;0.313563
6594.000000;0.314043
6593.000000;0.314528
6592.000000;0.314997
6591.000000;0.315486
6590.000000;0.316014
6589.000000;0.316530
6588.000000;0.316988
6587.000000;0.317433
6586.000000;0.317932
6585.000000;0.318478
6584.000000;0.319009
6583.000000;0.319507
6582.000000;0.319997
6581.000000;0.320464
6580.000000;0.320858
6579.000000;0.321195
6578.000000;0.321576
6577.000000;0.322080
6576.000000;0.322683
6575.000000;0.323290
6574.000000;0.323820
6573.000000;0.324247
6572.000000;0.324605
6571.000000;0.324968
6570.000000;0.325401
6569.000000;0.325906
6568.000000;0.326426
6567.000000;0.326897
6566.000000;0.327294
6565.000000;0.327640
6564.000000;0.327983
6563.000000;0.328373
6562.000000;0.328838
6561.000000;0.329369
6560.000000;0.329931
6559.000000;0.330480
6558.000000;0.330977
6557.000000;0.331390
6556.000000;0.331731
6555.000000;0.332066
6554.000000;0.332482
6553.000000;0.333011
6552.000000;0.333598
6551.000000;0.334136
6550.000000;0.334549
6549.000000;0.334858
6548.000000;0.335161
6547.000000;0.335534
6546.000000;0.335944
6545.000000;0.336295
6544.000000;0.336555
6543.000000;0.336786
6542.000000;0.337066
6541.000000;0.337416
6540.000000;0.337828
6539.000000;0.338299
6538.000000;0.338823
6537.000000;0.339366
6536.000000;0.339893
6535.000000;0.340391
6534.000000;0.340849
6533.000000;0.341245
6532.000000;0.341577
6531.000000;0.341885
6530.000000;0.342209
6529.000000;0.342553
6528.000000;0.342916
6527.000000;0.343315
6526.000000;0.343754
6525.000000;0.344182
6524.000000;0.344528
6523.000000;0.344788
6522.000000;0.345034
6521.000000;0.345362
6520.000000;0.345828
6519.000000;0.346405
6518.000000;0.346979
6517.000000;0.347412
6516.000000;0.347656
6515.000000;0.347804
6514.000000;0.348006
6513.000000;0.348347
6512.000000;0.348808
6511.000000;0.349315
6510.000000;0.349782
6509.000000;0.350151
6508.000000;0.350419
6507.000000;0.350656
6506.000000;0.350948
6505.000000;0.351334
6504.000000;0.351797
6503.000000;0.352296
6502.000000;0.352765
6501.000000;0.353126
6500.000000;0.353357
6499.000000;0.353545
6498.000000;0.353826
6497.000000;0.354238
6496.000000;0.354683
6495.000000;0.355029
6494.000000;0.355231
6493.000000;0.355372
6492.000000;0.355583
6491.000000;0.355945
6490.000000;0.356421
6489.000000;0.356891
6488.000000;0.357259
6487.000000;0.357536
6486.000000;0.357805
6485.000000;0.358115
6484.000000;0.358458
6483.000000;0.358812
6482.000000;0.359172
6481.000000;0.359513
6480.000000;0.359780
6479.000000;0.359963
6478.000000;0.360147
6477.000000;0.360448
6476.000000;0.360889
6475.000000;0.361369
6474.000000;0.361760
6473.000000;0.362019
6472.000000;0.362209
6471.000000;0.362419
6470.000000;0.362691
6469.000000;0.363011
6468.000000;0.363340
6467.000000;0.363657
6466.000000;0.363967
6465.000000;0.364285
6464.000000;0.364607
6463.000000;0.364900
6462.000000;0.365148
6461.000000;0.365398
6460.000000;0.365731
6459.000000;0.366167
6458.000000;0.366615
6457.000000;0.366954
6456.000000;0.367148
6455.000000;0.367267
6454.000000;0.367414
6453.000000;0.367646
6452.000000;0.367976
6451.000000;0.368389
6450.000000;0.368841
6449.000000;0.369261
6448.000000;0.369598
6447.000000;0.369845
6446.000000;0.370020
6445.000000;0.370140
6444.000000;0.370239
6443.000000;0.370368
6442.000000;0.370564
6441.000000;0.370828
6440.000000;0.371135
6439.000000;0.371465
6438.000000;0.371797
6437.000000;0.372095
6436.000000;0.372346
6435.000000;0.372568
6434.000000;0.372786
6433.000000;0.372994
6432.000000;0.373169
6431.000000;0.373332
6430.000000;0.373544
6429.000000;0.373855
6428.000000;0.374247
6427.000000;0.374649
6426.000000;0.374982
6425.000000;0.375199
6424.000000;0.375314
6423.000000;0.375401
6422.000000;0.375553
6421.000000;0.375812
6420.000000;0.376134
6419.000000;0.376448
6418.000000;0.376720
6417.000000;0.376973
6416.000000;0.377225
6415.000000;0.377461
6414.000000;0.377668
6413.000000;0.377878
6412.000000;0.378126
6411.000000;0.378392
6410.000000;0.378619
6409.000000;0.378793
6408.000000;0.378961
6407.000000;0.379155
6406.000000;0.379355
6405.000000;0.379536
6404.000000;0.379726
6403.000000;0.379964
6402.000000;0.380237
6401.000000;0.380511
6400.000000;0.380785
6399.000000;0.381074
6398.000000;0.381348
6397.000000;0.381556
6396.000000;0.381702
6395.000000;0.381841
6394.000000;0.381993
6393.000000;0.382120
6392.000000;0.382198
6391.000000;0.382271
6390.000000;0.382392
6389.000000;0.382563
6388.000000;0.382763
6387.000000;0.382991
6386.000000;0.383254
6385.000000;0.383539
6384.000000;0.383830
6383.000000;0.384126
6382.000000;0.384419
6381.000000;0.384655
6380.000000;0.384785
6379.000000;0.384827
6378.000000;0.384856
6377.000000;0.384931
6376.000000;0.385053
6375.000000;0.385196
6374.000000;0.385358
6373.000000;0.385550
6372.000000;0.385767
6371.000000;0.385984
6370.000000;0.386186
6369.000000;0.386383
6368.000000;0.386599
6367.000000;0.386825
6366.000000;0.387024
6365.000000;0.387175
6364.000000;0.387308
6363.000000;0.387472
6362.000000;0.387665
6361.000000;0.387834
6360.000000;0.387941
6359.000000;0.388007
6358.000000;0.388076
6357.000000;0.388168
6356.000000;0.388283
6355.000000;0.388435
6354.000000;0.388637
6353.000000;0.388869
6352.000000;0.389090
6351.000000;0.389280
6350.000000;0.389451
6349.000000;0.389617
6348.000000;0.389773
6347.000000;0.389892
6346.000000;0.389966
6345.000000;0.390022
6344.000000;0.390116
6343.000000;0.390266
6342.000000;0.390436
6341.000000;0.390574
6340.000000;0.390685
6339.000000;0.390828
6338.000000;0.391026
6337.000000;0.391215
6336.000000;0.391318
6335.000000;0.391343
6334.000000;0.391372
6333.000000;0.391464
6332.000000;0.391606
6331.000000;0.391753
6330.000000;0.391888
6329.000000;0.392014
6328.000000;0.392118
6327.000000;0.392183
6326.000000;0.392219
6325.000000;0.392261
6324.000000;0.392341
6323.000000;0.392478
6322.000000;0.392675
6321.000000;0.392910
6320.000000;0.393121
6319.000000;0.393248
6318.000000;0.393291
6317.000000;0.393329
6316.000000;0.393443
6315.000000;0.393638
6314.000000;0.393851
6313.000000;0.394021
6312.000000;0.394132
6311.000000;0.394200
6310.000000;0.394239
6309.000000;0.394259
6308.000000;0.394277
6307.000000;0.394313
6306.000000;0.394383
6305.000000;0.394497
6304.000000;0.394647
6303.000000;0.394802
6302.000000;0.394927
6301.000000;0.395013
6300.000000;0.395080
6299.000000;0.395136
6298.000000;0.395167
6297.000000;0.395176
6296.000000;0.395205
6295.000000;0.395299
6294.000000;0.395452
6293.000000;0.395624
6292.000000;0.395779
6291.000000;0.395900
6290.000000;0.395982
6289.000000;0.396030
6288.000000;0.396069
6287.000000;0.396120
6286.000000;0.396182
6285.000000;0.396246
6284.000000;0.396313
6283.000000;0.396389
6282.000000;0.396464
6281.000000;0.396529
6280.000000;0.396595
6279.000000;0.396676
6278.000000;0.396757
6277.000000;0.396818
6276.000000;0.396864
6275.000000;0.396919
6274.000000;0.396983
6273.000000;0.397035
6272.000000;0.397071
6271.000000;0.397123
6270.000000;0.397213
6269.000000;0.397328
6268.000000;0.397428
6267.000000;0.397475
6266.000000;0.397459
6265.000000;0.397411
6264.000000;0.397400
6263.000000;0.397479
6262.000000;0.397632
6261.000000;0.397790
6260.000000;0.397904
6259.000000;0.397979
6258.000000;0.398043
6257.000000;0.398102
6256.000000;0.398155
6255.000000;0.398203
6254.000000;0.398250
6253.000000;0.398293
6252.000000;0.398332
6251.000000;0.398378
6250.000000;0.398441
6249.000000;0.398520
6248.000000;0.398599
6247.000000;0.398664
6246.000000;0.398702
6245.000000;0.398714
6244.000000;0.398718
6243.000000;0.398732
6242.000000;0.398756
6241.000000;0.398789
6240.000000;0.398844
6239.000000;0.398928
6238.000000;0.399016
6237.000000;0.399064
6236.000000;0.399063
6235.000000;0.399046
6234.000000;0.399053
6233.000000;0.399103
6232.000000;0.399186
6231.000000;0.399270
6230.000000;0.399314
6229.000000;0.399305
6228.000000;0.399279
6227.000000;0.399286
6226.000000;0.399330
6225.000000;0.399374
6224.000000;0.399393
6223.000000;0.399409
6222.000000;0.399449
6221.000000;0.399509
6220.000000;0.399571
6219.000000;0.399612
6218.000000;0.399612
6217.000000;0.399580
6216.000000;0.399562
6215.000000;0.399607
6214.000000;0.399702
6213.000000;0.399782
6212.000000;0.399806
6211.000000;0.399799
6210.000000;0.399810
6209.000000;0.399860
6208.000000;0.399942
6207.000000;0.400040
6206.000000;0.400130
6205.000000;0.400183
6204.000000;0.400197
6203.000000;0.400198
6202.000000;0.400193
6201.000000;0.400156
6200.000000;0.400082
6199.000000;0.400021
6198.000000;0.400034
6197.000000;0.400123
6196.000000;0.400237
6195.000000;0.400328
6194.000000;0.400379
6193.000000;0.400386
6192.000000;0.400354
6191.000000;0.400300
6190.000000;0.400250
6189.000000;0.400223
6188.000000;0.400228
6187.000000;0.400270
6186.000000;0.400340
6185.000000;0.400411
6184.000000;0.400454
6183.000000;0.400459
6182.000000;0.400436
6181.000000;0.400401
6180.000000;0.400363
6179.000000;0.400328
6178.000000;0.400290
6177.000000;0.400239
6176.000000;0.400184
6175.000000;0.400158
6174.000000;0.400186
6173.000000;0.400256
6172.000000;0.400332
6171.000000;0.400391
6170.000000;0.400432
6169.000000;0.400455
6168.000000;0.400461
6167.000000;0.400454
6166.000000;0.400458
6165.000000;0.400506
6164.000000;0.400607
6163.000000;0.400724
6162.000000;0.400780
6161.000000;0.400730
6160.000000;0.400617
6159.000000;0.400533
6158.000000;0.400525
6157.000000;0.400557
6156.000000;0.400563
6155.000000;0.400528
6154.000000;0.400490
6153.000000;0.400486
6152.000000;0.400521
6151.000000;0.400573
6150.000000;0.400618
6149.000000;0.400647
6148.000000;0.400665
6147.000000;0.400678
6146.000000;0.400676
6145.000000;0.400644
6144.000000;0.400592
6143.000000;0.400557
6142.000000;0.400564
6141.000000;0.400605
6140.000000;0.400651
6139.000000;0.400691
6138.000000;0.400726
6137.000000;0.400753
6136.000000;0.400765
6135.000000;0.400763
6134.000000;0.400756
6133.000000;0.400751
6132.000000;0.400752
6131.000000;0.400763
6130.000000;0.400780
6129.000000;0.400790
6128.000000;0.400781
6127.000000;0.400753
6126.000000;0.400720
6125.000000;0.400711
6124.000000;0.400746
6123.000000;0.400821
6122.000000;0.400897
6121.000000;0.400933
6120.000000;0.400923
6119.000000;0.400883
6118.000000;0.400825
6117.000000;0.400756
6116.000000;0.400695
6115.000000;0.400672
6114.000000;0.400684
6113.000000;0.400690
6112.000000;0.400669
6111.000000;0.400643
6110.000000;0.400645
6109.000000;0.400669
6108.000000;0.400691
6107.000000;0.400701
6106.000000;0.400712
6105.000000;0.400738
6104.000000;0.400785
6103.000000;0.400841
6102.000000;0.400877
6101.000000;0.400865
6100.000000;0.400814
6099.000000;0.400772
6098.000000;0.400772
6097.000000;0.400800
6096.000000;0.400826
6095.000000;0.400843
6094.000000;0.400857
6093.000000;0.400863
6092.000000;0.400849
6091.000000;0.400825
6090.000000;0.400807
6089.000000;0.400795
6088.000000;0.400779
6087.000000;0.400769
6086.000000;0.400787
6085.000000;0.400840
6084.000000;0.400907
6083.000000;0.400962
6082.000000;0.400989
6081.000000;0.400985
6080.000000;0.400963
6079.000000;0.400942
6078.000000;0.400935
6077.000000;0.400932
6076.000000;0.400916
6075.000000;0.400883
6074.000000;0.400845
6073.000000;0.400811
6072.000000;0.400788
6071.000000;0.400776
6070.000000;0.400767
6069.000000;0.400746
6068.000000;0.400710
6067.000000;0.400679
6066.000000;0.400670
6065.000000;0.400678
6064.000000;0.400688
6063.000000;0.400701
6062.000000;0.400724
6061.000000;0.400751
6060.000000;0.400769
6059.000000;0.400787
6058.000000;0.400824
6057.000000;0.400870
6056.000000;0.400886
6055.000000;0.400843
6054.000000;0.400765
6053.000000;0.400708
6052.000000;0.400701
6051.000000;0.400726
6050.000000;0.400746
6049.000000;0.400751
6048.000000;0.400777
6047.000000;0.400860
6046.000000;0.400984
6045.000000;0.401081
6044.000000;0.401092
6043.000000;0.401029
6042.000000;0.400956
6041.000000;0.400924
6040.000000;0.400938
6039.000000;0.400970
6038.000000;0.400995
6037.000000;0.401004
6036.000000;0.400996
6035.000000;0.400966
6034.000000;0.400917
6033.000000;0.400872
6032.000000;0.400866
6031.000000;0.400916
6030.000000;0.401000
6029.000000;0.401076
6028.000000;0.401120
6027.000000;0.401145
6026.000000;0.401165
6025.000000;0.401175
6024.000000;0.401160
6023.000000;0.401118
6022.000000;0.401077
6021.000000;0.401067
6020.000000;0.401110
6019.000000;0.401198
6018.000000;0.401306
6017.000000;0.401391
6016.000000;0.401423
6015.000000;0.401393
6014.000000;0.401328
6013.000000;0.401273
6012.000000;0.401269
6011.000000;0.401316
6010.000000;0.401373
6009.000000;0.401401
6008.000000;0.401403
6007.000000;0.401419
6006.000000;0.401459
6005.000000;0.401483
6004.000000;0.401454
6003.000000;0.401384
6002.000000;0.401325
6001.000000;0.401310
6000.000000;0.401326
5999.000000;0.401344
5998.000000;0.401348
5997.000000;0.401338
5996.000000;0.401322
5995.000000;0.401309
5994.000000;0.401315
5993.000000;0.401354
5992.000000;0.401424
5991.000000;0.401486
5990.000000;0.401492
5989.000000;0.401427
5988.000000;0.401342
5987.000000;0.401311
5986.000000;0.401357
5985.000000;0.401443
5984.000000;0.401520
5983.000000;0.401582
5982.000000;0.401653
5981.000000;0.401736
5980.000000;0.401810
5979.000000;0.401852
5978.000000;0.401858
5977.000000;0.401842
5976.000000;0.401822
5975.000000;0.401820
5974.000000;0.401849
5973.000000;0.401903
5972.000000;0.401961
5971.000000;0.402002
5970.000000;0.402018
5969.000000;0.402017
5968.000000;0.402024
5967.000000;0.402057
5966.000000;0.402111
5965.000000;0.402161
5964.000000;0.402194
5963.000000;0.402227
5962.000000;0.402277
5961.000000;0.402332
5960.000000;0.402352
5959.000000;0.402324
5958.000000;0.402275
5957.000000;0.402249
5956.000000;0.402256
5955.000000;0.402270
5954.000000;0.402262
5953.000000;0.402240
5952.000000;0.402234
5951.000000;0.402256
5950.000000;0.402277
5949.000000;0.402267
5948.000000;0.402232
5947.000000;0.402208
5946.000000;0.402225
5945.000000;0.402284
5944.000000;0.402367
5943.000000;0.402456
5942.000000;0.402532
5941.000000;0.402585
5940.000000;0.402623
5939.000000;0.402668
5938.000000;0.402726
5937.000000;0.402781
5936.000000;0.402823
5935.000000;0.402862
5934.000000;0.402915
5933.000000;0.402982
5932.000000;0.403053
5931.000000;0.403115
5930.000000;0.403160
5929.000000;0.403187
5928.000000;0.403206
5927.000000;0.403232
5926.000000;0.403268
5925.000000;0.403305
5924.000000;0.403341
5923.000000;0.403386
5922.000000;0.403437
5921.000000;0.403468
5920.000000;0.403465
5919.000000;0.403447
5918.000000;0.403445
5917.000000;0.403462
5916.000000;0.403473
5915.000000;0.403450
5914.000000;0.403390
5913.000000;0.403320
5912.000000;0.403287
5911.000000;0.403326
5910.000000;0.403416
5909.000000;0.403501
5908.000000;0.403535
5907.000000;0.403525
5906.000000;0.403503
5905.000000;0.403494
5904.000000;0.403509
5903.000000;0.403565
5902.000000;0.403662
5901.000000;0.403766
5900.000000;0.403824
5899.000000;0.403816
5898.000000;0.403777
5897.000000;0.403765
5896.000000;0.403814
5895.000000;0.403913
5894.000000;0.404003
5893.000000;0.404026
5892.000000;0.403976
5891.000000;0.403904
5890.000000;0.403866
5889.000000;0.403867
5888.000000;0.403883
5887.000000;0.403905
5886.000000;0.403947
5885.000000;0.404002
5884.000000;0.404036
5883.000000;0.404025
5882.000000;0.403994
5881.000000;0.403988
5880.000000;0.404038
5879.000000;0.404140
5878.000000;0.404255
5877.000000;0.404342
5876.000000;0.404376
5875.000000;0.404368
5874.000000;0.404354
5873.000000;0.404358
5872.000000;0.404379
5871.000000;0.404402
5870.000000;0.404421
5869.000000;0.404438
5868.000000;0.404458
5867.000000;0.404481
5866.000000;0.404501
5865.000000;0.404507
5864.000000;0.404501
5863.000000;0.404498
5862.000000;0.404521
5861.000000;0.404569
5860.000000;0.404616
5859.000000;0.404638
5858.000000;0.404631
5857.000000;0.404621
5856.000000;0.404632
5855.000000;0.404675
5854.000000;0.404736
5853.000000;0.404791
5852.000000;0.404821
5851.000000;0.404824
5850.000000;0.404817
5849.000000;0.404829
5848.000000;0.404880
5847.000000;0.404964
5846.000000;0.405047
5845.000000;0.405091
5844.000000;0.405094
5843.000000;0.405087
5842.000000;0.405097
5841.000000;0.405117
5840.000000;0.405125
5839.000000;0.405113
5838.000000;0.405089
5837.000000;0.405063
5836.000000;0.405045
5835.000000;0.405054
5834.000000;0.405102
5833.000000;0.405173
5832.000000;0.405231
5831.000000;0.405260
5830.000000;0.405278
5829.000000;0.405304
5828.000000;0.405338
5827.000000;0.405366
5826.000000;0.405381
5825.000000;0.405393
5824.000000;0.405417
5823.000000;0.405466
5822.000000;0.405546
5821.000000;0.405646
5820.000000;0.405735
5819.000000;0.405779
5818.000000;0.405774
5817.000000;0.405752
5816.000000;0.405759
5815.000000;0.405816
5814.000000;0.405902
5813.000000;0.405978
5812.000000;0.406022
5811.000000;0.406045
5810.000000;0.406067
5809.000000;0.406095
5808.000000;0.406120
5807.000000;0.406145
5806.000000;0.406179
5805.000000;0.406227
5804.000000;0.406268
5803.000000;0.406274
5802.000000;0.406235
5801.000000;0.406168
5800.000000;0.406108
5799.000000;0.406080
5798.000000;0.406094
5797.000000;0.406148
5796.000000;0.406231
5795.000000;0.406324
5794.000000;0.406404
5793.000000;0.406456
5792.000000;0.406487
5791.000000;0.406525
5790.000000;0.406586
5789.000000;0.406657
5788.000000;0.406711
5787.000000;0.406738
5786.000000;0.406757
5785.000000;0.406791
5784.000000;0.406836
5783.000000;0.406861
5782.000000;0.406846
5781.000000;0.406801
5780.000000;0.406768
5779.000000;0.406776
5778.000000;0.406813
5777.000000;0.406844
5776.000000;0.406850
5775.000000;0.406847
5774.000000;0.406869
5773.000000;0.406931
5772.000000;0.407014
5771.000000;0.407080
5770.000000;0.407101
5769.000000;0.407086
5768.000000;0.407072
5767.000000;0.407091
5766.000000;0.407136
5765.000000;0.407179
5764.000000;0.407204
5763.000000;0.407213
5762.000000;0.407197
5761.000000;0.407139
5760.000000;0.407049
5759.000000;0.406972
5758.000000;0.406946
5757.000000;0.406960
5756.000000;0.406980
5755.000000;0.407005
5754.000000;0.407062
5753.000000;0.407148
5752.000000;0.407209
5751.000000;0.407198
5750.000000;0.407130
5749.000000;0.407062
5748.000000;0.407031
5747.000000;0.407036
5746.000000;0.407056
5745.000000;0.407084
5744.000000;0.407118
5743.000000;0.407154
5742.000000;0.407182
5741.000000;0.407198
5740.000000;0.407204
5739.000000;0.407201
5738.000000;0.407186
5737.000000;0.407165
5736.000000;0.407148
5735.000000;0.407145
5734.000000;0.407164
5733.000000;0.407213
5732.000000;0.407290
5731.000000;0.407378
5730.000000;0.407441
5729.000000;0.407452
5728.000000;0.407415
5727.000000;0.407371
5726.000000;0.407358
5725.000000;0.407375
5724.000000;0.407388
5723.000000;0.407366
5722.000000;0.407316
5721.000000;0.407268
5720.000000;0.407242
5719.000000;0.407227
5718.000000;0.407195
5717.000000;0.407145
5716.000000;0.407104
5715.000000;0.407101
5714.000000;0.407130
5713.000000;0.407157
5712.000000;0.407155
5711.000000;0.407124
5710.000000;0.407085
5709.000000;0.407066
5708.000000;0.407087
5707.000000;0.407149
5706.000000;0.407220
5705.000000;0.407257
5704.000000;0.407240
5703.000000;0.407192
5702.000000;0.407151
5701.000000;0.407138
5700.000000;0.407149
5699.000000;0.407184
5698.000000;0.407250
5697.000000;0.407338
5696.000000;0.407418
5695.000000;0.407462
5694.000000;0.407469
5693.000000;0.407475
5692.000000;0.407491
5691.000000;0.407506
5690.000000;0.407511
5689.000000;0.407499
5688.000000;0.407490
5687.000000;0.407505
5686.000000;0.407547
5685.000000;0.407593
5684.000000;0.407625
5683.000000;0.407639
5682.000000;0.407634
5681.000000;0.407601
5680.000000;0.407534
5679.000000;0.407461
5678.000000;0.407427
5677.000000;0.407446
5676.000000;0.407482
5675.000000;0.407499
5674.000000;0.407513
5673.000000;0.407573
5672.000000;0.407684
5671.000000;0.407785
5670.000000;0.407816
5669.000000;0.407789
5668.000000;0.407778
5667.000000;0.407845
5666.000000;0.407982
5665.000000;0.408127
5664.000000;0.408215
5663.000000;0.408226
5662.000000;0.408195
5661.000000;0.408182
5660.000000;0.408228
5659.000000;0.408332
5658.000000;0.408458
5657.000000;0.408572
5656.000000;0.408660
5655.000000;0.408725
5654.000000;0.408784
5653.000000;0.408849
5652.000000;0.408913
5651.000000;0.408959
5650.000000;0.408988
5649.000000;0.409034
5648.000000;0.409125
5647.000000;0.409239
5646.000000;0.409327
5645.000000;0.409377
5644.000000;0.409423
5643.000000;0.409501
5642.000000;0.409604
5641.000000;0.409704
5640.000000;0.409793
5639.000000;0.409886
5638.000000;0.409991
5637.000000;0.410106
5636.000000;0.410229
5635.000000;0.410364
5634.000000;0.410499
5633.000000;0.410614
5632.000000;0.410693
5631.000000;0.410744
5630.000000;0.410790
5629.000000;0.410854
5628.000000;0.410953
5627.000000;0.411086
5626.000000;0.411237
5625.000000;0.411386
5624.000000;0.411508
5623.000000;0.411592
5622.000000;0.411651
5621.000000;0.411723
5620.000000;0.411841
5619.000000;0.412004
5618.000000;0.412193
5617.000000;0.412397
5616.000000;0.412619
5615.000000;0.412837
5614.000000;0.413007
5613.000000;0.413107
5612.000000;0.413165
5611.000000;0.413228
5610.000000;0.413328
5609.000000;0.413474
5608.000000;0.413658
5607.000000;0.413852
5606.000000;0.414020
5605.000000;0.414143
5604.000000;0.414240
5603.000000;0.414333
5602.000000;0.414419
5601.000000;0.414492
5600.000000;0.414573
5599.000000;0.414692
5598.000000;0.414861
5597.000000;0.415067
5596.000000;0.415289
5595.000000;0.415509
5594.000000;0.415706
5593.000000;0.415866
5592.000000;0.415988
5591.000000;0.416084
5590.000000;0.416177
5589.000000;0.416301
5588.000000;0.416477
5587.000000;0.416692
5586.000000;0.416907
5585.000000;0.417103
5584.000000;0.417293
5583.000000;0.417478
5582.000000;0.417626
5581.000000;0.417723
5580.000000;0.417824
5579.000000;0.417993
5578.000000;0.418221
5577.000000;0.418435
5576.000000;0.418591
5575.000000;0.418717
5574.000000;0.418848
5573.000000;0.418987
5572.000000;0.419124
5571.000000;0.419274
5570.000000;0.419445
5569.000000;0.419611
5568.000000;0.419738
5567.000000;0.419826
5566.000000;0.419913
5565.000000;0.420037
5564.000000;0.420202
5563.000000;0.420385
5562.000000;0.420552
5561.000000;0.420690
5560.000000;0.420813
5559.000000;0.420952
5558.000000;0.421117
5557.000000;0.421292
5556.000000;0.421455
5555.000000;0.421606
5554.000000;0.421755
5553.000000;0.421903
5552.000000;0.422040
5551.000000;0.422166
5550.000000;0.422300
5549.000000;0.422451
5548.000000;0.422607
5547.000000;0.422746
5546.000000;0.422867
5545.000000;0.422986
5544.000000;0.423109
5543.000000;0.423222
5542.000000;0.423311
5541.000000;0.423391
5540.000000;0.423481
5539.000000;0.423574
5538.000000;0.423642
5537.000000;0.423695
5536.000000;0.423791
5535.000000;0.423977
5534.000000;0.424230
5533.000000;0.424474
5532.000000;0.424652
5531.000000;0.424757
5530.000000;0.424812
5529.000000;0.424849
5528.000000;0.424902
5527.000000;0.424989
5526.000000;0.425093
5525.000000;0.425190
5524.000000;0.425278
5523.000000;0.425360
5522.000000;0.425422
5521.000000;0.425463
5520.000000;0.425536
5519.000000;0.425716
5518.000000;0.426002
5517.000000;0.426305
5516.000000;0.426534
5515.000000;0.426670
5514.000000;0.426746
5513.000000;0.426793
5512.000000;0.426830
5511.000000;0.426893
5510.000000;0.427018
5509.000000;0.427197
5508.000000;0.427386
5507.000000;0.427543
5506.000000;0.427661
5505.000000;0.427762
5504.000000;0.427871
5503.000000;0.428003
5502.000000;0.428156
5501.000000;0.428309
5500.000000;0.428414
5499.000000;0.428426
5498.000000;0.428347
5497.000000;0.428269
5496.000000;0.428324
5495.000000;0.428559
5494.000000;0.428883
5493.000000;0.429162
5492.000000;0.429360
5491.000000;0.429555
5490.000000;0.429804
5489.000000;0.430067
5488.000000;0.430277
5487.000000;0.430415
5486.000000;0.430500
5485.000000;0.430523
5484.000000;0.430481
5483.000000;0.430414
5482.000000;0.430383
5481.000000;0.430384
5480.000000;0.430362
5479.000000;0.430311
5478.000000;0.430321
5477.000000;0.430486
5476.000000;0.430781
5475.000000;0.431066
5474.000000;0.431234
5473.000000;0.431310
5472.000000;0.431387
5471.000000;0.431503
5470.000000;0.431633
5469.000000;0.431760
5468.000000;0.431901
5467.000000;0.432058
5466.000000;0.432202
5465.000000;0.432335
5464.000000;0.432522
5463.000000;0.432807
5462.000000;0.433134
5461.000000;0.433387
5460.000000;0.433521
5459.000000;0.433598
5458.000000;0.433699
5457.000000;0.433848
5456.000000;0.434012
5455.000000;0.434143
5454.000000;0.434206
5453.000000;0.434217
5452.000000;0.434230
5451.000000;0.434296
5450.000000;0.434423
5449.000000;0.434596
5448.000000;0.434812
5447.000000;0.435053
5446.000000;0.435293
5445.000000;0.435559
5444.000000;0.435930
5443.000000;0.436402
5442.000000;0.436824
5441.000000;0.437038
5440.000000;0.437067
5439.000000;0.437089
5438.000000;0.437216
5437.000000;0.437401
5436.000000;0.437562
5435.000000;0.437674
5434.000000;0.437764
5433.000000;0.437878
5432.000000;0.438071
5431.000000;0.438382
5430.000000;0.438813
5429.000000;0.439308
5428.000000;0.439772
5427.000000;0.440131
5426.000000;0.440370
5425.000000;0.440524
5424.000000;0.440644
5423.000000;0.440760
5422.000000;0.440859
5421.000000;0.440908
5420.000000;0.440888
5419.000000;0.440836
5418.000000;0.440850
5417.000000;0.441019
5416.000000;0.441345
5415.000000;0.441745
5414.000000;0.442157
5413.000000;0.442619
5412.000000;0.443206
5411.000000;0.443891
5410.000000;0.444565
5409.000000;0.445177
5408.000000;0.445751
5407.000000;0.446263
5406.000000;0.446602
5405.000000;0.446731
5404.000000;0.446775
5403.000000;0.446888
5402.000000;0.447093
5401.000000;0.447309
5400.000000;0.447497
5399.000000;0.447696
5398.000000;0.447981
5397.000000;0.448408
5396.000000;0.448979
5395.000000;0.449618
5394.000000;0.450214
5393.000000;0.450731
5392.000000;0.451244
5391.000000;0.451819
5390.000000;0.452418
5389.000000;0.452975
5388.000000;0.453498
5387.000000;0.454027
5386.000000;0.454533
5385.000000;0.454960
5384.000000;0.455367
5383.000000;0.455882
5382.000000;0.456524
5381.000000;0.457213
5380.000000;0.457915
5379.000000;0.458682
5378.000000;0.459548
5377.000000;0.460460
5376.000000;0.461345
5375.000000;0.462200
5374.000000;0.463051
5373.000000;0.463894
5372.000000;0.464724
5371.000000;0.465555
5370.000000;0.466385
5369.000000;0.467183
5368.000000;0.467953
5367.000000;0.468763
5366.000000;0.469664
5365.000000;0.470607
5364.000000;0.471519
5363.000000;0.472422
5362.000000;0.473421
5361.000000;0.474568
5360.000000;0.475810
5359.000000;0.477078
5358.000000;0.478365
5357.000000;0.479699
5356.000000;0.481099
5355.000000;0.482579
5354.000000;0.484143
5353.000000;0.485748
5352.000000;0.487292
5351.000000;0.488705
5350.000000;0.490023
5349.000000;0.491363
5348.000000;0.492835
5347.000000;0.494436
5346.000000;0.496069
5345.000000;0.497690
5344.000000;0.499422
5343.000000;0.501438
5342.000000;0.503689
5341.000000;0.505847
5340.000000;0.507607
5339.000000;0.509001
5338.000000;0.510365
5337.000000;0.511986
5336.000000;0.513832
5335.000000;0.515655
5334.000000;0.517283
5333.000000;0.518785
5332.000000;0.520420
5331.000000;0.522415
5330.000000;0.524700
5329.000000;0.526869
5328.000000;0.528525
5327.000000;0.529634
5326.000000;0.530472
5325.000000;0.531238
5324.000000;0.531858
5323.000000;0.532205
5322.000000;0.532260
5321.000000;0.531995
5320.000000;0.531369
5319.000000;0.530505
5318.000000;0.529646
5317.000000;0.528717
5316.000000;0.527092
5315.000000;0.523972
5314.000000;0.519062
5313.000000;0.512896
5312.000000;0.506474
5311.000000;0.500355
5310.000000;0.493879
5309.000000;0.485619
5308.000000;0.475004
5307.000000;0.463057
5306.000000;0.450885
5305.000000;0.438115
5304.000000;0.423767
5303.000000;0.407729
5302.000000;0.390315
5301.000000;0.371785
5300.000000;0.354147
5299.000000;0.342394
5298.000000;0.341939
5297.000000;0.354550
5296.000000;0.376605
5295.000000;0.403171
5294.000000;0.434944
5293.000000;0.475918
5292.000000;0.524250
5291.000000;0.572150
5290.000000;0.614074
5289.000000;0.649047
5288.000000;0.678119
5287.000000;0.705541
5286.000000;0.737440
5285.000000;0.772759
5284.000000;0.799745
5283.000000;0.809699
5282.000000;0.810036
5281.000000;0.814528
5280.000000;0.828844
5279.000000;0.850911
5278.000000;0.875825
5277.000000;0.895805
5276.000000;0.903765
5275.000000;0.902701
5274.000000;0.903393
5273.000000;0.910148
5272.000000;0.917352
5271.000000;0.922121
5270.000000;0.930242
5269.000000;0.943933
5268.000000;0.953942
5267.000000;0.952735
5266.000000;0.947111
5265.000000;0.947332
5264.000000;0.952701
5263.000000;0.955480
5262.000000;0.952188
5261.000000;0.944155
5260.000000;0.933824
5259.000000;0.927214
5258.000000;0.932501
5257.000000;0.949945
5256.000000;0.967632
5255.000000;0.973880
5254.000000;0.970535
5253.000000;0.966431
5252.000000;0.964738
5251.000000;0.963384
5250.000000;0.960824
5249.000000;0.956175
5248.000000;0.949411
5247.000000;0.945453
5246.000000;0.952017
5245.000000;0.969009
5244.000000;0.984741
5243.000000;0.989150
5242.000000;0.985639
5241.000000;0.981425
5240.000000;0.976436
5239.000000;0.967987
5238.000000;0.958062
5237.000000;0.950812
5236.000000;0.947420
5235.000000;0.947972
5234.000000;0.953567
5233.000000;0.961752
5232.000000;0.965499
5231.000000;0.962236
5230.000000;0.958276
5229.000000;0.958777
5228.000000;0.959506
5227.000000;0.955676
5226.000000;0.952595
5225.000000;0.957383
5224.000000;0.965485
5223.000000;0.964909
5222.000000;0.953329
5221.000000;0.940888
5220.000000;0.936640
5219.000000;0.941051
5218.000000;0.949606
5217.000000;0.958581
5216.000000;0.966876
5215.000000;0.974360
5214.000000;0.979535
5213.000000;0.978630
5212.000000;0.968879
5211.000000;0.954130
5210.000000;0.944360
5209.000000;0.947668
5208.000000;0.963205
5207.000000;0.981237
5206.000000;0.990077
5205.000000;0.985181
5204.000000;0.972615
5203.000000;0.962976
5202.000000;0.961917
5201.000000;0.966141
5200.000000;0.967854
5199.000000;0.963072
5198.000000;0.954540
5197.000000;0.946873
5196.000000;0.942615
5195.000000;0.943047
5194.000000;0.947838
5193.000000;0.953801
5192.000000;0.957952
5191.000000;0.960731
5190.000000;0.963030
5189.000000;0.963176
5188.000000;0.960759
5187.000000;0.959393
5186.000000;0.960720
5185.000000;0.959504
5184.000000;0.951457
5183.000000;0.942871
5182.000000;0.943837
5181.000000;0.954700
5180.000000;0.965836
5179.000000;0.970500
5178.000000;0.970578
5177.000000;0.967960
5176.000000;0.961505
5175.000000;0.954227
5174.000000;0.952923
5173.000000;0.958719
5172.000000;0.964255
5171.000000;0.963794
5170.000000;0.961576
5169.000000;0.964612
5168.000000;0.972902
5167.000000;0.980851
5166.000000;0.983992
5165.000000;0.981164
5164.000000;0.973943
5163.000000;0.967039
5162.000000;0.965468
5161.000000;0.969099
5160.000000;0.972875
5159.000000;0.973855
5158.000000;0.974283
5157.000000;0.976012
5156.000000;0.977020
5155.000000;0.975772
5154.000000;0.974522
5153.000000;0.975399
5152.000000;0.976965
5151.000000;0.977333
5150.000000;0.976679
5149.000000;0.974295
5148.000000;0.967940
5147.000000;0.958521
5146.000000;0.950932
5145.000000;0.948109
5144.000000;0.947776
5143.000000;0.946321
5142.000000;0.942748
5141.000000;0.937819
5140.000000;0.932967
5139.000000;0.931268
5138.000000;0.935413
5137.000000;0.943512
5136.000000;0.950314
5135.000000;0.953530
5134.000000;0.955409
5133.000000;0.957495
5132.000000;0.958895
5131.000000;0.960468
5130.000000;0.965628
5129.000000;0.974525
5128.000000;0.981386
5127.000000;0.981082
5126.000000;0.975265
5125.000000;0.969177
5124.000000;0.966686
5123.000000;0.970142
5122.000000;0.979946
5121.000000;0.992068
5120.000000;0.999654
5119.000000;0.999788
5118.000000;0.995079
5117.000000;0.987731
5116.000000;0.977656
5115.000000;0.966435
5114.000000;0.957532
5113.000000;0.952481
5112.000000;0.950982
5111.000000;0.954047
5110.000000;0.962961
5109.000000;0.974732
5108.000000;0.982050
5107.000000;0.980278
5106.000000;0.971904
5105.000000;0.961241
5104.000000;0.950693
5103.000000;0.943841
5102.000000;0.943646
5101.000000;0.946510
5100.000000;0.944840
5099.000000;0.937659
5098.000000;0.933187
5097.000000;0.938760
5096.000000;0.952935
5095.000000;0.967534
5094.000000;0.974020
5093.000000;0.967980
5092.000000;0.951738
5091.000000;0.934301
5090.000000;0.924897
5089.000000;0.925521
5088.000000;0.931093
5087.000000;0.936801
5086.000000;0.942821
5085.000000;0.950028
5084.000000;0.955023
5083.000000;0.953733
5082.000000;0.947694
5081.000000;0.942727
5080.000000;0.942828
5079.000000;0.947555
5078.000000;0.953617
5077.000000;0.957117
5076.000000;0.955758
5075.000000;0.950714
5074.000000;0.945763
5073.000000;0.943628
5072.000000;0.943358
5071.000000;0.941698
5070.000000;0.936537
5069.000000;0.929165
5068.000000;0.923742
5067.000000;0.924457
5066.000000;0.932587
5065.000000;0.944690
5064.000000;0.954344
5063.000000;0.957390
5062.000000;0.954250
5061.000000;0.947648
5060.000000;0.940726
5059.000000;0.936305
5058.000000;0.935351
5057.000000;0.936037
5056.000000;0.935850
5055.000000;0.934641
5054.000000;0.933761
5053.000000;0.932784
5052.000000;0.930139
5051.000000;0.926540
5050.000000;0.924752
5049.000000;0.926052
5048.000000;0.928876
5047.000000;0.930460
5046.000000;0.928324
5045.000000;0.920941
5044.000000;0.909360
5043.000000;0.898372
5042.000000;0.893476
5041.000000;0.896087
5040.000000;0.903453
5039.000000;0.912171
5038.000000;0.918858
5037.000000;0.919177
5036.000000;0.911757
5035.000000;0.902022
5034.000000;0.896674
5033.000000;0.895744
5032.000000;0.893500
5031.000000;0.887169
5030.000000;0.880571
5029.000000;0.877880
5028.000000;0.878645
5027.000000;0.879814
5026.000000;0.879431
5025.000000;0.877010
5024.000000;0.872448
5023.000000;0.866321
5022.000000;0.859680
5021.000000;0.852570
5020.000000;0.844655
5019.000000;0.837595
5018.000000;0.833999
5017.000000;0.833478
5016.000000;0.832337
5015.000000;0.828501
5014.000000;0.824580
5013.000000;0.824225
5012.000000;0.827088
5011.000000;0.828540
5010.000000;0.823967
5009.000000;0.813069
5008.000000;0.800515
5007.000000;0.792458
5006.000000;0.791300
5005.000000;0.793603
5004.000000;0.793937
5003.000000;0.790655
5002.000000;0.786027
5001.000000;0.781124
5000.000000;0.774024
4999.000000;0.764002
4998.000000;0.754376
4997.000000;0.748735
4996.000000;0.746199
4995.000000;0.742587
4994.000000;0.735774
4993.000000;0.728035
4992.000000;0.722661
4991.000000;0.720223
4990.000000;0.718809
4989.000000;0.716590
4988.000000;0.713563
4987.000000;0.710808
4986.000000;0.708472
4985.000000;0.705141
4984.000000;0.699222
4983.000000;0.690345
4982.000000;0.679578
4981.000000;0.669204
4980.000000;0.661845
4979.000000;0.658035
4978.000000;0.654389
4977.000000;0.646295
4976.000000;0.633545
4975.000000;0.621104
4974.000000;0.613413
4973.000000;0.609983
4972.000000;0.607323
4971.000000;0.603372
4970.000000;0.598204
4969.000000;0.591679
4968.000000;0.583018
4967.000000;0.572683
4966.000000;0.562802
4965.000000;0.555421
4964.000000;0.551070
4963.000000;0.548571
4962.000000;0.545314
4961.000000;0.538498
4960.000000;0.527654
4959.000000;0.515426
4958.000000;0.504847
4957.000000;0.496678
4956.000000;0.490102
4955.000000;0.484812
4954.000000;0.480981
4953.000000;0.477736
4952.000000;0.473290
4951.000000;0.466556
4950.000000;0.457735
4949.000000;0.447759
4948.000000;0.438155
4947.000000;0.430679
4946.000000;0.425487
4945.000000;0.420361
4944.000000;0.413141
4943.000000;0.404235
4942.000000;0.395510
4941.000000;0.387580
4940.000000;0.379691
4939.000000;0.371644
4938.000000;0.364167
4937.000000;0.357608
4936.000000;0.351577
4935.000000;0.345528
4934.000000;0.338478
4933.000000;0.328914
4932.000000;0.316616
4931.000000;0.304000
4930.000000;0.293895
4929.000000;0.286439
4928.000000;0.279573
4927.000000;0.271903
4926.000000;0.263340
4925.000000;0.253568
4924.000000;0.242364
4923.000000;0.231521
4922.000000;0.223979
4921.000000;0.220265
4920.000000;0.217580
4919.000000;0.213065
4918.000000;0.206436
4917.000000;0.198832
4916.000000;0.190774
4915.000000;0.182228
4914.000000;0.173428
4913.000000;0.164649
4912.000000;0.155893
4911.000000;0.147397
4910.000000;0.139722
4909.000000;0.132893
4908.000000;0.126147
4907.000000;0.118879
4906.000000;0.111140
4905.000000;0.102999
4904.000000;0.094375
4903.000000;0.085673
4902.000000;0.077512
4901.000000;0.069563
4900.000000;0.060709
4899.000000;0.050795
4898.000000;0.041292
4897.000000;0.033607
4896.000000;0.027459
4895.000000;0.021556
4894.000000;0.015247
4893.000000;0.008807
4892.000000;0.002538
4891.000000;-0.003577
4890.000000;-0.009426
4889.000000;-0.014531
4888.000000;-0.018446
4887.000000;-0.021194
4886.000000;-0.023340
4885.000000;-0.025824
4884.000000;-0.029600
4883.000000;-0.035044
4882.000000;-0.041553
4881.000000;-0.047860
4880.000000;-0.053000
4879.000000;-0.057039
4878.000000;-0.060753
4877.000000;-0.064550
4876.000000;-0.068040
4875.000000;-0.070814
4874.000000;-0.073209
4873.000000;-0.075904
4872.000000;-0.079084
4871.000000;-0.082383
4870.000000;-0.085299
4869.000000;-0.087226
4868.000000;-0.087562
4867.000000;-0.086541
4866.000000;-0.085495
4865.000000;-0.085435
4864.000000;-0.085793
4863.000000;-0.085356
4862.000000;-0.084170
4861.000000;-0.083521
4860.000000;-0.084081
4859.000000;-0.085176
4858.000000;-0.085914
4857.000000;-0.085918
4856.000000;-0.084739
4855.000000;-0.081686
4854.000000;-0.076863
4853.000000;-0.071685
4852.000000;-0.067675
4851.000000;-0.065088
4850.000000;-0.063119
4849.000000;-0.061193
4848.000000;-0.059552
4847.000000;-0.058593
4846.000000;-0.057980
4845.000000;-0.056673
4844.000000;-0.053880
4843.000000;-0.049856
4842.000000;-0.045595
4841.000000;-0.041787
4840.000000;-0.038302
4839.000000;-0.034743
4838.000000;-0.031199
4837.000000;-0.028210
4836.000000;-0.026117
4835.000000;-0.024561
4834.000000;-0.022627
4833.000000;-0.019561
4832.000000;-0.015578
4831.000000;-0.011807
4830.000000;-0.009111
4829.000000;-0.007092
4828.000000;-0.004745
4827.000000;-0.001883
4826.000000;0.000789
4825.000000;0.003047
4824.000000;0.005680
4823.000000;0.009324
4822.000000;0.013579
4821.000000;0.017795
4820.000000;0.022001
4819.000000;0.026361
4818.000000;0.030303
4817.000000;0.033116
4816.000000;0.035138
4815.000000;0.037521
4814.000000;0.040860
4813.000000;0.044680
4812.000000;0.048242
4811.000000;0.051317
4810.000000;0.054074
4809.000000;0.056758
4808.000000;0.059599
4807.000000;0.062681
4806.000000;0.065728
4805.000000;0.068388
4804.000000;0.070770
4803.000000;0.073389
4802.000000;0.076479
4801.000000;0.079663
4800.000000;0.082466
4799.000000;0.084902
4798.000000;0.087362
4797.000000;0.090078
4796.000000;0.092877
4795.000000;0.095448
4794.000000;0.097749
4793.000000;0.100072
4792.000000;0.102707
4791.000000;0.105595
4790.000000;0.108383
4789.000000;0.110818
4788.000000;0.112936
4787.000000;0.114920
4786.000000;0.116964
4785.000000;0.119302
4784.000000;0.122097
4783.000000;0.125131
4782.000000;0.127852
4781.000000;0.129935
4780.000000;0.131684
4779.000000;0.133695
4778.000000;0.136241
4777.000000;0.139141
4776.000000;0.142051
4775.000000;0.144675
4774.000000;0.146827
4773.000000;0.148574
4772.000000;0.150264
4771.000000;0.152227
4770.000000;0.154434
4769.000000;0.156611
4768.000000;0.158625
4767.000000;0.160590
4766.000000;0.162602
4765.000000;0.164556
4764.000000;0.166279
4763.000000;0.167759
4762.000000;0.169210
4761.000000;0.170943
4760.000000;0.173112
4759.000000;0.175556
4758.000000;0.177939
4757.000000;0.180088
4756.000000;0.182109
4755.000000;0.184154
4754.000000;0.186211
4753.000000;0.188184
4752.000000;0.190013
4751.000000;0.191635
4750.000000;0.192984
4749.000000;0.194173
4748.000000;0.195509
4747.000000;0.197147
4746.000000;0.198827
4745.000000;0.200143
4744.000000;0.201053
4743.000000;0.202003
4742.000000;0.203556
4741.000000;0.205937
4740.000000;0.208813
4739.000000;0.211448
4738.000000;0.213247
4737.000000;0.214274
4736.000000;0.215132
4735.000000;0.216269
4734.000000;0.217593
4733.000000;0.218856
4732.000000;0.220145
4731.000000;0.221721
4730.000000;0.223558
4729.000000;0.225349
4728.000000;0.226915
4727.000000;0.228341
4726.000000;0.229697
4725.000000;0.230908
4724.000000;0.231936
4723.000000;0.232917
4722.000000;0.234022
4721.000000;0.235296
4720.000000;0.236657
4719.000000;0.237947
4718.000000;0.239006
4717.000000;0.239824
4716.000000;0.240644
4715.000000;0.241781
4714.000000;0.243330
4713.000000;0.245112
4712.000000;0.246887
4711.000000;0.248514
4710.000000;0.249923
4709.000000;0.251070
4708.000000;0.251956
4707.000000;0.252639
4706.000000;0.253222
4705.000000;0.253862
4704.000000;0.254738
4703.000000;0.255927
4702.000000;0.257330
4701.000000;0.258775
4700.000000;0.260134
4699.000000;0.261321
4698.000000;0.262273
4697.000000;0.263051
4696.000000;0.263867
4695.000000;0.264891
4694.000000;0.266088
4693.000000;0.267329
4692.000000;0.268603
4691.000000;0.269953
4690.000000;0.271271
4689.000000;0.272344
4688.000000;0.273127
4687.000000;0.273816
4686.000000;0.274616
4685.000000;0.275533
4684.000000;0.276430
4683.000000;0.277211
4682.000000;0.277918
4681.000000;0.278664
4680.000000;0.279496
4679.000000;0.280314
4678.000000;0.280986
4677.000000;0.281553
4676.000000;0.282230
4675.000000;0.283158
4674.000000;0.284247
4673.000000;0.285329
4672.000000;0.286378
4671.000000;0.287462
4670.000000;0.288585
4669.000000;0.289679
4668.000000;0.290696
4667.000000;0.291582
4666.000000;0.292242
4665.000000;0.292694
4664.000000;0.293186
4663.000000;0.293989
4662.000000;0.295071
4661.000000;0.296124
4660.000000;0.296919
4659.000000;0.297517
4658.000000;0.298126
4657.000000;0.298853
4656.000000;0.299623
4655.000000;0.300276
4654.000000;0.300725
4653.000000;0.301088
4652.000000;0.301627
4651.000000;0.302499
4650.000000;0.303578
4649.000000;0.304573
4648.000000;0.305295
4647.000000;0.305762
4646.000000;0.306121
4645.000000;0.306553
4644.000000;0.307176
4643.000000;0.307937
4642.000000;0.308635
4641.000000;0.309175
4640.000000;0.309708
4639.000000;0.310425
4638.000000;0.311257
4637.000000;0.311951
4636.000000;0.312407
4635.000000;0.312811
4634.000000;0.313411
4633.000000;0.314290
4632.000000;0.315326
4631.000000;0.316285
4630.000000;0.316962
4629.000000;0.317368
4628.000000;0.317739
4627.000000;0.318254
4626.000000;0.318778
4625.000000;0.319040
4624.000000;0.319057
4623.000000;0.319201
4622.000000;0.319803
4621.000000;0.320803
4620.000000;0.321833
4619.000000;0.322563
4618.000000;0.322906
4617.000000;0.323012
4616.000000;0.323138
4615.000000;0.323487
4614.000000;0.324109
4613.000000;0.324915
4612.000000;0.325758
4611.000000;0.326496
4610.000000;0.327040
4609.000000;0.327399
4608.000000;0.327654
4607.000000;0.327854
4606.000000;0.328007
4605.000000;0.328206
4604.000000;0.328643
4603.000000;0.329376
4602.000000;0.330190
4601.000000;0.330823
4600.000000;0.331276
4599.000000;0.331749
4598.000000;0.332327
4597.000000;0.332890
4596.000000;0.333316
4595.000000;0.333619
4594.000000;0.333855
4593.000000;0.334042
4592.000000;0.334202
4591.000000;0.334374
4590.000000;0.334570
4589.000000;0.334797
4588.000000;0.335135
4587.000000;0.335666
4586.000000;0.336325
4585.000000;0.336902
4584.000000;0.337244
4583.000000;0.337382
4582.000000;0.337468
4581.000000;0.337649
4580.000000;0.337999
4579.000000;0.338468
4578.000000;0.338907
4577.000000;0.339206
4576.000000;0.339419
4575.000000;0.339696
4574.000000;0.340095
4573.000000;0.340545
4572.000000;0.340943
4571.000000;0.341210
4570.000000;0.341303
4569.000000;0.341285
4568.000000;0.341353
4567.000000;0.341670
4566.000000;0.342184
4565.000000;0.342684
4564.000000;0.343015
4563.000000;0.343142
4562.000000;0.343091
4561.000000;0.342960
4560.000000;0.342960
4559.000000;0.343250
4558.000000;0.343733
4557.000000;0.344136
4556.000000;0.344328
4555.000000;0.344419
4554.000000;0.344556
4553.000000;0.344776
4552.000000;0.345075
4551.000000;0.345451
4550.000000;0.345830
4549.000000;0.346070
4548.000000;0.346124
4547.000000;0.346104
4546.000000;0.346147
4545.000000;0.346285
4544.000000;0.346481
4543.000000;0.346703
4542.000000;0.346956
4541.000000;0.347279
4540.000000;0.347696
4539.000000;0.348088
4538.000000;0.348204
4537.000000;0.347926
4536.000000;0.347510
4535.000000;0.347362
4534.000000;0.347581
4533.000000;0.347894
4532.000000;0.348069
4531.000000;0.348203
4530.000000;0.348517
4529.000000;0.349026
4528.000000;0.349510
4527.000000;0.349762
4526.000000;0.349762
4525.000000;0.349651
4524.000000;0.349582
4523.000000;0.349573
4522.000000;0.349518
4521.000000;0.349387
4520.000000;0.349367
4519.000000;0.349671
4518.000000;0.350244
4517.000000;0.350770
4516.000000;0.351011
4515.000000;0.350992
4514.000000;0.350862
4513.000000;0.350729
4512.000000;0.350666
4511.000000;0.350742
4510.000000;0.350938
4509.000000;0.351127
4508.000000;0.351214
4507.000000;0.351267
4506.000000;0.351436
4505.000000;0.351780
4504.000000;0.352190
4503.000000;0.352441
4502.000000;0.352362
4501.000000;0.352014
4500.000000;0.351688
4499.000000;0.351653
4498.000000;0.351911
4497.000000;0.352262
4496.000000;0.352542
4495.000000;0.352727
4494.000000;0.352854
4493.000000;0.352998
4492.000000;0.353252
4491.000000;0.353594
4490.000000;0.353792
4489.000000;0.353659
4488.000000;0.353349
4487.000000;0.353208
4486.000000;0.353318
4485.000000;0.353426
4484.000000;0.353367
4483.000000;0.353334
4482.000000;0.353587
4481.000000;0.354066
4480.000000;0.354449
4479.000000;0.354504
4478.000000;0.354257
4477.000000;0.353910
4476.000000;0.353675
4475.000000;0.353657
4474.000000;0.353819
4473.000000;0.354077
4472.000000;0.354412
4471.000000;0.354814
4470.000000;0.355151
4469.000000;0.355255
4468.000000;0.355123
4467.000000;0.354906
4466.000000;0.354671
4465.000000;0.354353
4464.000000;0.353971
4463.000000;0.353692
4462.000000;0.353610
4461.000000;0.353630
4460.000000;0.353700
4459.000000;0.353980
4458.000000;0.354580
4457.000000;0.355251
4456.000000;0.355551
4455.000000;0.355328
4454.000000;0.354896
4453.000000;0.354686
4452.000000;0.354818
4451.000000;0.355044
4450.000000;0.355069
4449.000000;0.354875
4448.000000;0.354697
4447.000000;0.354715
4446.000000;0.354853
4445.000000;0.354944
4444.000000;0.354998
4443.000000;0.355180
4442.000000;0.355551
4441.000000;0.355958
4440.000000;0.356174
4439.000000;0.356058
4438.000000;0.355610
4437.000000;0.355016
4436.000000;0.354638
4435.000000;0.354754
4434.000000;0.355249
4433.000000;0.355670
4432.000000;0.355678
4431.000000;0.355367
4430.000000;0.355084
4429.000000;0.355046
4428.000000;0.355152
4427.000000;0.355130
4426.000000;0.354814
4425.000000;0.354291
4424.000000;0.353792
4423.000000;0.353443
4422.000000;0.353206
4421.000000;0.353073
4420.000000;0.353163
4419.000000;0.353511
4418.000000;0.353896
4417.000000;0.354058
4416.000000;0.353990
4415.000000;0.353826
4414.000000;0.353548
4413.000000;0.353035
4412.000000;0.352329
4411.000000;0.351630
4410.000000;0.351067
4409.000000;0.350687
4408.000000;0.350576
4407.000000;0.350728
4406.000000;0.350888
4405.000000;0.350829
4404.000000;0.350757
4403.000000;0.351017
4402.000000;0.351385
4401.000000;0.351085
4400.000000;0.349716
4399.000000;0.347862
4398.000000;0.346555
4397.000000;0.346352
4396.000000;0.347011
4395.000000;0.347779
4394.000000;0.347860
4393.000000;0.346947
4392.000000;0.345568
4391.000000;0.344710
4390.000000;0.344841
4389.000000;0.345422
4388.000000;0.345534
4387.000000;0.344845
4386.000000;0.343761
4385.000000;0.342788
4384.000000;0.342043
4383.000000;0.341333
4382.000000;0.340469
4381.000000;0.339471
4380.000000;0.338568
4379.000000;0.337976
4378.000000;0.337646
4377.000000;0.337274
4376.000000;0.336551
4375.000000;0.335355
4374.000000;0.333750
4373.000000;0.331998
4372.000000;0.330595
4371.000000;0.329981
4370.000000;0.330052
4369.000000;0.330156
4368.000000;0.329724
4367.000000;0.328781
4366.000000;0.327675
4365.000000;0.326516
4364.000000;0.325156
4363.000000;0.323651
4362.000000;0.322428
4361.000000;0.321838
4360.000000;0.321640
4359.000000;0.321080
4358.000000;0.319647
4357.000000;0.317722
4356.000000;0.316276
4355.000000;0.315834
4354.000000;0.315904
4353.000000;0.315607
4352.000000;0.314686
4351.000000;0.313584
4350.000000;0.312609
4349.000000;0.311493
4348.000000;0.309881
4347.000000;0.307918
4346.000000;0.306100
4345.000000;0.304726
4344.000000;0.303721
4343.000000;0.302842
4342.000000;0.301847
4341.000000;0.300522
4340.000000;0.298749
4339.000000;0.296664
4338.000000;0.294723
4337.000000;0.293456
4336.000000;0.293003
4335.000000;0.292871
4334.000000;0.292305
4333.000000;0.290911
4332.000000;0.288736
4331.000000;0.285850
4330.000000;0.282356
4329.000000;0.278972
4328.000000;0.276959
4327.000000;0.276907
4326.000000;0.277884
4325.000000;0.278315
4324.000000;0.277579
4323.000000;0.276285
4322.000000;0.275137
4321.000000;0.274162
4320.000000;0.273029
4319.000000;0.271579
4318.000000;0.269869
4317.000000;0.268067
4316.000000;0.266384
4315.000000;0.264924
4314.000000;0.263674
4313.000000;0.262802
4312.000000;0.262652
4311.000000;0.263090
4310.000000;0.263199
4309.000000;0.262171
4308.000000;0.260314
4307.000000;0.258603
4306.000000;0.257463
4305.000000;0.256679
4304.000000;0.256306
4303.000000;0.256680
4302.000000;0.257506
4301.000000;0.257816
4300.000000;0.257073
4299.000000;0.255726
4298.000000;0.254519
4297.000000;0.253704
4296.000000;0.252936
4295.000000;0.251556
4294.000000;0.249174
4293.000000;0.246469
4292.000000;0.245136
4291.000000;0.246202
4290.000000;0.248596
4289.000000;0.250249
4288.000000;0.250466
4287.000000;0.250429
4286.000000;0.251450
4285.000000;0.253697
4284.000000;0.256630
4283.000000;0.259650
4282.000000;0.262148
4281.000000;0.263937
4280.000000;0.265812
4279.000000;0.268660
4278.000000;0.271938
4277.000000;0.274108
4276.000000;0.274676
4275.000000;0.274762
4274.000000;0.275664
4273.000000;0.278091
4272.000000;0.282885
4271.000000;0.290867
4270.000000;0.301131
4269.000000;0.310757
4268.000000;0.317274
4267.000000;0.320591
4266.000000;0.321950
4265.000000;0.322479
4264.000000;0.323732
4263.000000;0.328049
4262.000000;0.336620
4261.000000;0.347775
4260.000000;0.358651
4259.000000;0.368257
4258.000000;0.377378
4257.000000;0.386014
4256.000000;0.392963
4255.000000;0.398117
4254.000000;0.403475
4253.000000;0.411280
4252.000000;0.421749
4251.000000;0.432685
4250.000000;0.441129
4249.000000;0.445841
4248.000000;0.448815
4247.000000;0.454069
4246.000000;0.464311
4245.000000;0.478674
4244.000000;0.493718
4243.000000;0.506693
4242.000000;0.517780
4241.000000;0.528430
4240.000000;0.538341
4239.000000;0.545453
4238.000000;0.549443
4237.000000;0.554020
4236.000000;0.564054
4235.000000;0.580565
4234.000000;0.599640
4233.000000;0.616656
4232.000000;0.630309
4231.000000;0.641378
4230.000000;0.649761
4229.000000;0.655651
4228.000000;0.662082
4227.000000;0.672381
4226.000000;0.685282
4225.000000;0.695607
4224.000000;0.700545
4223.000000;0.703075
4222.000000;0.708000
4221.000000;0.717009
4220.000000;0.728966
4219.000000;0.742560
4218.000000;0.756937
4217.000000;0.771310
4216.000000;0.785338
4215.000000;0.798738
4214.000000;0.809919
4213.000000;0.816643
4212.000000;0.819025
4211.000000;0.820897
4210.000000;0.826999
4209.000000;0.839572
4208.000000;0.858029
4207.000000;0.878979
4206.000000;0.895863
4205.000000;0.902931
4204.000000;0.901670
4203.000000;0.899220
4202.000000;0.900840
4201.000000;0.907970
4200.000000;0.920737
4199.000000;0.937829
4198.000000;0.955317
4197.000000;0.969726
4196.000000;0.983209
4195.000000;1.001806
4194.000000;1.026056
4193.000000;1.048249
4192.000000;1.062042
4191.000000;1.069032
4190.000000;1.074271
4189.000000;1.080789
4188.000000;1.089303
4187.000000;1.097524
4186.000000;1.099698
4185.000000;1.093507
4184.000000;1.087150
4183.000000;1.093161
4182.000000;1.114794
4181.000000;1.141946
4180.000000;1.162531
4179.000000;1.173984
4178.000000;1.177849
4177.000000;1.171492
4176.000000;1.155142
4175.000000;1.140677
4174.000000;1.143612
4173.000000;1.170041
4172.000000;1.214236
4171.000000;1.264849
4170.000000;1.311383
4169.000000;1.344973
4168.000000;1.359509
4167.000000;1.357548
4166.000000;1.348822
4165.000000;1.341375
4164.000000;1.335990
4163.000000;1.331145
4162.000000;1.331308
4161.000000;1.347512
4160.000000;1.390558
4159.000000;1.454418
4158.000000;1.496832
4157.000000;1.480183
4156.000000;1.434947
4155.000000;1.406448
4154.000000;1.409754
4153.000000;1.436092
4152.000000;1.462712
4151.000000;1.470615
4150.000000;1.464127
4149.000000;1.462144
4148.000000;1.484354
4147.000000;1.535708
4146.000000;1.583685
4145.000000;1.583150
4144.000000;1.547939
4143.000000;1.518552
4142.000000;1.507169
4141.000000;1.504314
4140.000000;1.499628
4139.000000;1.490609
4138.000000;1.481585
4137.000000;1.484667
4136.000000;1.514748
4135.000000;1.572055
4134.000000;1.625168
4133.000000;1.633215
4132.000000;1.606757
4131.000000;1.589928
4130.000000;1.598989
4129.000000;1.618078
4128.000000;1.632145
4127.000000;1.648442
4126.000000;1.672216
4125.000000;1.682814
4124.000000;1.666303
4123.000000;1.650926
4122.000000;1.666121
4121.000000;1.705244
4120.000000;1.738429
4119.000000;1.750841
4118.000000;1.758707
4117.000000;1.776368
4116.000000;1.785928
4115.000000;1.743225
4114.000000;1.662244
4113.000000;1.605395
4112.000000;1.598364
4111.000000;1.639912
4110.000000;1.718511
4109.000000;1.814749
4108.000000;1.876756
4107.000000;1.846111
4106.000000;1.785837
4105.000000;1.767714
4104.000000;1.796924
4103.000000;1.848799
4102.000000;1.883944
4101.000000;1.872694
4100.000000;1.823498
4099.000000;1.779743
4098.000000;1.777347
4097.000000;1.808098
4096.000000;1.816943
4095.000000;1.802192
4094.000000;1.809735
4093.000000;1.843242
4092.000000;1.892704
4091.000000;1.968091
4090.000000;2.076720
4089.000000;2.185565
4088.000000;2.213970
4087.000000;2.143662
4086.000000;2.046130
4085.000000;1.965957
4084.000000;1.927631
4083.000000;1.952667
4082.000000;2.034181
4081.000000;2.119183
4080.000000;2.181328
4079.000000;2.178267
4078.000000;2.042909
4077.000000;1.910829
4076.000000;1.880727
4075.000000;1.973345
4074.000000;2.195480
4073.000000;2.536120
4072.000000;2.468259
4071.000000;2.205838
4070.000000;2.084934
4069.000000;2.035621
4068.000000;2.009366
4067.000000;1.982253
4066.000000;1.976246
4065.000000;2.029267
4064.000000;2.180315
4063.000000;2.547718
4062.000000;3.166297
4061.000000;2.456109
4060.000000;2.243283
4059.000000;2.164291
4058.000000;2.128162
4057.000000;2.111021
4056.000000;2.147160
4055.000000;2.214304
4054.000000;2.195757
4053.000000;2.077807
4052.000000;1.978678
4051.000000;1.975406
4050.000000;2.070266
4049.000000;2.203466
4048.000000;2.250826
4047.000000;2.205045
4046.000000;2.180246
4045.000000;2.269420
4044.000000;2.492397
4043.000000;2.315196
4042.000000;2.136896
4041.000000;2.105533
4040.000000;2.079558
4039.000000;2.087803
4038.000000;2.128673
4037.000000;2.091157
4036.000000;1.969943
4035.000000;1.859795
4034.000000;1.816662
4033.000000;1.861574
4032.000000;1.989975
4031.000000;2.179685
4030.000000;2.376105
4029.000000;2.415787
4028.000000;2.348955
4027.000000;2.357784
4026.000000;2.441245
4025.000000;2.490062
4024.000000;2.418200
4023.000000;2.327508
4022.000000;2.303506
4021.000000;2.332670
4020.000000;2.404570
4019.000000;2.519880
4018.000000;2.412792
4017.000000;2.144309
4016.000000;1.970336
4015.000000;1.930395
4014.000000;2.019098
4013.000000;2.180122
4012.000000;2.324629
4011.000000;2.470275
4010.000000;2.502436
4009.000000;2.352511
4008.000000;2.284070
4007.000000;2.352011
4006.000000;2.443696
4005.000000;2.323759
4004.000000;2.162615
4003.000000;2.106679
4002.000000;2.203031
4001.000000;2.331788
4000.000000;2.210040
3999.000000;2.125801
3998.000000;2.148627
3997.000000;2.146686
3996.000000;2.113440
3995.000000;2.150470
3994.000000;2.257521
3993.000000;2.306150
3992.000000;2.268130
3991.000000;2.332728
3990.000000;2.783111
3989.000000;2.917054
3988.000000;2.502962
3987.000000;2.266077
3986.000000;2.121835
3985.000000;2.094935
3984.000000;2.137874
3983.000000;2.154922
3982.000000;2.094919
3981.000000;2.032199
3980.000000;1.979801
3979.000000;1.970309
3978.000000;2.023729
3977.000000;2.324186
3976.000000;2.858165
3975.000000;2.190400
3974.000000;2.019481
3973.000000;1.981498
3972.000000;1.974268
3971.000000;1.996135
3970.000000;2.041584
3969.000000;2.113767
3968.000000;2.205176
3967.000000;2.389275
3966.000000;2.591682
3965.000000;2.532452
3964.000000;2.395843
3963.000000;2.323984
3962.000000;2.374370
3961.000000;2.572819
3960.000000;2.512148
3959.000000;2.406337
3958.000000;2.444499
3957.000000;2.329642
3956.000000;2.195059
3955.000000;2.159543
3954.000000;2.160444
3953.000000;2.194661
3952.000000;2.334380
3951.000000;2.619159
3950.000000;2.727097
3949.000000;2.482784
3948.000000;2.255565
3947.000000;2.078059
3946.000000;1.960750
3945.000000;1.918076
3944.000000;1.967594
3943.000000;2.128684
3942.000000;2.472471
3941.000000;2.746560
3940.000000;2.467363
3939.000000;2.311073
3938.000000;2.271598
3937.000000;2.233778
3936.000000;2.187227
3935.000000;2.219763
3934.000000;2.519170
3933.000000;2.670097
3932.000000;2.199208
3931.000000;2.045674
3930.000000;2.096846
3929.000000;2.204847
3928.000000;2.281009
3927.000000;2.453768
3926.000000;2.541917
3925.000000;2.198318
3924.000000;2.014413
3923.000000;2.004741
3922.000000;2.144859
3921.000000;2.287208
3920.000000;2.223561
3919.000000;2.194074
3918.000000;2.496784
3917.000000;2.763116
3916.000000;2.330070
3915.000000;2.228755
3914.000000;2.210914
3913.000000;2.239242
3912.000000;2.262019
3911.000000;2.180493
3910.000000;2.147085
3909.000000;2.193087
3908.000000;2.331573
3907.000000;2.430212
3906.000000;2.348322
3905.000000;2.213404
3904.000000;2.291823
3903.000000;2.853887
3902.000000;2.320710
3901.000000;2.027549
3900.000000;1.971247
3899.000000;2.126649
3898.000000;2.330847
3897.000000;2.019270
3896.000000;1.947628
3895.000000;2.053195
3894.000000;2.232942
3893.000000;2.406329
3892.000000;2.477982
3891.000000;2.573375
3890.000000;2.633557
3889.000000;2.799495
3888.000000;3.119060
3887.000000;2.856594
3886.000000;2.561650
3885.000000;2.516651
3884.000000;2.747356
3883.000000;2.940336
3882.000000;3.089979
3881.000000;3.021474
3880.000000;2.451082
3879.000000;2.154018
3878.000000;2.070945
3877.000000;2.122230
3876.000000;2.356505
3875.000000;2.944067
3874.000000;2.479802
3873.000000;2.246637
3872.000000;2.356898
3871.000000;2.752910
3870.000000;3.611036
3869.000000;2.801117
3868.000000;2.389432
3867.000000;2.232528
3866.000000;2.236984
3865.000000;2.545427
3864.000000;2.745227
3863.000000;2.329044
3862.000000;2.303178
3861.000000;2.439264
3860.000000;2.610570
3859.000000;2.642218
3858.000000;2.525229
3857.000000;2.737707
3856.000000;2.780305
3855.000000;2.418882
3854.000000;2.334406
3853.000000;2.579108
3852.000000;2.915622
3851.000000;2.546411
3850.000000;2.437753
3849.000000;2.533851
3848.000000;2.534231
3847.000000;2.410371
3846.000000;2.267119
3845.000000;2.068382
3844.000000;1.928290
3843.000000;1.915372
3842.000000;2.110153
3841.000000;2.413041
3840.000000;2.236845
3839.000000;2.130625
3838.000000;2.207120
3837.000000;2.550036
3836.000000;2.880786
3835.000000;2.422005
3834.000000;2.229673
3833.000000;2.161299
3832.000000;2.195470
3831.000000;2.418784
3830.000000;2.654591
3829.000000;2.377670
3828.000000;2.232279
3827.000000;2.273712
3826.000000;2.524163
3825.000000;3.086706
3824.000000;2.582688
3823.000000;2.331468
3822.000000;2.249890
3821.000000;2.280890
3820.000000;2.607246
3819.000000;2.517459
3818.000000;2.198783
3817.000000;2.098279
3816.000000;2.051480
3815.000000;2.095119
3814.000000;2.256956
3813.000000;2.400797
3812.000000;2.462103
3811.000000;2.574646
3810.000000;2.529673
3809.000000;2.245520
3808.000000;2.031158
3807.000000;1.935825
3806.000000;1.978837
3805.000000;2.107480
3804.000000;2.160995
3803.000000;2.170939
3802.000000;2.298777
3801.000000;2.561635
3800.000000;2.479083
3799.000000;2.369679
3798.000000;2.432132
3797.000000;2.438294
3796.000000;2.407929
3795.000000;2.295232
3794.000000;2.159636
3793.000000;2.122165
3792.000000;2.151726
3791.000000;2.161446
3790.000000;2.222757
3789.000000;2.452521
3788.000000;2.494288
3787.000000;2.242776
3786.000000;2.103263
3785.000000;2.181963
3784.000000;2.483360
3783.000000;2.546397
3782.000000;2.430336
3781.000000;2.490850
3780.000000;2.898260
3779.000000;2.571036
3778.000000;2.157062
3777.000000;2.062302
3776.000000;2.024614
3775.000000;1.990438
3774.000000;1.982816
3773.000000;2.036374
3772.000000;2.210424
3771.000000;2.422194
3770.000000;2.370018
3769.000000;2.325746
3768.000000;2.355235
3767.000000;2.295108
3766.000000;2.300362
3765.000000;2.323717
3764.000000;2.230431
3763.000000;2.200133
3762.000000;2.352497
3761.000000;2.593187
3760.000000;2.539693
3759.000000;2.675436
3758.000000;3.027147
3757.000000;2.479229
3756.000000;2.263425
3755.000000;2.256780
3754.000000;2.267636
3753.000000;2.208275
3752.000000;2.124323
3751.000000;2.264790
3750.000000;2.492261
3749.000000;2.196483
3748.000000;2.092183
3747.000000;2.202415
3746.000000;2.284490
3745.000000;2.273440
3744.000000;2.190479
3743.000000;2.282059
3742.000000;2.278641
3741.000000;1.976491
3740.000000;1.863450
3739.000000;1.949002
3738.000000;2.216509
3737.000000;2.794054
3736.000000;2.784000
3735.000000;2.243202
3734.000000;2.033672
3733.000000;2.112472
3732.000000;2.302979
3731.000000;2.100376
3730.000000;1.946354
3729.000000;1.988740
3728.000000;2.177145
3727.000000;2.297546
3726.000000;2.192216
3725.000000;2.257873
3724.000000;2.842107
3723.000000;2.996973
3722.000000;2.634120
3721.000000;3.185544
3720.000000;2.622148
3719.000000;2.250614
3718.000000;2.187256
3717.000000;2.287603
3716.000000;2.592562
3715.000000;2.249992
3714.000000;1.921938
3713.000000;1.792015
3712.000000;1.888007
3711.000000;2.281318
3710.000000;2.256996
3709.000000;2.136367
3708.000000;2.302379
3707.000000;2.488032
3706.000000;2.680980
3705.000000;2.867612
3704.000000;2.637870
3703.000000;2.509612
3702.000000;2.401801
3701.000000;2.184678
3700.000000;2.298332
3699.000000;2.447055
3698.000000;2.260032
3697.000000;2.165699
3696.000000;2.250505
3695.000000;2.897259
3694.000000;2.568456
3693.000000;2.210262
3692.000000;2.315434
3691.000000;2.460278
3690.000000;2.496303
3689.000000;2.611932
3688.000000;2.815950
3687.000000;2.703434
3686.000000;2.545523
3685.000000;2.452044
3684.000000;2.468201
3683.000000;2.725145
3682.000000;2.757885
3681.000000;2.478426
3680.000000;2.486627
3679.000000;2.705540
3678.000000;3.092032
3677.000000;3.362042
3676.000000;2.681429
3675.000000;2.278155
3674.000000;2.094657
3673.000000;2.077275
3672.000000;2.167087
3671.000000;2.321069
3670.000000;2.460389
3669.000000;2.543733
3668.000000;2.889298
3667.000000;2.967500
3666.000000;2.697989
3665.000000;2.871477
3664.000000;2.930472
3663.000000;2.541101
3662.000000;2.360380
3661.000000;2.542266
3660.000000;2.585225
3659.000000;2.129005
3658.000000;1.971801
3657.000000;1.962660
3656.000000;1.931722
3655.000000;1.912945
3654.000000;2.070699
3653.000000;2.568640
3652.000000;2.593731
3651.000000;2.339936
3650.000000;2.549711
3649.000000;2.521411
3648.000000;2.381918
3647.000000;2.497075
3646.000000;2.390870
3645.000000;2.216380
3644.000000;2.096053
3643.000000;2.011254
3642.000000;2.041326
3641.000000;2.372065
3640.000000;2.694633
3639.000000;2.382541
3638.000000;2.551476
3637.000000;2.843573
3636.000000;2.501486
3635.000000;2.557779
3634.000000;2.747758
3633.000000;2.545600
3632.000000;2.574444
3631.000000;2.615731
3630.000000;2.246298
3629.000000;1.985326
3628.000000;1.889297
3627.000000;1.977099
3626.000000;2.107863
3625.000000;2.078952
3624.000000;2.067387
3623.000000;2.113620
3622.000000;2.168910
3621.000000;2.233637
3620.000000;2.286023
3619.000000;2.319195
3618.000000;2.478214
3617.000000;2.541541
3616.000000;2.298349
3615.000000;2.177029
3614.000000;2.238925
3613.000000;2.468711
3612.000000;2.870535
3611.000000;3.040364
3610.000000;2.480821
3609.000000;2.133849
3608.000000;1.985159
3607.000000;2.010367
3606.000000;2.188697
3605.000000;2.343213
3604.000000;2.315051
3603.000000;2.184333
3602.000000;2.046718
3601.000000;1.997007
3600.000000;2.067564
3599.000000;2.275864
3598.000000;2.677769
3597.000000;2.638440
3596.000000;2.306128
3595.000000;2.233917
3594.000000;2.249533
3593.000000;2.193811
3592.000000;2.272847
3591.000000;2.463669
3590.000000;2.161671
3589.000000;1.942561
3588.000000;1.917466
3587.000000;1.997452
3586.000000;2.147352
3585.000000;2.256714
3584.000000;2.374580
3583.000000;2.173015
3582.000000;1.960622
3581.000000;1.911327
3580.000000;2.093626
3579.000000;2.781684
3578.000000;2.317505
3577.000000;2.100066
3576.000000;2.116553
3575.000000;2.405769
3574.000000;3.194219
3573.000000;2.257314
3572.000000;2.114332
3571.000000;2.197083
3570.000000;2.359656
3569.000000;2.310259
3568.000000;2.194757
3567.000000;2.106968
3566.000000;2.025704
3565.000000;2.011975
3564.000000;2.091569
3563.000000;2.746258
3562.000000;2.573254
3561.000000;2.041639
3560.000000;1.956407
3559.000000;1.958290
3558.000000;2.036081
3557.000000;2.112139
3556.000000;2.185378
3555.000000;2.179591
3554.000000;2.021731
3553.000000;1.957473
3552.000000;2.035101
3551.000000;2.224629
3550.000000;2.414701
3549.000000;2.753995
3548.000000;2.728412
3547.000000;2.223549
3546.000000;2.085354
3545.000000;2.114892
3544.000000;2.102299
3543.000000;1.961198
3542.000000;1.891684
3541.000000;1.964031
3540.000000;2.342569
3539.000000;2.621795
3538.000000;2.155013
3537.000000;2.047969
3536.000000;2.030934
3535.000000;1.990021
3534.000000;1.957881
3533.000000;1.965747
3532.000000;1.958742
3531.000000;1.894567
3530.000000;1.844437
3529.000000;1.873281
3528.000000;1.987277
3527.000000;2.212018
3526.000000;2.638984
3525.000000;2.445743
3524.000000;2.113850
3523.000000;1.986948
3522.000000;1.987655
3521.000000;2.220835
3520.000000;2.332766
3519.000000;2.008762
3518.000000;1.946988
3517.000000;2.035321
3516.000000;2.112406
3515.000000;2.133375
3514.000000;2.240710
3513.000000;2.413765
3512.000000;2.277610
3511.000000;2.150963
3510.000000;2.311116
3509.000000;2.705378
3508.000000;2.372770
3507.000000;2.114985
3506.000000;2.048604
3505.000000;2.010706
3504.000000;2.046275
3503.000000;2.175700
3502.000000;2.117262
3501.000000;1.863364
3500.000000;1.738875
3499.000000;1.740153
3498.000000;1.979413
3497.000000;2.414281
3496.000000;1.919544
3495.000000;1.799678
3494.000000;1.959091
3493.000000;2.218580
3492.000000;2.083623
3491.000000;1.896691
3490.000000;1.815857
3489.000000;1.783378
3488.000000;1.843938
3487.000000;1.943108
3486.000000;1.971149
3485.000000;1.924031
3484.000000;1.897098
3483.000000;1.923171
3482.000000;2.091778
3481.000000;2.751214
3480.000000;2.597192
3479.000000;2.152759
3478.000000;2.032922
3477.000000;2.001656
3476.000000;2.043373
3475.000000;2.015777
3474.000000;1.969677
3473.000000;1.984989
3472.000000;2.147730
3471.000000;2.514664
3470.000000;2.152021
3469.000000;1.871364
3468.000000;1.782706
3467.000000;1.879657
3466.000000;2.298970
3465.000000;2.170060
3464.000000;1.745795
3463.000000;1.604171
3462.000000;1.583215
3461.000000;1.641538
3460.000000;1.722447
3459.000000;1.792297
3458.000000;1.849926
3457.000000;1.926599
3456.000000;2.028020
3455.000000;1.983082
3454.000000;1.849833
3453.000000;1.856617
3452.000000;2.250382
3451.000000;2.301675
3450.000000;1.923738
3449.000000;1.916033
3448.000000;2.067121
3447.000000;1.962310
3446.000000;1.890456
3445.000000;2.093908
3444.000000;2.245138
3443.000000;2.018632
3442.000000;1.990193
3441.000000;2.165082
3440.000000;2.623866
3439.000000;2.517357
3438.000000;2.077574
3437.000000;1.908257
3436.000000;1.856270
3435.000000;1.964864
3434.000000;2.240373
3433.000000;2.186608
3432.000000;1.982718
3431.000000;1.957730
3430.000000;2.162834
3429.000000;2.232660
3428.000000;1.852378
3427.000000;1.657416
3426.000000;1.601132
3425.000000;1.647394
3424.000000;1.759044
3423.000000;1.789104
3422.000000;1.778826
3421.000000;1.966907
3420.000000;2.473103
3419.000000;2.080718
3418.000000;1.922683
3417.000000;1.905109
3416.000000;1.857987
3415.000000;1.822496
3414.000000;1.823762
3413.000000;1.868289
3412.000000;1.924109
3411.000000;2.175250
3410.000000;2.576295
3409.000000;2.053497
3408.000000;1.822117
3407.000000;1.714838
3406.000000;1.673428
3405.000000;1.707174
3404.000000;1.820256
3403.000000;1.928467
3402.000000;1.946473
3401.000000;1.828712
3400.000000;1.665878
3399.000000;1.596716
3398.000000;1.628964
3397.000000;1.782808
3396.000000;2.073719
3395.000000;1.991235
3394.000000;1.837535
3393.000000;1.904574
3392.000000;2.215870
3391.000000;2.019056
3390.000000;1.729303
3389.000000;1.624890
3388.000000;1.625515
3387.000000;1.699070
3386.000000;1.826183
3385.000000;1.971308
3384.000000;1.999697
3383.000000;1.944455
3382.000000;1.992778
3381.000000;2.174338
3380.000000;2.126991
3379.000000;1.881998
3378.000000;1.763474
3377.000000;1.745758
3376.000000;1.777055
3375.000000;1.775996
3374.000000;1.811186
3373.000000;2.089286
3372.000000;2.290226
3371.000000;2.030197
3370.000000;1.967999
3369.000000;2.080084
3368.000000;2.128804
3367.000000;2.023867
3366.000000;2.047359
3365.000000;2.184067
3364.000000;2.108899
3363.000000;2.041984
3362.000000;2.235601
3361.000000;3.049996
3360.000000;2.351629
3359.000000;2.125297
3358.000000;1.978712
3357.000000;1.832216
3356.000000;1.733268
3355.000000;1.712448
3354.000000;1.742279
3353.000000;1.758912
3352.000000;1.739033
3351.000000;1.710224
3350.000000;1.723126
3349.000000;1.819139
3348.000000;2.025834
3347.000000;2.182588
3346.000000;2.043450
3345.000000;1.891690
3344.000000;1.837496
3343.000000;1.868930
3342.000000;1.956316
3341.000000;1.944890
3340.000000;1.869270
3339.000000;1.913288
3338.000000;2.169632
3337.000000;2.702271
3336.000000;2.195182
3335.000000;1.917474
3334.000000;1.757489
3333.000000;1.709327
3332.000000;1.819659
3331.000000;2.075256
3330.000000;2.013550
3329.000000;1.864832
3328.000000;1.871047
3327.000000;1.956969
3326.000000;2.104272
3325.000000;2.079340
3324.000000;1.921078
3323.000000;1.884761
3322.000000;1.931459
3321.000000;1.845472
3320.000000;1.728727
3319.000000;1.802650
3318.000000;2.341767
3317.000000;1.809660
3316.000000;1.530356
3315.000000;1.545995
3314.000000;1.696257
3313.000000;1.882232
3312.000000;1.927766
3311.000000;1.958065
3310.000000;1.939181
3309.000000;1.885641
3308.000000;1.934853
3307.000000;2.147647
3306.000000;1.959174
3305.000000;1.703176
3304.000000;1.635603
3303.000000;1.699065
3302.000000;2.109572
3301.000000;2.643107
3300.000000;1.903085
3299.000000;1.908948
3298.000000;2.169280
3297.000000;2.577219
3296.000000;2.053506
3295.000000;1.918755
3294.000000;1.984008
3293.000000;1.952073
3292.000000;1.821335
3291.000000;1.795512
3290.000000;1.898609
3289.000000;2.081356
3288.000000;2.078329
3287.000000;1.850297
3286.000000;1.634202
3285.000000;1.514597
3284.000000;1.495385
3283.000000;1.553606
3282.000000;1.659281
3281.000000;1.761882
3280.000000;1.802721
3279.000000;1.793953
3278.000000;1.811390
3277.000000;1.864581
3276.000000;1.824723
3275.000000;1.759797
3274.000000;1.787322
3273.000000;1.845127
3272.000000;1.795975
3271.000000;1.697296
3270.000000;1.652905
3269.000000;1.659794
3268.000000;1.707397
3267.000000;1.709101
3266.000000;1.625798
3265.000000;1.604639
3264.000000;1.711083
3263.000000;1.892952
3262.000000;1.905230
3261.000000;1.813805
3260.000000;1.711968
3259.000000;1.573069
3258.000000;1.497739
3257.000000;1.558969
3256.000000;1.956483
3255.000000;1.988184
3254.000000;1.717610
3253.000000;1.864534
3252.000000;1.730628
3251.000000;1.504258
3250.000000;1.448018
3249.000000;1.458105
3248.000000;1.498644
3247.000000;1.591266
3246.000000;1.799388
3245.000000;2.197102
3244.000000;2.031884
3243.000000;1.738280
3242.000000;1.695391
3241.000000;1.764147
3240.000000;1.947294
3239.000000;1.924941
3238.000000;1.794890
3237.000000;1.774900
3236.000000;1.842000
3235.000000;1.730675
3234.000000;1.513173
3233.000000;1.430964
3232.000000;1.516530
3231.000000;1.809155
3230.000000;2.415070
3229.000000;2.259068
3228.000000;2.628020
3227.000000;2.248098
3226.000000;2.043330
3225.000000;2.166948
3224.000000;2.561240
3223.000000;2.145915
3222.000000;1.877628
3221.000000;1.747893
3220.000000;1.713767
3219.000000;1.792384
3218.000000;2.026690
3217.000000;2.282491
3216.000000;2.311477
3215.000000;2.403439
3214.000000;2.698433
3213.000000;2.623845
3212.000000;2.436756
3211.000000;2.560210
3210.000000;2.493225
3209.000000;2.153825
3208.000000;1.923666
3207.000000;1.827267
3206.000000;1.813824
3205.000000;1.843664
3204.000000;1.911523
3203.000000;2.011763
3202.000000;2.171172
3201.000000;2.465277
3200.000000;2.520456
3199.000000;2.281384
3198.000000;2.206442
3197.000000;2.173308
3196.000000;2.104725
3195.000000;2.042371
3194.000000;2.085109
3193.000000;2.239363
3192.000000;2.228643
3191.000000;2.096920
3190.000000;2.034093
3189.000000;1.987871
3188.000000;1.967617
3187.000000;1.957300
3186.000000;1.971931
3185.000000;1.954431
3184.000000;1.854420
3183.000000;1.802810
3182.000000;1.884050
3181.000000;2.115403
3180.000000;2.592995
3179.000000;2.855747
3178.000000;2.354337
3177.000000;2.136022
3176.000000;1.976500
3175.000000;1.798400
3174.000000;1.661440
3173.000000;1.638440
3172.000000;1.817034
3171.000000;2.237784
3170.000000;1.917532
3169.000000;1.839216
3168.000000;2.031155
3167.000000;2.462675
3166.000000;2.268750
3165.000000;2.299219
3164.000000;2.592416
3163.000000;2.441785
3162.000000;2.206910
3161.000000;2.099182
3160.000000;2.223337
3159.000000;2.608009
3158.000000;2.261960
3157.000000;2.075369
3156.000000;2.149847
3155.000000;2.415372
3154.000000;2.767151
3153.000000;2.468555
3152.000000;2.387517
3151.000000;2.473568
3150.000000;2.509340
3149.000000;2.613509
3148.000000;2.545083
3147.000000;2.262129
3146.000000;2.213527
3145.000000;2.334535
3144.000000;2.342397
3143.000000;2.182292
3142.000000;2.022117
3141.000000;1.850442
3140.000000;1.743614
3139.000000;1.738083
3138.000000;1.848607
3137.000000;2.054530
3136.000000;1.932314
3135.000000;1.713332
3134.000000;1.693408
3133.000000;1.871243
3132.000000;2.133510
3131.000000;1.993964
3130.000000;1.859671
3129.000000;1.826008
3128.000000;1.820621
3127.000000;1.823718
3126.000000;1.809801
3125.000000;1.764177
3124.000000;1.678867
3123.000000;1.639542
3122.000000;1.726480
3121.000000;1.983191
3120.000000;2.251351
3119.000000;2.343774
3118.000000;2.795675
3117.000000;2.728421
3116.000000;2.464864
3115.000000;2.312096
3114.000000;2.018189
3113.000000;1.875613
3112.000000;1.918452
3111.000000;2.168876
3110.000000;2.295849
3109.000000;2.110860
3108.000000;2.236934
3107.000000;2.533838
3106.000000;2.113334
3105.000000;1.885618
3104.000000;1.918856
3103.000000;2.098090
3102.000000;1.965057
3101.000000;1.759835
3100.000000;1.675714
3099.000000;1.649220
3098.000000;1.699068
3097.000000;1.866782
3096.000000;2.317316
3095.000000;2.453724
3094.000000;2.060867
3093.000000;1.991408
3092.000000;2.045959
3091.000000;2.056602
3090.000000;2.010356
3089.000000;2.028020
3088.000000;2.125854
3087.000000;2.403326
3086.000000;2.850117
3085.000000;2.438903
3084.000000;2.203869
3083.000000;2.065581
3082.000000;1.980838
3081.000000;1.930932
3080.000000;1.873514
3079.000000;1.792193
3078.000000;1.738616
3077.000000;1.782100
3076.000000;1.977286
3075.000000;2.061608
3074.000000;1.899530
3073.000000;1.817075
3072.000000;1.827295
3071.000000;1.892187
3070.000000;1.990251
3069.000000;2.096140
3068.000000;2.189961
3067.000000;2.164695
3066.000000;1.944309
3065.000000;1.799370
3064.000000;1.806404
3063.000000;2.047078
3062.000000;2.310325
3061.000000;1.970232
3060.000000;1.944953
3059.000000;2.074829
3058.000000;2.228411
3057.000000;2.490174
3056.000000;2.667581
3055.000000;2.147469
3054.000000;1.897163
3053.000000;1.829831
3052.000000;1.899895
3051.000000;2.264693
3050.000000;2.585803
3049.000000;2.166416
3048.000000;2.081429
3047.000000;2.090250
3046.000000;2.087696
3045.000000;2.204869
3044.000000;2.642531
3043.000000;2.391415
3042.000000;2.159241
3041.000000;2.168921
3040.000000;2.179579
3039.000000;2.089764
3038.000000;2.039924
3037.000000;2.073149
3036.000000;2.213196
3035.000000;2.370524
3034.000000;2.476508
3033.000000;2.451785
3032.000000;2.442891
3031.000000;2.371004
3030.000000;2.039398
3029.000000;1.911532
3028.000000;1.937312
3027.000000;2.132786
3026.000000;2.418060
3025.000000;2.257123
3024.000000;2.144563
3023.000000;2.264785
3022.000000;2.404826
3021.000000;2.933143
3020.000000;2.537061
3019.000000;2.047908
3018.000000;1.896390
3017.000000;1.934449
3016.000000;2.205223
3015.000000;2.276634
3014.000000;2.044500
3013.000000;2.029246
3012.000000;2.164402
3011.000000;2.214405
3010.000000;2.130681
3009.000000;2.259457
3008.000000;2.646369
3007.000000;2.424851
3006.000000;2.395175
3005.000000;2.382621
3004.000000;2.103346
3003.000000;1.981486
3002.000000;2.036407
3001.000000;2.537976
3000.000000;2.330763
2999.000000;1.843436
2998.000000;1.726587
2997.000000;1.754150
2996.000000;1.978279
2995.000000;2.235600
2994.000000;2.232876
2993.000000;2.260154
2992.000000;2.286544
2991.000000;2.168152
2990.000000;1.995207
2989.000000;1.855711
2988.000000;1.795010
2987.000000;1.818966
2986.000000;1.868170
2985.000000;1.892931
2984.000000;1.929425
2983.000000;1.996497
2982.000000;2.083452
2981.000000;2.203978
2980.000000;2.304481
2979.000000;2.227715
2978.000000;2.094978
2977.000000;2.117804
2976.000000;2.257249
2975.000000;2.040536
2974.000000;1.791056
2973.000000;1.735001
2972.000000;1.838775
2971.000000;2.190705
2970.000000;2.518518
2969.000000;2.289386
2968.000000;2.216468
2967.000000;2.271863
2966.000000;2.436271
2965.000000;2.533672
2964.000000;2.360509
2963.000000;2.176380
2962.000000;2.054548
2961.000000;2.009116
2960.000000;2.134915
2959.000000;2.664580
2958.000000;2.264384
2957.000000;1.887820
2956.000000;1.736232
2955.000000;1.708096
2954.000000;1.794127
2953.000000;1.897807
2952.000000;1.873740
2951.000000;1.843066
2950.000000;2.013898
2949.000000;2.294381
2948.000000;2.059508
2947.000000;1.927446
2946.000000;2.010645
2945.000000;2.200419
2944.000000;2.158498
2943.000000;1.996294
2942.000000;1.945405
2941.000000;1.861284
2940.000000;1.787101
2939.000000;1.843034
2938.000000;2.030083
2937.000000;2.072759
2936.000000;2.031494
2935.000000;2.268386
2934.000000;2.921254
2933.000000;2.380873
2932.000000;2.531217
2931.000000;2.652150
2930.000000;2.106370
2929.000000;1.990676
2928.000000;2.222016
2927.000000;2.495412
2926.000000;2.000641
2925.000000;1.898315
2924.000000;1.970423
2923.000000;2.132464
2922.000000;2.304296
2921.000000;2.464536
2920.000000;2.538907
2919.000000;2.364186
2918.000000;2.261319
2917.000000;2.294485
2916.000000;2.700268
2915.000000;2.738085
2914.000000;2.295631
2913.000000;2.208679
2912.000000;2.229628
2911.000000;2.282370
2910.000000;2.272570
2909.000000;2.334333
2908.000000;2.718123
2907.000000;2.306871
2906.000000;2.080826
2905.000000;2.146375
2904.000000;2.369183
2903.000000;2.296441
2902.000000;2.098970
2901.000000;2.223160
2900.000000;2.523572
2899.000000;2.291540
2898.000000;2.155016
2897.000000;2.111667
2896.000000;2.101408
2895.000000;2.080671
2894.000000;1.969053
2893.000000;1.904651
2892.000000;1.957934
2891.000000;1.925629
2890.000000;1.812482
2889.000000;1.794908
2888.000000;1.889245
2887.000000;2.164746
2886.000000;2.218227
2885.000000;2.022448
2884.000000;2.031711
2883.000000;2.117655
2882.000000;2.158038
2881.000000;2.147622
2880.000000;2.237603
2879.000000;2.679040
2878.000000;2.368871
2877.000000;2.043699
2876.000000;2.018114
2875.000000;2.123586
2874.000000;2.188514
2873.000000;2.113962
2872.000000;2.053232
2871.000000;2.141587
2870.000000;2.519290
2869.000000;2.406550
2868.000000;2.089998
2867.000000;2.233709
2866.000000;2.653684
2865.000000;2.384088
2864.000000;2.229989
2863.000000;2.475405
2862.000000;2.610399
2861.000000;2.219443
2860.000000;1.984791
2859.000000;1.901283
2858.000000;1.909668
2857.000000;1.997470
2856.000000;2.145036
2855.000000;2.475014
2854.000000;2.556670
2853.000000;2.000948
2852.000000;1.754612
2851.000000;1.656372
2850.000000;1.627372
2849.000000;1.648868
2848.000000;1.745666
2847.000000;1.978626
2846.000000;1.994230
2845.000000;1.785863
2844.000000;1.757942
2843.000000;1.859264
2842.000000;1.984292
2841.000000;2.000425
2840.000000;1.989468
2839.000000;2.061492
2838.000000;2.183195
2837.000000;2.299970
2836.000000;2.219989
2835.000000;2.063387
2834.000000;1.948504
2833.000000;1.874303
2832.000000;1.858319
2831.000000;1.921061
2830.000000;2.158487
2829.000000;2.095516
2828.000000;1.839439
2827.000000;1.801104
2826.000000;1.995244
2825.000000;2.434632
2824.000000;2.176986
2823.000000;1.968090
2822.000000;1.951978
2821.000000;2.010828
2820.000000;2.102821
2819.000000;2.094521
2818.000000;2.081082
2817.000000;2.177336
2816.000000;2.580321
2815.000000;2.407958
2814.000000;1.983416
2813.000000;1.955416
2812.000000;1.996571
2811.000000;1.938220
2810.000000;1.879419
2809.000000;1.900945
2808.000000;1.907036
2807.000000;1.977602
2806.000000;2.606267
2805.000000;2.222673
2804.000000;1.858197
2803.000000;1.848976
2802.000000;1.927574
2801.000000;2.022556
2800.000000;2.061908
2799.000000;2.047236
2798.000000;2.223994
2797.000000;2.647684
2796.000000;2.035387
2795.000000;1.796524
2794.000000;1.758166
2793.000000;1.755024
2792.000000;1.741362
2791.000000;1.730774
2790.000000;1.861818
2789.000000;2.038526
2788.000000;1.912828
2787.000000;1.826349
2786.000000;1.919347
2785.000000;1.949982
2784.000000;1.883599
2783.000000;1.895808
2782.000000;1.903974
2781.000000;1.881320
2780.000000;1.929089
2779.000000;2.106313
2778.000000;2.241107
2777.000000;2.007903
2776.000000;1.755353
2775.000000;1.620524
2774.000000;1.556348
2773.000000;1.588868
2772.000000;1.678837
2771.000000;1.985748
2770.000000;2.537341
2769.000000;1.891400
2768.000000;1.699391
2767.000000;1.867432
2766.000000;2.338794
2765.000000;1.898233
2764.000000;1.626358
2763.000000;1.589991
2762.000000;1.630482
2761.000000;1.753481
2760.000000;1.859603
2759.000000;1.789990
2758.000000;1.661084
2757.000000;1.614782
2756.000000;1.765221
2755.000000;2.131141
2754.000000;1.795829
2753.000000;1.588963
2752.000000;1.688440
2751.000000;2.023189
2750.000000;2.494454
2749.000000;2.358677
2748.000000;2.322009
2747.000000;2.330821
2746.000000;2.178058
2745.000000;2.137773
2744.000000;2.164513
2743.000000;1.949263
2742.000000;1.767270
2741.000000;1.750039
2740.000000;1.833518
2739.000000;2.120636
2738.000000;2.465036
2737.000000;2.074947
2736.000000;1.839963
2735.000000;1.756473
2734.000000;1.781541
2733.000000;1.898950
2732.000000;1.952840
2731.000000;1.956817
2730.000000;2.188726
2729.000000;2.094499
2728.000000;1.723944
2727.000000;1.581896
2726.000000;1.537641
2725.000000;1.564503
2724.000000;1.682856
2723.000000;2.027073
2722.000000;2.392349
2721.000000;1.950518
2720.000000;1.774414
2719.000000;1.776159
2718.000000;1.851261
2717.000000;2.001384
2716.000000;2.142280
2715.000000;2.409955
2714.000000;2.978231
2713.000000;2.460087
2712.000000;2.105365
2711.000000;1.853017
2710.000000;1.678193
2709.000000;1.639778
2708.000000;1.722504
2707.000000;1.904464
2706.000000;2.215168
2705.000000;2.296342
2704.000000;2.024580
2703.000000;1.938245
2702.000000;2.057825
2701.000000;2.273213
2700.000000;2.016453
2699.000000;1.729814
2698.000000;1.603557
2697.000000;1.578359
2696.000000;1.623825
2695.000000;1.669052
2694.000000;1.687198
2693.000000;1.698674
2692.000000;1.697828
2691.000000;1.651489
2690.000000;1.543475
2689.000000;1.449655
2688.000000;1.442521
2687.000000;1.572912
2686.000000;1.873088
2685.000000;1.947233
2684.000000;1.710904
2683.000000;1.617345
2682.000000;1.619776
2681.000000;1.762148
2680.000000;2.112694
2679.000000;2.050637
2678.000000;1.752815
2677.000000;1.703085
2676.000000;1.793950
2675.000000;1.999710
2674.000000;2.485922
2673.000000;1.913814
2672.000000;1.432788
2671.000000;1.297368
2670.000000;1.340303
2669.000000;1.626701
2668.000000;2.152749
2667.000000;1.681543
2666.000000;1.482295
2665.000000;1.504809
2664.000000;1.616171
2663.000000;1.737026
2662.000000;1.688697
2661.000000;1.730921
2660.000000;1.948139
2659.000000;1.936630
2658.000000;1.846127
2657.000000;2.224730
2656.000000;2.163982
2655.000000;1.688847
2654.000000;1.567346
2653.000000;1.551579
2652.000000;1.638039
2651.000000;1.728265
2650.000000;1.576592
2649.000000;1.400954
2648.000000;1.319287
2647.000000;1.327293
2646.000000;1.390804
2645.000000;1.523192
2644.000000;1.642476
2643.000000;1.494145
2642.000000;1.341238
2641.000000;1.346533
2640.000000;1.420215
2639.000000;1.463362
2638.000000;1.513571
2637.000000;1.776956
2636.000000;2.224765
2635.000000;1.780434
2634.000000;1.593820
2633.000000;1.556447
2632.000000;1.608712
2631.000000;1.835762
2630.000000;1.719653
2629.000000;1.668729
2628.000000;2.043970
2627.000000;1.749264
2626.000000;1.475315
2625.000000;1.632994
2624.000000;1.611825
2623.000000;1.343081
2622.000000;1.277384
2621.000000;1.471672
2620.000000;1.849877
2619.000000;1.609812
2618.000000;1.495808
2617.000000;1.574841
2616.000000;1.491453
2615.000000;1.404400
2614.000000;1.421474
2613.000000;1.649055
2612.000000;1.804603
2611.000000;1.489651
2610.000000;1.352683
2609.000000;1.363533
2608.000000;1.462145
2607.000000;1.637185
2606.000000;1.850717
2605.000000;2.094288
2604.000000;2.178917
2603.000000;2.184511
2602.000000;2.101327
2601.000000;1.992131
2600.000000;2.051661
2599.000000;2.040109
2598.000000;1.894755
2597.000000;1.912788
2596.000000;1.880289
2595.000000;1.832323
2594.000000;1.954739
2593.000000;1.804633
2592.000000;1.574694
2591.000000;1.508155
2590.000000;1.517877
2589.000000;1.544734
2588.000000;1.522654
2587.000000;1.453875
2586.000000;1.441071
2585.000000;1.550243
2584.000000;1.777868
2583.000000;1.957532
2582.000000;1.914475
2581.000000;1.890629
2580.000000;2.048352
2579.000000;2.105125
2578.000000;2.108654
2577.000000;2.190434
2576.000000;2.008582
2575.000000;2.131356
2574.000000;2.165699
2573.000000;1.830986
2572.000000;1.756817
2571.000000;1.771434
2570.000000;1.835047
2569.000000;1.869275
2568.000000;1.758648
2567.000000;1.634327
2566.000000;1.605274
2565.000000;1.631135
2564.000000;1.548285
2563.000000;1.462411
2562.000000;1.506752
2561.000000;1.641947
2560.000000;1.689014
2559.000000;1.706663
2558.000000;1.940928
2557.000000;2.110442
2556.000000;1.861309
2555.000000;1.747693
2554.000000;1.727201
2553.000000;1.812381
2552.000000;2.081133
2551.000000;2.372829
2550.000000;2.380056
2549.000000;2.608446
2548.000000;2.709253
2547.000000;2.284749
2546.000000;2.407396
2545.000000;2.775189
2544.000000;2.281201
2543.000000;2.054711
2542.000000;2.041077
2541.000000;2.038724
2540.000000;1.987900
2539.000000;1.845267
2538.000000;1.657426
2537.000000;1.523255
2536.000000;1.483500
2535.000000;1.541577
2534.000000;1.719223
2533.000000;2.091716
2532.000000;2.274935
2531.000000;2.057655
2530.000000;2.083662
2529.000000;2.393303
2528.000000;2.345550
2527.000000;2.060201
2526.000000;1.932578
2525.000000;1.815443
2524.000000;1.778073
2523.000000;1.807388
2522.000000;2.177588
2521.000000;2.684340
2520.000000;1.933292
2519.000000;1.792701
2518.000000;1.922745
2517.000000;2.338670
2516.000000;1.952006
2515.000000;1.585695
2514.000000;1.451006
2513.000000;1.393534
2512.000000;1.436894
2511.000000;1.610262
2510.000000;1.822835
2509.000000;1.757351
2508.000000;1.681606
2507.000000;1.697914
2506.000000;1.669910
2505.000000;1.750357
2504.000000;2.120698
2503.000000;1.978189
2502.000000;1.625185
2501.000000;1.496217
2500.000000;1.510077
2499.000000;1.678841
2498.000000;2.080626
2497.000000;2.468328
2496.000000;2.113757
2495.000000;1.886500
2494.000000;1.756267
2493.000000;1.751824
2492.000000;1.830530
2491.000000;1.955015
2490.000000;2.069938
2489.000000;1.939514
2488.000000;1.856678
2487.000000;2.113445
2486.000000;2.356098
2485.000000;1.852701
2484.000000;1.631132
2483.000000;1.605261
2482.000000;1.722700
2481.000000;1.938768
2480.000000;1.805041
2479.000000;1.557559
2478.000000;1.427145
2477.000000;1.398768
2476.000000;1.468134
2475.000000;1.562594
2474.000000;1.534706
2473.000000;1.508869
2472.000000;1.539642
2471.000000;1.825571
2470.000000;2.394161
2469.000000;1.675191
2468.000000;1.493383
2467.000000;1.476213
2466.000000;1.502569
2465.000000;1.573903
2464.000000;1.751265
2463.000000;2.294659
2462.000000;2.108003
2461.000000;1.762237
2460.000000;1.709111
2459.000000;1.796020
2458.000000;2.156713
2457.000000;2.386160
2456.000000;2.192664
2455.000000;2.088787
2454.000000;1.903763
2453.000000;1.708842
2452.000000;1.569661
2451.000000;1.507539
2450.000000;1.526766
2449.000000;1.629664
2448.000000;1.954457
2447.000000;2.253882
2446.000000;1.856465
2445.000000;1.857727
2444.000000;2.136055
2443.000000;2.247172
2442.000000;2.115129
2441.000000;2.231707
2440.000000;2.205819
2439.000000;1.995281
2438.000000;1.864540
2437.000000;1.702648
2436.000000;1.712378
2435.000000;1.901048
2434.000000;1.720327
2433.000000;1.461706
2432.000000;1.382483
2431.000000;1.402675
2430.000000;1.493691
2429.000000;1.612731
2428.000000;1.683919
2427.000000;1.683059
2426.000000;1.676554
2425.000000;1.701666
2424.000000;1.668525
2423.000000;1.550602
2422.000000;1.496431
2421.000000;1.580395
2420.000000;1.954253
2419.000000;2.120769
2418.000000;1.614993
2417.000000;1.494376
2416.000000;1.537938
2415.000000;1.675044
2414.000000;1.772922
2413.000000;1.894830
2412.000000;2.267073
2411.000000;2.017633
2410.000000;1.722697
2409.000000;1.687534
2408.000000;1.957036
2407.000000;2.235781
2406.000000;1.763942
2405.000000;1.565425
2404.000000;1.511152
2403.000000;1.508479
2402.000000;1.552325
2401.000000;1.602803
2400.000000;1.633867
2399.000000;1.702108
2398.000000;1.843610
2397.000000;2.111538
2396.000000;2.246396
2395.000000;1.753220
2394.000000;1.513685
2393.000000;1.447306
2392.000000;1.480680
2391.000000;1.569813
2390.000000;1.663702
2389.000000;1.750397
2388.000000;1.882964
2387.000000;2.212311
2386.000000;2.173211
2385.000000;1.808922
2384.000000;1.682984
2383.000000;1.584772
2382.000000;1.507795
2381.000000;1.525074
2380.000000;1.619701
2379.000000;1.704980
2378.000000;1.787229
2377.000000;1.945167
2376.000000;2.093914
2375.000000;1.921857
2374.000000;1.688066
2373.000000;1.569464
2372.000000;1.553919
2371.000000;1.608818
2370.000000;1.787153
2369.000000;2.112008
2368.000000;1.798955
2367.000000;1.624425
2366.000000;1.658204
2365.000000;1.780783
2364.000000;1.835145
2363.000000;1.703624
2362.000000;1.577402
2361.000000;1.537103
2360.000000;1.614654
2359.000000;1.808423
2358.000000;1.950849
2357.000000;2.292762
2356.000000;2.009611
2355.000000;1.491950
2354.000000;1.374116
2353.000000;1.429172
2352.000000;1.805536
2351.000000;1.964553
2350.000000;1.597719
2349.000000;1.489665
2348.000000;1.580785
2347.000000;2.203334
2346.000000;1.734897
2345.000000;1.659046
2344.000000;1.980132
2343.000000;1.847434
2342.000000;1.767745
2341.000000;1.766385
2340.000000;1.991143
2339.000000;2.321302
2338.000000;1.850059
2337.000000;1.867637
2336.000000;1.950387
2335.000000;1.837061
2334.000000;1.814404
2333.000000;1.924901
2332.000000;2.275734
2331.000000;2.254396
2330.000000;1.910565
2329.000000;1.829450
2328.000000;1.897710
2327.000000;2.017943
2326.000000;1.961251
2325.000000;1.896066
2324.000000;1.993555
2323.000000;2.281429
2322.000000;2.976559
2321.000000;2.380791
2320.000000;1.908294
2319.000000;1.704665
2318.000000;1.687501
2317.000000;1.868207
2316.000000;2.288838
2315.000000;2.635815
2314.000000;2.330364
2313.000000;2.237003
2312.000000;2.519110
2311.000000;2.978688
2310.000000;2.257330
2309.000000;2.012306
2308.000000;1.909207
2307.000000;1.897923
2306.000000;1.925581
2305.000000;1.934190
2304.000000;2.148397
2303.000000;2.379196
2302.000000;1.914725
2301.000000;1.736358
2300.000000;1.749831
2299.000000;2.104480
2298.000000;2.401759
2297.000000;1.964310
2296.000000;1.897102
2295.000000;2.049273
2294.000000;2.274390
2293.000000;2.196241
2292.000000;2.165591
2291.000000;2.098734
2290.000000;1.798117
2289.000000;1.564600
2288.000000;1.454719
2287.000000;1.445914
2286.000000;1.494704
2285.000000;1.547703
2284.000000;1.593788
2283.000000;1.641457
2282.000000;1.618694
2281.000000;1.561236
2280.000000;1.606320
2279.000000;1.761577
2278.000000;1.722129
2277.000000;1.554620
2276.000000;1.523097
2275.000000;1.567032
2274.000000;1.645256
2273.000000;1.684968
2272.000000;1.618273
2271.000000;1.600302
2270.000000;1.722444
2269.000000;1.742706
2268.000000;1.630481
2267.000000;1.630758
2266.000000;1.903074
2265.000000;1.891550
2264.000000;1.657371
2263.000000;1.740654
2262.000000;2.298332
2261.000000;1.755848
2260.000000;1.463865
2259.000000;1.317031
2258.000000;1.263624
2257.000000;1.283648
2256.000000;1.342405
2255.000000;1.412266
2254.000000;1.456787
2253.000000;1.451473
2252.000000;1.439795
2251.000000;1.460561
2250.000000;1.499928
2249.000000;1.552802
2248.000000;1.630094
2247.000000;1.666117
2246.000000;1.610319
2245.000000;1.544062
2244.000000;1.539651
2243.000000;1.735326
2242.000000;2.075320
2241.000000;1.813882
2240.000000;1.778086
2239.000000;2.062804
2238.000000;1.932006
2237.000000;1.807486
2236.000000;1.869977
2235.000000;2.085401
2234.000000;2.623647
2233.000000;1.878513
2232.000000;1.744301
2231.000000;1.899281
2230.000000;2.415956
2229.000000;2.237599
2228.000000;1.954662
2227.000000;2.055845
2226.000000;2.297662
2225.000000;1.745652
2224.000000;1.508003
2223.000000;1.444916
2222.000000;1.483609
2221.000000;1.541381
2220.000000;1.570588
2219.000000;1.584315
2218.000000;1.605373
2217.000000;1.693660
2216.000000;1.923994
2215.000000;2.295875
2214.000000;2.073641
2213.000000;1.801768
2212.000000;1.602005
2211.000000;1.512011
2210.000000;1.595576
2209.000000;2.022889
2208.000000;2.137777
2207.000000;1.878772
2206.000000;1.981839
2205.000000;2.466105
2204.000000;2.286404
2203.000000;2.008701
2202.000000;1.962904
2201.000000;1.946506
2200.000000;1.873309
2199.000000;1.835886
2198.000000;1.828496
2197.000000;1.765157
2196.000000;1.655423
2195.000000;1.603197
2194.000000;1.713410
2193.000000;1.973145
2192.000000;1.917518
2191.000000;1.783636
2190.000000;1.758710
2189.000000;1.767334
2188.000000;1.750782
2187.000000;1.713189
2186.000000;1.734430
2185.000000;1.746736
2184.000000;1.705022
2183.000000;1.647562
2182.000000;1.623059
2181.000000;1.674298
2180.000000;1.861472
2179.000000;2.015880
2178.000000;1.698341
2177.000000;1.540315
2176.000000;1.513532
2175.000000;1.594056
2174.000000;1.776371
2173.000000;2.011651
2172.000000;1.953965
2171.000000;1.802500
2170.000000;1.799924
2169.000000;1.715674
2168.000000;1.550857
2167.000000;1.468788
2166.000000;1.475332
2165.000000;1.595238
2164.000000;1.774552
2163.000000;1.938136
2162.000000;1.989656
2161.000000;1.806472
2160.000000;1.684833
2159.000000;1.565361
2158.000000;1.419063
2157.000000;1.335791
2156.000000;1.325084
2155.000000;1.352469
2154.000000;1.388589
2153.000000;1.402357
2152.000000;1.333015
2151.000000;1.250013
2150.000000;1.241320
2149.000000;1.303123
2148.000000;1.365644
2147.000000;1.388497
2146.000000;1.410060
2145.000000;1.447921
2144.000000;1.494285
2143.000000;1.525951
2142.000000;1.538785
2141.000000;1.583423
2140.000000;1.678312
2139.000000;1.711249
2138.000000;1.712098
2137.000000;1.834285
2136.000000;2.230185
2135.000000;1.989603
2134.000000;1.724986
2133.000000;1.737265
2132.000000;1.874379
2131.000000;2.465825
2130.000000;2.164069
2129.000000;1.881382
2128.000000;1.885720
2127.000000;2.137530
2126.000000;2.348486
2125.000000;1.817653
2124.000000;1.667924
2123.000000;1.711057
2122.000000;1.913507
2121.000000;2.166260
2120.000000;2.154426
2119.000000;1.992125
2118.000000;2.081248
2117.000000;2.501468
2116.000000;2.033314
2115.000000;1.728346
2114.000000;1.696216
2113.000000;2.017927
2112.000000;2.374373
2111.000000;1.873466
2110.000000;1.724559
2109.000000;1.696477
2108.000000;1.781840
2107.000000;2.033540
2106.000000;2.229785
2105.000000;2.142992
2104.000000;1.975940
2103.000000;1.742029
2102.000000;1.627762
2101.000000;1.615444
2100.000000;1.632194
2099.000000;1.659794
2098.000000;1.755912
2097.000000;1.862431
2096.000000;1.764974
2095.000000;1.687438
2094.000000;1.701043
2093.000000;1.741507
2092.000000;1.758432
2091.000000;1.784608
2090.000000;1.948375
2089.000000;2.112867
2088.000000;1.779910
2087.000000;1.594830
2086.000000;1.561484
2085.000000;1.608699
2084.000000;1.613365
2083.000000;1.507392
2082.000000;1.396465
2081.000000;1.335132
2080.000000;1.308132
2079.000000;1.319055
2078.000000;1.405081
2077.000000;1.663060
2076.000000;1.805447
2075.000000;1.563871
2074.000000;1.461133
2073.000000;1.484621
2072.000000;1.619234
2071.000000;1.849663
2070.000000;1.978652
2069.000000;2.161890
2068.000000;2.408154
2067.000000;2.059620
2066.000000;1.945248
2065.000000;1.776851
2064.000000;1.669505
2063.000000;1.751664
2062.000000;2.030339
2061.000000;1.784549
2060.000000;1.529863
2059.000000;1.511393
2058.000000;1.611778
2057.000000;2.010712
2056.000000;2.275098
2055.000000;1.977734
2054.000000;1.965940
2053.000000;1.861336
2052.000000;1.816258
2051.000000;1.941675
2050.000000;2.431092
2049.000000;2.637618
2048.000000;2.301878
2047.000000;2.237223
2046.000000;2.456918
2045.000000;2.418322
2044.000000;1.890386
2043.000000;1.735909
2042.000000;1.774573
2041.000000;1.912227
2040.000000;1.985354
2039.000000;1.982756
2038.000000;1.941071
2037.000000;1.876660
2036.000000;1.723803
2035.000000;1.543959
2034.000000;1.476047
2033.000000;1.532015
2032.000000;1.909832
2031.000000;2.070944
2030.000000;1.662338
2029.000000;1.600654
2028.000000;1.645897
2027.000000;1.609694
2026.000000;1.480554
2025.000000;1.438154
2024.000000;1.513237
2023.000000;1.562448
2022.000000;1.443837
2021.000000;1.329842
2020.000000;1.264932
2019.000000;1.250111
2018.000000;1.327750
2017.000000;1.579643
2016.000000;1.856058
2015.000000;1.646437
2014.000000;1.529024
2013.000000;1.426611
2012.000000;1.417512
2011.000000;1.599041
2010.000000;1.872229
2009.000000;1.665773
2008.000000;1.569509
2007.000000;1.827002
2006.000000;2.045860
2005.000000;1.606569
2004.000000;1.462061
2003.000000;1.450399
2002.000000;1.494665
2001.000000;1.566846
2000.000000;1.733053
1999.000000;2.291237
1998.000000;1.858702
1997.000000;1.638076
1996.000000;1.752579
1995.000000;2.250611
1994.000000;2.356230
1993.000000;1.976118
1992.000000;1.783632
1991.000000;1.662733
1990.000000;1.607041
1989.000000;1.598572
1988.000000;1.626841
1987.000000;1.694625
1986.000000;1.710257
1985.000000;1.670884
1984.000000;1.731237
1983.000000;1.904384
1982.000000;1.984378
1981.000000;1.799839
1980.000000;1.646681
1979.000000;1.662563
1978.000000;1.984958
1977.000000;2.422184
1976.000000;1.954580
1975.000000;1.681928
1974.000000;1.569999
1973.000000;1.549132
1972.000000;1.568942
1971.000000;1.610841
1970.000000;1.687089
1969.000000;1.749235
1968.000000;1.705741
1967.000000;1.674020
1966.000000;1.727522
1965.000000;1.845983
1964.000000;2.078105
1963.000000;2.175961
1962.000000;1.802828
1961.000000;1.609536
1960.000000;1.502515
1959.000000;1.448780
1958.000000;1.466214
1957.000000;1.693239
1956.000000;1.987391
1955.000000;1.621111
1954.000000;1.495804
1953.000000;1.522304
1952.000000;1.622460
1951.000000;1.735228
1950.000000;1.755621
1949.000000;1.615129
1948.000000;1.462635
1947.000000;1.413144
1946.000000;1.481363
1945.000000;1.890540
1944.000000;1.974403
1943.000000;1.480805
1942.000000;1.262039
1941.000000;1.158559
1940.000000;1.154705
1939.000000;1.276981
1938.000000;1.570288
1937.000000;1.869616
1936.000000;1.722324
1935.000000;1.691683
1934.000000;1.793494
1933.000000;2.000670
1932.000000;2.167894
1931.000000;2.029059
1930.000000;1.856029
1929.000000;1.772309
1928.000000;1.797543
1927.000000;1.911259
1926.000000;2.008036
1925.000000;1.839790
1924.000000;1.666346
1923.000000;1.614731
1922.000000;1.641182
1921.000000;1.986653
1920.000000;2.108683
1919.000000;1.669535
1918.000000;1.610933
1917.000000;1.966969
1916.000000;2.115748
1915.000000;1.676982
1914.000000;1.527037
1913.000000;1.528223
1912.000000;1.675219
1911.000000;1.975897
1910.000000;1.744167
1909.000000;1.546284
1908.000000;1.481461
1907.000000;1.376300
1906.000000;1.276338
1905.000000;1.291104
1904.000000;1.530317
1903.000000;1.993551
1902.000000;1.837388
1901.000000;1.806166
1900.000000;1.848090
1899.000000;1.731050
1898.000000;1.604626
1897.000000;1.500974
1896.000000;1.471812
1895.000000;1.627482
1894.000000;1.970758
1893.000000;1.750849
1892.000000;1.579305
1891.000000;1.601779
1890.000000;1.616524
1889.000000;1.579621
1888.000000;1.576712
1887.000000;1.855681
1886.000000;2.118063
1885.000000;1.684148
1884.000000;1.582413
1883.000000;1.584186
1882.000000;1.554556
1881.000000;1.518751
1880.000000;1.458558
1879.000000;1.354855
1878.000000;1.286801
1877.000000;1.312723
1876.000000;1.583182
1875.000000;2.130593
1874.000000;1.746679
1873.000000;1.639135
1872.000000;1.683339
1871.000000;1.756384
1870.000000;1.856387
1869.000000;1.822938
1868.000000;1.699080
1867.000000;1.569837
1866.000000;1.527659
1865.000000;1.674971
1864.000000;1.975028
1863.000000;1.803875
1862.000000;1.656126
1861.000000;1.687503
1860.000000;1.706129
1859.000000;1.664554
1858.000000;1.694060
1857.000000;1.845803
1856.000000;2.080893
1855.000000;2.046908
1854.000000;2.070930
1853.000000;2.280060
1852.000000;1.838052
1851.000000;1.616934
1850.000000;1.605304
1849.000000;1.712308
1848.000000;1.818580
1847.000000;1.932876
1846.000000;1.839709
1845.000000;1.574909
1844.000000;1.460499
1843.000000;1.395801
1842.000000;1.364005
1841.000000;1.444664
1840.000000;1.568609
1839.000000;1.517274
1838.000000;1.505074
1837.000000;1.649072
1836.000000;1.722586
1835.000000;1.739396
1834.000000;1.960937
1833.000000;1.875343
1832.000000;1.705367
1831.000000;1.774111
1830.000000;2.114433
1829.000000;2.953504
1828.000000;2.067443
1827.000000;1.770477
1826.000000;1.616701
1825.000000;1.532895
1824.000000;1.543415
1823.000000;1.665315
1822.000000;1.757153
1821.000000;1.609039
1820.000000;1.564252
1819.000000;1.707095
1818.000000;1.752091
1817.000000;1.532689
1816.000000;1.374746
1815.000000;1.320409
1814.000000;1.362389
1813.000000;1.492069
1812.000000;1.566806
1811.000000;1.484216
1810.000000;1.392940
1809.000000;1.421790
1808.000000;1.513097
1807.000000;1.392480
1806.000000;1.285508
1805.000000;1.319158
1804.000000;1.393393
1803.000000;1.378628
1802.000000;1.340975
1801.000000;1.389035
1800.000000;1.593465
1799.000000;1.732866
1798.000000;1.514417
1797.000000;1.455038
1796.000000;1.613916
1795.000000;2.061302
1794.000000;1.977642
1793.000000;1.754087
1792.000000;2.145119
1791.000000;2.636381
1790.000000;2.121731
1789.000000;2.050530
1788.000000;1.937492
1787.000000;1.744851
1786.000000;1.718639
1785.000000;1.968949
1784.000000;2.479282
1783.000000;1.945936
1782.000000;1.617799
1781.000000;1.509964
1780.000000;1.546060
1779.000000;1.856882
1778.000000;2.037378
1777.000000;1.644444
1776.000000;1.573912
1775.000000;1.642933
1774.000000;1.572530
1773.000000;1.490340
1772.000000;1.476715
1771.000000;1.483535
1770.000000;1.522486
1769.000000;1.643217
1768.000000;1.622045
1767.000000;1.460402
1766.000000;1.426970
1765.000000;1.526371
1764.000000;1.789435
1763.000000;1.983705
1762.000000;1.786139
1761.000000;1.538497
1760.000000;1.337848
1759.000000;1.217032
1758.000000;1.175049
1757.000000;1.163636
1756.000000;1.183962
1755.000000;1.210591
1754.000000;1.331582
1753.000000;1.589629
1752.000000;1.344791
1751.000000;1.169115
1750.000000;1.166508
1749.000000;1.201486
1748.000000;1.303077
1747.000000;1.439628
1746.000000;1.668378
1745.000000;1.891566
1744.000000;1.665413
1743.000000;1.590495
1742.000000;1.625741
1741.000000;1.659649
1740.000000;1.835645
1739.000000;2.182405
1738.000000;2.111554
1737.000000;1.884996
1736.000000;1.948202
1735.000000;2.021957
1734.000000;2.028414
1733.000000;2.546570
1732.000000;2.160350
1731.000000;1.633060
1730.000000;1.497637
1729.000000;1.519795
1728.000000;1.574369
1727.000000;1.703166
1726.000000;1.817217
1725.000000;1.794653
1724.000000;1.751955
1723.000000;1.822209
1722.000000;2.005399
1721.000000;1.876434
1720.000000;1.706824
1719.000000;1.757741
1718.000000;1.959189
1717.000000;2.109256
1716.000000;1.891689
1715.000000;1.706607
1714.000000;1.776328
1713.000000;1.701030
1712.000000;1.420459
1711.000000;1.378088
1710.000000;1.746320
1709.000000;1.969271
1708.000000;1.564703
1707.000000;1.570815
1706.000000;1.639062
1705.000000;1.559552
1704.000000;1.516348
1703.000000;1.765955
1702.000000;1.951910
1701.000000;1.664509
1700.000000;1.652095
1699.000000;1.654624
1698.000000;1.635661
1697.000000;1.703851
1696.000000;1.677220
1695.000000;1.557944
1694.000000;1.470566
1693.000000;1.344254
1692.000000;1.235177
1691.000000;1.230055
1690.000000;1.348419
1689.000000;1.507304
1688.000000;1.527288
1687.000000;1.460689
1686.000000;1.465417
1685.000000;1.535021
1684.000000;1.631635
1683.000000;1.656558
1682.000000;1.848404
1681.000000;1.954204
1680.000000;1.389211
1679.000000;1.082295
1678.000000;1.004686
1677.000000;1.099728
1676.000000;1.448101
1675.000000;2.130635
1674.000000;1.709038
1673.000000;1.462774
1672.000000;1.358694
1671.000000;1.292127
1670.000000;1.347470
1669.000000;1.435910
1668.000000;1.455124
1667.000000;1.509989
1666.000000;1.580475
1665.000000;1.880348
1664.000000;2.001670
1663.000000;1.461073
1662.000000;1.266123
1661.000000;1.179985
1660.000000;1.192984
1659.000000;1.330854
1658.000000;1.618391
1657.000000;1.743883
1656.000000;1.449710
1655.000000;1.343423
1654.000000;1.420530
1653.000000;1.580091
1652.000000;1.673173
1651.000000;1.692843
1650.000000;1.665443
1649.000000;1.533066
1648.000000;1.735273
1647.000000;1.704390
1646.000000;1.305935
1645.000000;1.169845
1644.000000;1.340671
1643.000000;1.878798
1642.000000;1.351745
1641.000000;1.140692
1640.000000;1.242878
1639.000000;1.561261
1638.000000;1.738355
1637.000000;1.440657
1636.000000;1.327020
1635.000000;1.254974
1634.000000;1.217286
1633.000000;1.181895
1632.000000;1.144312
1631.000000;1.162922
1630.000000;1.249540
1629.000000;1.330897
1628.000000;1.293354
1627.000000;1.178176
1626.000000;1.116677
1625.000000;1.170997
1624.000000;1.290954
1623.000000;1.361964
1622.000000;1.407580
1621.000000;1.358436
1620.000000;1.156138
1619.000000;1.039271
1618.000000;1.056756
1617.000000;1.159732
1616.000000;1.293425
1615.000000;1.491936
1614.000000;1.707707
1613.000000;1.973725
1612.000000;2.565515
1611.000000;1.828131
1610.000000;1.554140
1609.000000;1.502511
1608.000000;1.443826
1607.000000;1.405994
1606.000000;1.518952
1605.000000;1.677928
1604.000000;1.495366
1603.000000;1.454480
1602.000000;1.908693
1601.000000;1.732569
1600.000000;1.325362
1599.000000;1.308606
1598.000000;1.308871
1597.000000;1.296024
1596.000000;1.354070
1595.000000;1.592732
1594.000000;2.005295
1593.000000;1.556516
1592.000000;1.274070
1591.000000;1.176256
1590.000000;1.200289
1589.000000;1.368988
1588.000000;1.683744
1587.000000;1.993063
1586.000000;1.529238
1585.000000;1.215222
1584.000000;1.131826
1583.000000;1.228524
1582.000000;1.517125
1581.000000;1.526033
1580.000000;1.282529
1579.000000;1.243893
1578.000000;1.354322
1577.000000;1.496818
1576.000000;1.516367
1575.000000;1.409457
1574.000000;1.290680
1573.000000;1.194639
1572.000000;1.144623
1571.000000;1.159089
1570.000000;1.190100
1569.000000;1.208997
1568.000000;1.242242
1567.000000;1.259951
1566.000000;1.204516
1565.000000;1.183328
1564.000000;1.204783
1563.000000;1.382507
1562.000000;1.676291
1561.000000;1.459964
1560.000000;1.402793
1559.000000;1.504760
1558.000000;1.444584
1557.000000;1.577903
1556.000000;1.866769
1555.000000;1.660034
1554.000000;1.572899
1553.000000;1.675082
1552.000000;1.583503
1551.000000;1.317642
1550.000000;1.248741
1549.000000;1.384544
1548.000000;1.661211
1547.000000;1.755551
1546.000000;1.557799
1545.000000;1.424698
1544.000000;1.388960
1543.000000;1.459605
1542.000000;1.532714
1541.000000;1.418920
1540.000000;1.190623
1539.000000;0.987980
1538.000000;0.953569
1537.000000;1.086718
1536.000000;1.291403
1535.000000;1.390977
1534.000000;1.367958
1533.000000;1.404736
1532.000000;1.565117
1531.000000;1.934089
1530.000000;1.788841
1529.000000;1.376902
1528.000000;1.162842
1527.000000;1.081226
1526.000000;1.138514
1525.000000;1.333756
1524.000000;1.332346
1523.000000;1.111473
1522.000000;1.051480
1521.000000;1.142811
1520.000000;1.361019
1519.000000;1.729393
1518.000000;1.710515
1517.000000;1.383208
1516.000000;1.291507
1515.000000;1.304978
1514.000000;1.184804
1513.000000;1.027789
1512.000000;0.962520
1511.000000;0.984627
1510.000000;1.100833
1509.000000;1.447364
1508.000000;1.577905
1507.000000;1.235835
1506.000000;1.114465
1505.000000;1.195793
1504.000000;1.570931
1503.000000;1.700873
1502.000000;1.151271
1501.000000;0.982872
1500.000000;1.017310
1499.000000;1.153430
1498.000000;1.326069
1497.000000;1.446700
1496.000000;1.670488
1495.000000;1.950341
1494.000000;1.882888
1493.000000;1.853104
1492.000000;2.011183
1491.000000;1.710150
1490.000000;1.379281
1489.000000;1.200202
1488.000000;1.032708
1487.000000;0.918078
1486.000000;0.908142
1485.000000;1.055599
1484.000000;1.489841
1483.000000;1.638193
1482.000000;1.361120
1481.000000;1.270587
1480.000000;1.163880
1479.000000;1.054711
1478.000000;1.022528
1477.000000;1.106605
1476.000000;1.374382
1475.000000;1.955403
1474.000000;1.863608
1473.000000;1.416195
1472.000000;1.204206
1471.000000;1.177261
1470.000000;1.505632
1469.000000;2.013700
1468.000000;1.545087
1467.000000;1.667631
1466.000000;1.970362
1465.000000;1.712003
1464.000000;1.449064
1463.000000;1.248808
1462.000000;1.167433
1461.000000;1.289150
1460.000000;1.781310
1459.000000;1.535850
1458.000000;1.279868
1457.000000;1.261705
1456.000000;1.249043
1455.000000;1.268283
1454.000000;1.251544
1453.000000;1.098610
1452.000000;0.929927
1451.000000;0.883102
1450.000000;0.952396
1449.000000;1.077690
1448.000000;1.330988
1447.000000;1.578037
1446.000000;1.265704
1445.000000;1.140967
1444.000000;1.213350
1443.000000;1.453106
1442.000000;1.737883
1441.000000;1.497488
1440.000000;1.262239
1439.000000;1.122405
1438.000000;1.104775
1437.000000;1.242199
1436.000000;1.452381
1435.000000;1.622978
1434.000000;1.665797
1433.000000;1.646436
1432.000000;1.857316
1431.000000;1.395638
1430.000000;1.017887
1429.000000;0.891982
1428.000000;0.944833
1427.000000;1.163387
1426.000000;1.234492
1425.000000;1.063135
1424.000000;0.976326
1423.000000;0.980651
1422.000000;1.086210
1421.000000;1.328921
1420.000000;1.486766
1419.000000;1.430857
1418.000000;1.405981
1417.000000;1.661435
1416.000000;2.040271
1415.000000;1.494452
1414.000000;1.442800
1413.000000;1.633315
1412.000000;1.546483
1411.000000;1.239994
1410.000000;1.011637
1409.000000;0.883634
1408.000000;0.829960
1407.000000;0.838840
1406.000000;0.909298
1405.000000;1.070566
1404.000000;1.334315
1403.000000;1.461745
1402.000000;1.262663
1401.000000;1.098069
1400.000000;1.069894
1399.000000;1.200552
1398.000000;1.513705
1397.000000;1.836573
1396.000000;1.800610
1395.000000;1.548038
1394.000000;1.444256
1393.000000;1.512740
1392.000000;1.540039
1391.000000;1.465199
1390.000000;1.423871
1389.000000;1.431442
1388.000000;1.396859
1387.000000;1.249142
1386.000000;1.103648
1385.000000;1.049770
1384.000000;1.110060
1383.000000;1.226456
1382.000000;1.315804
1381.000000;1.360879
1380.000000;1.335557
1379.000000;1.344592
1378.000000;1.483078
1377.000000;1.619740
1376.000000;1.579663
1375.000000;1.650988
1374.000000;1.558694
1373.000000;1.289397
1372.000000;1.206071
1371.000000;1.230114
1370.000000;1.242494
1369.000000;1.220361
1368.000000;1.190204
1367.000000;1.216928
1366.000000;1.321906
1365.000000;1.272084
1364.000000;1.044491
1363.000000;0.916399
1362.000000;0.902396
1361.000000;1.051484
1360.000000;1.563065
1359.000000;1.353489
1358.000000;1.000597
1357.000000;1.001162
1356.000000;1.196336
1355.000000;1.435285
1354.000000;1.233361
1353.000000;1.109179
1352.000000;1.145138
1351.000000;1.237215
1350.000000;1.396241
1349.000000;1.593994
1348.000000;1.565028
1347.000000;1.521960
1346.000000;1.460262
1345.000000;1.233195
1344.000000;1.095947
1343.000000;1.166105
1342.000000;1.503871
1341.000000;1.400398
1340.000000;1.137959
1339.000000;1.125580
1338.000000;1.237756
1337.000000;1.418408
1336.000000;1.497636
1335.000000;1.355452
1334.000000;1.183787
1333.000000;1.037361
1332.000000;0.938882
1331.000000;0.928309
1330.000000;0.982805
1329.000000;1.043915
1328.000000;1.117876
1327.000000;1.214966
1326.000000;1.269088
1325.000000;1.231343
1324.000000;1.210014
1323.000000;1.332105
1322.000000;1.733714
1321.000000;2.196243
1320.000000;1.849055
1319.000000;1.623571
1318.000000;1.337315
1317.000000;1.133740
1316.000000;1.069442
1315.000000;1.133790
1314.000000;1.502949
1313.000000;1.870477
1312.000000;1.292995
1311.000000;1.293771
1310.000000;1.239389
1309.000000;1.057782
1308.000000;1.018072
1307.000000;1.130714
1306.000000;1.516910
1305.000000;1.614368
1304.000000;1.321174
1303.000000;1.308933
1302.000000;1.374556
1301.000000;1.463090
1300.000000;1.528180
1299.000000;1.583399
1298.000000;1.689187
1297.000000;1.860300
1296.000000;2.069832
1295.000000;2.041407
1294.000000;1.625510
1293.000000;1.350947
1292.000000;1.253354
1291.000000;1.356880
1290.000000;1.564652
1289.000000;1.296663
1288.000000;1.128711
1287.000000;1.136030
1286.000000;1.209218
1285.000000;1.184930
1284.000000;1.091203
1283.000000;1.057123
1282.000000;1.109951
1281.000000;1.323336
1280.000000;1.493722
1279.000000;1.219458
1278.000000;1.036728
1277.000000;0.988876
1276.000000;1.064958
1275.000000;1.274224
1274.000000;1.310340
1273.000000;1.242914
1272.000000;1.433045
1271.000000;2.077380
1270.000000;1.587992
1269.000000;1.330043
1268.000000;1.261768
1267.000000;1.221989
1266.000000;1.200506
1265.000000;1.156536
1264.000000;1.100572
1263.000000;1.071723
1262.000000;1.079956
1261.000000;1.120742
1260.000000;1.201261
1259.000000;1.173247
1258.000000;1.060115
1257.000000;1.055698
1256.000000;1.190722
1255.000000;1.421033
1254.000000;1.269323
1253.000000;1.002753
1252.000000;0.900666
1251.000000;0.897216
1250.000000;0.960010
1249.000000;1.040041
1248.000000;1.064712
1247.000000;1.018805
1246.000000;0.998484
1245.000000;1.065084
1244.000000;1.245418
1243.000000;1.645137
1242.000000;1.541293
1241.000000;1.416570
1240.000000;1.706325
1239.000000;1.943482
1238.000000;1.793457
1237.000000;2.385191
1236.000000;1.829973
1235.000000;1.645591
1234.000000;1.670608
1233.000000;1.631302
1232.000000;1.504519
1231.000000;1.383866
1230.000000;1.315309
1229.000000;1.285860
1228.000000;1.281324
1227.000000;1.335359
1226.000000;1.633523
1225.000000;1.582680
1224.000000;1.296118
1223.000000;1.374743
1222.000000;1.961454
1221.000000;2.007222
1220.000000;2.103885
1219.000000;1.650082
1218.000000;1.384198
1217.000000;1.546059
1216.000000;1.429357
1215.000000;1.326158
1214.000000;1.509991
1213.000000;1.642284
1212.000000;1.415003
1211.000000;1.291716
1210.000000;1.199588
1209.000000;1.090962
1208.000000;1.015181
1207.000000;0.990730
1206.000000;1.000654
1205.000000;1.031878
1204.000000;1.053796
1203.000000;1.053788
1202.000000;1.116702
1201.000000;1.281954
1200.000000;1.408959
