Criado como novo conjunto de dados;"e0108.spp","-4291725.2 Secs"
cm-1;Abs
10000.000000;0.360180
9999.000000;0.359941
9998.000000;0.359739
9997.000000;0.359535
9996.000000;0.359202
9995.000000;0.358710
9994.000000;0.358181
9993.000000;0.357710
9992.000000;0.357265
9991.000000;0.356817
9990.000000;0.356468
9989.000000;0.356299
9988.000000;0.356130
9987.000000;0.355610
9986.000000;0.354632
9985.000000;0.353565
9984.000000;0.352948
9983.000000;0.352970
9982.000000;0.353343
9981.000000;0.353665
9980.000000;0.353755
9979.000000;0.353619
9978.000000;0.353276
9977.000000;0.352769
9976.000000;0.352270
9975.000000;0.351966
9974.000000;0.351861
9973.000000;0.351778
9972.000000;0.351553
9971.000000;0.351125
9970.000000;0.350486
9969.000000;0.349707
9968.000000;0.349047
9967.000000;0.348826
9966.000000;0.349070
9965.000000;0.349395
9964.000000;0.349382
9963.000000;0.349026
9962.000000;0.348692
9961.000000;0.348613
9960.000000;0.348563
9959.000000;0.348092
9958.000000;0.347034
9957.000000;0.345758
9956.000000;0.344892
9955.000000;0.344785
9954.000000;0.345198
9953.000000;0.345524
9952.000000;0.345322
9951.000000;0.344611
9950.000000;0.343692
9949.000000;0.342792
9948.000000;0.341958
9947.000000;0.341214
9946.000000;0.340631
9945.000000;0.340221
9944.000000;0.339911
9943.000000;0.339686
9942.000000;0.339614
9941.000000;0.339630
9940.000000;0.339440
9939.000000;0.338891
9938.000000;0.338371
9937.000000;0.338534
9936.000000;0.339507
9935.000000;0.340555
9934.000000;0.340720
9933.000000;0.339705
9932.000000;0.338030
9931.000000;0.336453
9930.000000;0.335435
9929.000000;0.335061
9928.000000;0.335192
9927.000000;0.335569
9926.000000;0.335887
9925.000000;0.335887
9924.000000;0.335416
9923.000000;0.334447
9922.000000;0.333143
9921.000000;0.331870
9920.000000;0.331045
9919.000000;0.330905
9918.000000;0.331428
9917.000000;0.332384
9916.000000;0.333375
9915.000000;0.333938
9914.000000;0.333825
9913.000000;0.333180
9912.000000;0.332322
9911.000000;0.331391
9910.000000;0.330392
9909.000000;0.329531
9908.000000;0.329162
9907.000000;0.329285
9906.000000;0.329395
9905.000000;0.329050
9904.000000;0.328407
9903.000000;0.327939
9902.000000;0.327750
9901.000000;0.327453
9900.000000;0.326738
9899.000000;0.325771
9898.000000;0.324962
9897.000000;0.324493
9896.000000;0.324239
9895.000000;0.324030
9894.000000;0.323888
9893.000000;0.323981
9892.000000;0.324389
9891.000000;0.324934
9890.000000;0.325262
9889.000000;0.325110
9888.000000;0.324515
9887.000000;0.323737
9886.000000;0.323019
9885.000000;0.322425
9884.000000;0.321875
9883.000000;0.321274
9882.000000;0.320607
9881.000000;0.319949
9880.000000;0.319390
9879.000000;0.318965
9878.000000;0.318659
9877.000000;0.318459
9876.000000;0.318321
9875.000000;0.318122
9874.000000;0.317748
9873.000000;0.317268
9872.000000;0.316926
9871.000000;0.316873
9870.000000;0.316993
9869.000000;0.317046
9868.000000;0.316898
9867.000000;0.316560
9866.000000;0.316084
9865.000000;0.315535
9864.000000;0.315025
9863.000000;0.314649
9862.000000;0.314390
9861.000000;0.314147
9860.000000;0.313842
9859.000000;0.313469
9858.000000;0.313073
9857.000000;0.312739
9856.000000;0.312579
9855.000000;0.312636
9854.000000;0.312827
9853.000000;0.313015
9852.000000;0.313097
9851.000000;0.313007
9850.000000;0.312691
9849.000000;0.312166
9848.000000;0.311531
9847.000000;0.310861
9846.000000;0.310155
9845.000000;0.309451
9844.000000;0.308936
9843.000000;0.308792
9842.000000;0.308904
9841.000000;0.308861
9840.000000;0.308305
9839.000000;0.307300
9838.000000;0.306336
9837.000000;0.305988
9836.000000;0.306450
9835.000000;0.307337
9834.000000;0.307927
9833.000000;0.307683
9832.000000;0.306609
9831.000000;0.305200
9830.000000;0.304105
9829.000000;0.303732
9828.000000;0.303957
9827.000000;0.304165
9826.000000;0.303774
9825.000000;0.302848
9824.000000;0.302031
9823.000000;0.301783
9822.000000;0.301857
9821.000000;0.301720
9820.000000;0.301266
9819.000000;0.300836
9818.000000;0.300630
9817.000000;0.300457
9816.000000;0.300089
9815.000000;0.299580
9814.000000;0.299124
9813.000000;0.298834
9812.000000;0.298758
9811.000000;0.298886
9810.000000;0.299039
9809.000000;0.298926
9808.000000;0.298457
9807.000000;0.297865
9806.000000;0.297396
9805.000000;0.297034
9804.000000;0.296632
9803.000000;0.296168
9802.000000;0.295710
9801.000000;0.295255
9800.000000;0.294794
9799.000000;0.294442
9798.000000;0.294293
9797.000000;0.294192
9796.000000;0.293882
9795.000000;0.293387
9794.000000;0.293048
9793.000000;0.293102
9792.000000;0.293392
9791.000000;0.293559
9790.000000;0.293453
9789.000000;0.293236
9788.000000;0.293141
9787.000000;0.293192
9786.000000;0.293182
9785.000000;0.292892
9784.000000;0.292314
9783.000000;0.291662
9782.000000;0.291160
9781.000000;0.290852
9780.000000;0.290572
9779.000000;0.290077
9778.000000;0.289239
9777.000000;0.288229
9776.000000;0.287509
9775.000000;0.287495
9774.000000;0.288109
9773.000000;0.288789
9772.000000;0.289068
9771.000000;0.288992
9770.000000;0.288809
9769.000000;0.288388
9768.000000;0.287314
9767.000000;0.285592
9766.000000;0.283887
9765.000000;0.282895
9764.000000;0.282675
9763.000000;0.282812
9762.000000;0.282999
9761.000000;0.283190
9760.000000;0.283320
9759.000000;0.283249
9758.000000;0.283005
9757.000000;0.282796
9756.000000;0.282682
9755.000000;0.282472
9754.000000;0.282040
9753.000000;0.281537
9752.000000;0.281196
9751.000000;0.281062
9750.000000;0.281042
9749.000000;0.281057
9748.000000;0.280989
9747.000000;0.280656
9746.000000;0.280026
9745.000000;0.279354
9744.000000;0.278902
9743.000000;0.278631
9742.000000;0.278347
9741.000000;0.278079
9740.000000;0.278020
9739.000000;0.278132
9738.000000;0.278096
9737.000000;0.277716
9736.000000;0.277139
9735.000000;0.276566
9734.000000;0.276012
9733.000000;0.275466
9732.000000;0.275074
9731.000000;0.274931
9730.000000;0.274873
9729.000000;0.274701
9728.000000;0.274480
9727.000000;0.274369
9726.000000;0.274237
9725.000000;0.273790
9724.000000;0.273068
9723.000000;0.272491
9722.000000;0.272280
9721.000000;0.272109
9720.000000;0.271554
9719.000000;0.270727
9718.000000;0.270195
9717.000000;0.270317
9716.000000;0.270852
9715.000000;0.271247
9714.000000;0.271179
9713.000000;0.270780
9712.000000;0.270468
9711.000000;0.270591
9710.000000;0.271128
9709.000000;0.271651
9708.000000;0.271643
9707.000000;0.270936
9706.000000;0.269864
9705.000000;0.268966
9704.000000;0.268519
9703.000000;0.268374
9702.000000;0.268181
9701.000000;0.267760
9700.000000;0.267243
9699.000000;0.266899
9698.000000;0.266846
9697.000000;0.266944
9696.000000;0.266995
9695.000000;0.266993
9694.000000;0.267083
9693.000000;0.267264
9692.000000;0.267260
9691.000000;0.266788
9690.000000;0.265921
9689.000000;0.265043
9688.000000;0.264447
9687.000000;0.264078
9686.000000;0.263723
9685.000000;0.263294
9684.000000;0.262855
9683.000000;0.262455
9682.000000;0.262104
9681.000000;0.261846
9680.000000;0.261720
9679.000000;0.261624
9678.000000;0.261373
9677.000000;0.260951
9676.000000;0.260587
9675.000000;0.260465
9674.000000;0.260447
9673.000000;0.260200
9672.000000;0.259586
9671.000000;0.258814
9670.000000;0.258206
9669.000000;0.257886
9668.000000;0.257756
9667.000000;0.257688
9666.000000;0.257657
9665.000000;0.257671
9664.000000;0.257666
9663.000000;0.257521
9662.000000;0.257192
9661.000000;0.256787
9660.000000;0.256481
9659.000000;0.256312
9658.000000;0.256101
9657.000000;0.255628
9656.000000;0.254894
9655.000000;0.254164
9654.000000;0.253719
9653.000000;0.253586
9652.000000;0.253589
9651.000000;0.253590
9650.000000;0.253581
9649.000000;0.253550
9648.000000;0.253382
9647.000000;0.253004
9646.000000;0.252532
9645.000000;0.252176
9644.000000;0.251998
9643.000000;0.251870
9642.000000;0.251636
9641.000000;0.251250
9640.000000;0.250750
9639.000000;0.250200
9638.000000;0.249675
9637.000000;0.249238
9636.000000;0.248903
9635.000000;0.248674
9634.000000;0.248595
9633.000000;0.248681
9632.000000;0.248793
9631.000000;0.248727
9630.000000;0.248470
9629.000000;0.248237
9628.000000;0.248168
9627.000000;0.248136
9626.000000;0.247917
9625.000000;0.247445
9624.000000;0.246786
9623.000000;0.246009
9622.000000;0.245258
9621.000000;0.244836
9620.000000;0.244973
9619.000000;0.245491
9618.000000;0.245891
9617.000000;0.245842
9616.000000;0.245422
9615.000000;0.244874
9614.000000;0.244285
9613.000000;0.243650
9612.000000;0.243092
9611.000000;0.242834
9610.000000;0.242912
9609.000000;0.243053
9608.000000;0.242882
9607.000000;0.242301
9606.000000;0.241617
9605.000000;0.241272
9604.000000;0.241425
9603.000000;0.241816
9602.000000;0.242063
9601.000000;0.242006
9600.000000;0.241742
9599.000000;0.241403
9598.000000;0.241039
9597.000000;0.240658
9596.000000;0.240224
9595.000000;0.239616
9594.000000;0.238748
9593.000000;0.237779
9592.000000;0.237041
9591.000000;0.236695
9590.000000;0.236570
9589.000000;0.236403
9588.000000;0.236134
9587.000000;0.235888
9586.000000;0.235772
9585.000000;0.235787
9584.000000;0.235875
9583.000000;0.235959
9582.000000;0.235972
9581.000000;0.235924
9580.000000;0.235875
9579.000000;0.235780
9578.000000;0.235443
9577.000000;0.234733
9576.000000;0.233818
9575.000000;0.233037
9574.000000;0.232578
9573.000000;0.232349
9572.000000;0.232154
9571.000000;0.231891
9570.000000;0.231557
9569.000000;0.231198
9568.000000;0.230898
9567.000000;0.230734
9566.000000;0.230680
9565.000000;0.230586
9564.000000;0.230343
9563.000000;0.230032
9562.000000;0.229829
9561.000000;0.229787
9560.000000;0.229775
9559.000000;0.229641
9558.000000;0.229370
9557.000000;0.229054
9556.000000;0.228763
9555.000000;0.228533
9554.000000;0.228405
9553.000000;0.228364
9552.000000;0.228255
9551.000000;0.227892
9550.000000;0.227313
9549.000000;0.226809
9548.000000;0.226629
9547.000000;0.226687
9546.000000;0.226657
9545.000000;0.226287
9544.000000;0.225585
9543.000000;0.224776
9542.000000;0.224150
9541.000000;0.223908
9540.000000;0.224016
9539.000000;0.224241
9538.000000;0.224407
9537.000000;0.224550
9536.000000;0.224770
9535.000000;0.225012
9534.000000;0.225141
9533.000000;0.225142
9532.000000;0.225048
9531.000000;0.224724
9530.000000;0.223975
9529.000000;0.222890
9528.000000;0.221868
9527.000000;0.221227
9526.000000;0.220959
9525.000000;0.220948
9524.000000;0.221179
9523.000000;0.221584
9522.000000;0.221852
9521.000000;0.221669
9520.000000;0.221100
9519.000000;0.220533
9518.000000;0.220228
9517.000000;0.220088
9516.000000;0.219910
9515.000000;0.219688
9514.000000;0.219555
9513.000000;0.219510
9512.000000;0.219323
9511.000000;0.218778
9510.000000;0.217988
9509.000000;0.217390
9508.000000;0.217362
9507.000000;0.217834
9506.000000;0.218323
9505.000000;0.218383
9504.000000;0.217994
9503.000000;0.217492
9502.000000;0.217199
9501.000000;0.217169
9500.000000;0.217247
9499.000000;0.217277
9498.000000;0.217189
9497.000000;0.216946
9496.000000;0.216494
9495.000000;0.215855
9494.000000;0.215243
9493.000000;0.214920
9492.000000;0.214878
9491.000000;0.214764
9490.000000;0.214260
9489.000000;0.213473
9488.000000;0.212804
9487.000000;0.212495
9486.000000;0.212453
9485.000000;0.212488
9484.000000;0.212506
9483.000000;0.212445
9482.000000;0.212254
9481.000000;0.212001
9480.000000;0.211833
9479.000000;0.211721
9478.000000;0.211403
9477.000000;0.210720
9476.000000;0.209899
9475.000000;0.209364
9474.000000;0.209319
9473.000000;0.209610
9472.000000;0.209892
9471.000000;0.209856
9470.000000;0.209413
9469.000000;0.208809
9468.000000;0.208478
9467.000000;0.208656
9466.000000;0.209152
9465.000000;0.209570
9464.000000;0.209645
9463.000000;0.209296
9462.000000;0.208541
9461.000000;0.207572
9460.000000;0.206815
9459.000000;0.206664
9458.000000;0.207108
9457.000000;0.207740
9456.000000;0.208135
9455.000000;0.208132
9454.000000;0.207810
9453.000000;0.207364
9452.000000;0.206993
9451.000000;0.206778
9450.000000;0.206617
9449.000000;0.206381
9448.000000;0.206114
9447.000000;0.205978
9446.000000;0.206020
9445.000000;0.206128
9444.000000;0.206205
9443.000000;0.206227
9442.000000;0.206097
9441.000000;0.205615
9440.000000;0.204703
9439.000000;0.203585
9438.000000;0.202664
9437.000000;0.202215
9436.000000;0.202215
9435.000000;0.202403
9434.000000;0.202481
9433.000000;0.202319
9432.000000;0.202006
9431.000000;0.201714
9430.000000;0.201525
9429.000000;0.201400
9428.000000;0.201292
9427.000000;0.201182
9426.000000;0.201045
9425.000000;0.200838
9424.000000;0.200527
9423.000000;0.200071
9422.000000;0.199425
9421.000000;0.198649
9420.000000;0.197999
9419.000000;0.197764
9418.000000;0.197984
9417.000000;0.198437
9416.000000;0.198931
9415.000000;0.199472
9414.000000;0.200049
9413.000000;0.200400
9412.000000;0.200184
9411.000000;0.199392
9410.000000;0.198410
9409.000000;0.197634
9408.000000;0.197123
9407.000000;0.196730
9406.000000;0.196445
9405.000000;0.196425
9404.000000;0.196651
9403.000000;0.196801
9402.000000;0.196589
9401.000000;0.196122
9400.000000;0.195731
9399.000000;0.195513
9398.000000;0.195257
9397.000000;0.194814
9396.000000;0.194303
9395.000000;0.193885
9394.000000;0.193552
9393.000000;0.193284
9392.000000;0.193211
9391.000000;0.193390
9390.000000;0.193569
9389.000000;0.193430
9388.000000;0.193025
9387.000000;0.192722
9386.000000;0.192727
9385.000000;0.192880
9384.000000;0.192940
9383.000000;0.192863
9382.000000;0.192714
9381.000000;0.192515
9380.000000;0.192285
9379.000000;0.192059
9378.000000;0.191785
9377.000000;0.191333
9376.000000;0.190726
9375.000000;0.190258
9374.000000;0.190211
9373.000000;0.190526
9372.000000;0.190884
9371.000000;0.191063
9370.000000;0.191114
9369.000000;0.191168
9368.000000;0.191230
9367.000000;0.191171
9366.000000;0.190885
9365.000000;0.190390
9364.000000;0.189818
9363.000000;0.189339
9362.000000;0.189071
9361.000000;0.189039
9360.000000;0.189184
9359.000000;0.189382
9358.000000;0.189470
9357.000000;0.189322
9356.000000;0.188945
9355.000000;0.188490
9354.000000;0.188124
9353.000000;0.187887
9352.000000;0.187686
9351.000000;0.187400
9350.000000;0.186977
9349.000000;0.186435
9348.000000;0.185811
9347.000000;0.185158
9346.000000;0.184586
9345.000000;0.184275
9344.000000;0.184346
9343.000000;0.184710
9342.000000;0.185083
9341.000000;0.185235
9340.000000;0.185197
9339.000000;0.185195
9338.000000;0.185367
9337.000000;0.185614
9336.000000;0.185739
9335.000000;0.185655
9334.000000;0.185438
9333.000000;0.185209
9332.000000;0.185004
9331.000000;0.184754
9330.000000;0.184393
9329.000000;0.183960
9328.000000;0.183608
9327.000000;0.183468
9326.000000;0.183520
9325.000000;0.183634
9324.000000;0.183698
9323.000000;0.183666
9322.000000;0.183489
9321.000000;0.183116
9320.000000;0.182604
9319.000000;0.182141
9318.000000;0.181876
9317.000000;0.181713
9316.000000;0.181396
9315.000000;0.180820
9314.000000;0.180202
9313.000000;0.179857
9312.000000;0.179841
9311.000000;0.179890
9310.000000;0.179741
9309.000000;0.179399
9308.000000;0.179071
9307.000000;0.178902
9306.000000;0.178892
9305.000000;0.178999
9304.000000;0.179194
9303.000000;0.179430
9302.000000;0.179645
9301.000000;0.179804
9300.000000;0.179841
9299.000000;0.179605
9298.000000;0.179022
9297.000000;0.178320
9296.000000;0.177930
9295.000000;0.178039
9294.000000;0.178375
9293.000000;0.178500
9292.000000;0.178227
9291.000000;0.177681
9290.000000;0.177106
9289.000000;0.176720
9288.000000;0.176613
9287.000000;0.176664
9286.000000;0.176617
9285.000000;0.176389
9284.000000;0.176184
9283.000000;0.176198
9282.000000;0.176318
9281.000000;0.176319
9280.000000;0.176208
9279.000000;0.176149
9278.000000;0.176115
9277.000000;0.175880
9276.000000;0.175381
9275.000000;0.174819
9274.000000;0.174376
9273.000000;0.174045
9272.000000;0.173805
9271.000000;0.173715
9270.000000;0.173749
9269.000000;0.173738
9268.000000;0.173615
9267.000000;0.173520
9266.000000;0.173541
9265.000000;0.173507
9264.000000;0.173226
9263.000000;0.172813
9262.000000;0.172599
9261.000000;0.172766
9260.000000;0.173168
9259.000000;0.173483
9258.000000;0.173401
9257.000000;0.172783
9256.000000;0.171792
9255.000000;0.170855
9254.000000;0.170374
9253.000000;0.170438
9252.000000;0.170860
9251.000000;0.171393
9250.000000;0.171801
9249.000000;0.171838
9248.000000;0.171347
9247.000000;0.170457
9246.000000;0.169545
9245.000000;0.168963
9244.000000;0.168824
9243.000000;0.169017
9242.000000;0.169349
9241.000000;0.169661
9240.000000;0.169903
9239.000000;0.170128
9238.000000;0.170378
9237.000000;0.170575
9236.000000;0.170585
9235.000000;0.170398
9234.000000;0.170156
9233.000000;0.169998
9232.000000;0.169915
9231.000000;0.169800
9230.000000;0.169596
9229.000000;0.169337
9228.000000;0.169061
9227.000000;0.168724
9226.000000;0.168246
9225.000000;0.167665
9224.000000;0.167204
9223.000000;0.167108
9222.000000;0.167379
9221.000000;0.167698
9220.000000;0.167684
9219.000000;0.167227
9218.000000;0.166579
9217.000000;0.166136
9216.000000;0.166143
9215.000000;0.166553
9214.000000;0.167127
9213.000000;0.167626
9212.000000;0.167920
9211.000000;0.167930
9210.000000;0.167575
9209.000000;0.166885
9208.000000;0.166165
9207.000000;0.165865
9206.000000;0.166161
9205.000000;0.166724
9204.000000;0.166985
9203.000000;0.166641
9202.000000;0.165854
9201.000000;0.165014
9200.000000;0.164387
9199.000000;0.163988
9198.000000;0.163711
9197.000000;0.163525
9196.000000;0.163515
9195.000000;0.163745
9194.000000;0.164097
9193.000000;0.164315
9192.000000;0.164229
9191.000000;0.163897
9190.000000;0.163541
9189.000000;0.163381
9188.000000;0.163492
9187.000000;0.163739
9186.000000;0.163816
9185.000000;0.163487
9184.000000;0.162858
9183.000000;0.162305
9182.000000;0.162069
9181.000000;0.162006
9180.000000;0.161819
9179.000000;0.161424
9178.000000;0.160960
9177.000000;0.160530
9176.000000;0.160145
9175.000000;0.159882
9174.000000;0.159913
9173.000000;0.160311
9172.000000;0.160923
9171.000000;0.161477
9170.000000;0.161716
9169.000000;0.161464
9168.000000;0.160750
9167.000000;0.159920
9166.000000;0.159466
9165.000000;0.159597
9164.000000;0.160045
9163.000000;0.160373
9162.000000;0.160422
9161.000000;0.160351
9160.000000;0.160336
9159.000000;0.160373
9158.000000;0.160356
9157.000000;0.160224
9156.000000;0.159965
9155.000000;0.159571
9154.000000;0.159109
9153.000000;0.158800
9152.000000;0.158894
9151.000000;0.159403
9150.000000;0.159997
9149.000000;0.160254
9148.000000;0.160016
9147.000000;0.159459
9146.000000;0.158844
9145.000000;0.158322
9144.000000;0.157990
9143.000000;0.157959
9142.000000;0.158203
9141.000000;0.158413
9140.000000;0.158231
9139.000000;0.157675
9138.000000;0.157139
9137.000000;0.156929
9136.000000;0.156926
9135.000000;0.156835
9134.000000;0.156626
9133.000000;0.156537
9132.000000;0.156695
9131.000000;0.156937
9130.000000;0.157034
9129.000000;0.156960
9128.000000;0.156830
9127.000000;0.156696
9126.000000;0.156542
9125.000000;0.156426
9124.000000;0.156491
9123.000000;0.156753
9122.000000;0.156973
9121.000000;0.156859
9120.000000;0.156397
9119.000000;0.155882
9118.000000;0.155602
9117.000000;0.155561
9116.000000;0.155569
9115.000000;0.155532
9114.000000;0.155510
9113.000000;0.155518
9112.000000;0.155404
9111.000000;0.155031
9110.000000;0.154517
9109.000000;0.154170
9108.000000;0.154177
9107.000000;0.154409
9106.000000;0.154559
9105.000000;0.154422
9104.000000;0.154046
9103.000000;0.153659
9102.000000;0.153466
9101.000000;0.153488
9100.000000;0.153545
9099.000000;0.153431
9098.000000;0.153130
9097.000000;0.152842
9096.000000;0.152769
9095.000000;0.152919
9094.000000;0.153137
9093.000000;0.153290
9092.000000;0.153337
9091.000000;0.153253
9090.000000;0.152997
9089.000000;0.152623
9088.000000;0.152332
9087.000000;0.152320
9086.000000;0.152595
9085.000000;0.152985
9084.000000;0.153270
9083.000000;0.153263
9082.000000;0.152863
9081.000000;0.152185
9080.000000;0.151607
9079.000000;0.151502
9078.000000;0.151865
9077.000000;0.152280
9076.000000;0.152330
9075.000000;0.151953
9074.000000;0.151392
9073.000000;0.150905
9072.000000;0.150604
9071.000000;0.150478
9070.000000;0.150461
9069.000000;0.150489
9068.000000;0.150559
9067.000000;0.150705
9066.000000;0.150897
9065.000000;0.151014
9064.000000;0.150984
9063.000000;0.150859
9062.000000;0.150710
9061.000000;0.150521
9060.000000;0.150272
9059.000000;0.150046
9058.000000;0.149950
9057.000000;0.149989
9056.000000;0.150097
9055.000000;0.150225
9054.000000;0.150287
9053.000000;0.150127
9052.000000;0.149709
9051.000000;0.149283
9050.000000;0.149176
9049.000000;0.149386
9048.000000;0.149573
9047.000000;0.149495
9046.000000;0.149285
9045.000000;0.149231
9044.000000;0.149423
9043.000000;0.149709
9042.000000;0.149888
9041.000000;0.149845
9040.000000;0.149576
9039.000000;0.149203
9038.000000;0.148948
9037.000000;0.148995
9036.000000;0.149345
9035.000000;0.149772
9034.000000;0.149916
9033.000000;0.149504
9032.000000;0.148626
9031.000000;0.147792
9030.000000;0.147537
9029.000000;0.147909
9028.000000;0.148433
9027.000000;0.148632
9026.000000;0.148435
9025.000000;0.148062
9024.000000;0.147688
9023.000000;0.147397
9022.000000;0.147288
9021.000000;0.147400
9020.000000;0.147534
9019.000000;0.147370
9018.000000;0.146837
9017.000000;0.146265
9016.000000;0.146104
9015.000000;0.146493
9014.000000;0.147106
9013.000000;0.147417
9012.000000;0.147130
9011.000000;0.146432
9010.000000;0.145801
9009.000000;0.145586
9008.000000;0.145777
9007.000000;0.146174
9006.000000;0.146623
9005.000000;0.147034
9004.000000;0.147297
9003.000000;0.147326
9002.000000;0.147130
9001.000000;0.146745
9000.000000;0.146167
8999.000000;0.145464
8998.000000;0.144889
8997.000000;0.144709
8996.000000;0.144907
8995.000000;0.145191
8994.000000;0.145315
8993.000000;0.145295
8992.000000;0.145301
8991.000000;0.145428
8990.000000;0.145617
8989.000000;0.145725
8988.000000;0.145649
8987.000000;0.145399
8986.000000;0.145050
8985.000000;0.144606
8984.000000;0.144015
8983.000000;0.143383
8982.000000;0.143064
8981.000000;0.143337
8980.000000;0.144062
8979.000000;0.144818
8978.000000;0.145342
8977.000000;0.145642
8976.000000;0.145734
8975.000000;0.145548
8974.000000;0.145165
8973.000000;0.144895
8972.000000;0.144941
8971.000000;0.145187
8970.000000;0.145425
8969.000000;0.145622
8968.000000;0.145769
8967.000000;0.145686
8966.000000;0.145230
8965.000000;0.144645
8964.000000;0.144380
8963.000000;0.144555
8962.000000;0.144825
8961.000000;0.144830
8960.000000;0.144570
8959.000000;0.144285
8958.000000;0.144161
8957.000000;0.144275
8956.000000;0.144650
8955.000000;0.145158
8954.000000;0.145452
8953.000000;0.145212
8952.000000;0.144489
8951.000000;0.143696
8950.000000;0.143218
8949.000000;0.143120
8948.000000;0.143247
8947.000000;0.143490
8946.000000;0.143843
8945.000000;0.144230
8944.000000;0.144411
8943.000000;0.144160
8942.000000;0.143547
8941.000000;0.142980
8940.000000;0.142880
8939.000000;0.143307
8938.000000;0.143910
8937.000000;0.144288
8936.000000;0.144352
8935.000000;0.144318
8934.000000;0.144391
8933.000000;0.144522
8932.000000;0.144502
8931.000000;0.144212
8930.000000;0.143732
8929.000000;0.143227
8928.000000;0.142825
8927.000000;0.142626
8926.000000;0.142719
8925.000000;0.143096
8924.000000;0.143548
8923.000000;0.143763
8922.000000;0.143596
8921.000000;0.143209
8920.000000;0.142897
8919.000000;0.142804
8918.000000;0.142839
8917.000000;0.142833
8916.000000;0.142703
8915.000000;0.142463
8914.000000;0.142163
8913.000000;0.141873
8912.000000;0.141700
8911.000000;0.141745
8910.000000;0.142023
8909.000000;0.142453
8908.000000;0.142906
8907.000000;0.143261
8906.000000;0.143436
8905.000000;0.143398
8904.000000;0.143167
8903.000000;0.142805
8902.000000;0.142413
8901.000000;0.142150
8900.000000;0.142179
8899.000000;0.142528
8898.000000;0.143005
8897.000000;0.143339
8896.000000;0.143409
8895.000000;0.143298
8894.000000;0.143100
8893.000000;0.142821
8892.000000;0.142500
8891.000000;0.142335
8890.000000;0.142530
8889.000000;0.143015
8888.000000;0.143438
8887.000000;0.143481
8886.000000;0.143164
8885.000000;0.142818
8884.000000;0.142795
8883.000000;0.143175
8882.000000;0.143692
8881.000000;0.143952
8880.000000;0.143784
8879.000000;0.143357
8878.000000;0.142931
8877.000000;0.142554
8876.000000;0.142131
8875.000000;0.141720
8874.000000;0.141577
8873.000000;0.141839
8872.000000;0.142332
8871.000000;0.142785
8870.000000;0.143104
8869.000000;0.143313
8868.000000;0.143364
8867.000000;0.143204
8866.000000;0.142982
8865.000000;0.142966
8864.000000;0.143223
8863.000000;0.143513
8862.000000;0.143578
8861.000000;0.143413
8860.000000;0.143202
8859.000000;0.143079
8858.000000;0.143047
8857.000000;0.143075
8856.000000;0.143189
8855.000000;0.143444
8854.000000;0.143841
8853.000000;0.144256
8852.000000;0.144453
8851.000000;0.144230
8850.000000;0.143615
8849.000000;0.142896
8848.000000;0.142416
8847.000000;0.142331
8846.000000;0.142573
8845.000000;0.142996
8844.000000;0.143490
8843.000000;0.143971
8842.000000;0.144353
8841.000000;0.144613
8840.000000;0.144852
8839.000000;0.145186
8838.000000;0.145527
8837.000000;0.145584
8836.000000;0.145174
8835.000000;0.144539
8834.000000;0.144177
8833.000000;0.144344
8832.000000;0.144800
8831.000000;0.145132
8830.000000;0.145199
8829.000000;0.145163
8828.000000;0.145179
8827.000000;0.145222
8826.000000;0.145203
8825.000000;0.145096
8824.000000;0.144922
8823.000000;0.144726
8822.000000;0.144628
8821.000000;0.144773
8820.000000;0.145159
8819.000000;0.145576
8818.000000;0.145781
8817.000000;0.145716
8816.000000;0.145526
8815.000000;0.145412
8814.000000;0.145484
8813.000000;0.145708
8812.000000;0.145950
8811.000000;0.146093
8810.000000;0.146149
8809.000000;0.146223
8808.000000;0.146375
8807.000000;0.146587
8806.000000;0.146845
8805.000000;0.147156
8804.000000;0.147450
8803.000000;0.147604
8802.000000;0.147633
8801.000000;0.147766
8800.000000;0.148186
8799.000000;0.148759
8798.000000;0.149165
8797.000000;0.149281
8796.000000;0.149315
8795.000000;0.149513
8794.000000;0.149851
8793.000000;0.150104
8792.000000;0.150138
8791.000000;0.150042
8790.000000;0.149968
8789.000000;0.149937
8788.000000;0.149835
8787.000000;0.149603
8786.000000;0.149365
8785.000000;0.149342
8784.000000;0.149634
8783.000000;0.150111
8782.000000;0.150543
8781.000000;0.150816
8780.000000;0.151004
8779.000000;0.151245
8778.000000;0.151585
8777.000000;0.151940
8776.000000;0.152189
8775.000000;0.152280
8774.000000;0.152269
8773.000000;0.152278
8772.000000;0.152420
8771.000000;0.152719
8770.000000;0.153086
8769.000000;0.153362
8768.000000;0.153430
8767.000000;0.153312
8766.000000;0.153182
8765.000000;0.153245
8764.000000;0.153604
8763.000000;0.154196
8762.000000;0.154834
8761.000000;0.155304
8760.000000;0.155481
8759.000000;0.155426
8758.000000;0.155356
8757.000000;0.155481
8756.000000;0.155838
8755.000000;0.156293
8754.000000;0.156665
8753.000000;0.156864
8752.000000;0.156942
8751.000000;0.157060
8750.000000;0.157393
8749.000000;0.157987
8748.000000;0.158698
8747.000000;0.159291
8746.000000;0.159582
8745.000000;0.159480
8744.000000;0.158982
8743.000000;0.158260
8742.000000;0.157707
8741.000000;0.157690
8740.000000;0.158194
8739.000000;0.158798
8738.000000;0.159114
8737.000000;0.159188
8736.000000;0.159370
8735.000000;0.159880
8734.000000;0.160587
8733.000000;0.161167
8732.000000;0.161380
8731.000000;0.161221
8730.000000;0.160922
8729.000000;0.160813
8728.000000;0.161061
8727.000000;0.161520
8726.000000;0.161899
8725.000000;0.162100
8724.000000;0.162316
8723.000000;0.162778
8722.000000;0.163485
8721.000000;0.164199
8720.000000;0.164662
8719.000000;0.164771
8718.000000;0.164620
8717.000000;0.164448
8716.000000;0.164504
8715.000000;0.164873
8714.000000;0.165388
8713.000000;0.165767
8712.000000;0.165860
8711.000000;0.165768
8710.000000;0.165716
8709.000000;0.165837
8708.000000;0.166075
8707.000000;0.166288
8706.000000;0.166410
8705.000000;0.166486
8704.000000;0.166583
8703.000000;0.166747
8702.000000;0.167037
8701.000000;0.167519
8700.000000;0.168161
8699.000000;0.168775
8698.000000;0.169151
8697.000000;0.169237
8696.000000;0.169132
8695.000000;0.168938
8694.000000;0.168713
8693.000000;0.168545
8692.000000;0.168547
8691.000000;0.168718
8690.000000;0.168927
8689.000000;0.169090
8688.000000;0.169303
8687.000000;0.169675
8686.000000;0.170101
8685.000000;0.170312
8684.000000;0.170199
8683.000000;0.169984
8682.000000;0.170017
8681.000000;0.170440
8680.000000;0.171073
8679.000000;0.171598
8678.000000;0.171830
8677.000000;0.171844
8676.000000;0.171860
8675.000000;0.172032
8674.000000;0.172320
8673.000000;0.172575
8672.000000;0.172701
8671.000000;0.172719
8670.000000;0.172707
8669.000000;0.172744
8668.000000;0.172890
8667.000000;0.173135
8666.000000;0.173371
8665.000000;0.173484
8664.000000;0.173498
8663.000000;0.173559
8662.000000;0.173726
8661.000000;0.173857
8660.000000;0.173815
8659.000000;0.173698
8658.000000;0.173758
8657.000000;0.174053
8656.000000;0.174348
8655.000000;0.174404
8654.000000;0.174276
8653.000000;0.174206
8652.000000;0.174282
8651.000000;0.174330
8650.000000;0.174173
8649.000000;0.173894
8648.000000;0.173768
8647.000000;0.173980
8646.000000;0.174468
8645.000000;0.175006
8644.000000;0.175374
8643.000000;0.175478
8642.000000;0.175392
8641.000000;0.175330
8640.000000;0.175498
8639.000000;0.175919
8638.000000;0.176408
8637.000000;0.176731
8636.000000;0.176792
8635.000000;0.176649
8634.000000;0.176427
8633.000000;0.176255
8632.000000;0.176247
8631.000000;0.176425
8630.000000;0.176659
8629.000000;0.176741
8628.000000;0.176586
8627.000000;0.176330
8626.000000;0.176208
8625.000000;0.176321
8624.000000;0.176540
8623.000000;0.176629
8622.000000;0.176465
8621.000000;0.176172
8620.000000;0.176012
8619.000000;0.176142
8618.000000;0.176481
8617.000000;0.176822
8616.000000;0.177022
8615.000000;0.177047
8614.000000;0.176906
8613.000000;0.176665
8612.000000;0.176503
8611.000000;0.176608
8610.000000;0.176950
8609.000000;0.177269
8608.000000;0.177336
8607.000000;0.177189
8606.000000;0.177050
8605.000000;0.177098
8604.000000;0.177365
8603.000000;0.177769
8602.000000;0.178154
8601.000000;0.178358
8600.000000;0.178344
8599.000000;0.178243
8598.000000;0.178221
8597.000000;0.178307
8596.000000;0.178395
8595.000000;0.178344
8594.000000;0.178035
8593.000000;0.177462
8592.000000;0.176852
8591.000000;0.176595
8590.000000;0.176873
8589.000000;0.177436
8588.000000;0.177882
8587.000000;0.178115
8586.000000;0.178326
8585.000000;0.178593
8584.000000;0.178727
8583.000000;0.178594
8582.000000;0.178357
8581.000000;0.178298
8580.000000;0.178502
8579.000000;0.178822
8578.000000;0.179042
8577.000000;0.179003
8576.000000;0.178683
8575.000000;0.178258
8574.000000;0.178019
8573.000000;0.178112
8572.000000;0.178420
8571.000000;0.178723
8570.000000;0.178923
8569.000000;0.179039
8568.000000;0.179100
8567.000000;0.179117
8566.000000;0.179098
8565.000000;0.179011
8564.000000;0.178808
8563.000000;0.178567
8562.000000;0.178489
8561.000000;0.178665
8560.000000;0.178925
8559.000000;0.179022
8558.000000;0.178906
8557.000000;0.178701
8556.000000;0.178486
8555.000000;0.178261
8554.000000;0.178089
8553.000000;0.178110
8552.000000;0.178383
8551.000000;0.178806
8550.000000;0.179205
8549.000000;0.179426
8548.000000;0.179391
8547.000000;0.179158
8546.000000;0.178935
8545.000000;0.178926
8544.000000;0.179158
8543.000000;0.179487
8542.000000;0.179772
8541.000000;0.179952
8540.000000;0.179989
8539.000000;0.179879
8538.000000;0.179715
8537.000000;0.179642
8536.000000;0.179700
8535.000000;0.179770
8534.000000;0.179720
8533.000000;0.179524
8532.000000;0.179261
8531.000000;0.179043
8530.000000;0.178981
8529.000000;0.179116
8528.000000;0.179343
8527.000000;0.179461
8526.000000;0.179346
8525.000000;0.179085
8524.000000;0.178914
8523.000000;0.179035
8522.000000;0.179459
8521.000000;0.179981
8520.000000;0.180345
8519.000000;0.180481
8518.000000;0.180559
8517.000000;0.180745
8516.000000;0.180936
8515.000000;0.180868
8514.000000;0.180460
8513.000000;0.179941
8512.000000;0.179585
8511.000000;0.179436
8510.000000;0.179374
8509.000000;0.179348
8508.000000;0.179443
8507.000000;0.179740
8506.000000;0.180198
8505.000000;0.180664
8504.000000;0.180974
8503.000000;0.181034
8502.000000;0.180872
8501.000000;0.180608
8500.000000;0.180379
8499.000000;0.180267
8498.000000;0.180299
8497.000000;0.180477
8496.000000;0.180772
8495.000000;0.181106
8494.000000;0.181382
8493.000000;0.181541
8492.000000;0.181580
8491.000000;0.181509
8490.000000;0.181302
8489.000000;0.180913
8488.000000;0.180396
8487.000000;0.179969
8486.000000;0.179868
8485.000000;0.180110
8484.000000;0.180459
8483.000000;0.180670
8482.000000;0.180708
8481.000000;0.180689
8480.000000;0.180667
8479.000000;0.180621
8478.000000;0.180576
8477.000000;0.180602
8476.000000;0.180686
8475.000000;0.180734
8474.000000;0.180751
8473.000000;0.180865
8472.000000;0.181106
8471.000000;0.181292
8470.000000;0.181248
8469.000000;0.181073
8468.000000;0.181038
8467.000000;0.181244
8466.000000;0.181523
8465.000000;0.181689
8464.000000;0.181772
8463.000000;0.181910
8462.000000;0.182081
8461.000000;0.182087
8460.000000;0.181823
8459.000000;0.181455
8458.000000;0.181246
8457.000000;0.181262
8456.000000;0.181340
8455.000000;0.181346
8454.000000;0.181345
8453.000000;0.181478
8452.000000;0.181746
8451.000000;0.182025
8450.000000;0.182221
8449.000000;0.182337
8448.000000;0.182408
8447.000000;0.182460
8446.000000;0.182527
8445.000000;0.182616
8444.000000;0.182655
8443.000000;0.182562
8442.000000;0.182396
8441.000000;0.182331
8440.000000;0.182442
8439.000000;0.182587
8438.000000;0.182586
8437.000000;0.182448
8436.000000;0.182348
8435.000000;0.182401
8434.000000;0.182538
8433.000000;0.182611
8432.000000;0.182558
8431.000000;0.182454
8430.000000;0.182438
8429.000000;0.182600
8428.000000;0.182904
8427.000000;0.183193
8426.000000;0.183291
8425.000000;0.183146
8424.000000;0.182902
8423.000000;0.182797
8422.000000;0.182959
8421.000000;0.183296
8420.000000;0.183604
8419.000000;0.183776
8418.000000;0.183869
8417.000000;0.183963
8416.000000;0.184011
8415.000000;0.183900
8414.000000;0.183626
8413.000000;0.183335
8412.000000;0.183209
8411.000000;0.183338
8410.000000;0.183686
8409.000000;0.184128
8408.000000;0.184500
8407.000000;0.184692
8406.000000;0.184732
8405.000000;0.184733
8404.000000;0.184766
8403.000000;0.184789
8402.000000;0.184737
8401.000000;0.184627
8400.000000;0.184558
8399.000000;0.184607
8398.000000;0.184767
8397.000000;0.184949
8396.000000;0.185050
8395.000000;0.185025
8394.000000;0.184918
8393.000000;0.184827
8392.000000;0.184836
8391.000000;0.184981
8390.000000;0.185248
8389.000000;0.185575
8388.000000;0.185863
8387.000000;0.186028
8386.000000;0.186051
8385.000000;0.185954
8384.000000;0.185757
8383.000000;0.185475
8382.000000;0.185166
8381.000000;0.184922
8380.000000;0.184790
8379.000000;0.184735
8378.000000;0.184721
8377.000000;0.184775
8376.000000;0.184962
8375.000000;0.185253
8374.000000;0.185489
8373.000000;0.185483
8372.000000;0.185219
8371.000000;0.184919
8370.000000;0.184890
8369.000000;0.185243
8368.000000;0.185775
8367.000000;0.186151
8366.000000;0.186206
8365.000000;0.186048
8364.000000;0.185918
8363.000000;0.185974
8362.000000;0.186214
8361.000000;0.186517
8360.000000;0.186754
8359.000000;0.186864
8358.000000;0.186863
8357.000000;0.186796
8356.000000;0.186682
8355.000000;0.186545
8354.000000;0.186431
8353.000000;0.186372
8352.000000;0.186343
8351.000000;0.186326
8350.000000;0.186390
8349.000000;0.186636
8348.000000;0.187019
8347.000000;0.187327
8346.000000;0.187395
8345.000000;0.187285
8344.000000;0.187205
8343.000000;0.187241
8342.000000;0.187278
8341.000000;0.187172
8340.000000;0.186961
8339.000000;0.186851
8338.000000;0.187005
8337.000000;0.187367
8336.000000;0.187702
8335.000000;0.187788
8334.000000;0.187572
8333.000000;0.187177
8332.000000;0.186786
8331.000000;0.186530
8330.000000;0.186454
8329.000000;0.186562
8328.000000;0.186832
8327.000000;0.187215
8326.000000;0.187616
8325.000000;0.187942
8324.000000;0.188149
8323.000000;0.188245
8322.000000;0.188241
8321.000000;0.188145
8320.000000;0.187995
8319.000000;0.187860
8318.000000;0.187747
8317.000000;0.187580
8316.000000;0.187344
8315.000000;0.187215
8314.000000;0.187402
8313.000000;0.187850
8312.000000;0.188205
8311.000000;0.188189
8310.000000;0.187898
8309.000000;0.187662
8308.000000;0.187641
8307.000000;0.187712
8306.000000;0.187736
8305.000000;0.187791
8304.000000;0.188045
8303.000000;0.188464
8302.000000;0.188770
8301.000000;0.188723
8300.000000;0.188383
8299.000000;0.188044
8298.000000;0.187932
8297.000000;0.188028
8296.000000;0.188182
8295.000000;0.188308
8294.000000;0.188389
8293.000000;0.188375
8292.000000;0.188237
8291.000000;0.188113
8290.000000;0.188256
8289.000000;0.188738
8288.000000;0.189301
8287.000000;0.189606
8286.000000;0.189570
8285.000000;0.189370
8284.000000;0.189189
8283.000000;0.189075
8282.000000;0.189016
8281.000000;0.189030
8280.000000;0.189132
8279.000000;0.189298
8278.000000;0.189478
8277.000000;0.189617
8276.000000;0.189651
8275.000000;0.189552
8274.000000;0.189377
8273.000000;0.189244
8272.000000;0.189258
8271.000000;0.189448
8270.000000;0.189757
8269.000000;0.190046
8268.000000;0.190173
8267.000000;0.190132
8266.000000;0.190074
8265.000000;0.190118
8264.000000;0.190184
8263.000000;0.190104
8262.000000;0.189877
8261.000000;0.189696
8260.000000;0.189707
8259.000000;0.189836
8258.000000;0.189905
8257.000000;0.189840
8256.000000;0.189722
8255.000000;0.189672
8254.000000;0.189726
8253.000000;0.189826
8252.000000;0.189902
8251.000000;0.189951
8250.000000;0.190026
8249.000000;0.190129
8248.000000;0.190173
8247.000000;0.190102
8246.000000;0.189991
8245.000000;0.189985
8244.000000;0.190134
8243.000000;0.190376
8242.000000;0.190630
8241.000000;0.190853
8240.000000;0.191004
8239.000000;0.191063
8238.000000;0.191095
8237.000000;0.191196
8236.000000;0.191362
8235.000000;0.191475
8234.000000;0.191459
8233.000000;0.191369
8232.000000;0.191298
8231.000000;0.191276
8230.000000;0.191297
8229.000000;0.191378
8228.000000;0.191533
8227.000000;0.191707
8226.000000;0.191792
8225.000000;0.191722
8224.000000;0.191534
8223.000000;0.191353
8222.000000;0.191304
8221.000000;0.191429
8220.000000;0.191683
8219.000000;0.192015
8218.000000;0.192395
8217.000000;0.192734
8216.000000;0.192839
8215.000000;0.192566
8214.000000;0.192043
8213.000000;0.191615
8212.000000;0.191541
8211.000000;0.191790
8210.000000;0.192146
8209.000000;0.192446
8208.000000;0.192650
8207.000000;0.192778
8206.000000;0.192852
8205.000000;0.192915
8204.000000;0.193026
8203.000000;0.193213
8202.000000;0.193424
8201.000000;0.193530
8200.000000;0.193417
8199.000000;0.193104
8198.000000;0.192755
8197.000000;0.192530
8196.000000;0.192448
8195.000000;0.192446
8194.000000;0.192538
8193.000000;0.192793
8192.000000;0.193158
8191.000000;0.193424
8190.000000;0.193434
8189.000000;0.193260
8188.000000;0.193114
8187.000000;0.193115
8186.000000;0.193209
8185.000000;0.193282
8184.000000;0.193295
8183.000000;0.193315
8182.000000;0.193422
8181.000000;0.193585
8180.000000;0.193645
8179.000000;0.193480
8178.000000;0.193181
8177.000000;0.193002
8176.000000;0.193101
8175.000000;0.193369
8174.000000;0.193577
8173.000000;0.193615
8172.000000;0.193555
8171.000000;0.193537
8170.000000;0.193651
8169.000000;0.193896
8168.000000;0.194179
8167.000000;0.194362
8166.000000;0.194374
8165.000000;0.194290
8164.000000;0.194256
8163.000000;0.194347
8162.000000;0.194515
8161.000000;0.194688
8160.000000;0.194852
8159.000000;0.195018
8158.000000;0.195148
8157.000000;0.195169
8156.000000;0.195079
8155.000000;0.195003
8154.000000;0.195097
8153.000000;0.195388
8152.000000;0.195732
8151.000000;0.195946
8150.000000;0.195960
8149.000000;0.195817
8148.000000;0.195579
8147.000000;0.195295
8146.000000;0.195052
8145.000000;0.194979
8144.000000;0.195165
8143.000000;0.195582
8142.000000;0.196094
8141.000000;0.196523
8140.000000;0.196724
8139.000000;0.196676
8138.000000;0.196498
8137.000000;0.196355
8136.000000;0.196321
8135.000000;0.196350
8134.000000;0.196371
8133.000000;0.196335
8132.000000;0.196196
8131.000000;0.195937
8130.000000;0.195669
8129.000000;0.195610
8128.000000;0.195880
8127.000000;0.196347
8126.000000;0.196723
8125.000000;0.196809
8124.000000;0.196627
8123.000000;0.196341
8122.000000;0.196135
8121.000000;0.196129
8120.000000;0.196341
8119.000000;0.196666
8118.000000;0.196939
8117.000000;0.197064
8116.000000;0.197100
8115.000000;0.197203
8114.000000;0.197460
8113.000000;0.197781
8112.000000;0.197971
8111.000000;0.197921
8110.000000;0.197708
8109.000000;0.197511
8108.000000;0.197446
8107.000000;0.197491
8106.000000;0.197550
8105.000000;0.197549
8104.000000;0.197507
8103.000000;0.197504
8102.000000;0.197594
8101.000000;0.197722
8100.000000;0.197771
8099.000000;0.197722
8098.000000;0.197698
8097.000000;0.197804
8096.000000;0.197972
8095.000000;0.198045
8094.000000;0.197987
8093.000000;0.197931
8092.000000;0.198020
8091.000000;0.198267
8090.000000;0.198581
8089.000000;0.198844
8088.000000;0.198964
8087.000000;0.198935
8086.000000;0.198857
8085.000000;0.198865
8084.000000;0.198985
8083.000000;0.199115
8082.000000;0.199146
8081.000000;0.199059
8080.000000;0.198912
8079.000000;0.198797
8078.000000;0.198815
8077.000000;0.199005
8076.000000;0.199282
8075.000000;0.199486
8074.000000;0.199532
8073.000000;0.199469
8072.000000;0.199400
8071.000000;0.199404
8070.000000;0.199538
8069.000000;0.199816
8068.000000;0.200146
8067.000000;0.200357
8066.000000;0.200369
8065.000000;0.200266
8064.000000;0.200188
8063.000000;0.200176
8062.000000;0.200180
8061.000000;0.200157
8060.000000;0.200116
8059.000000;0.200090
8058.000000;0.200118
8057.000000;0.200216
8056.000000;0.200352
8055.000000;0.200476
8054.000000;0.200585
8053.000000;0.200717
8052.000000;0.200869
8051.000000;0.201002
8050.000000;0.201134
8049.000000;0.201325
8048.000000;0.201539
8047.000000;0.201628
8046.000000;0.201538
8045.000000;0.201428
8044.000000;0.201490
8043.000000;0.201707
8042.000000;0.201895
8041.000000;0.201942
8040.000000;0.201883
8039.000000;0.201797
8038.000000;0.201739
8037.000000;0.201782
8036.000000;0.201981
8035.000000;0.202269
8034.000000;0.202477
8033.000000;0.202510
8032.000000;0.202431
8031.000000;0.202339
8030.000000;0.202247
8029.000000;0.202118
8028.000000;0.201978
8027.000000;0.201899
8026.000000;0.201914
8025.000000;0.201980
8024.000000;0.202051
8023.000000;0.202140
8022.000000;0.202296
8021.000000;0.202520
8020.000000;0.202726
8019.000000;0.202799
8018.000000;0.202718
8017.000000;0.202584
8016.000000;0.202515
8015.000000;0.202551
8014.000000;0.202665
8013.000000;0.202803
8012.000000;0.202890
8011.000000;0.202849
8010.000000;0.202717
8009.000000;0.202697
8008.000000;0.202952
8007.000000;0.203352
8006.000000;0.203540
8005.000000;0.203344
8004.000000;0.203005
8003.000000;0.202904
8002.000000;0.203132
8001.000000;0.203448
8000.000000;0.203622
7999.000000;0.203675
7998.000000;0.203756
7997.000000;0.203924
7996.000000;0.204146
7995.000000;0.204410
7994.000000;0.204725
7993.000000;0.205028
7992.000000;0.205215
7991.000000;0.205275
7990.000000;0.205305
7989.000000;0.205366
7988.000000;0.205403
7987.000000;0.205364
7986.000000;0.205308
7985.000000;0.205319
7984.000000;0.205377
7983.000000;0.205393
7982.000000;0.205382
7981.000000;0.205466
7980.000000;0.205691
7979.000000;0.205917
7978.000000;0.205963
7977.000000;0.205818
7976.000000;0.205655
7975.000000;0.205640
7974.000000;0.205767
7973.000000;0.205894
7972.000000;0.205912
7971.000000;0.205861
7970.000000;0.205859
7969.000000;0.205940
7968.000000;0.206003
7967.000000;0.205945
7966.000000;0.205814
7965.000000;0.205777
7964.000000;0.205934
7963.000000;0.206208
7962.000000;0.206441
7961.000000;0.206544
7960.000000;0.206539
7959.000000;0.206497
7958.000000;0.206479
7957.000000;0.206513
7956.000000;0.206601
7955.000000;0.206733
7954.000000;0.206918
7953.000000;0.207157
7952.000000;0.207397
7951.000000;0.207559
7950.000000;0.207623
7949.000000;0.207670
7948.000000;0.207794
7947.000000;0.207985
7946.000000;0.208148
7945.000000;0.208214
7944.000000;0.208206
7943.000000;0.208190
7942.000000;0.208205
7941.000000;0.208251
7940.000000;0.208327
7939.000000;0.208451
7938.000000;0.208620
7937.000000;0.208772
7936.000000;0.208812
7935.000000;0.208699
7934.000000;0.208514
7933.000000;0.208410
7932.000000;0.208483
7931.000000;0.208700
7930.000000;0.208948
7929.000000;0.209130
7928.000000;0.209213
7927.000000;0.209221
7926.000000;0.209212
7925.000000;0.209251
7924.000000;0.209382
7923.000000;0.209602
7922.000000;0.209868
7921.000000;0.210125
7920.000000;0.210341
7919.000000;0.210515
7918.000000;0.210668
7917.000000;0.210802
7916.000000;0.210881
7915.000000;0.210879
7914.000000;0.210825
7913.000000;0.210788
7912.000000;0.210814
7911.000000;0.210892
7910.000000;0.210972
7909.000000;0.211012
7908.000000;0.211010
7907.000000;0.211015
7906.000000;0.211081
7905.000000;0.211192
7904.000000;0.211253
7903.000000;0.211192
7902.000000;0.211063
7901.000000;0.211000
7900.000000;0.211069
7899.000000;0.211211
7898.000000;0.211335
7897.000000;0.211406
7896.000000;0.211435
7895.000000;0.211443
7894.000000;0.211468
7893.000000;0.211558
7892.000000;0.211723
7891.000000;0.211918
7890.000000;0.212094
7889.000000;0.212262
7888.000000;0.212469
7887.000000;0.212734
7886.000000;0.213022
7885.000000;0.213268
7884.000000;0.213410
7883.000000;0.213439
7882.000000;0.213404
7881.000000;0.213372
7880.000000;0.213363
7879.000000;0.213357
7878.000000;0.213363
7877.000000;0.213428
7876.000000;0.213568
7875.000000;0.213737
7874.000000;0.213899
7873.000000;0.214091
7872.000000;0.214352
7871.000000;0.214631
7870.000000;0.214817
7869.000000;0.214865
7868.000000;0.214857
7867.000000;0.214909
7866.000000;0.215055
7865.000000;0.215230
7864.000000;0.215351
7863.000000;0.215396
7862.000000;0.215397
7861.000000;0.215377
7860.000000;0.215323
7859.000000;0.215239
7858.000000;0.215195
7857.000000;0.215279
7856.000000;0.215485
7855.000000;0.215707
7854.000000;0.215848
7853.000000;0.215907
7852.000000;0.215942
7851.000000;0.216001
7850.000000;0.216116
7849.000000;0.216302
7848.000000;0.216530
7847.000000;0.216720
7846.000000;0.216816
7845.000000;0.216850
7844.000000;0.216893
7843.000000;0.216973
7842.000000;0.217079
7841.000000;0.217217
7840.000000;0.217414
7839.000000;0.217654
7838.000000;0.217859
7837.000000;0.217962
7836.000000;0.217953
7835.000000;0.217865
7834.000000;0.217746
7833.000000;0.217649
7832.000000;0.217631
7831.000000;0.217730
7830.000000;0.217936
7829.000000;0.218203
7828.000000;0.218465
7827.000000;0.218671
7826.000000;0.218804
7825.000000;0.218893
7824.000000;0.218983
7823.000000;0.219089
7822.000000;0.219189
7821.000000;0.219265
7820.000000;0.219350
7819.000000;0.219493
7818.000000;0.219687
7817.000000;0.219844
7816.000000;0.219884
7815.000000;0.219861
7814.000000;0.219942
7813.000000;0.220236
7812.000000;0.220659
7811.000000;0.221016
7810.000000;0.221206
7809.000000;0.221291
7808.000000;0.221361
7807.000000;0.221410
7806.000000;0.221397
7805.000000;0.221355
7804.000000;0.221377
7803.000000;0.221505
7802.000000;0.221682
7801.000000;0.221838
7800.000000;0.221957
7799.000000;0.222064
7798.000000;0.222171
7797.000000;0.222270
7796.000000;0.222360
7795.000000;0.222454
7794.000000;0.222563
7793.000000;0.222669
7792.000000;0.222737
7791.000000;0.222747
7790.000000;0.222735
7789.000000;0.222793
7788.000000;0.223000
7787.000000;0.223349
7786.000000;0.223737
7785.000000;0.224037
7784.000000;0.224190
7783.000000;0.224231
7782.000000;0.224255
7781.000000;0.224343
7780.000000;0.224516
7779.000000;0.224736
7778.000000;0.224939
7777.000000;0.225058
7776.000000;0.225063
7775.000000;0.225000
7774.000000;0.224980
7773.000000;0.225090
7772.000000;0.225312
7771.000000;0.225557
7770.000000;0.225772
7769.000000;0.225971
7768.000000;0.226151
7767.000000;0.226254
7766.000000;0.226251
7765.000000;0.226213
7764.000000;0.226244
7763.000000;0.226363
7762.000000;0.226504
7761.000000;0.226622
7760.000000;0.226735
7759.000000;0.226862
7758.000000;0.226975
7757.000000;0.227055
7756.000000;0.227145
7755.000000;0.227310
7754.000000;0.227554
7753.000000;0.227820
7752.000000;0.228060
7751.000000;0.228272
7750.000000;0.228490
7749.000000;0.228739
7748.000000;0.229008
7747.000000;0.229230
7746.000000;0.229309
7745.000000;0.229222
7744.000000;0.229099
7743.000000;0.229142
7742.000000;0.229432
7741.000000;0.229841
7740.000000;0.230177
7739.000000;0.230386
7738.000000;0.230560
7737.000000;0.230768
7736.000000;0.230968
7735.000000;0.231093
7734.000000;0.231176
7733.000000;0.231316
7732.000000;0.231559
7731.000000;0.231858
7730.000000;0.232144
7729.000000;0.232397
7728.000000;0.232623
7727.000000;0.232818
7726.000000;0.232969
7725.000000;0.233079
7724.000000;0.233181
7723.000000;0.233309
7722.000000;0.233461
7721.000000;0.233589
7720.000000;0.233640
7719.000000;0.233623
7718.000000;0.233615
7717.000000;0.233692
7716.000000;0.233877
7715.000000;0.234147
7714.000000;0.234479
7713.000000;0.234842
7712.000000;0.235174
7711.000000;0.235406
7710.000000;0.235514
7709.000000;0.235540
7708.000000;0.235569
7707.000000;0.235682
7706.000000;0.235902
7705.000000;0.236156
7704.000000;0.236325
7703.000000;0.236357
7702.000000;0.236338
7701.000000;0.236400
7700.000000;0.236588
7699.000000;0.236855
7698.000000;0.237154
7697.000000;0.237480
7696.000000;0.237810
7695.000000;0.238079
7694.000000;0.238249
7693.000000;0.238362
7692.000000;0.238500
7691.000000;0.238707
7690.000000;0.238978
7689.000000;0.239267
7688.000000;0.239494
7687.000000;0.239578
7686.000000;0.239528
7685.000000;0.239465
7684.000000;0.239526
7683.000000;0.239736
7682.000000;0.240000
7681.000000;0.240219
7680.000000;0.240383
7679.000000;0.240552
7678.000000;0.240786
7677.000000;0.241081
7676.000000;0.241377
7675.000000;0.241612
7674.000000;0.241781
7673.000000;0.241938
7672.000000;0.242129
7671.000000;0.242340
7670.000000;0.242535
7669.000000;0.242718
7668.000000;0.242916
7667.000000;0.243121
7666.000000;0.243295
7665.000000;0.243441
7664.000000;0.243624
7663.000000;0.243876
7662.000000;0.244124
7661.000000;0.244266
7660.000000;0.244308
7659.000000;0.244388
7658.000000;0.244617
7657.000000;0.244946
7656.000000;0.245235
7655.000000;0.245415
7654.000000;0.245561
7653.000000;0.245798
7652.000000;0.246177
7651.000000;0.246645
7650.000000;0.247089
7649.000000;0.247410
7648.000000;0.247582
7647.000000;0.247671
7646.000000;0.247761
7645.000000;0.247875
7644.000000;0.247982
7643.000000;0.248090
7642.000000;0.248272
7641.000000;0.248576
7640.000000;0.248951
7639.000000;0.249313
7638.000000;0.249644
7637.000000;0.249977
7636.000000;0.250303
7635.000000;0.250580
7634.000000;0.250812
7633.000000;0.251042
7632.000000;0.251278
7631.000000;0.251492
7630.000000;0.251699
7629.000000;0.251979
7628.000000;0.252373
7627.000000;0.252809
7626.000000;0.253184
7625.000000;0.253483
7624.000000;0.253758
7623.000000;0.254031
7622.000000;0.254264
7621.000000;0.254432
7620.000000;0.254579
7619.000000;0.254775
7618.000000;0.255046
7617.000000;0.255370
7616.000000;0.255718
7615.000000;0.256064
7614.000000;0.256372
7613.000000;0.256601
7612.000000;0.256745
7611.000000;0.256858
7610.000000;0.257029
7609.000000;0.257310
7608.000000;0.257688
7607.000000;0.258118
7606.000000;0.258540
7605.000000;0.258878
7604.000000;0.259065
7603.000000;0.259128
7602.000000;0.259203
7601.000000;0.259423
7600.000000;0.259792
7599.000000;0.260192
7598.000000;0.260523
7597.000000;0.260787
7596.000000;0.261055
7595.000000;0.261383
7594.000000;0.261788
7593.000000;0.262250
7592.000000;0.262710
7591.000000;0.263104
7590.000000;0.263425
7589.000000;0.263734
7588.000000;0.264081
7587.000000;0.264437
7586.000000;0.264726
7585.000000;0.264939
7584.000000;0.265164
7583.000000;0.265491
7582.000000;0.265909
7581.000000;0.266320
7580.000000;0.266667
7579.000000;0.266998
7578.000000;0.267378
7577.000000;0.267780
7576.000000;0.268103
7575.000000;0.268308
7574.000000;0.268473
7573.000000;0.268688
7572.000000;0.268951
7571.000000;0.269217
7570.000000;0.269502
7569.000000;0.269872
7568.000000;0.270339
7567.000000;0.270823
7566.000000;0.271239
7565.000000;0.271572
7564.000000;0.271873
7563.000000;0.272209
7562.000000;0.272623
7561.000000;0.273110
7560.000000;0.273614
7559.000000;0.274074
7558.000000;0.274471
7557.000000;0.274827
7556.000000;0.275163
7555.000000;0.275483
7554.000000;0.275783
7553.000000;0.276046
7552.000000;0.276246
7551.000000;0.276399
7550.000000;0.276599
7549.000000;0.276938
7548.000000;0.277406
7547.000000;0.277901
7546.000000;0.278358
7545.000000;0.278800
7544.000000;0.279253
7543.000000;0.279671
7542.000000;0.279985
7541.000000;0.280221
7540.000000;0.280507
7539.000000;0.280965
7538.000000;0.281599
7537.000000;0.282261
7536.000000;0.282768
7535.000000;0.283047
7534.000000;0.283194
7533.000000;0.283370
7532.000000;0.283661
7531.000000;0.284054
7530.000000;0.284511
7529.000000;0.285001
7528.000000;0.285476
7527.000000;0.285899
7526.000000;0.286296
7525.000000;0.286722
7524.000000;0.287146
7523.000000;0.287450
7522.000000;0.287592
7521.000000;0.287710
7520.000000;0.288002
7519.000000;0.288524
7518.000000;0.289153
7517.000000;0.289732
7516.000000;0.290190
7515.000000;0.290554
7514.000000;0.290885
7513.000000;0.291234
7512.000000;0.291621
7511.000000;0.292041
7510.000000;0.292492
7509.000000;0.292973
7508.000000;0.293447
7507.000000;0.293855
7506.000000;0.294186
7505.000000;0.294522
7504.000000;0.294966
7503.000000;0.295509
7502.000000;0.296039
7501.000000;0.296460
7500.000000;0.296784
7499.000000;0.297098
7498.000000;0.297468
7497.000000;0.297901
7496.000000;0.298365
7495.000000;0.298824
7494.000000;0.299240
7493.000000;0.299612
7492.000000;0.299996
7491.000000;0.300466
7490.000000;0.301020
7489.000000;0.301557
7488.000000;0.301990
7487.000000;0.302348
7486.000000;0.302730
7485.000000;0.303171
7484.000000;0.303624
7483.000000;0.304069
7482.000000;0.304559
7481.000000;0.305109
7480.000000;0.305633
7479.000000;0.306043
7478.000000;0.306363
7477.000000;0.306678
7476.000000;0.307014
7475.000000;0.307342
7474.000000;0.307674
7473.000000;0.308063
7472.000000;0.308518
7471.000000;0.309003
7470.000000;0.309506
7469.000000;0.310054
7468.000000;0.310633
7467.000000;0.311184
7466.000000;0.311692
7465.000000;0.312198
7464.000000;0.312707
7463.000000;0.313157
7462.000000;0.313519
7461.000000;0.313879
7460.000000;0.314344
7459.000000;0.314914
7458.000000;0.315485
7457.000000;0.315947
7456.000000;0.316265
7455.000000;0.316483
7454.000000;0.316706
7453.000000;0.317046
7452.000000;0.317530
7451.000000;0.318073
7450.000000;0.318560
7449.000000;0.318952
7448.000000;0.319288
7447.000000;0.319638
7446.000000;0.320047
7445.000000;0.320518
7444.000000;0.321005
7443.000000;0.321446
7442.000000;0.321830
7441.000000;0.322202
7440.000000;0.322598
7439.000000;0.323002
7438.000000;0.323380
7437.000000;0.323735
7436.000000;0.324099
7435.000000;0.324504
7434.000000;0.324968
7433.000000;0.325499
7432.000000;0.326076
7431.000000;0.326646
7430.000000;0.327160
7429.000000;0.327592
7428.000000;0.327948
7427.000000;0.328265
7426.000000;0.328612
7425.000000;0.329025
7424.000000;0.329449
7423.000000;0.329792
7422.000000;0.330064
7421.000000;0.330387
7420.000000;0.330858
7419.000000;0.331440
7418.000000;0.332015
7417.000000;0.332513
7416.000000;0.332929
7415.000000;0.333291
7414.000000;0.333652
7413.000000;0.334084
7412.000000;0.334614
7411.000000;0.335186
7410.000000;0.335714
7409.000000;0.336172
7408.000000;0.336580
7407.000000;0.336951
7406.000000;0.337288
7405.000000;0.337615
7404.000000;0.337970
7403.000000;0.338345
7402.000000;0.338685
7401.000000;0.338940
7400.000000;0.339123
7399.000000;0.339314
7398.000000;0.339610
7397.000000;0.340052
7396.000000;0.340585
7395.000000;0.341115
7394.000000;0.341596
7393.000000;0.342046
7392.000000;0.342490
7391.000000;0.342937
7390.000000;0.343410
7389.000000;0.343919
7388.000000;0.344384
7387.000000;0.344679
7386.000000;0.344791
7385.000000;0.344873
7384.000000;0.345076
7383.000000;0.345402
7382.000000;0.345771
7381.000000;0.346187
7380.000000;0.346701
7379.000000;0.347271
7378.000000;0.347771
7377.000000;0.348142
7376.000000;0.348462
7375.000000;0.348844
7374.000000;0.349329
7373.000000;0.349876
7372.000000;0.350391
7371.000000;0.350779
7370.000000;0.351029
7369.000000;0.351273
7368.000000;0.351690
7367.000000;0.352317
7366.000000;0.353021
7365.000000;0.353626
7364.000000;0.354030
7363.000000;0.354239
7362.000000;0.354386
7361.000000;0.354705
7360.000000;0.355334
7359.000000;0.356122
7358.000000;0.356737
7357.000000;0.357012
7356.000000;0.357120
7355.000000;0.357361
7354.000000;0.357860
7353.000000;0.358503
7352.000000;0.359090
7351.000000;0.359490
7350.000000;0.359710
7349.000000;0.359895
7348.000000;0.360217
7347.000000;0.360704
7346.000000;0.361226
7345.000000;0.361675
7344.000000;0.362076
7343.000000;0.362494
7342.000000;0.362921
7341.000000;0.363350
7340.000000;0.363856
7339.000000;0.364507
7338.000000;0.365222
7337.000000;0.365846
7336.000000;0.366331
7335.000000;0.366765
7334.000000;0.367254
7333.000000;0.367836
7332.000000;0.368475
7331.000000;0.369060
7330.000000;0.369463
7329.000000;0.369672
7328.000000;0.369879
7327.000000;0.370332
7326.000000;0.371072
7325.000000;0.371913
7324.000000;0.372690
7323.000000;0.373417
7322.000000;0.374184
7321.000000;0.375008
7320.000000;0.375825
7319.000000;0.376562
7318.000000;0.377178
7317.000000;0.377685
7316.000000;0.378137
7315.000000;0.378580
7314.000000;0.378990
7313.000000;0.379331
7312.000000;0.379677
7311.000000;0.380176
7310.000000;0.380870
7309.000000;0.381624
7308.000000;0.382321
7307.000000;0.383032
7306.000000;0.383907
7305.000000;0.384956
7304.000000;0.386036
7303.000000;0.387034
7302.000000;0.387929
7301.000000;0.388721
7300.000000;0.389417
7299.000000;0.390084
7298.000000;0.390817
7297.000000;0.391610
7296.000000;0.392355
7295.000000;0.393019
7294.000000;0.393736
7293.000000;0.394671
7292.000000;0.395812
7291.000000;0.396984
7290.000000;0.398042
7289.000000;0.398985
7288.000000;0.399907
7287.000000;0.400890
7286.000000;0.401954
7285.000000;0.403063
7284.000000;0.404178
7283.000000;0.405306
7282.000000;0.406474
7281.000000;0.407667
7280.000000;0.408820
7279.000000;0.409882
7278.000000;0.410873
7277.000000;0.411853
7276.000000;0.412861
7275.000000;0.413918
7274.000000;0.415045
7273.000000;0.416260
7272.000000;0.417546
7271.000000;0.418872
7270.000000;0.420216
7269.000000;0.421556
7268.000000;0.422864
7267.000000;0.424145
7266.000000;0.425451
7265.000000;0.426797
7264.000000;0.428124
7263.000000;0.429398
7262.000000;0.430714
7261.000000;0.432222
7260.000000;0.433928
7259.000000;0.435678
7258.000000;0.437341
7257.000000;0.438945
7256.000000;0.440584
7255.000000;0.442261
7254.000000;0.443890
7253.000000;0.445425
7252.000000;0.446919
7251.000000;0.448445
7250.000000;0.450044
7249.000000;0.451744
7248.000000;0.453575
7247.000000;0.455527
7246.000000;0.457508
7245.000000;0.459391
7244.000000;0.461123
7243.000000;0.462798
7242.000000;0.464621
7241.000000;0.466738
7240.000000;0.469113
7239.000000;0.471600
7238.000000;0.474073
7237.000000;0.476456
7236.000000;0.478658
7235.000000;0.480586
7234.000000;0.482299
7233.000000;0.484098
7232.000000;0.486344
7231.000000;0.489129
7230.000000;0.492170
7229.000000;0.495098
7228.000000;0.497780
7227.000000;0.500348
7226.000000;0.503009
7225.000000;0.505848
7224.000000;0.508774
7223.000000;0.511616
7222.000000;0.514271
7221.000000;0.516809
7220.000000;0.519422
7219.000000;0.522286
7218.000000;0.525433
7217.000000;0.528755
7216.000000;0.532099
7215.000000;0.535368
7214.000000;0.538562
7213.000000;0.541755
7212.000000;0.545000
7211.000000;0.548279
7210.000000;0.551539
7209.000000;0.554768
7208.000000;0.558015
7207.000000;0.561321
7206.000000;0.564692
7205.000000;0.568127
7204.000000;0.571653
7203.000000;0.575306
7202.000000;0.579100
7201.000000;0.583030
7200.000000;0.587076
7199.000000;0.591182
7198.000000;0.595275
7197.000000;0.599310
7196.000000;0.603309
7195.000000;0.607323
7194.000000;0.611398
7193.000000;0.615558
7192.000000;0.619789
7191.000000;0.624031
7190.000000;0.628215
7189.000000;0.632349
7188.000000;0.636563
7187.000000;0.641004
7186.000000;0.645673
7185.000000;0.650383
7184.000000;0.654914
7183.000000;0.659234
7182.000000;0.663578
7181.000000;0.668262
7180.000000;0.673361
7179.000000;0.678617
7178.000000;0.683697
7177.000000;0.688504
7176.000000;0.693191
7175.000000;0.697942
7174.000000;0.702809
7173.000000;0.707750
7172.000000;0.712726
7171.000000;0.717708
7170.000000;0.722664
7169.000000;0.727587
7168.000000;0.732542
7167.000000;0.737633
7166.000000;0.742937
7165.000000;0.748454
7164.000000;0.754076
7163.000000;0.759639
7162.000000;0.765063
7161.000000;0.770444
7160.000000;0.775933
7159.000000;0.781519
7158.000000;0.787034
7157.000000;0.792390
7156.000000;0.797695
7155.000000;0.803101
7154.000000;0.808643
7153.000000;0.814293
7152.000000;0.820050
7151.000000;0.825864
7150.000000;0.831572
7149.000000;0.837060
7148.000000;0.842416
7147.000000;0.847803
7146.000000;0.853222
7145.000000;0.858571
7144.000000;0.863896
7143.000000;0.869403
7142.000000;0.875166
7141.000000;0.881002
7140.000000;0.886684
7139.000000;0.892187
7138.000000;0.897627
7137.000000;0.903088
7136.000000;0.908595
7135.000000;0.914183
7134.000000;0.919863
7133.000000;0.925558
7132.000000;0.931171
7131.000000;0.936722
7130.000000;0.942339
7129.000000;0.948078
7128.000000;0.953820
7127.000000;0.959369
7126.000000;0.964643
7125.000000;0.969730
7124.000000;0.974789
7123.000000;0.979910
7122.000000;0.985058
7121.000000;0.990117
7120.000000;0.995014
7119.000000;0.999840
7118.000000;1.004851
7117.000000;1.010257
7116.000000;1.015950
7115.000000;1.021576
7114.000000;1.026925
7113.000000;1.032131
7112.000000;1.037392
7111.000000;1.042632
7110.000000;1.047592
7109.000000;1.052190
7108.000000;1.056589
7107.000000;1.060959
7106.000000;1.065401
7105.000000;1.070103
7104.000000;1.075261
7103.000000;1.080752
7102.000000;1.086134
7101.000000;1.091116
7100.000000;1.095821
7099.000000;1.100469
7098.000000;1.105024
7097.000000;1.109365
7096.000000;1.113605
7095.000000;1.117966
7094.000000;1.122444
7093.000000;1.126845
7092.000000;1.131133
7091.000000;1.135486
7090.000000;1.140023
7089.000000;1.144641
7088.000000;1.149126
7087.000000;1.153283
7086.000000;1.157006
7085.000000;1.160391
7084.000000;1.163782
7083.000000;1.167557
7082.000000;1.171834
7081.000000;1.176398
7080.000000;1.180862
7079.000000;1.184865
7078.000000;1.188266
7077.000000;1.191291
7076.000000;1.194386
7075.000000;1.197798
7074.000000;1.201379
7073.000000;1.204866
7072.000000;1.208218
7071.000000;1.211555
7070.000000;1.214938
7069.000000;1.218397
7068.000000;1.222000
7067.000000;1.225648
7066.000000;1.228944
7065.000000;1.231593
7064.000000;1.233859
7063.000000;1.236321
7062.000000;1.239229
7061.000000;1.242354
7060.000000;1.245406
7059.000000;1.248272
7058.000000;1.250874
7057.000000;1.253201
7056.000000;1.255553
7055.000000;1.258406
7054.000000;1.261858
7053.000000;1.265435
7052.000000;1.268590
7051.000000;1.271177
7050.000000;1.273328
7049.000000;1.275143
7048.000000;1.276749
7047.000000;1.278444
7046.000000;1.280479
7045.000000;1.282790
7044.000000;1.285163
7043.000000;1.287578
7042.000000;1.290131
7041.000000;1.292694
7040.000000;1.294931
7039.000000;1.296717
7038.000000;1.298353
7037.000000;1.300246
7036.000000;1.302494
7035.000000;1.304891
7034.000000;1.307189
7033.000000;1.309235
7032.000000;1.310910
7031.000000;1.312195
7030.000000;1.313325
7029.000000;1.314695
7028.000000;1.316472
7027.000000;1.318377
7026.000000;1.319984
7025.000000;1.321230
7024.000000;1.322466
7023.000000;1.323999
7022.000000;1.325739
7021.000000;1.327391
7020.000000;1.328837
7019.000000;1.330199
7018.000000;1.331644
7017.000000;1.333297
7016.000000;1.335264
7015.000000;1.337529
7014.000000;1.339784
7013.000000;1.341527
7012.000000;1.342468
7011.000000;1.342780
7010.000000;1.342900
7009.000000;1.343162
7008.000000;1.343671
7007.000000;1.344440
7006.000000;1.345472
7005.000000;1.346667
7004.000000;1.347765
7003.000000;1.348516
7002.000000;1.348912
7001.000000;1.349228
7000.000000;1.349811
6999.000000;1.350816
6998.000000;1.352114
6997.000000;1.353404
6996.000000;1.354459
6995.000000;1.355323
6994.000000;1.356219
6993.000000;1.357195
6992.000000;1.357982
6991.000000;1.358394
6990.000000;1.358799
6989.000000;1.359873
6988.000000;1.361755
6987.000000;1.363727
6986.000000;1.364948
6985.000000;1.365371
6984.000000;1.365674
6983.000000;1.366386
6982.000000;1.367403
6981.000000;1.368275
6980.000000;1.368651
6979.000000;1.368458
6978.000000;1.367945
6977.000000;1.367622
6976.000000;1.367882
6975.000000;1.368573
6974.000000;1.369128
6973.000000;1.369175
6972.000000;1.368833
6971.000000;1.368426
6970.000000;1.368200
6969.000000;1.368392
6968.000000;1.369242
6967.000000;1.370718
6966.000000;1.372377
6965.000000;1.373705
6964.000000;1.374532
6963.000000;1.375004
6962.000000;1.375292
6961.000000;1.375446
6960.000000;1.375408
6959.000000;1.375090
6958.000000;1.374566
6957.000000;1.374186
6956.000000;1.374313
6955.000000;1.374841
6954.000000;1.375251
6953.000000;1.375235
6952.000000;1.375018
6951.000000;1.374882
6950.000000;1.374667
6949.000000;1.374062
6948.000000;1.373201
6947.000000;1.372621
6946.000000;1.372674
6945.000000;1.373239
6944.000000;1.373973
6943.000000;1.374597
6942.000000;1.374977
6941.000000;1.375139
6940.000000;1.375244
6939.000000;1.375356
6938.000000;1.375235
6937.000000;1.374588
6936.000000;1.373539
6935.000000;1.372649
6934.000000;1.372391
6933.000000;1.372732
6932.000000;1.373267
6931.000000;1.373610
6930.000000;1.373603
6929.000000;1.373305
6928.000000;1.372911
6927.000000;1.372631
6926.000000;1.372557
6925.000000;1.372606
6924.000000;1.372605
6923.000000;1.372434
6922.000000;1.372110
6921.000000;1.371773
6920.000000;1.371602
6919.000000;1.371667
6918.000000;1.371849
6917.000000;1.371901
6916.000000;1.371614
6915.000000;1.370947
6914.000000;1.370052
6913.000000;1.369200
6912.000000;1.368623
6911.000000;1.368362
6910.000000;1.368288
6909.000000;1.368305
6908.000000;1.368452
6907.000000;1.368750
6906.000000;1.369024
6905.000000;1.368988
6904.000000;1.368502
6903.000000;1.367697
6902.000000;1.366834
6901.000000;1.366102
6900.000000;1.365547
6899.000000;1.365114
6898.000000;1.364712
6897.000000;1.364270
6896.000000;1.363783
6895.000000;1.363341
6894.000000;1.363068
6893.000000;1.362986
6892.000000;1.362916
6891.000000;1.362604
6890.000000;1.361981
6889.000000;1.361262
6888.000000;1.360735
6887.000000;1.360513
6886.000000;1.360492
6885.000000;1.360469
6884.000000;1.360182
6883.000000;1.359421
6882.000000;1.358311
6881.000000;1.357449
6880.000000;1.357446
6879.000000;1.358249
6878.000000;1.359100
6877.000000;1.359282
6876.000000;1.358786
6875.000000;1.358151
6874.000000;1.357818
6873.000000;1.357820
6872.000000;1.357913
6871.000000;1.357778
6870.000000;1.357170
6869.000000;1.356113
6868.000000;1.354974
6867.000000;1.354179
6866.000000;1.353798
6865.000000;1.353539
6864.000000;1.353173
6863.000000;1.352810
6862.000000;1.352657
6861.000000;1.352645
6860.000000;1.352477
6859.000000;1.351991
6858.000000;1.351310
6857.000000;1.350584
6856.000000;1.349742
6855.000000;1.348648
6854.000000;1.347394
6853.000000;1.346259
6852.000000;1.345384
6851.000000;1.344676
6850.000000;1.344069
6849.000000;1.343638
6848.000000;1.343340
6847.000000;1.342845
6846.000000;1.341857
6845.000000;1.340532
6844.000000;1.339323
6843.000000;1.338431
6842.000000;1.337657
6841.000000;1.336807
6840.000000;1.335946
6839.000000;1.335193
6838.000000;1.334471
6837.000000;1.333604
6836.000000;1.332512
6835.000000;1.331214
6834.000000;1.329778
6833.000000;1.328388
6832.000000;1.327297
6831.000000;1.326549
6830.000000;1.325807
6829.000000;1.324647
6828.000000;1.322985
6827.000000;1.321091
6826.000000;1.319219
6825.000000;1.317388
6824.000000;1.315538
6823.000000;1.313716
6822.000000;1.312029
6821.000000;1.310482
6820.000000;1.308946
6819.000000;1.307289
6818.000000;1.305496
6817.000000;1.303666
6816.000000;1.301926
6815.000000;1.300347
6814.000000;1.298918
6813.000000;1.297582
6812.000000;1.296283
6811.000000;1.294994
6810.000000;1.293698
6809.000000;1.292348
6808.000000;1.290855
6807.000000;1.289145
6806.000000;1.287209
6805.000000;1.285068
6804.000000;1.282707
6803.000000;1.280137
6802.000000;1.277556
6801.000000;1.275341
6800.000000;1.273749
6799.000000;1.272632
6798.000000;1.271494
6797.000000;1.269872
6796.000000;1.267687
6795.000000;1.265265
6794.000000;1.263054
6793.000000;1.261219
6792.000000;1.259476
6791.000000;1.257350
6790.000000;1.254675
6789.000000;1.251780
6788.000000;1.249134
6787.000000;1.246925
6786.000000;1.245039
6785.000000;1.243315
6784.000000;1.241651
6783.000000;1.239940
6782.000000;1.238118
6781.000000;1.236292
6780.000000;1.234632
6779.000000;1.233086
6778.000000;1.231324
6777.000000;1.229047
6776.000000;1.226290
6775.000000;1.223390
6774.000000;1.220710
6773.000000;1.218415
6772.000000;1.216426
6771.000000;1.214544
6770.000000;1.212653
6769.000000;1.210774
6768.000000;1.208906
6767.000000;1.206891
6766.000000;1.204571
6765.000000;1.202021
6764.000000;1.199470
6763.000000;1.197011
6762.000000;1.194553
6761.000000;1.192077
6760.000000;1.189763
6759.000000;1.187747
6758.000000;1.185885
6757.000000;1.183879
6756.000000;1.181585
6755.000000;1.179119
6754.000000;1.176697
6753.000000;1.174441
6752.000000;1.172328
6751.000000;1.170275
6750.000000;1.168250
6749.000000;1.166260
6748.000000;1.164228
6747.000000;1.161967
6746.000000;1.159380
6745.000000;1.156646
6744.000000;1.154053
6743.000000;1.151696
6742.000000;1.149455
6741.000000;1.147245
6740.000000;1.145100
6739.000000;1.142982
6738.000000;1.140727
6737.000000;1.138289
6736.000000;1.135880
6735.000000;1.133710
6734.000000;1.131702
6733.000000;1.129609
6732.000000;1.127319
6731.000000;1.124901
6730.000000;1.122435
6729.000000;1.119963
6728.000000;1.117585
6727.000000;1.115433
6726.000000;1.113497
6725.000000;1.111596
6724.000000;1.109564
6723.000000;1.107415
6722.000000;1.105268
6721.000000;1.103161
6720.000000;1.100979
6719.000000;1.098600
6718.000000;1.096084
6717.000000;1.093680
6716.000000;1.091597
6715.000000;1.089780
6714.000000;1.087975
6713.000000;1.086004
6712.000000;1.083890
6711.000000;1.081693
6710.000000;1.079363
6709.000000;1.076865
6708.000000;1.074338
6707.000000;1.071984
6706.000000;1.069840
6705.000000;1.067752
6704.000000;1.065587
6703.000000;1.063397
6702.000000;1.061343
6701.000000;1.059525
6700.000000;1.057869
6699.000000;1.056142
6698.000000;1.054083
6697.000000;1.051611
6696.000000;1.048907
6695.000000;1.046240
6694.000000;1.043740
6693.000000;1.041390
6692.000000;1.039197
6691.000000;1.037237
6690.000000;1.035486
6689.000000;1.033726
6688.000000;1.031699
6687.000000;1.029351
6686.000000;1.026864
6685.000000;1.024495
6684.000000;1.022404
6683.000000;1.020592
6682.000000;1.018920
6681.000000;1.017197
6680.000000;1.015300
6679.000000;1.013250
6678.000000;1.011151
6677.000000;1.009079
6676.000000;1.007021
6675.000000;1.004911
6674.000000;1.002698
6673.000000;1.000398
6672.000000;0.998110
6671.000000;0.995967
6670.000000;0.994047
6669.000000;0.992312
6668.000000;0.990664
6667.000000;0.989029
6666.000000;0.987370
6665.000000;0.985633
6664.000000;0.983735
6663.000000;0.981647
6662.000000;0.979447
6661.000000;0.977278
6660.000000;0.975248
6659.000000;0.973374
6658.000000;0.971576
6657.000000;0.969726
6656.000000;0.967742
6655.000000;0.965657
6654.000000;0.963585
6653.000000;0.961597
6652.000000;0.959659
6651.000000;0.957727
6650.000000;0.955844
6649.000000;0.954086
6648.000000;0.952416
6647.000000;0.950683
6646.000000;0.948772
6645.000000;0.946713
6644.000000;0.944632
6643.000000;0.942649
6642.000000;0.940824
6641.000000;0.939139
6640.000000;0.937489
6639.000000;0.935738
6638.000000;0.933836
6637.000000;0.931869
6636.000000;0.929959
6635.000000;0.928163
6634.000000;0.926466
6633.000000;0.924849
6632.000000;0.923284
6631.000000;0.921715
6630.000000;0.920070
6629.000000;0.918311
6628.000000;0.916442
6627.000000;0.914492
6626.000000;0.912521
6625.000000;0.910612
6624.000000;0.908813
6623.000000;0.907090
6622.000000;0.905370
6621.000000;0.903630
6620.000000;0.901914
6619.000000;0.900274
6618.000000;0.898716
6617.000000;0.897198
6616.000000;0.895655
6615.000000;0.894039
6614.000000;0.892361
6613.000000;0.890670
6612.000000;0.888988
6611.000000;0.887274
6610.000000;0.885490
6609.000000;0.883672
6608.000000;0.881890
6607.000000;0.880182
6606.000000;0.878560
6605.000000;0.877048
6604.000000;0.875653
6603.000000;0.874293
6602.000000;0.872837
6601.000000;0.871230
6600.000000;0.869538
6599.000000;0.867856
6598.000000;0.866219
6597.000000;0.864612
6596.000000;0.863017
6595.000000;0.861415
6594.000000;0.859784
6593.000000;0.858130
6592.000000;0.856499
6591.000000;0.854940
6590.000000;0.853466
6589.000000;0.852049
6588.000000;0.850632
6587.000000;0.849136
6586.000000;0.847506
6585.000000;0.845778
6584.000000;0.844074
6583.000000;0.842506
6582.000000;0.841088
6581.000000;0.839754
6580.000000;0.838426
6579.000000;0.837047
6578.000000;0.835576
6577.000000;0.834012
6576.000000;0.832416
6575.000000;0.830883
6574.000000;0.829468
6573.000000;0.828140
6572.000000;0.826823
6571.000000;0.825470
6570.000000;0.824093
6569.000000;0.822728
6568.000000;0.821388
6567.000000;0.820057
6566.000000;0.818723
6565.000000;0.817384
6564.000000;0.816032
6563.000000;0.814650
6562.000000;0.813230
6561.000000;0.811781
6560.000000;0.810305
6559.000000;0.808796
6558.000000;0.807281
6557.000000;0.805836
6556.000000;0.804504
6555.000000;0.803232
6554.000000;0.801931
6553.000000;0.800596
6552.000000;0.799312
6551.000000;0.798126
6550.000000;0.796962
6549.000000;0.795687
6548.000000;0.794246
6547.000000;0.792713
6546.000000;0.791233
6545.000000;0.789916
6544.000000;0.788771
6543.000000;0.787705
6542.000000;0.786607
6541.000000;0.785429
6540.000000;0.784192
6539.000000;0.782917
6538.000000;0.781579
6537.000000;0.780162
6536.000000;0.778708
6535.000000;0.777302
6534.000000;0.776009
6533.000000;0.774826
6532.000000;0.773690
6531.000000;0.772521
6530.000000;0.771281
6529.000000;0.770004
6528.000000;0.768758
6527.000000;0.767561
6526.000000;0.766360
6525.000000;0.765114
6524.000000;0.763869
6523.000000;0.762707
6522.000000;0.761623
6521.000000;0.760505
6520.000000;0.759256
6519.000000;0.757908
6518.000000;0.756595
6517.000000;0.755426
6516.000000;0.754396
6515.000000;0.753410
6514.000000;0.752382
6513.000000;0.751298
6512.000000;0.750196
6511.000000;0.749110
6510.000000;0.748033
6509.000000;0.746934
6508.000000;0.745792
6507.000000;0.744614
6506.000000;0.743438
6505.000000;0.742319
6504.000000;0.741285
6503.000000;0.740294
6502.000000;0.739249
6501.000000;0.738083
6500.000000;0.736837
6499.000000;0.735635
6498.000000;0.734567
6497.000000;0.733601
6496.000000;0.732618
6495.000000;0.731537
6494.000000;0.730394
6493.000000;0.729296
6492.000000;0.728300
6491.000000;0.727348
6490.000000;0.726338
6489.000000;0.725248
6488.000000;0.724166
6487.000000;0.723190
6486.000000;0.722311
6485.000000;0.721431
6484.000000;0.720464
6483.000000;0.719397
6482.000000;0.718260
6481.000000;0.717069
6480.000000;0.715848
6479.000000;0.714666
6478.000000;0.713613
6477.000000;0.712706
6476.000000;0.711870
6475.000000;0.711003
6474.000000;0.710052
6473.000000;0.709025
6472.000000;0.707954
6471.000000;0.706884
6470.000000;0.705863
6469.000000;0.704923
6468.000000;0.704062
6467.000000;0.703260
6466.000000;0.702502
6465.000000;0.701760
6464.000000;0.700964
6463.000000;0.700035
6462.000000;0.698969
6461.000000;0.697855
6460.000000;0.696791
6459.000000;0.695803
6458.000000;0.694865
6457.000000;0.693968
6456.000000;0.693119
6455.000000;0.692298
6454.000000;0.691459
6453.000000;0.690579
6452.000000;0.689668
6451.000000;0.688742
6450.000000;0.687806
6449.000000;0.686887
6448.000000;0.686044
6447.000000;0.685306
6446.000000;0.684613
6445.000000;0.683847
6444.000000;0.682947
6443.000000;0.681964
6442.000000;0.681007
6441.000000;0.680130
6440.000000;0.679287
6439.000000;0.678394
6438.000000;0.677424
6437.000000;0.676447
6436.000000;0.675564
6435.000000;0.674808
6434.000000;0.674120
6433.000000;0.673416
6432.000000;0.672660
6431.000000;0.671864
6430.000000;0.671045
6429.000000;0.670205
6428.000000;0.669353
6427.000000;0.668526
6426.000000;0.667768
6425.000000;0.667068
6424.000000;0.666358
6423.000000;0.665555
6422.000000;0.664641
6421.000000;0.663675
6420.000000;0.662745
6419.000000;0.661897
6418.000000;0.661118
6417.000000;0.660378
6416.000000;0.659675
6415.000000;0.659012
6414.000000;0.658370
6413.000000;0.657708
6412.000000;0.657006
6411.000000;0.656277
6410.000000;0.655537
6409.000000;0.654778
6408.000000;0.653989
6407.000000;0.653190
6406.000000;0.652426
6405.000000;0.651729
6404.000000;0.651099
6403.000000;0.650508
6402.000000;0.649905
6401.000000;0.649237
6400.000000;0.648478
6399.000000;0.647660
6398.000000;0.646835
6397.000000;0.646027
6396.000000;0.645230
6395.000000;0.644450
6394.000000;0.643713
6393.000000;0.643025
6392.000000;0.642362
6391.000000;0.641720
6390.000000;0.641119
6389.000000;0.640551
6388.000000;0.639943
6387.000000;0.639221
6386.000000;0.638419
6385.000000;0.637657
6384.000000;0.637026
6383.000000;0.636501
6382.000000;0.635982
6381.000000;0.635401
6380.000000;0.634753
6379.000000;0.634070
6378.000000;0.633383
6377.000000;0.632712
6376.000000;0.632064
6375.000000;0.631421
6374.000000;0.630749
6373.000000;0.630053
6372.000000;0.629390
6371.000000;0.628822
6370.000000;0.628328
6369.000000;0.627809
6368.000000;0.627185
6367.000000;0.626477
6366.000000;0.625762
6365.000000;0.625079
6364.000000;0.624407
6363.000000;0.623732
6362.000000;0.623075
6361.000000;0.622447
6360.000000;0.621816
6359.000000;0.621164
6358.000000;0.620526
6357.000000;0.619939
6356.000000;0.619380
6355.000000;0.618797
6354.000000;0.618190
6353.000000;0.617598
6352.000000;0.617029
6351.000000;0.616437
6350.000000;0.615800
6349.000000;0.615158
6348.000000;0.614559
6347.000000;0.613985
6346.000000;0.613383
6345.000000;0.612732
6344.000000;0.612058
6343.000000;0.611401
6342.000000;0.610780
6341.000000;0.610211
6340.000000;0.609713
6339.000000;0.609300
6338.000000;0.608957
6337.000000;0.608636
6336.000000;0.608275
6335.000000;0.607829
6334.000000;0.607286
6333.000000;0.606675
6332.000000;0.606037
6331.000000;0.605418
6330.000000;0.604851
6329.000000;0.604354
6328.000000;0.603910
6327.000000;0.603473
6326.000000;0.602992
6325.000000;0.602446
6324.000000;0.601857
6323.000000;0.601258
6322.000000;0.600672
6321.000000;0.600102
6320.000000;0.599566
6319.000000;0.599084
6318.000000;0.598637
6317.000000;0.598145
6316.000000;0.597541
6315.000000;0.596872
6314.000000;0.596284
6313.000000;0.595876
6312.000000;0.595596
6311.000000;0.595300
6310.000000;0.594900
6309.000000;0.594417
6308.000000;0.593905
6307.000000;0.593384
6306.000000;0.592863
6305.000000;0.592358
6304.000000;0.591874
6303.000000;0.591387
6302.000000;0.590878
6301.000000;0.590384
6300.000000;0.589974
6299.000000;0.589679
6298.000000;0.589452
6297.000000;0.589205
6296.000000;0.588870
6295.000000;0.588431
6294.000000;0.587913
6293.000000;0.587360
6292.000000;0.586827
6291.000000;0.586362
6290.000000;0.585984
6289.000000;0.585655
6288.000000;0.585298
6287.000000;0.584870
6286.000000;0.584403
6285.000000;0.583962
6284.000000;0.583571
6283.000000;0.583186
6282.000000;0.582757
6281.000000;0.582275
6280.000000;0.581780
6279.000000;0.581321
6278.000000;0.580921
6277.000000;0.580569
6276.000000;0.580225
6275.000000;0.579859
6274.000000;0.579492
6273.000000;0.579170
6272.000000;0.578901
6271.000000;0.578630
6270.000000;0.578286
6269.000000;0.577854
6268.000000;0.577375
6267.000000;0.576904
6266.000000;0.576473
6265.000000;0.576099
6264.000000;0.575788
6263.000000;0.575522
6262.000000;0.575244
6261.000000;0.574883
6260.000000;0.574403
6259.000000;0.573853
6258.000000;0.573342
6257.000000;0.572973
6256.000000;0.572754
6255.000000;0.572592
6254.000000;0.572377
6253.000000;0.572076
6252.000000;0.571742
6251.000000;0.571430
6250.000000;0.571134
6249.000000;0.570798
6248.000000;0.570396
6247.000000;0.569969
6246.000000;0.569580
6245.000000;0.569254
6244.000000;0.568962
6243.000000;0.568659
6242.000000;0.568313
6241.000000;0.567914
6240.000000;0.567484
6239.000000;0.567073
6238.000000;0.566735
6237.000000;0.566478
6236.000000;0.566264
6235.000000;0.566051
6234.000000;0.565832
6233.000000;0.565603
6232.000000;0.565337
6231.000000;0.564994
6230.000000;0.564576
6229.000000;0.564134
6228.000000;0.563731
6227.000000;0.563401
6226.000000;0.563135
6225.000000;0.562900
6224.000000;0.562665
6223.000000;0.562416
6222.000000;0.562151
6221.000000;0.561873
6220.000000;0.561586
6219.000000;0.561303
6218.000000;0.561045
6217.000000;0.560811
6216.000000;0.560570
6215.000000;0.560296
6214.000000;0.559995
6213.000000;0.559687
6212.000000;0.559389
6211.000000;0.559107
6210.000000;0.558852
6209.000000;0.558627
6208.000000;0.558426
6207.000000;0.558247
6206.000000;0.558098
6205.000000;0.557954
6204.000000;0.557744
6203.000000;0.557404
6202.000000;0.556966
6201.000000;0.556545
6200.000000;0.556231
6199.000000;0.556008
6198.000000;0.555795
6197.000000;0.555535
6196.000000;0.555238
6195.000000;0.554942
6194.000000;0.554662
6193.000000;0.554376
6192.000000;0.554053
6191.000000;0.553697
6190.000000;0.553352
6189.000000;0.553065
6188.000000;0.552834
6187.000000;0.552617
6186.000000;0.552381
6185.000000;0.552141
6184.000000;0.551933
6183.000000;0.551771
6182.000000;0.551628
6181.000000;0.551457
6180.000000;0.551233
6179.000000;0.550981
6178.000000;0.550756
6177.000000;0.550595
6176.000000;0.550485
6175.000000;0.550370
6174.000000;0.550196
6173.000000;0.549941
6172.000000;0.549617
6171.000000;0.549270
6170.000000;0.548962
6169.000000;0.548738
6168.000000;0.548601
6167.000000;0.548502
6166.000000;0.548382
6165.000000;0.548205
6164.000000;0.547981
6163.000000;0.547751
6162.000000;0.547553
6161.000000;0.547394
6160.000000;0.547252
6159.000000;0.547110
6158.000000;0.546961
6157.000000;0.546800
6156.000000;0.546607
6155.000000;0.546373
6154.000000;0.546112
6153.000000;0.545840
6152.000000;0.545560
6151.000000;0.545283
6150.000000;0.545053
6149.000000;0.544910
6148.000000;0.544834
6147.000000;0.544761
6146.000000;0.544648
6145.000000;0.544500
6144.000000;0.544332
6143.000000;0.544139
6142.000000;0.543928
6141.000000;0.543736
6140.000000;0.543597
6139.000000;0.543496
6138.000000;0.543386
6137.000000;0.543250
6136.000000;0.543109
6135.000000;0.542985
6134.000000;0.542872
6133.000000;0.542746
6132.000000;0.542586
6131.000000;0.542390
6130.000000;0.542165
6129.000000;0.541926
6128.000000;0.541688
6127.000000;0.541463
6126.000000;0.541260
6125.000000;0.541079
6124.000000;0.540906
6123.000000;0.540730
6122.000000;0.540555
6121.000000;0.540401
6120.000000;0.540280
6119.000000;0.540162
6118.000000;0.540009
6117.000000;0.539815
6116.000000;0.539617
6115.000000;0.539444
6114.000000;0.539277
6113.000000;0.539089
6112.000000;0.538904
6111.000000;0.538772
6110.000000;0.538706
6109.000000;0.538656
6108.000000;0.538581
6107.000000;0.538486
6106.000000;0.538384
6105.000000;0.538259
6104.000000;0.538103
6103.000000;0.537965
6102.000000;0.537895
6101.000000;0.537858
6100.000000;0.537765
6099.000000;0.537599
6098.000000;0.537439
6097.000000;0.537352
6096.000000;0.537308
6095.000000;0.537235
6094.000000;0.537110
6093.000000;0.536960
6092.000000;0.536809
6091.000000;0.536664
6090.000000;0.536541
6089.000000;0.536445
6088.000000;0.536346
6087.000000;0.536205
6086.000000;0.536024
6085.000000;0.535848
6084.000000;0.535729
6083.000000;0.535690
6082.000000;0.535719
6081.000000;0.535760
6080.000000;0.535736
6079.000000;0.535610
6078.000000;0.535420
6077.000000;0.535236
6076.000000;0.535096
6075.000000;0.534991
6074.000000;0.534906
6073.000000;0.534828
6072.000000;0.534744
6071.000000;0.534654
6070.000000;0.534594
6069.000000;0.534605
6068.000000;0.534677
6067.000000;0.534736
6066.000000;0.534712
6065.000000;0.534595
6064.000000;0.534442
6063.000000;0.534326
6062.000000;0.534288
6061.000000;0.534300
6060.000000;0.534296
6059.000000;0.534228
6058.000000;0.534100
6057.000000;0.533942
6056.000000;0.533767
6055.000000;0.533586
6054.000000;0.533441
6053.000000;0.533383
6052.000000;0.533419
6051.000000;0.533503
6050.000000;0.533584
6049.000000;0.533640
6048.000000;0.533667
6047.000000;0.533659
6046.000000;0.533603
6045.000000;0.533488
6044.000000;0.533325
6043.000000;0.533159
6042.000000;0.533050
6041.000000;0.533015
6040.000000;0.533005
6039.000000;0.532954
6038.000000;0.532859
6037.000000;0.532776
6036.000000;0.532761
6035.000000;0.532819
6034.000000;0.532917
6033.000000;0.533016
6032.000000;0.533086
6031.000000;0.533117
6030.000000;0.533109
6029.000000;0.533073
6028.000000;0.533019
6027.000000;0.532969
6026.000000;0.532954
6025.000000;0.532981
6024.000000;0.533023
6023.000000;0.533035
6022.000000;0.533003
6021.000000;0.532946
6020.000000;0.532902
6019.000000;0.532901
6018.000000;0.532950
6017.000000;0.533013
6016.000000;0.533031
6015.000000;0.532984
6014.000000;0.532913
6013.000000;0.532872
6012.000000;0.532873
6011.000000;0.532896
6010.000000;0.532933
6009.000000;0.532993
6008.000000;0.533069
6007.000000;0.533137
6006.000000;0.533190
6005.000000;0.533241
6004.000000;0.533302
6003.000000;0.533377
6002.000000;0.533470
6001.000000;0.533569
6000.000000;0.533635
5999.000000;0.533654
5998.000000;0.533671
5997.000000;0.533754
5996.000000;0.533889
5995.000000;0.533988
5994.000000;0.533990
5993.000000;0.533941
5992.000000;0.533932
5991.000000;0.534002
5990.000000;0.534106
5989.000000;0.534189
5988.000000;0.534247
5987.000000;0.534331
5986.000000;0.534493
5985.000000;0.534740
5984.000000;0.535029
5983.000000;0.535306
5982.000000;0.535527
5981.000000;0.535652
5980.000000;0.535666
5979.000000;0.535616
5978.000000;0.535613
5977.000000;0.535734
5976.000000;0.535950
5975.000000;0.536170
5974.000000;0.536352
5973.000000;0.536519
5972.000000;0.536691
5971.000000;0.536865
5970.000000;0.537039
5969.000000;0.537227
5968.000000;0.537418
5967.000000;0.537573
5966.000000;0.537681
5965.000000;0.537773
5964.000000;0.537881
5963.000000;0.538008
5962.000000;0.538156
5961.000000;0.538348
5960.000000;0.538595
5959.000000;0.538872
5958.000000;0.539143
5957.000000;0.539389
5956.000000;0.539607
5955.000000;0.539801
5954.000000;0.539993
5953.000000;0.540219
5952.000000;0.540486
5951.000000;0.540762
5950.000000;0.541015
5949.000000;0.541254
5948.000000;0.541506
5947.000000;0.541776
5946.000000;0.542033
5945.000000;0.542237
5944.000000;0.542377
5943.000000;0.542486
5942.000000;0.542629
5941.000000;0.542856
5940.000000;0.543159
5939.000000;0.543482
5938.000000;0.543771
5937.000000;0.544017
5936.000000;0.544239
5935.000000;0.544463
5934.000000;0.544712
5933.000000;0.544992
5932.000000;0.545267
5931.000000;0.545484
5930.000000;0.545629
5929.000000;0.545757
5928.000000;0.545938
5927.000000;0.546197
5926.000000;0.546497
5925.000000;0.546778
5924.000000;0.546996
5923.000000;0.547150
5922.000000;0.547267
5921.000000;0.547370
5920.000000;0.547458
5919.000000;0.547537
5918.000000;0.547656
5917.000000;0.547871
5916.000000;0.548174
5915.000000;0.548479
5914.000000;0.548699
5913.000000;0.548819
5912.000000;0.548877
5911.000000;0.548921
5910.000000;0.548974
5909.000000;0.549044
5908.000000;0.549121
5907.000000;0.549199
5906.000000;0.549284
5905.000000;0.549391
5904.000000;0.549510
5903.000000;0.549609
5902.000000;0.549674
5901.000000;0.549726
5900.000000;0.549802
5899.000000;0.549914
5898.000000;0.550043
5897.000000;0.550171
5896.000000;0.550298
5895.000000;0.550449
5894.000000;0.550642
5893.000000;0.550862
5892.000000;0.551059
5891.000000;0.551185
5890.000000;0.551233
5889.000000;0.551244
5888.000000;0.551278
5887.000000;0.551380
5886.000000;0.551566
5885.000000;0.551796
5884.000000;0.551999
5883.000000;0.552146
5882.000000;0.552291
5881.000000;0.552507
5880.000000;0.552781
5879.000000;0.553028
5878.000000;0.553197
5877.000000;0.553335
5876.000000;0.553514
5875.000000;0.553745
5874.000000;0.553983
5873.000000;0.554200
5872.000000;0.554409
5871.000000;0.554641
5870.000000;0.554920
5869.000000;0.555246
5868.000000;0.555585
5867.000000;0.555889
5866.000000;0.556137
5865.000000;0.556352
5864.000000;0.556571
5863.000000;0.556814
5862.000000;0.557096
5861.000000;0.557442
5860.000000;0.557859
5859.000000;0.558305
5858.000000;0.558713
5857.000000;0.559050
5856.000000;0.559347
5855.000000;0.559658
5854.000000;0.560000
5853.000000;0.560346
5852.000000;0.560662
5851.000000;0.560946
5850.000000;0.561235
5849.000000;0.561555
5848.000000;0.561900
5847.000000;0.562250
5846.000000;0.562616
5845.000000;0.563023
5844.000000;0.563474
5843.000000;0.563935
5842.000000;0.564379
5841.000000;0.564817
5840.000000;0.565268
5839.000000;0.565736
5838.000000;0.566209
5837.000000;0.566687
5836.000000;0.567176
5835.000000;0.567672
5834.000000;0.568144
5833.000000;0.568551
5832.000000;0.568868
5831.000000;0.569111
5830.000000;0.569343
5829.000000;0.569639
5828.000000;0.570035
5827.000000;0.570516
5826.000000;0.571040
5825.000000;0.571563
5824.000000;0.572053
5823.000000;0.572508
5822.000000;0.572957
5821.000000;0.573437
5820.000000;0.573963
5819.000000;0.574522
5818.000000;0.575096
5817.000000;0.575663
5816.000000;0.576193
5815.000000;0.576662
5814.000000;0.577087
5813.000000;0.577506
5812.000000;0.577942
5811.000000;0.578391
5810.000000;0.578855
5809.000000;0.579360
5808.000000;0.579919
5807.000000;0.580516
5806.000000;0.581120
5805.000000;0.581698
5804.000000;0.582232
5803.000000;0.582730
5802.000000;0.583229
5801.000000;0.583767
5800.000000;0.584348
5799.000000;0.584946
5798.000000;0.585547
5797.000000;0.586148
5796.000000;0.586722
5795.000000;0.587222
5794.000000;0.587648
5793.000000;0.588072
5792.000000;0.588559
5791.000000;0.589106
5790.000000;0.589660
5789.000000;0.590193
5788.000000;0.590710
5787.000000;0.591217
5786.000000;0.591707
5785.000000;0.592193
5784.000000;0.592721
5783.000000;0.593329
5782.000000;0.594003
5781.000000;0.594682
5780.000000;0.595315
5779.000000;0.595909
5778.000000;0.596517
5777.000000;0.597169
5776.000000;0.597827
5775.000000;0.598432
5774.000000;0.598975
5773.000000;0.599502
5772.000000;0.600048
5771.000000;0.600597
5770.000000;0.601132
5769.000000;0.601680
5768.000000;0.602278
5767.000000;0.602921
5766.000000;0.603568
5765.000000;0.604197
5764.000000;0.604811
5763.000000;0.605414
5762.000000;0.606005
5761.000000;0.606587
5760.000000;0.607173
5759.000000;0.607771
5758.000000;0.608387
5757.000000;0.609026
5756.000000;0.609680
5755.000000;0.610311
5754.000000;0.610886
5753.000000;0.611419
5752.000000;0.611963
5751.000000;0.612543
5750.000000;0.613131
5749.000000;0.613697
5748.000000;0.614263
5747.000000;0.614885
5746.000000;0.615579
5745.000000;0.616290
5744.000000;0.616959
5743.000000;0.617584
5742.000000;0.618207
5741.000000;0.618833
5740.000000;0.619405
5739.000000;0.619872
5738.000000;0.620262
5737.000000;0.620684
5736.000000;0.621244
5735.000000;0.621975
5734.000000;0.622816
5733.000000;0.623644
5732.000000;0.624362
5731.000000;0.624972
5730.000000;0.625572
5729.000000;0.626260
5728.000000;0.627041
5727.000000;0.627842
5726.000000;0.628604
5725.000000;0.629321
5724.000000;0.630013
5723.000000;0.630681
5722.000000;0.631326
5721.000000;0.631946
5720.000000;0.632538
5719.000000;0.633103
5718.000000;0.633682
5717.000000;0.634346
5716.000000;0.635127
5715.000000;0.635979
5714.000000;0.636820
5713.000000;0.637588
5712.000000;0.638259
5711.000000;0.638833
5710.000000;0.639351
5709.000000;0.639907
5708.000000;0.640590
5707.000000;0.641403
5706.000000;0.642257
5705.000000;0.643059
5704.000000;0.643787
5703.000000;0.644471
5702.000000;0.645143
5701.000000;0.645816
5700.000000;0.646499
5699.000000;0.647213
5698.000000;0.647970
5697.000000;0.648764
5696.000000;0.649569
5695.000000;0.650357
5694.000000;0.651100
5693.000000;0.651768
5692.000000;0.652365
5691.000000;0.652954
5690.000000;0.653629
5689.000000;0.654435
5688.000000;0.655324
5687.000000;0.656203
5686.000000;0.657015
5685.000000;0.657749
5684.000000;0.658403
5683.000000;0.658981
5682.000000;0.659532
5681.000000;0.660148
5680.000000;0.660879
5679.000000;0.661688
5678.000000;0.662486
5677.000000;0.663226
5676.000000;0.663930
5675.000000;0.664641
5674.000000;0.665379
5673.000000;0.666125
5672.000000;0.666843
5671.000000;0.667511
5670.000000;0.668152
5669.000000;0.668819
5668.000000;0.669548
5667.000000;0.670318
5666.000000;0.671067
5665.000000;0.671755
5664.000000;0.672399
5663.000000;0.673046
5662.000000;0.673721
5661.000000;0.674396
5660.000000;0.675017
5659.000000;0.675568
5658.000000;0.676108
5657.000000;0.676726
5656.000000;0.677459
5655.000000;0.678250
5654.000000;0.679009
5653.000000;0.679683
5652.000000;0.680291
5651.000000;0.680884
5650.000000;0.681503
5649.000000;0.682155
5648.000000;0.682804
5647.000000;0.683398
5646.000000;0.683912
5645.000000;0.684378
5644.000000;0.684861
5643.000000;0.685413
5642.000000;0.686047
5641.000000;0.686756
5640.000000;0.687516
5639.000000;0.688276
5638.000000;0.688970
5637.000000;0.689545
5636.000000;0.690005
5635.000000;0.690398
5634.000000;0.690790
5633.000000;0.691240
5632.000000;0.691791
5631.000000;0.692435
5630.000000;0.693110
5629.000000;0.693732
5628.000000;0.694266
5627.000000;0.694754
5626.000000;0.695258
5625.000000;0.695788
5624.000000;0.696303
5623.000000;0.696770
5622.000000;0.697205
5621.000000;0.697645
5620.000000;0.698100
5619.000000;0.698552
5618.000000;0.698993
5617.000000;0.699443
5616.000000;0.699915
5615.000000;0.700388
5614.000000;0.700826
5613.000000;0.701219
5612.000000;0.701596
5611.000000;0.701988
5610.000000;0.702393
5609.000000;0.702781
5608.000000;0.703131
5607.000000;0.703459
5606.000000;0.703810
5605.000000;0.704219
5604.000000;0.704676
5603.000000;0.705128
5602.000000;0.705523
5601.000000;0.705860
5600.000000;0.706181
5599.000000;0.706515
5598.000000;0.706843
5597.000000;0.707131
5596.000000;0.707376
5595.000000;0.707615
5594.000000;0.707880
5593.000000;0.708174
5592.000000;0.708486
5591.000000;0.708815
5590.000000;0.709150
5589.000000;0.709465
5588.000000;0.709733
5587.000000;0.709964
5586.000000;0.710193
5585.000000;0.710446
5584.000000;0.710712
5583.000000;0.710962
5582.000000;0.711176
5581.000000;0.711362
5580.000000;0.711541
5579.000000;0.711718
5578.000000;0.711869
5577.000000;0.711967
5576.000000;0.712046
5575.000000;0.712179
5574.000000;0.712407
5573.000000;0.712678
5572.000000;0.712915
5571.000000;0.713101
5570.000000;0.713274
5569.000000;0.713442
5568.000000;0.713569
5567.000000;0.713642
5566.000000;0.713701
5565.000000;0.713790
5564.000000;0.713910
5563.000000;0.714037
5562.000000;0.714163
5561.000000;0.714278
5560.000000;0.714372
5559.000000;0.714454
5558.000000;0.714560
5557.000000;0.714705
5556.000000;0.714850
5555.000000;0.714941
5554.000000;0.714980
5553.000000;0.715026
5552.000000;0.715128
5551.000000;0.715283
5550.000000;0.715441
5549.000000;0.715552
5548.000000;0.715600
5547.000000;0.715620
5546.000000;0.715653
5545.000000;0.715705
5544.000000;0.715753
5543.000000;0.715809
5542.000000;0.715909
5541.000000;0.716052
5540.000000;0.716179
5539.000000;0.716254
5538.000000;0.716309
5537.000000;0.716382
5536.000000;0.716454
5535.000000;0.716490
5534.000000;0.716525
5533.000000;0.716626
5532.000000;0.716794
5531.000000;0.716954
5530.000000;0.717043
5529.000000;0.717060
5528.000000;0.717030
5527.000000;0.716975
5526.000000;0.716919
5525.000000;0.716900
5524.000000;0.716936
5523.000000;0.717019
5522.000000;0.717136
5521.000000;0.717283
5520.000000;0.717462
5519.000000;0.717675
5518.000000;0.717917
5517.000000;0.718153
5516.000000;0.718325
5515.000000;0.718402
5514.000000;0.718430
5513.000000;0.718490
5512.000000;0.718615
5511.000000;0.718771
5510.000000;0.718902
5509.000000;0.718986
5508.000000;0.719028
5507.000000;0.719056
5506.000000;0.719115
5505.000000;0.719246
5504.000000;0.719467
5503.000000;0.719756
5502.000000;0.720055
5501.000000;0.720300
5500.000000;0.720459
5499.000000;0.720569
5498.000000;0.720698
5497.000000;0.720849
5496.000000;0.720950
5495.000000;0.720971
5494.000000;0.721015
5493.000000;0.721211
5492.000000;0.721540
5491.000000;0.721848
5490.000000;0.722036
5489.000000;0.722170
5488.000000;0.722385
5487.000000;0.722743
5486.000000;0.723212
5485.000000;0.723706
5484.000000;0.724134
5483.000000;0.724423
5482.000000;0.724579
5481.000000;0.724710
5480.000000;0.724946
5479.000000;0.725320
5478.000000;0.725740
5477.000000;0.726103
5476.000000;0.726411
5475.000000;0.726767
5474.000000;0.727227
5473.000000;0.727717
5472.000000;0.728125
5471.000000;0.728453
5470.000000;0.728802
5469.000000;0.729232
5468.000000;0.729680
5467.000000;0.730068
5466.000000;0.730416
5465.000000;0.730806
5464.000000;0.731279
5463.000000;0.731821
5462.000000;0.732417
5461.000000;0.733072
5460.000000;0.733771
5459.000000;0.734472
5458.000000;0.735129
5457.000000;0.735713
5456.000000;0.736240
5455.000000;0.736776
5454.000000;0.737388
5453.000000;0.738064
5452.000000;0.738738
5451.000000;0.739401
5450.000000;0.740118
5449.000000;0.740904
5448.000000;0.741661
5447.000000;0.742320
5446.000000;0.742981
5445.000000;0.743789
5444.000000;0.744727
5443.000000;0.745649
5442.000000;0.746496
5441.000000;0.747376
5440.000000;0.748402
5439.000000;0.749522
5438.000000;0.750592
5437.000000;0.751542
5436.000000;0.752444
5435.000000;0.753440
5434.000000;0.754621
5433.000000;0.755946
5432.000000;0.757283
5431.000000;0.758526
5430.000000;0.759697
5429.000000;0.760919
5428.000000;0.762292
5427.000000;0.763794
5426.000000;0.765341
5425.000000;0.766885
5424.000000;0.768418
5423.000000;0.769936
5422.000000;0.771411
5421.000000;0.772820
5420.000000;0.774203
5419.000000;0.775668
5418.000000;0.777291
5417.000000;0.779019
5416.000000;0.780744
5415.000000;0.782472
5414.000000;0.784342
5413.000000;0.786424
5412.000000;0.788607
5411.000000;0.790757
5410.000000;0.792902
5409.000000;0.795161
5408.000000;0.797546
5407.000000;0.799947
5406.000000;0.802301
5405.000000;0.804665
5404.000000;0.807103
5403.000000;0.809609
5402.000000;0.812138
5401.000000;0.814663
5400.000000;0.817196
5399.000000;0.819816
5398.000000;0.822650
5397.000000;0.825754
5396.000000;0.829011
5395.000000;0.832264
5394.000000;0.835507
5393.000000;0.838867
5392.000000;0.842421
5391.000000;0.846122
5390.000000;0.849895
5389.000000;0.853702
5388.000000;0.857535
5387.000000;0.861423
5386.000000;0.865443
5385.000000;0.869645
5384.000000;0.873967
5383.000000;0.878331
5382.000000;0.882778
5381.000000;0.887397
5380.000000;0.892158
5379.000000;0.896966
5378.000000;0.901853
5377.000000;0.906977
5376.000000;0.912407
5375.000000;0.918058
5374.000000;0.923866
5373.000000;0.929864
5372.000000;0.936060
5371.000000;0.942379
5370.000000;0.948795
5369.000000;0.955379
5368.000000;0.962176
5367.000000;0.969136
5366.000000;0.976215
5365.000000;0.983465
5364.000000;0.990952
5363.000000;0.998690
5362.000000;1.006694
5361.000000;1.015008
5360.000000;1.023662
5359.000000;1.032631
5358.000000;1.041845
5357.000000;1.051178
5356.000000;1.060534
5355.000000;1.070009
5354.000000;1.079894
5353.000000;1.090340
5352.000000;1.101109
5351.000000;1.111873
5350.000000;1.122679
5349.000000;1.133853
5348.000000;1.145528
5347.000000;1.157564
5346.000000;1.169938
5345.000000;1.182870
5344.000000;1.196448
5343.000000;1.210411
5342.000000;1.224479
5341.000000;1.238680
5340.000000;1.253256
5339.000000;1.268475
5338.000000;1.284513
5337.000000;1.301277
5336.000000;1.318362
5335.000000;1.335434
5334.000000;1.352636
5333.000000;1.370377
5332.000000;1.388760
5331.000000;1.407528
5330.000000;1.426604
5329.000000;1.446301
5328.000000;1.466895
5327.000000;1.488344
5326.000000;1.510459
5325.000000;1.533061
5324.000000;1.555958
5323.000000;1.579152
5322.000000;1.603071
5321.000000;1.628132
5320.000000;1.654048
5319.000000;1.680113
5318.000000;1.706208
5317.000000;1.732949
5316.000000;1.760745
5315.000000;1.789333
5314.000000;1.818365
5313.000000;1.847806
5312.000000;1.877647
5311.000000;1.907919
5310.000000;1.939050
5309.000000;1.971433
5308.000000;2.004546
5307.000000;2.037372
5306.000000;2.069812
5305.000000;2.102647
5304.000000;2.136097
5303.000000;2.169653
5302.000000;2.203362
5301.000000;2.237751
5300.000000;2.272302
5299.000000;2.305614
5298.000000;2.337357
5297.000000;2.368630
5296.000000;2.400492
5295.000000;2.433512
5294.000000;2.468101
5293.000000;2.503582
5292.000000;2.537745
5291.000000;2.569245
5290.000000;2.599092
5289.000000;2.627438
5288.000000;2.651700
5287.000000;2.671612
5286.000000;2.692796
5285.000000;2.720106
5284.000000;2.749401
5283.000000;2.772102
5282.000000;2.787886
5281.000000;2.803608
5280.000000;2.821142
5279.000000;2.836236
5278.000000;2.847911
5277.000000;2.860487
5276.000000;2.875899
5275.000000;2.890760
5274.000000;2.902266
5273.000000;2.911941
5272.000000;2.921449
5271.000000;2.930746
5270.000000;2.940602
5269.000000;2.949899
5268.000000;2.952803
5267.000000;2.946567
5266.000000;2.938246
5265.000000;2.936410
5264.000000;2.942161
5263.000000;2.952789
5262.000000;2.967940
5261.000000;2.985516
5260.000000;2.997063
5259.000000;2.997030
5258.000000;2.992305
5257.000000;2.992616
5256.000000;2.997242
5255.000000;2.998432
5254.000000;2.994295
5253.000000;2.990416
5252.000000;2.990744
5251.000000;2.994805
5250.000000;3.000711
5249.000000;3.004585
5248.000000;3.001164
5247.000000;2.991130
5246.000000;2.982878
5245.000000;2.983729
5244.000000;2.991616
5243.000000;2.997171
5242.000000;2.995399
5241.000000;2.989303
5240.000000;2.982673
5239.000000;2.977785
5238.000000;2.975525
5237.000000;2.973301
5236.000000;2.968033
5235.000000;2.963048
5234.000000;2.965380
5233.000000;2.974316
5232.000000;2.978841
5231.000000;2.972232
5230.000000;2.963261
5229.000000;2.963479
5228.000000;2.972489
5227.000000;2.982548
5226.000000;2.990863
5225.000000;2.999379
5224.000000;3.005541
5223.000000;3.003486
5222.000000;2.993297
5221.000000;2.979686
5220.000000;2.964258
5219.000000;2.947645
5218.000000;2.935597
5217.000000;2.933958
5216.000000;2.940123
5215.000000;2.945914
5214.000000;2.947135
5213.000000;2.946093
5212.000000;2.946718
5211.000000;2.950947
5210.000000;2.957871
5209.000000;2.963445
5208.000000;2.964087
5207.000000;2.963627
5206.000000;2.971582
5205.000000;2.990783
5204.000000;3.011180
5203.000000;3.020554
5202.000000;3.017848
5201.000000;3.008554
5200.000000;2.994512
5199.000000;2.977116
5198.000000;2.963063
5197.000000;2.958365
5196.000000;2.960809
5195.000000;2.964356
5194.000000;2.969621
5193.000000;2.981924
5192.000000;2.998317
5191.000000;3.007639
5190.000000;3.007780
5189.000000;3.008128
5188.000000;3.011698
5187.000000;3.010867
5186.000000;3.000841
5185.000000;2.987154
5184.000000;2.978821
5183.000000;2.980246
5182.000000;2.989146
5181.000000;2.998988
5180.000000;3.004263
5179.000000;3.005565
5178.000000;3.006997
5177.000000;3.008062
5176.000000;3.003627
5175.000000;2.992484
5174.000000;2.979414
5173.000000;2.968285
5172.000000;2.959461
5171.000000;2.955033
5170.000000;2.960119
5169.000000;2.974472
5168.000000;2.987402
5167.000000;2.988447
5166.000000;2.981169
5165.000000;2.977125
5164.000000;2.979453
5163.000000;2.980021
5162.000000;2.971658
5161.000000;2.957378
5160.000000;2.945477
5159.000000;2.941688
5158.000000;2.946938
5157.000000;2.957984
5156.000000;2.969927
5155.000000;2.980180
5154.000000;2.988985
5153.000000;2.994130
5152.000000;2.989731
5151.000000;2.975379
5150.000000;2.959281
5149.000000;2.948706
5148.000000;2.943759
5147.000000;2.941904
5146.000000;2.944393
5145.000000;2.953655
5144.000000;2.965851
5143.000000;2.971839
5142.000000;2.967436
5141.000000;2.958120
5140.000000;2.952375
5139.000000;2.954161
5138.000000;2.961142
5137.000000;2.967405
5136.000000;2.968828
5135.000000;2.967896
5134.000000;2.970655
5133.000000;2.978081
5132.000000;2.984695
5131.000000;2.986869
5130.000000;2.986779
5129.000000;2.984814
5128.000000;2.975594
5127.000000;2.957990
5126.000000;2.941447
5125.000000;2.934007
5124.000000;2.931985
5123.000000;2.928619
5122.000000;2.926694
5121.000000;2.933603
5120.000000;2.948546
5119.000000;2.961253
5118.000000;2.963565
5117.000000;2.957956
5116.000000;2.950559
5115.000000;2.943381
5114.000000;2.937936
5113.000000;2.939226
5112.000000;2.950673
5111.000000;2.967297
5110.000000;2.977305
5109.000000;2.973063
5108.000000;2.959765
5107.000000;2.948777
5106.000000;2.944593
5105.000000;2.941914
5104.000000;2.934912
5103.000000;2.926363
5102.000000;2.923518
5101.000000;2.927489
5100.000000;2.932551
5099.000000;2.935505
5098.000000;2.939753
5097.000000;2.948027
5096.000000;2.955683
5095.000000;2.956090
5094.000000;2.950361
5093.000000;2.944696
5092.000000;2.941632
5091.000000;2.940513
5090.000000;2.942941
5089.000000;2.950961
5088.000000;2.960724
5087.000000;2.963608
5086.000000;2.956060
5085.000000;2.945182
5084.000000;2.940803
5083.000000;2.945931
5082.000000;2.956265
5081.000000;2.964046
5080.000000;2.962890
5079.000000;2.953038
5078.000000;2.941095
5077.000000;2.933602
5076.000000;2.932680
5075.000000;2.936510
5074.000000;2.941097
5073.000000;2.942089
5072.000000;2.936591
5071.000000;2.926913
5070.000000;2.921873
5069.000000;2.928371
5068.000000;2.942453
5067.000000;2.952111
5066.000000;2.950077
5065.000000;2.938573
5064.000000;2.924366
5063.000000;2.915119
5062.000000;2.914454
5061.000000;2.919194
5060.000000;2.922712
5059.000000;2.920788
5058.000000;2.914308
5057.000000;2.906630
5056.000000;2.899539
5055.000000;2.894537
5054.000000;2.895804
5053.000000;2.904994
5052.000000;2.915515
5051.000000;2.917523
5050.000000;2.907706
5049.000000;2.890955
5048.000000;2.874937
5047.000000;2.866522
5046.000000;2.869780
5045.000000;2.882702
5044.000000;2.896653
5043.000000;2.902950
5042.000000;2.899933
5041.000000;2.891654
5040.000000;2.882947
5039.000000;2.877345
5038.000000;2.876155
5037.000000;2.876737
5036.000000;2.873244
5035.000000;2.862640
5034.000000;2.849432
5033.000000;2.841496
5032.000000;2.841962
5031.000000;2.846039
5030.000000;2.845257
5029.000000;2.835878
5028.000000;2.823366
5027.000000;2.817594
5026.000000;2.823440
5025.000000;2.834961
5024.000000;2.839697
5023.000000;2.831752
5022.000000;2.817189
5021.000000;2.804431
5020.000000;2.796387
5019.000000;2.792603
5018.000000;2.792766
5017.000000;2.795434
5016.000000;2.796839
5015.000000;2.794169
5014.000000;2.787932
5013.000000;2.779600
5012.000000;2.770205
5011.000000;2.762116
5010.000000;2.758423
5009.000000;2.758759
5008.000000;2.758505
5007.000000;2.754271
5006.000000;2.747546
5005.000000;2.740810
5004.000000;2.734085
5003.000000;2.727529
5002.000000;2.722859
5001.000000;2.719287
5000.000000;2.712366
4999.000000;2.700946
4998.000000;2.691154
4997.000000;2.688680
4996.000000;2.690936
4995.000000;2.690525
4994.000000;2.684501
4993.000000;2.676017
4992.000000;2.667775
4991.000000;2.659229
4990.000000;2.650113
4989.000000;2.641835
4988.000000;2.634747
4987.000000;2.627772
4986.000000;2.621079
4985.000000;2.616229
4984.000000;2.613500
4983.000000;2.611356
4982.000000;2.608797
4981.000000;2.605926
4980.000000;2.601838
4979.000000;2.594887
4978.000000;2.585958
4977.000000;2.578381
4976.000000;2.573251
4975.000000;2.567512
4974.000000;2.558372
4973.000000;2.547547
4972.000000;2.539069
4971.000000;2.534323
4970.000000;2.530853
4969.000000;2.525635
4968.000000;2.518643
4967.000000;2.512818
4966.000000;2.510809
4965.000000;2.512105
4964.000000;2.513238
4963.000000;2.510655
4962.000000;2.503460
4961.000000;2.493495
4960.000000;2.483399
4959.000000;2.474889
4958.000000;2.467962
4957.000000;2.461150
4956.000000;2.453277
4955.000000;2.445428
4954.000000;2.440233
4953.000000;2.438519
4952.000000;2.437687
4951.000000;2.434509
4950.000000;2.428813
4949.000000;2.422973
4948.000000;2.418318
4947.000000;2.413536
4946.000000;2.406668
4945.000000;2.397709
4944.000000;2.388719
4943.000000;2.381777
4942.000000;2.377108
4941.000000;2.372982
4940.000000;2.367620
4939.000000;2.361211
4938.000000;2.355281
4937.000000;2.350332
4936.000000;2.345138
4935.000000;2.338590
4934.000000;2.331410
4933.000000;2.325109
4932.000000;2.319881
4931.000000;2.314590
4930.000000;2.308323
4929.000000;2.301132
4928.000000;2.293660
4927.000000;2.286630
4926.000000;2.280378
4925.000000;2.274501
4924.000000;2.268335
4923.000000;2.261984
4922.000000;2.256230
4921.000000;2.251170
4920.000000;2.245814
4919.000000;2.239559
4918.000000;2.233174
4917.000000;2.227634
4916.000000;2.222853
4915.000000;2.218405
4914.000000;2.214598
4913.000000;2.211699
4912.000000;2.208683
4911.000000;2.204049
4910.000000;2.197791
4909.000000;2.191456
4908.000000;2.186256
4907.000000;2.182000
4906.000000;2.177755
4905.000000;2.172800
4904.000000;2.166988
4903.000000;2.161006
4902.000000;2.156150
4901.000000;2.152915
4900.000000;2.149825
4899.000000;2.144505
4898.000000;2.136251
4897.000000;2.126932
4896.000000;2.119151
4895.000000;2.114042
4894.000000;2.110757
4893.000000;2.107474
4892.000000;2.102873
4891.000000;2.097111
4890.000000;2.091394
4889.000000;2.086468
4888.000000;2.081688
4887.000000;2.075905
4886.000000;2.069136
4885.000000;2.062754
4884.000000;2.057992
4883.000000;2.054657
4882.000000;2.051320
4881.000000;2.046626
4880.000000;2.040556
4879.000000;2.034531
4878.000000;2.030094
4877.000000;2.027338
4876.000000;2.024806
4875.000000;2.021124
4874.000000;2.016400
4873.000000;2.011600
4872.000000;2.007074
4871.000000;2.002368
4870.000000;1.997276
4869.000000;1.992286
4868.000000;1.987911
4867.000000;1.984123
4866.000000;1.980583
4865.000000;1.976983
4864.000000;1.973104
4863.000000;1.968903
4862.000000;1.964650
4861.000000;1.960594
4860.000000;1.956443
4859.000000;1.951539
4858.000000;1.945713
4857.000000;1.939627
4856.000000;1.934134
4855.000000;1.929562
4854.000000;1.925710
4853.000000;1.922191
4852.000000;1.918615
4851.000000;1.914699
4850.000000;1.910466
4849.000000;1.906231
4848.000000;1.902189
4847.000000;1.898108
4846.000000;1.893601
4845.000000;1.888675
4844.000000;1.883857
4843.000000;1.879718
4842.000000;1.876336
4841.000000;1.873267
4840.000000;1.869988
4839.000000;1.866264
4838.000000;1.862092
4837.000000;1.857528
4836.000000;1.852781
4835.000000;1.848333
4834.000000;1.844556
4833.000000;1.841200
4832.000000;1.837613
4831.000000;1.833617
4830.000000;1.829784
4829.000000;1.826578
4828.000000;1.823564
4827.000000;1.819899
4826.000000;1.815449
4825.000000;1.810963
4824.000000;1.807125
4823.000000;1.803851
4822.000000;1.800595
4821.000000;1.796999
4820.000000;1.793067
4819.000000;1.788973
4818.000000;1.784892
4817.000000;1.780875
4816.000000;1.776712
4815.000000;1.772014
4814.000000;1.766660
4813.000000;1.761178
4812.000000;1.756452
4811.000000;1.752963
4810.000000;1.750329
4809.000000;1.747675
4808.000000;1.744467
4807.000000;1.740883
4806.000000;1.737391
4805.000000;1.734134
4804.000000;1.730866
4803.000000;1.727373
4802.000000;1.723701
4801.000000;1.719989
4800.000000;1.716285
4799.000000;1.712599
4798.000000;1.708952
4797.000000;1.705288
4796.000000;1.701502
4795.000000;1.697621
4794.000000;1.693837
4793.000000;1.690240
4792.000000;1.686657
4791.000000;1.682884
4790.000000;1.679026
4789.000000;1.675477
4788.000000;1.672550
4787.000000;1.670104
4786.000000;1.667540
4785.000000;1.664237
4784.000000;1.660148
4783.000000;1.655908
4782.000000;1.652215
4781.000000;1.649134
4780.000000;1.646156
4779.000000;1.642871
4778.000000;1.639300
4777.000000;1.635586
4776.000000;1.631713
4775.000000;1.627713
4774.000000;1.623905
4773.000000;1.620646
4772.000000;1.617945
4771.000000;1.615482
4770.000000;1.612894
4769.000000;1.609961
4768.000000;1.606680
4767.000000;1.603281
4766.000000;1.600030
4765.000000;1.596898
4764.000000;1.593587
4763.000000;1.589981
4762.000000;1.586392
4761.000000;1.583175
4760.000000;1.580291
4759.000000;1.577449
4758.000000;1.574502
4757.000000;1.571461
4756.000000;1.568242
4755.000000;1.564722
4754.000000;1.561017
4753.000000;1.557436
4752.000000;1.554147
4751.000000;1.551067
4750.000000;1.548079
4749.000000;1.545160
4748.000000;1.542278
4747.000000;1.539387
4746.000000;1.536581
4745.000000;1.534040
4744.000000;1.531736
4743.000000;1.529346
4742.000000;1.526592
4741.000000;1.523576
4740.000000;1.520635
4739.000000;1.517901
4738.000000;1.515145
4737.000000;1.512106
4736.000000;1.508882
4735.000000;1.505888
4734.000000;1.503441
4733.000000;1.501463
4732.000000;1.499601
4731.000000;1.497554
4730.000000;1.495190
4729.000000;1.492468
4728.000000;1.489426
4727.000000;1.486285
4726.000000;1.483358
4725.000000;1.480801
4724.000000;1.478501
4723.000000;1.476247
4722.000000;1.473893
4721.000000;1.471355
4720.000000;1.468619
4719.000000;1.465844
4718.000000;1.463264
4717.000000;1.460883
4716.000000;1.458408
4715.000000;1.455626
4714.000000;1.452725
4713.000000;1.450070
4712.000000;1.447779
4711.000000;1.445663
4710.000000;1.443515
4709.000000;1.441283
4708.000000;1.439004
4707.000000;1.436734
4706.000000;1.434541
4705.000000;1.432427
4704.000000;1.430273
4703.000000;1.427962
4702.000000;1.425539
4701.000000;1.423132
4700.000000;1.420786
4699.000000;1.418475
4698.000000;1.416251
4697.000000;1.414194
4696.000000;1.412225
4695.000000;1.410138
4694.000000;1.407869
4693.000000;1.405604
4692.000000;1.403553
4691.000000;1.401711
4690.000000;1.399888
4689.000000;1.397905
4688.000000;1.395717
4687.000000;1.393409
4686.000000;1.391156
4685.000000;1.389143
4684.000000;1.387451
4683.000000;1.385956
4682.000000;1.384354
4681.000000;1.382339
4680.000000;1.379874
4679.000000;1.377297
4678.000000;1.375066
4677.000000;1.373354
4676.000000;1.371940
4675.000000;1.370552
4674.000000;1.369182
4673.000000;1.367951
4672.000000;1.366741
4671.000000;1.365200
4670.000000;1.363123
4669.000000;1.360690
4668.000000;1.358261
4667.000000;1.356024
4666.000000;1.353939
4665.000000;1.351928
4664.000000;1.350013
4663.000000;1.348272
4662.000000;1.346716
4661.000000;1.345264
4660.000000;1.343839
4659.000000;1.342465
4658.000000;1.341182
4657.000000;1.339860
4656.000000;1.338205
4655.000000;1.336070
4654.000000;1.333709
4653.000000;1.331609
4652.000000;1.330029
4651.000000;1.328800
4650.000000;1.327576
4649.000000;1.326174
4648.000000;1.324609
4647.000000;1.322890
4646.000000;1.320962
4645.000000;1.318893
4644.000000;1.316997
4643.000000;1.315615
4642.000000;1.314755
4641.000000;1.314021
4640.000000;1.312952
4639.000000;1.311403
4638.000000;1.309554
4637.000000;1.307649
4636.000000;1.305826
4635.000000;1.304171
4634.000000;1.302745
4633.000000;1.301511
4632.000000;1.300350
4631.000000;1.299218
4630.000000;1.298167
4629.000000;1.297150
4628.000000;1.295901
4627.000000;1.294193
4626.000000;1.292175
4625.000000;1.290313
4624.000000;1.288966
4623.000000;1.288083
4622.000000;1.287318
4621.000000;1.286361
4620.000000;1.285145
4619.000000;1.283806
4618.000000;1.282509
4617.000000;1.281311
4616.000000;1.280170
4615.000000;1.279050
4614.000000;1.277949
4613.000000;1.276814
4612.000000;1.275516
4611.000000;1.274011
4610.000000;1.272491
4609.000000;1.271269
4608.000000;1.270477
4607.000000;1.269922
4606.000000;1.269271
4605.000000;1.268346
4604.000000;1.267223
4603.000000;1.266087
4602.000000;1.265023
4601.000000;1.263976
4600.000000;1.262862
4599.000000;1.261682
4598.000000;1.260499
4597.000000;1.259375
4596.000000;1.258360
4595.000000;1.257515
4594.000000;1.256865
4593.000000;1.256324
4592.000000;1.255744
4591.000000;1.255060
4590.000000;1.254289
4589.000000;1.253405
4588.000000;1.252339
4587.000000;1.251145
4586.000000;1.250033
4585.000000;1.249137
4584.000000;1.248339
4583.000000;1.247452
4582.000000;1.246493
4581.000000;1.245641
4580.000000;1.244956
4579.000000;1.244284
4578.000000;1.243464
4577.000000;1.242524
4576.000000;1.241615
4575.000000;1.240826
4574.000000;1.240127
4573.000000;1.239460
4572.000000;1.238839
4571.000000;1.238315
4570.000000;1.237887
4569.000000;1.237472
4568.000000;1.237007
4567.000000;1.236518
4566.000000;1.236020
4565.000000;1.235392
4564.000000;1.234498
4563.000000;1.233450
4562.000000;1.232593
4561.000000;1.232141
4560.000000;1.231926
4559.000000;1.231599
4558.000000;1.231003
4557.000000;1.230248
4556.000000;1.229480
4555.000000;1.228730
4554.000000;1.227984
4553.000000;1.227263
4552.000000;1.226608
4551.000000;1.226027
4550.000000;1.225475
4549.000000;1.224878
4548.000000;1.224211
4547.000000;1.223590
4546.000000;1.223190
4545.000000;1.223002
4544.000000;1.222738
4543.000000;1.222102
4542.000000;1.221112
4541.000000;1.220078
4540.000000;1.219305
4539.000000;1.218904
4538.000000;1.218827
4537.000000;1.218922
4536.000000;1.218963
4535.000000;1.218778
4534.000000;1.218396
4533.000000;1.217983
4532.000000;1.217596
4531.000000;1.217113
4530.000000;1.216434
4529.000000;1.215659
4528.000000;1.215005
4527.000000;1.214629
4526.000000;1.214579
4525.000000;1.214817
4524.000000;1.215224
4523.000000;1.215603
4522.000000;1.215762
4521.000000;1.215638
4520.000000;1.215334
4519.000000;1.215011
4518.000000;1.214736
4517.000000;1.214420
4516.000000;1.213942
4515.000000;1.213332
4514.000000;1.212794
4513.000000;1.212520
4512.000000;1.212517
4511.000000;1.212653
4510.000000;1.212817
4509.000000;1.212971
4508.000000;1.213099
4507.000000;1.213179
4506.000000;1.213221
4505.000000;1.213236
4504.000000;1.213193
4503.000000;1.213048
4502.000000;1.212829
4501.000000;1.212633
4500.000000;1.212575
4499.000000;1.212749
4498.000000;1.213174
4497.000000;1.213687
4496.000000;1.213949
4495.000000;1.213688
4494.000000;1.212994
4493.000000;1.212322
4492.000000;1.212143
4491.000000;1.212600
4490.000000;1.213441
4489.000000;1.214239
4488.000000;1.214710
4487.000000;1.214888
4486.000000;1.215029
4485.000000;1.215307
4484.000000;1.215647
4483.000000;1.215858
4482.000000;1.215885
4481.000000;1.215889
4480.000000;1.216106
4479.000000;1.216684
4478.000000;1.217589
4477.000000;1.218602
4476.000000;1.219450
4475.000000;1.220007
4474.000000;1.220353
4473.000000;1.220623
4472.000000;1.220885
4471.000000;1.221216
4470.000000;1.221727
4469.000000;1.222412
4468.000000;1.223055
4467.000000;1.223476
4466.000000;1.223814
4465.000000;1.224370
4464.000000;1.225219
4463.000000;1.226148
4462.000000;1.226990
4461.000000;1.227825
4460.000000;1.228783
4459.000000;1.229813
4458.000000;1.230723
4457.000000;1.231370
4456.000000;1.231752
4455.000000;1.232048
4454.000000;1.232609
4453.000000;1.233747
4452.000000;1.235437
4451.000000;1.237284
4450.000000;1.238876
4449.000000;1.240120
4448.000000;1.241193
4447.000000;1.242262
4446.000000;1.243351
4445.000000;1.244445
4444.000000;1.245610
4443.000000;1.246980
4442.000000;1.248653
4441.000000;1.250566
4440.000000;1.252478
4439.000000;1.254126
4438.000000;1.255464
4437.000000;1.256729
4436.000000;1.258231
4435.000000;1.260063
4434.000000;1.262033
4433.000000;1.263858
4432.000000;1.265412
4431.000000;1.266815
4430.000000;1.268307
4429.000000;1.270057
4428.000000;1.272062
4427.000000;1.274182
4426.000000;1.276234
4425.000000;1.278073
4424.000000;1.279702
4423.000000;1.281331
4422.000000;1.283270
4421.000000;1.285686
4420.000000;1.288480
4419.000000;1.291370
4418.000000;1.294072
4417.000000;1.296406
4416.000000;1.298398
4415.000000;1.300312
4414.000000;1.302464
4413.000000;1.304925
4412.000000;1.307519
4411.000000;1.310137
4410.000000;1.312877
4409.000000;1.315747
4408.000000;1.318467
4407.000000;1.320768
4406.000000;1.322793
4405.000000;1.324945
4404.000000;1.327415
4403.000000;1.330093
4402.000000;1.332826
4401.000000;1.335540
4400.000000;1.338137
4399.000000;1.340573
4398.000000;1.343026
4397.000000;1.345730
4396.000000;1.348604
4395.000000;1.351269
4394.000000;1.353534
4393.000000;1.355637
4392.000000;1.357940
4391.000000;1.360547
4390.000000;1.363331
4389.000000;1.366141
4388.000000;1.368893
4387.000000;1.371586
4386.000000;1.374295
4385.000000;1.377079
4384.000000;1.379847
4383.000000;1.382402
4382.000000;1.384640
4381.000000;1.386628
4380.000000;1.388508
4379.000000;1.390444
4378.000000;1.392643
4377.000000;1.395255
4376.000000;1.398227
4375.000000;1.401372
4374.000000;1.404562
4373.000000;1.407706
4372.000000;1.410645
4371.000000;1.413296
4370.000000;1.415885
4369.000000;1.418730
4368.000000;1.421733
4367.000000;1.424331
4366.000000;1.426064
4365.000000;1.427059
4364.000000;1.427944
4363.000000;1.429437
4362.000000;1.431993
4361.000000;1.435528
4360.000000;1.439353
4359.000000;1.442608
4358.000000;1.444949
4357.000000;1.446739
4356.000000;1.448568
4355.000000;1.450790
4354.000000;1.453487
4353.000000;1.456559
4352.000000;1.459681
4351.000000;1.462467
4350.000000;1.464911
4349.000000;1.467495
4348.000000;1.470636
4347.000000;1.474108
4346.000000;1.477202
4345.000000;1.479452
4344.000000;1.481119
4343.000000;1.482981
4342.000000;1.485682
4341.000000;1.489173
4340.000000;1.492706
4339.000000;1.495455
4338.000000;1.497198
4337.000000;1.498403
4336.000000;1.499691
4335.000000;1.501360
4334.000000;1.503388
4333.000000;1.505636
4332.000000;1.507944
4331.000000;1.510154
4330.000000;1.512151
4329.000000;1.513929
4328.000000;1.515694
4327.000000;1.517914
4326.000000;1.520985
4325.000000;1.524637
4324.000000;1.527868
4323.000000;1.529903
4322.000000;1.531194
4321.000000;1.533032
4320.000000;1.536115
4319.000000;1.539815
4318.000000;1.542946
4317.000000;1.545055
4316.000000;1.546772
4315.000000;1.549046
4314.000000;1.552222
4313.000000;1.555838
4312.000000;1.559184
4311.000000;1.561980
4310.000000;1.564412
4309.000000;1.566639
4308.000000;1.568672
4307.000000;1.570853
4306.000000;1.573907
4305.000000;1.578082
4304.000000;1.582570
4303.000000;1.586308
4302.000000;1.589167
4301.000000;1.591830
4300.000000;1.594709
4299.000000;1.597608
4298.000000;1.600336
4297.000000;1.603015
4296.000000;1.605639
4295.000000;1.607809
4294.000000;1.609133
4293.000000;1.609753
4292.000000;1.610479
4291.000000;1.612589
4290.000000;1.617144
4289.000000;1.623915
4288.000000;1.631186
4287.000000;1.637340
4286.000000;1.642426
4285.000000;1.647438
4284.000000;1.652584
4283.000000;1.657239
4282.000000;1.661294
4281.000000;1.665306
4280.000000;1.669238
4279.000000;1.672361
4278.000000;1.674688
4277.000000;1.677205
4276.000000;1.680260
4275.000000;1.683043
4274.000000;1.685268
4273.000000;1.687996
4272.000000;1.691911
4271.000000;1.696176
4270.000000;1.700113
4269.000000;1.704896
4268.000000;1.712182
4267.000000;1.721454
4266.000000;1.729899
4265.000000;1.735125
4264.000000;1.737346
4263.000000;1.738839
4262.000000;1.741941
4261.000000;1.747451
4260.000000;1.754126
4259.000000;1.759712
4258.000000;1.763292
4257.000000;1.766392
4256.000000;1.771068
4255.000000;1.777395
4254.000000;1.783510
4253.000000;1.787773
4252.000000;1.790052
4251.000000;1.791149
4250.000000;1.791662
4249.000000;1.792220
4248.000000;1.793759
4247.000000;1.797651
4246.000000;1.805310
4245.000000;1.816688
4244.000000;1.828990
4243.000000;1.838139
4242.000000;1.842760
4241.000000;1.845656
4240.000000;1.849984
4239.000000;1.855345
4238.000000;1.859220
4237.000000;1.861150
4236.000000;1.863334
4235.000000;1.867657
4234.000000;1.874325
4233.000000;1.883092
4232.000000;1.893494
4231.000000;1.903375
4230.000000;1.909581
4229.000000;1.911613
4228.000000;1.912681
4227.000000;1.915877
4226.000000;1.921107
4225.000000;1.926643
4224.000000;1.931775
4223.000000;1.936439
4222.000000;1.940390
4221.000000;1.945197
4220.000000;1.955012
4219.000000;1.972007
4218.000000;1.991426
4217.000000;2.004555
4216.000000;2.008440
4215.000000;2.008619
4214.000000;2.010349
4213.000000;2.012601
4212.000000;2.012926
4211.000000;2.013631
4210.000000;2.018680
4209.000000;2.026975
4208.000000;2.033598
4207.000000;2.037923
4206.000000;2.044766
4205.000000;2.055468
4204.000000;2.064257
4203.000000;2.066727
4202.000000;2.066598
4201.000000;2.069339
4200.000000;2.073972
4199.000000;2.075967
4198.000000;2.075548
4197.000000;2.077692
4196.000000;2.084190
4195.000000;2.090895
4194.000000;2.094659
4193.000000;2.098423
4192.000000;2.106381
4191.000000;2.118846
4190.000000;2.133125
4189.000000;2.145604
4188.000000;2.152834
4187.000000;2.154452
4186.000000;2.155818
4185.000000;2.164225
4184.000000;2.180512
4183.000000;2.195956
4182.000000;2.200920
4181.000000;2.195531
4180.000000;2.186714
4179.000000;2.180532
4178.000000;2.181686
4177.000000;2.192723
4176.000000;2.210218
4175.000000;2.225295
4174.000000;2.231661
4173.000000;2.232121
4172.000000;2.233806
4171.000000;2.239676
4170.000000;2.245317
4169.000000;2.245677
4168.000000;2.244822
4167.000000;2.247311
4166.000000;2.253496
4165.000000;2.268143
4164.000000;2.293971
4163.000000;2.324018
4162.000000;2.347988
4161.000000;2.359436
4160.000000;2.355517
4159.000000;2.333048
4158.000000;2.293825
4157.000000;2.254523
4156.000000;2.234720
4155.000000;2.238905
4154.000000;2.253970
4153.000000;2.264707
4152.000000;2.275144
4151.000000;2.296861
4150.000000;2.320624
4149.000000;2.329393
4148.000000;2.325327
4147.000000;2.309076
4146.000000;2.287187
4145.000000;2.279761
4144.000000;2.290624
4143.000000;2.308898
4142.000000;2.330242
4141.000000;2.363333
4140.000000;2.409533
4139.000000;2.454204
4138.000000;2.494186
4137.000000;2.530994
4136.000000;2.546154
4135.000000;2.524337
4134.000000;2.475604
4133.000000;2.419398
4132.000000;2.368946
4131.000000;2.335738
4130.000000;2.333956
4129.000000;2.374145
4128.000000;2.449402
4127.000000;2.516653
4126.000000;2.508753
4125.000000;2.428526
4124.000000;2.348498
4123.000000;2.315007
4122.000000;2.332068
4121.000000;2.368339
4120.000000;2.379956
4119.000000;2.364996
4118.000000;2.350951
4117.000000;2.356850
4116.000000;2.387615
4115.000000;2.434396
4114.000000;2.480407
4113.000000;2.506493
4112.000000;2.509551
4111.000000;2.513495
4110.000000;2.509482
4109.000000;2.460952
4108.000000;2.391662
4107.000000;2.342385
4106.000000;2.336557
4105.000000;2.390956
4104.000000;2.498151
4103.000000;2.602062
4102.000000;2.622744
4101.000000;2.565095
4100.000000;2.501175
4099.000000;2.469903
4098.000000;2.475481
4097.000000;2.514058
4096.000000;2.577094
4095.000000;2.633140
4094.000000;2.628670
4093.000000;2.564098
4092.000000;2.500035
4091.000000;2.468033
4090.000000;2.469398
4089.000000;2.523340
4088.000000;2.656385
4087.000000;2.775964
4086.000000;2.772131
4085.000000;2.825099
4084.000000;2.948938
4083.000000;2.947146
4082.000000;2.775332
4081.000000;2.633246
4080.000000;2.602595
4079.000000;2.667935
4078.000000;2.741196
4077.000000;2.702918
4076.000000;2.625943
4075.000000;2.627502
4074.000000;2.722002
4073.000000;2.895966
4072.000000;3.058063
4071.000000;2.823274
4070.000000;2.522501
4069.000000;2.336949
4068.000000;2.244370
4067.000000;2.232816
4066.000000;2.283371
4065.000000;2.358776
4064.000000;2.402499
4063.000000;2.380941
4062.000000;2.313784
4061.000000;2.229983
4060.000000;2.173094
4059.000000;2.197556
4058.000000;2.344219
4057.000000;2.570386
4056.000000;2.656267
4055.000000;2.580915
4054.000000;2.452752
4053.000000;2.381700
4052.000000;2.403605
4051.000000;2.485505
4050.000000;2.476729
4049.000000;2.355740
4048.000000;2.311382
4047.000000;2.404739
4046.000000;2.672490
4045.000000;2.986647
4044.000000;2.938925
4043.000000;2.944419
4042.000000;3.274163
4041.000000;3.234277
4040.000000;2.832642
4039.000000;2.597789
4038.000000;2.445804
4037.000000;2.352923
4036.000000;2.304882
4035.000000;2.301147
4034.000000;2.352347
4033.000000;2.447708
4032.000000;2.531450
4031.000000;2.543654
4030.000000;2.510259
4029.000000;2.431670
4028.000000;2.308010
4027.000000;2.195243
4026.000000;2.136371
4025.000000;2.165151
4024.000000;2.287083
4023.000000;2.483336
4022.000000;2.594120
4021.000000;2.463294
4020.000000;2.357018
4019.000000;2.338833
4018.000000;2.348219
4017.000000;2.352641
4016.000000;2.337551
4015.000000;2.331892
4014.000000;2.356704
4013.000000;2.372068
4012.000000;2.360686
4011.000000;2.356309
4010.000000;2.347687
4009.000000;2.307438
4008.000000;2.262861
4007.000000;2.254592
4006.000000;2.307378
4005.000000;2.430888
4004.000000;2.645134
4003.000000;3.068273
4002.000000;3.002470
4001.000000;2.598795
4000.000000;2.496829
3999.000000;2.490329
3998.000000;2.485389
3997.000000;2.455018
3996.000000;2.430463
3995.000000;2.432074
3994.000000;2.456045
3993.000000;2.477294
3992.000000;2.468406
3991.000000;2.437470
3990.000000;2.412652
3989.000000;2.424284
3988.000000;2.478664
3987.000000;2.484235
3986.000000;2.379593
3985.000000;2.281737
3984.000000;2.219608
3983.000000;2.184105
3982.000000;2.187074
3981.000000;2.264321
3980.000000;2.424365
3979.000000;2.787175
3978.000000;3.590021
3977.000000;2.683200
3976.000000;2.407435
3975.000000;2.329257
3974.000000;2.327543
3973.000000;2.322223
3972.000000;2.344825
3971.000000;2.549517
3970.000000;3.003946
3969.000000;3.162683
3968.000000;3.319378
3967.000000;2.961762
3966.000000;2.656313
3965.000000;2.644266
3964.000000;2.799959
3963.000000;3.316900
3962.000000;2.840296
3961.000000;2.559048
3960.000000;2.577367
3959.000000;2.722153
3958.000000;2.742290
3957.000000;2.570623
3956.000000;2.458814
3955.000000;2.360063
3954.000000;2.293684
3953.000000;2.296916
3952.000000;2.354613
3951.000000;2.452347
3950.000000;2.640406
3949.000000;2.943639
3948.000000;2.940705
3947.000000;2.870129
3946.000000;3.034076
3945.000000;3.384612
3944.000000;3.635938
3943.000000;3.424098
3942.000000;3.199779
3941.000000;2.994433
3940.000000;2.855240
3939.000000;2.808424
3938.000000;2.809644
3937.000000;2.838587
3936.000000;2.882369
3935.000000;2.993876
3934.000000;3.313149
3933.000000;3.376164
3932.000000;3.450754
3931.000000;3.035718
3930.000000;2.706149
3929.000000;2.627624
3928.000000;2.611789
3927.000000;2.586069
3926.000000;2.567917
3925.000000;2.722919
3924.000000;3.003713
3923.000000;2.798053
3922.000000;2.683933
3921.000000;2.769434
3920.000000;2.992813
3919.000000;3.065670
3918.000000;2.850448
3917.000000;2.787713
3916.000000;2.905770
3915.000000;3.266318
3914.000000;3.077145
3913.000000;2.810646
3912.000000;2.949434
3911.000000;3.254467
3910.000000;3.045668
3909.000000;2.869437
3908.000000;2.803351
3907.000000;2.769100
3906.000000;2.824713
3905.000000;2.961086
3904.000000;3.012838
3903.000000;2.951769
3902.000000;2.960342
3901.000000;3.233440
3900.000000;3.303330
3899.000000;2.813210
3898.000000;2.674792
3897.000000;2.674319
3896.000000;2.670537
3895.000000;2.662103
3894.000000;2.723373
3893.000000;2.902774
3892.000000;3.409450
3891.000000;3.511226
3890.000000;2.867064
3889.000000;2.646983
3888.000000;2.584387
3887.000000;2.662435
3886.000000;2.738314
3885.000000;2.742299
3884.000000;2.797737
3883.000000;2.822289
3882.000000;2.746270
3881.000000;2.593397
3880.000000;2.471165
3879.000000;2.461918
3878.000000;2.567587
3877.000000;2.689670
3876.000000;2.600554
3875.000000;2.410278
3874.000000;2.357694
3873.000000;2.436584
3872.000000;2.517487
3871.000000;2.553527
3870.000000;2.552193
3869.000000;2.885731
3868.000000;3.138310
3867.000000;2.516460
3866.000000;2.446793
3865.000000;2.834970
3864.000000;3.000689
3863.000000;2.553341
3862.000000;2.439406
3861.000000;2.470538
3860.000000;2.553621
3859.000000;2.657621
3858.000000;2.810382
3857.000000;3.054924
3856.000000;3.030446
3855.000000;2.724390
3854.000000;2.505405
3853.000000;2.436239
3852.000000;2.491335
3851.000000;2.661678
3850.000000;2.856330
3849.000000;2.935317
3848.000000;2.909491
3847.000000;2.780059
3846.000000;2.694922
3845.000000;2.764087
3844.000000;2.949258
3843.000000;2.910632
3842.000000;2.805161
3841.000000;2.845090
3840.000000;3.067267
3839.000000;3.156213
3838.000000;2.846067
3837.000000;2.718279
3836.000000;2.813315
3835.000000;3.346970
3834.000000;3.291343
3833.000000;2.841401
3832.000000;2.786086
3831.000000;2.735067
3830.000000;2.725313
3829.000000;2.754910
3828.000000;2.869601
3827.000000;3.283499
3826.000000;3.062966
3825.000000;2.788874
3824.000000;2.773365
3823.000000;3.018120
3822.000000;3.481312
3821.000000;2.922601
3820.000000;2.683397
3819.000000;2.604607
3818.000000;2.575550
3817.000000;2.638126
3816.000000;2.765258
3815.000000;3.202766
3814.000000;3.463122
3813.000000;2.843176
3812.000000;2.681373
3811.000000;2.623503
3810.000000;2.587770
3809.000000;2.560630
3808.000000;2.536827
3807.000000;2.596880
3806.000000;2.694481
3805.000000;2.901218
3804.000000;2.633551
3803.000000;2.785477
3802.000000;2.265705
3801.000000;2.260058
3800.000000;2.858080
3799.000000;2.693147
3798.000000;2.954082
3797.000000;3.540215
3796.000000;2.985952
3795.000000;2.707448
3794.000000;2.890672
3793.000000;3.377527
3792.000000;2.722146
3791.000000;2.489195
3790.000000;2.557590
3789.000000;2.815890
3788.000000;2.775691
3787.000000;2.587919
3786.000000;2.610225
3785.000000;2.673910
3784.000000;2.822689
3783.000000;2.940182
3782.000000;3.074980
3781.000000;3.459006
3780.000000;4.045383
3779.000000;3.442219
3778.000000;3.111302
3777.000000;2.972899
3776.000000;2.938337
3775.000000;3.300291
3774.000000;2.836661
3773.000000;2.450640
3772.000000;2.355961
3771.000000;2.422292
3770.000000;2.615633
3769.000000;2.948671
3768.000000;3.350037
3767.000000;2.768003
3766.000000;2.403949
3765.000000;2.299227
3764.000000;2.194379
3763.000000;2.381610
3762.000000;2.612644
3761.000000;2.430645
3760.000000;2.425822
3759.000000;2.470249
3758.000000;2.689325
3757.000000;2.963044
3756.000000;3.183065
3755.000000;3.297908
3754.000000;3.202257
3753.000000;3.004560
3752.000000;2.860001
3751.000000;2.792005
3750.000000;3.025323
3749.000000;3.142768
3748.000000;2.692634
3747.000000;2.523879
3746.000000;2.535096
3745.000000;2.613375
3744.000000;2.684336
3743.000000;2.768987
3742.000000;2.932526
3741.000000;2.709582
3740.000000;2.676371
3739.000000;2.437121
3738.000000;2.361670
3737.000000;2.643157
3736.000000;2.752930
3735.000000;2.794791
3734.000000;3.031841
3733.000000;3.246368
3732.000000;3.119089
3731.000000;3.144541
3730.000000;3.207856
3729.000000;3.379237
3728.000000;3.615226
3727.000000;3.650346
3726.000000;3.729507
3725.000000;3.345379
3724.000000;2.952909
3723.000000;2.863269
3722.000000;2.958842
3721.000000;2.903756
3720.000000;2.732161
3719.000000;2.555033
3718.000000;2.385168
3717.000000;2.264190
3716.000000;2.437280
3715.000000;3.063860
3714.000000;2.679605
3713.000000;2.417634
3712.000000;2.362418
3711.000000;2.374642
3710.000000;2.452242
3709.000000;2.573912
3708.000000;2.668589
3707.000000;2.838800
3706.000000;3.083773
3705.000000;2.714980
3704.000000;2.515077
3703.000000;2.549013
3702.000000;2.632963
3701.000000;2.631582
3700.000000;2.585847
3699.000000;2.530005
3698.000000;2.492589
3697.000000;2.471561
3696.000000;2.505606
3695.000000;2.590990
3694.000000;2.683246
3693.000000;2.737163
3692.000000;2.831715
3691.000000;3.118805
3690.000000;3.212849
3689.000000;3.097368
3688.000000;3.099471
3687.000000;3.007386
3686.000000;2.980319
3685.000000;3.088505
3684.000000;3.197761
3683.000000;3.146654
3682.000000;3.187235
3681.000000;3.298162
3680.000000;3.105932
3679.000000;2.867891
3678.000000;2.730136
3677.000000;2.718862
3676.000000;2.822884
3675.000000;2.860195
3674.000000;2.811975
3673.000000;2.672543
3672.000000;2.650054
3671.000000;2.494627
3670.000000;2.483562
3669.000000;2.764211
3668.000000;2.854980
3667.000000;2.843073
3666.000000;2.741677
3665.000000;2.715262
3664.000000;2.653287
3663.000000;2.597990
3662.000000;2.581710
3661.000000;2.695453
3660.000000;2.938850
3659.000000;2.719469
3658.000000;2.431494
3657.000000;2.267343
3656.000000;2.168489
3655.000000;2.125002
3654.000000;2.142389
3653.000000;2.262320
3652.000000;2.695427
3651.000000;3.060322
3650.000000;2.652041
3649.000000;2.627735
3648.000000;2.668198
3647.000000;2.739834
3646.000000;2.811473
3645.000000;2.816360
3644.000000;2.889354
3643.000000;3.012939
3642.000000;3.060331
3641.000000;2.881827
3640.000000;2.799962
3639.000000;3.362192
3638.000000;2.999360
3637.000000;2.606678
3636.000000;2.524063
3635.000000;2.720138
3634.000000;3.529481
3633.000000;2.854189
3632.000000;2.670891
3631.000000;2.717500
3630.000000;2.787895
3629.000000;3.139101
3628.000000;3.156053
3627.000000;2.664787
3626.000000;2.475688
3625.000000;2.462515
3624.000000;2.578314
3623.000000;2.808649
3622.000000;3.037805
3621.000000;3.276100
3620.000000;3.470964
3619.000000;3.143267
3618.000000;2.934643
3617.000000;3.053401
3616.000000;3.191828
3615.000000;3.050768
3614.000000;2.935943
3613.000000;2.836273
3612.000000;2.778807
3611.000000;2.792025
3610.000000;3.025115
3609.000000;3.645812
3608.000000;3.195086
3607.000000;3.093126
3606.000000;2.965421
3605.000000;2.689539
3604.000000;2.534777
3603.000000;2.453254
3602.000000;2.491615
3601.000000;2.705793
3600.000000;2.952565
3599.000000;2.924862
3598.000000;2.955436
3597.000000;3.030074
3596.000000;3.376176
3595.000000;3.301988
3594.000000;2.896275
3593.000000;2.876846
3592.000000;2.957008
3591.000000;2.992454
3590.000000;2.925248
3589.000000;2.836059
3588.000000;2.780395
3587.000000;2.777994
3586.000000;2.842129
3585.000000;3.029983
3584.000000;3.036588
3583.000000;3.123092
3582.000000;3.555861
3581.000000;2.920828
3580.000000;2.688100
3579.000000;2.760564
3578.000000;2.971664
3577.000000;2.793115
3576.000000;2.554113
3575.000000;2.535754
3574.000000;2.657995
3573.000000;2.801790
3572.000000;2.863459
3571.000000;2.918873
3570.000000;2.932567
3569.000000;2.919813
3568.000000;2.981399
3567.000000;3.176387
3566.000000;3.338334
3565.000000;3.382051
3564.000000;3.459184
3563.000000;3.304994
3562.000000;3.349274
3561.000000;3.540647
3560.000000;3.049633
3559.000000;2.785977
3558.000000;2.731285
3557.000000;2.761019
3556.000000;2.845006
3555.000000;2.815608
3554.000000;2.735183
3553.000000;2.842587
3552.000000;2.995483
3551.000000;2.899197
3550.000000;2.814363
3549.000000;2.763218
3548.000000;2.755041
3547.000000;2.823087
3546.000000;2.944564
3545.000000;3.007129
3544.000000;2.946321
3543.000000;2.851988
3542.000000;2.788896
3541.000000;2.789135
3540.000000;2.867466
3539.000000;3.041806
3538.000000;3.314120
3537.000000;3.432578
3536.000000;3.198159
3535.000000;2.952162
3534.000000;2.764878
3533.000000;2.698290
3532.000000;2.768897
3531.000000;2.971188
3530.000000;3.216144
3529.000000;2.975394
3528.000000;2.746871
3527.000000;2.692688
3526.000000;2.768888
3525.000000;2.943736
3524.000000;3.021638
3523.000000;2.946470
3522.000000;3.000218
3521.000000;3.327863
3520.000000;3.248819
3519.000000;2.933929
3518.000000;2.878711
3517.000000;2.963042
3516.000000;3.059630
3515.000000;2.986706
3514.000000;3.044049
3513.000000;3.213365
3512.000000;2.906427
3511.000000;2.661664
3510.000000;2.604294
3509.000000;2.609646
3508.000000;2.597557
3507.000000;2.620283
3506.000000;2.675484
3505.000000;2.678654
3504.000000;2.638315
3503.000000;2.577785
3502.000000;2.552114
3501.000000;2.581520
3500.000000;2.752936
3499.000000;3.063767
3498.000000;2.809921
3497.000000;2.617357
3496.000000;2.587695
3495.000000;2.644609
3494.000000;2.788469
3493.000000;2.953036
3492.000000;3.028650
3491.000000;2.906835
3490.000000;2.733741
3489.000000;2.637926
3488.000000;2.623066
3487.000000;2.917390
3486.000000;3.225870
3485.000000;2.704469
3484.000000;2.528270
3483.000000;2.499112
3482.000000;2.553300
3481.000000;2.719811
3480.000000;3.239589
3479.000000;3.305261
3478.000000;2.903390
3477.000000;2.818331
3476.000000;2.780836
3475.000000;2.798881
3474.000000;2.902541
3473.000000;3.052461
3472.000000;2.918008
3471.000000;2.802432
3470.000000;2.834076
3469.000000;3.091224
3468.000000;3.662269
3467.000000;3.018512
3466.000000;2.795049
3465.000000;2.792804
3464.000000;3.068764
3463.000000;3.202542
3462.000000;2.854418
3461.000000;2.950904
3460.000000;3.330891
3459.000000;3.092860
3458.000000;2.915966
3457.000000;3.088964
3456.000000;3.140325
3455.000000;2.964612
3454.000000;3.008641
3453.000000;3.092782
3452.000000;2.819540
3451.000000;2.617340
3450.000000;2.565506
3449.000000;2.592769
3448.000000;2.707235
3447.000000;2.906351
3446.000000;2.855312
3445.000000;2.697826
3444.000000;2.680582
3443.000000;2.768438
3442.000000;2.861549
3441.000000;2.855877
3440.000000;2.817912
3439.000000;2.811055
3438.000000;2.924852
3437.000000;3.054827
3436.000000;2.840575
3435.000000;2.700567
3434.000000;2.781774
3433.000000;3.173169
3432.000000;3.143705
3431.000000;2.818607
3430.000000;2.754832
3429.000000;2.722584
3428.000000;2.740971
3427.000000;2.798794
3426.000000;2.851519
3425.000000;2.820795
3424.000000;2.740244
3423.000000;2.725650
3422.000000;2.814445
3421.000000;3.027365
3420.000000;3.272196
3419.000000;3.287852
3418.000000;3.247206
3417.000000;3.204197
3416.000000;3.131443
3415.000000;2.955542
3414.000000;2.758098
3413.000000;2.652831
3412.000000;2.638809
3411.000000;2.684661
3410.000000;2.758754
3409.000000;2.859205
3408.000000;2.856887
3407.000000;2.677058
3406.000000;2.563781
3405.000000;2.581770
3404.000000;2.765342
3403.000000;3.066676
3402.000000;2.955074
3401.000000;2.835931
3400.000000;2.927476
3399.000000;3.053729
3398.000000;2.990294
3397.000000;2.776879
3396.000000;2.639810
3395.000000;2.613177
3394.000000;2.679390
3393.000000;2.781601
3392.000000;2.815068
3391.000000;2.812626
3390.000000;2.851297
3389.000000;2.957314
3388.000000;3.009501
3387.000000;2.778178
3386.000000;2.603645
3385.000000;2.579166
3384.000000;2.725944
3383.000000;3.071609
3382.000000;3.019723
3381.000000;2.746838
3380.000000;2.682589
3379.000000;2.810508
3378.000000;2.991429
3377.000000;2.753835
3376.000000;2.577336
3375.000000;2.565374
3374.000000;2.604623
3373.000000;2.562819
3372.000000;2.512600
3371.000000;2.590370
3370.000000;2.910718
3369.000000;3.001273
3368.000000;2.795924
3367.000000;2.812604
3366.000000;2.977749
3365.000000;3.148234
3364.000000;3.086209
3363.000000;2.912882
3362.000000;2.777166
3361.000000;2.693114
3360.000000;2.655842
3359.000000;2.719989
3358.000000;2.919587
3357.000000;2.875292
3356.000000;2.709961
3355.000000;2.735480
3354.000000;2.884074
3353.000000;3.073492
3352.000000;3.524449
3351.000000;3.578310
3350.000000;2.966687
3349.000000;2.773407
3348.000000;2.730171
3347.000000;2.799809
3346.000000;2.903157
3345.000000;2.983467
3344.000000;3.022972
3343.000000;3.243780
3342.000000;3.326185
3341.000000;2.888963
3340.000000;2.718024
3339.000000;2.688888
3338.000000;2.716540
3337.000000;2.841541
3336.000000;3.148249
3335.000000;3.329775
3334.000000;3.089155
3333.000000;2.975809
3332.000000;2.876342
3331.000000;2.763056
3330.000000;2.723355
3329.000000;2.784668
3328.000000;2.893087
3327.000000;2.907129
3326.000000;2.822675
3325.000000;2.773404
3324.000000;2.793047
3323.000000;2.833563
3322.000000;2.864155
3321.000000;2.924299
3320.000000;2.975667
3319.000000;3.047458
3318.000000;3.210419
3317.000000;3.260454
3316.000000;3.053580
3315.000000;2.810846
3314.000000;2.690603
3313.000000;2.705699
3312.000000;2.846359
3311.000000;3.063505
3310.000000;3.057095
3309.000000;3.081261
3308.000000;3.261627
3307.000000;2.787890
3306.000000;2.587524
3305.000000;2.576345
3304.000000;2.677802
3303.000000;2.784947
3302.000000;2.806650
3301.000000;2.781451
3300.000000;2.773058
3299.000000;2.772170
3298.000000;2.681033
3297.000000;2.519535
3296.000000;2.411687
3295.000000;2.408734
3294.000000;2.521788
3293.000000;2.751857
3292.000000;2.943590
3291.000000;2.862062
3290.000000;2.748753
3289.000000;2.696216
3288.000000;2.702373
3287.000000;2.723804
3286.000000;2.698020
3285.000000;2.638712
3284.000000;2.575316
3283.000000;2.582744
3282.000000;2.731171
3281.000000;3.012103
3280.000000;2.999950
3279.000000;2.993469
3278.000000;3.202906
3277.000000;3.275592
3276.000000;3.255428
3275.000000;3.344647
3274.000000;3.215425
3273.000000;2.958378
3272.000000;2.787255
3271.000000;2.791586
3270.000000;2.998388
3269.000000;3.083139
3268.000000;2.922064
3267.000000;3.126536
3266.000000;3.121894
3265.000000;2.757471
3264.000000;2.650724
3263.000000;2.751581
3262.000000;3.066091
3261.000000;3.859217
3260.000000;3.092827
3259.000000;2.718431
3258.000000;2.571016
3257.000000;2.550155
3256.000000;2.605784
3255.000000;2.659102
3254.000000;2.700561
3253.000000;2.740465
3252.000000;2.720251
3251.000000;2.689275
3250.000000;2.663419
3249.000000;2.634929
3248.000000;2.726147
3247.000000;3.007615
3246.000000;3.608843
3245.000000;3.310328
3244.000000;2.790659
3243.000000;2.619718
3242.000000;2.597080
3241.000000;2.717596
3240.000000;3.099895
3239.000000;3.403593
3238.000000;3.435397
3237.000000;3.259380
3236.000000;2.891811
3235.000000;2.812822
3234.000000;2.929408
3233.000000;3.491522
3232.000000;3.296874
3231.000000;2.910569
3230.000000;2.689219
3229.000000;2.560882
3228.000000;2.534275
3227.000000;2.596366
3226.000000;2.703809
3225.000000;2.794730
3224.000000;2.896671
3223.000000;3.055911
3222.000000;3.043450
3221.000000;2.856369
3220.000000;2.748481
3219.000000;2.706043
3218.000000;2.715405
3217.000000;2.772330
3216.000000;2.884341
3215.000000;2.953748
3214.000000;2.871381
3213.000000;2.818574
3212.000000;2.884898
3211.000000;3.140389
3210.000000;3.227486
3209.000000;3.006849
3208.000000;2.889086
3207.000000;2.815278
3206.000000;2.809595
3205.000000;2.992615
3204.000000;3.010870
3203.000000;2.775041
3202.000000;2.710209
3201.000000;2.748467
3200.000000;2.831107
3199.000000;2.858636
3198.000000;2.775420
3197.000000;2.737822
3196.000000;2.762185
3195.000000;2.757412
3194.000000;2.662120
3193.000000;2.588864
3192.000000;2.621962
3191.000000;2.840656
3190.000000;3.238955
3189.000000;3.498965
3188.000000;3.532937
3187.000000;3.064841
3186.000000;2.891634
3185.000000;3.055646
3184.000000;3.136029
3183.000000;2.910585
3182.000000;2.831005
3181.000000;2.744718
3180.000000;2.686212
3179.000000;2.791824
3178.000000;3.283348
3177.000000;3.161673
3176.000000;2.865511
3175.000000;2.732821
3174.000000;2.601240
3173.000000;2.472452
3172.000000;2.411743
3171.000000;2.442408
3170.000000;2.566424
3169.000000;2.822700
3168.000000;3.033000
3167.000000;2.749282
3166.000000;2.594128
3165.000000;2.550154
3164.000000;2.564273
3163.000000;2.624899
3162.000000;2.764652
3161.000000;3.328902
3160.000000;3.064838
3159.000000;2.719178
3158.000000;2.785846
3157.000000;2.857060
3156.000000;2.856154
3155.000000;2.845509
3154.000000;2.920876
3153.000000;2.945487
3152.000000;2.758737
3151.000000;2.641796
3150.000000;2.705680
3149.000000;3.094303
3148.000000;3.368468
3147.000000;2.955135
3146.000000;2.828381
3145.000000;2.691809
3144.000000;2.574528
3143.000000;2.543169
3142.000000;2.594370
3141.000000;2.917746
3140.000000;3.475661
3139.000000;2.592867
3138.000000;2.369855
3137.000000;2.303585
3136.000000;2.394304
3135.000000;2.686186
3134.000000;2.787300
3133.000000;2.556866
3132.000000;2.534325
3131.000000;2.694768
3130.000000;2.872775
3129.000000;2.759583
3128.000000;2.714676
3127.000000;2.757932
3126.000000;2.799173
3125.000000;2.807430
3124.000000;2.751751
3123.000000;2.679612
3122.000000;2.653883
3121.000000;2.692665
3120.000000;2.770136
3119.000000;2.823219
3118.000000;2.973822
3117.000000;3.194230
3116.000000;2.716467
3115.000000;2.587154
3114.000000;2.696263
3113.000000;2.977206
3112.000000;2.987273
3111.000000;2.968621
3110.000000;2.837776
3109.000000;2.633880
3108.000000;2.575959
3107.000000;2.624855
3106.000000;2.758473
3105.000000;2.910534
3104.000000;3.048063
3103.000000;3.240790
3102.000000;3.254224
3101.000000;3.019154
3100.000000;2.774517
3099.000000;2.652100
3098.000000;2.683109
3097.000000;2.850646
3096.000000;3.334303
3095.000000;3.218070
3094.000000;2.823674
3093.000000;2.715451
3092.000000;2.709303
3091.000000;2.711160
3090.000000;2.740482
3089.000000;2.782389
3088.000000;2.751709
3087.000000;2.742259
3086.000000;2.812427
3085.000000;2.876242
3084.000000;2.847545
3083.000000;2.801037
3082.000000;2.829096
3081.000000;2.957458
3080.000000;3.087096
3079.000000;3.106006
3078.000000;3.124361
3077.000000;3.152141
3076.000000;3.413823
3075.000000;3.511656
3074.000000;2.979722
3073.000000;2.800287
3072.000000;2.857646
3071.000000;3.151210
3070.000000;3.106645
3069.000000;2.903077
3068.000000;2.858025
3067.000000;2.958126
3066.000000;3.247632
3065.000000;3.343743
3064.000000;3.100175
3063.000000;2.998860
3062.000000;2.992433
3061.000000;3.113970
3060.000000;3.239765
3059.000000;3.079603
3058.000000;2.933423
3057.000000;2.820586
3056.000000;2.741183
3055.000000;2.748616
3054.000000;2.876035
3053.000000;2.926717
3052.000000;2.798816
3051.000000;2.663170
3050.000000;2.557404
3049.000000;2.538238
3048.000000;2.620868
3047.000000;2.654553
3046.000000;2.567866
3045.000000;2.519920
3044.000000;2.536166
3043.000000;2.586321
3042.000000;2.656445
3041.000000;2.738023
3040.000000;2.811932
3039.000000;2.862828
3038.000000;2.903126
3037.000000;3.053652
3036.000000;3.410168
3035.000000;3.110760
3034.000000;2.925499
3033.000000;2.882703
3032.000000;3.075159
3031.000000;3.197098
3030.000000;2.703316
3029.000000;2.547019
3028.000000;2.576774
3027.000000;2.939985
3026.000000;3.331813
3025.000000;2.891277
3024.000000;2.806552
3023.000000;2.817647
3022.000000;2.818238
3021.000000;2.841898
3020.000000;2.934786
3019.000000;3.087975
3018.000000;3.147896
3017.000000;2.923075
3016.000000;2.689059
3015.000000;2.562105
3014.000000;2.543716
3013.000000;2.627227
3012.000000;2.866038
3011.000000;3.397766
3010.000000;3.042603
3009.000000;2.849843
3008.000000;2.891708
3007.000000;2.851230
3006.000000;2.623708
3005.000000;2.495721
3004.000000;2.465763
3003.000000;2.493286
3002.000000;2.563915
3001.000000;2.695777
3000.000000;2.933572
2999.000000;3.124294
2998.000000;3.070319
2997.000000;3.147167
2996.000000;3.258990
2995.000000;3.071418
2994.000000;2.929248
2993.000000;2.846533
2992.000000;2.753935
2991.000000;2.701348
2990.000000;2.717391
2989.000000;2.684218
2988.000000;2.611755
2987.000000;2.637776
2986.000000;2.677786
2985.000000;2.644679
2984.000000;2.680130
2983.000000;2.938680
2982.000000;3.580893
2981.000000;3.101961
2980.000000;2.974427
2979.000000;3.157406
2978.000000;3.249130
2977.000000;2.924895
2976.000000;2.787158
2975.000000;2.839613
2974.000000;3.071223
2973.000000;3.078583
2972.000000;3.013878
2971.000000;2.999138
2970.000000;2.703016
2969.000000;2.514252
2968.000000;2.484121
2967.000000;2.576398
2966.000000;2.749100
2965.000000;2.880789
2964.000000;2.951900
2963.000000;3.120020
2962.000000;3.372884
2961.000000;2.956038
2960.000000;2.742151
2959.000000;2.779344
2958.000000;2.996005
2957.000000;2.952470
2956.000000;2.747977
2955.000000;2.699200
2954.000000;2.788378
2953.000000;2.868108
2952.000000;2.778238
2951.000000;2.719085
2950.000000;2.759079
2949.000000;2.776524
2948.000000;2.737251
2947.000000;2.825359
2946.000000;3.061214
2945.000000;2.989793
2944.000000;2.789195
2943.000000;2.737684
2942.000000;2.773702
2941.000000;2.843142
2940.000000;2.861942
2939.000000;2.761565
2938.000000;2.656352
2937.000000;2.654477
2936.000000;2.847429
2935.000000;3.397485
2934.000000;3.181501
2933.000000;2.947324
2932.000000;2.821133
2931.000000;2.721624
2930.000000;2.680882
2929.000000;2.696372
2928.000000;2.766946
2927.000000;2.933797
2926.000000;3.127749
2925.000000;2.840477
2924.000000;2.614438
2923.000000;2.566234
2922.000000;2.620748
2921.000000;2.743933
2920.000000;2.822628
2919.000000;2.781966
2918.000000;2.820142
2917.000000;3.100280
2916.000000;3.081045
2915.000000;2.818344
2914.000000;2.775778
2913.000000;3.006733
2912.000000;3.246239
2911.000000;2.771482
2910.000000;2.550947
2909.000000;2.516098
2908.000000;2.597356
2907.000000;2.870978
2906.000000;2.955439
2905.000000;2.667666
2904.000000;2.607175
2903.000000;2.701431
2902.000000;2.869868
2901.000000;3.017334
2900.000000;2.976021
2899.000000;2.914459
2898.000000;2.982972
2897.000000;3.195468
2896.000000;3.047184
2895.000000;2.875829
2894.000000;2.924167
2893.000000;2.919976
2892.000000;2.884289
2891.000000;2.850271
2890.000000;2.756167
2889.000000;2.732457
2888.000000;2.750537
2887.000000;2.705498
2886.000000;2.644267
2885.000000;2.628583
2884.000000;2.678228
2883.000000;2.813846
2882.000000;3.013185
2881.000000;3.056013
2880.000000;3.024493
2879.000000;3.053609
2878.000000;3.305492
2877.000000;3.588703
2876.000000;2.961003
2875.000000;2.719119
2874.000000;2.626449
2873.000000;2.616678
2872.000000;2.727225
2871.000000;2.820482
2870.000000;2.729482
2869.000000;2.694741
2868.000000;2.761940
2867.000000;2.828987
2866.000000;2.818128
2865.000000;2.741878
2864.000000;2.699092
2863.000000;2.720209
2862.000000;2.792021
2861.000000;2.807571
2860.000000;2.697994
2859.000000;2.592658
2858.000000;2.568128
2857.000000;2.635245
2856.000000;2.723365
2855.000000;2.729776
2854.000000;2.738255
2853.000000;2.837705
2852.000000;2.898581
2851.000000;2.764849
2850.000000;2.695142
2849.000000;2.798781
2848.000000;2.776666
2847.000000;2.585319
2846.000000;2.562809
2845.000000;2.819250
2844.000000;3.105144
2843.000000;2.848831
2842.000000;2.871516
2841.000000;3.072507
2840.000000;2.976511
2839.000000;2.777614
2838.000000;2.686412
2837.000000;2.660950
2836.000000;2.651309
2835.000000;2.674555
2834.000000;2.766746
2833.000000;2.960696
2832.000000;3.068741
2831.000000;2.849479
2830.000000;2.655764
2829.000000;2.590941
2828.000000;2.627015
2827.000000;2.769155
2826.000000;3.057315
2825.000000;3.316038
2824.000000;3.128710
2823.000000;2.900409
2822.000000;2.843439
2821.000000;3.025068
2820.000000;3.058780
2819.000000;2.828903
2818.000000;2.762258
2817.000000;2.774453
2816.000000;2.851267
2815.000000;3.016365
2814.000000;3.167755
2813.000000;3.155427
2812.000000;2.999708
2811.000000;2.877071
2810.000000;2.862118
2809.000000;2.951309
2808.000000;2.928879
2807.000000;2.779397
2806.000000;2.730059
2805.000000;2.818447
2804.000000;3.013269
2803.000000;3.006761
2802.000000;2.804481
2801.000000;2.684681
2800.000000;2.662508
2799.000000;2.750793
2798.000000;2.976478
2797.000000;3.284402
2796.000000;3.341683
2795.000000;3.078938
2794.000000;2.859897
2793.000000;2.792190
2792.000000;2.790565
2791.000000;2.717133
2790.000000;2.596059
2789.000000;2.541655
2788.000000;2.598351
2787.000000;2.773295
2786.000000;3.053822
2785.000000;3.232199
2784.000000;3.196641
2783.000000;3.183215
2782.000000;3.216859
2781.000000;3.302932
2780.000000;3.358660
2779.000000;3.452813
2778.000000;3.420760
2777.000000;3.216471
2776.000000;3.353841
2775.000000;3.490909
2774.000000;3.005825
2773.000000;3.103065
2772.000000;3.248215
2771.000000;2.671994
2770.000000;2.508046
2769.000000;2.539725
2768.000000;2.686170
2767.000000;2.869521
2766.000000;2.792875
2765.000000;2.649043
2764.000000;2.600363
2763.000000;2.658651
2762.000000;2.758409
2761.000000;3.230220
2760.000000;3.332853
2759.000000;2.722731
2758.000000;2.624931
2757.000000;2.712453
2756.000000;3.126867
2755.000000;3.396530
2754.000000;3.126066
2753.000000;3.528229
2752.000000;3.450983
2751.000000;3.294460
2750.000000;3.866112
2749.000000;3.319310
2748.000000;3.176690
2747.000000;3.784607
2746.000000;3.219985
2745.000000;2.865447
2744.000000;2.784643
2743.000000;2.863060
2742.000000;3.061531
2741.000000;2.944940
2740.000000;2.774551
2739.000000;2.761525
2738.000000;2.900043
2737.000000;3.076045
2736.000000;2.964964
2735.000000;2.842360
2734.000000;2.874447
2733.000000;3.090060
2732.000000;3.184261
2731.000000;3.107963
2730.000000;3.454216
2729.000000;3.488526
2728.000000;3.062852
2727.000000;2.847415
2726.000000;2.697739
2725.000000;2.608159
2724.000000;2.588497
2723.000000;2.635098
2722.000000;2.868801
2721.000000;3.148863
2720.000000;2.797724
2719.000000;2.629830
2718.000000;2.714766
2717.000000;3.118900
2716.000000;3.173502
2715.000000;2.848412
2714.000000;2.954194
2713.000000;3.104111
2712.000000;3.075946
2711.000000;3.140466
2710.000000;3.038466
2709.000000;2.839938
2708.000000;2.757214
2707.000000;2.768323
2706.000000;2.915203
2705.000000;3.480522
2704.000000;3.395183
2703.000000;2.930566
2702.000000;2.800982
2701.000000;2.745185
2700.000000;2.799433
2699.000000;3.127697
2698.000000;3.389362
2697.000000;3.251266
2696.000000;3.742960
2695.000000;3.215669
2694.000000;2.822503
2693.000000;2.717234
2692.000000;2.704359
2691.000000;2.708811
2690.000000;2.708485
2689.000000;2.751274
2688.000000;3.046760
2687.000000;3.322234
2686.000000;2.756979
2685.000000;2.611394
2684.000000;2.645261
2683.000000;2.726721
2682.000000;2.848780
2681.000000;3.043559
2680.000000;3.198306
2679.000000;2.941102
2678.000000;2.797662
2677.000000;2.789642
2676.000000;2.819260
2675.000000;2.890676
2674.000000;3.054181
2673.000000;3.207997
2672.000000;3.137605
2671.000000;2.983820
2670.000000;2.881262
2669.000000;2.861992
2668.000000;2.899679
2667.000000;2.821223
2666.000000;2.670998
2665.000000;2.580144
2664.000000;2.537532
2663.000000;2.541972
2662.000000;2.592063
2661.000000;2.621974
2660.000000;2.646649
2659.000000;2.711608
2658.000000;3.102920
2657.000000;3.492689
2656.000000;2.901449
2655.000000;3.163491
2654.000000;3.429717
2653.000000;2.915176
2652.000000;2.839711
2651.000000;2.734599
2650.000000;2.612487
2649.000000;2.555234
2648.000000;2.575587
2647.000000;2.630183
2646.000000;2.619065
2645.000000;2.558963
2644.000000;2.508271
2643.000000;2.503749
2642.000000;2.530362
2641.000000;2.604356
2640.000000;2.724391
2639.000000;2.967161
2638.000000;3.467315
2637.000000;3.092377
2636.000000;2.804801
2635.000000;2.771364
2634.000000;2.868548
2633.000000;2.937900
2632.000000;2.854948
2631.000000;2.853117
2630.000000;2.989327
2629.000000;3.168599
2628.000000;3.259465
2627.000000;3.278234
2626.000000;3.022842
2625.000000;2.780496
2624.000000;2.687493
2623.000000;2.730607
2622.000000;2.892612
2621.000000;3.062740
2620.000000;3.165597
2619.000000;3.084343
2618.000000;2.852307
2617.000000;2.704986
2616.000000;2.703175
2615.000000;2.883930
2614.000000;3.244568
2613.000000;3.261531
2612.000000;3.253640
2611.000000;3.313786
2610.000000;2.940716
2609.000000;2.749829
2608.000000;2.717227
2607.000000;2.689129
2606.000000;2.621222
2605.000000;2.576351
2604.000000;2.609410
2603.000000;2.722522
2602.000000;2.865138
2601.000000;2.974235
2600.000000;3.155850
2599.000000;3.249320
2598.000000;3.193036
2597.000000;3.309307
2596.000000;3.365719
2595.000000;3.417348
2594.000000;3.683043
2593.000000;3.712809
2592.000000;3.558580
2591.000000;3.335443
2590.000000;3.095110
2589.000000;2.917760
2588.000000;2.958509
2587.000000;3.048733
2586.000000;2.770312
2585.000000;2.597753
2584.000000;2.596564
2583.000000;2.682713
2582.000000;2.783226
2581.000000;2.825930
2580.000000;2.865258
2579.000000;2.937384
2578.000000;3.070528
2577.000000;3.362105
2576.000000;3.455442
2575.000000;3.340145
2574.000000;3.454853
2573.000000;3.225317
2572.000000;3.110180
2571.000000;3.222334
2570.000000;3.060661
2569.000000;2.859727
2568.000000;2.880617
2567.000000;2.975550
2566.000000;2.865280
2565.000000;2.651977
2564.000000;2.569075
2563.000000;2.589197
2562.000000;2.761009
2561.000000;3.386564
2560.000000;3.211805
2559.000000;2.887827
2558.000000;2.955774
2557.000000;3.126926
2556.000000;3.287322
2555.000000;3.493866
2554.000000;3.355821
2553.000000;3.072407
2552.000000;2.937021
2551.000000;2.812356
2550.000000;2.731393
2549.000000;2.663585
2548.000000;2.607813
2547.000000;2.612855
2546.000000;2.695577
2545.000000;2.738995
2544.000000;2.671083
2543.000000;2.587384
2542.000000;2.594411
2541.000000;2.666843
2540.000000;2.794344
2539.000000;3.371572
2538.000000;3.294780
2537.000000;2.846477
2536.000000;2.795315
2535.000000;2.787570
2534.000000;2.782828
2533.000000;2.715757
2532.000000;2.630948
2531.000000;2.583998
2530.000000;2.569823
2529.000000;2.613281
2528.000000;2.737876
2527.000000;2.994442
2526.000000;3.389033
2525.000000;3.248055
2524.000000;3.025683
2523.000000;3.072023
2522.000000;3.397024
2521.000000;3.984350
2520.000000;3.485265
2519.000000;3.123892
2518.000000;2.950305
2517.000000;2.788233
2516.000000;2.650515
2515.000000;2.593287
2514.000000;2.608490
2513.000000;2.627539
2512.000000;2.628249
2511.000000;2.660977
2510.000000;2.774649
2509.000000;2.996678
2508.000000;3.279458
2507.000000;3.496271
2506.000000;3.326876
2505.000000;3.147428
2504.000000;3.029922
2503.000000;3.217336
2502.000000;3.543867
2501.000000;2.979751
2500.000000;2.926918
2499.000000;3.179604
2498.000000;3.185616
2497.000000;2.887925
2496.000000;2.709557
2495.000000;2.654855
2494.000000;2.649524
2493.000000;2.653292
2492.000000;2.669310
2491.000000;2.740593
2490.000000;2.812516
2489.000000;2.829917
2488.000000;2.908940
2487.000000;3.151199
2486.000000;3.354094
2485.000000;3.445637
2484.000000;3.390452
2483.000000;3.105785
2482.000000;2.960467
2481.000000;2.936108
2480.000000;3.032738
2479.000000;3.215264
2478.000000;3.242095
2477.000000;3.139931
2476.000000;2.961608
2475.000000;2.819855
2474.000000;2.809357
2473.000000;2.894581
2472.000000;2.915679
2471.000000;2.876565
2470.000000;2.835815
2469.000000;2.720716
2468.000000;2.609965
2467.000000;2.592951
2466.000000;2.650171
2465.000000;2.674775
2464.000000;2.626523
2463.000000;2.635452
2462.000000;2.789517
2461.000000;2.960184
2460.000000;3.049786
2459.000000;2.966589
2458.000000;2.802168
2457.000000;2.762324
2456.000000;2.882897
2455.000000;3.432326
2454.000000;3.256061
2453.000000;2.821103
2452.000000;2.699017
2451.000000;2.702720
2450.000000;2.830720
2449.000000;2.864120
2448.000000;2.765172
2447.000000;2.733234
2446.000000;2.945083
2445.000000;3.590955
2444.000000;3.018314
2443.000000;3.126796
2442.000000;3.417362
2441.000000;2.775077
2440.000000;2.640647
2439.000000;2.613541
2438.000000;2.543507
2437.000000;2.440795
2436.000000;2.390697
2435.000000;2.431266
2434.000000;2.527727
2433.000000;2.635187
2432.000000;2.735503
2431.000000;2.900320
2430.000000;3.134284
2429.000000;3.102593
2428.000000;2.919774
2427.000000;2.781519
2426.000000;2.689557
2425.000000;2.676948
2424.000000;2.751491
2423.000000;2.887163
2422.000000;2.968640
2421.000000;2.906670
2420.000000;2.822641
2419.000000;2.791251
2418.000000;2.823939
2417.000000;2.918856
2416.000000;3.134844
2415.000000;3.479448
2414.000000;3.241754
2413.000000;2.949633
2412.000000;2.819397
2411.000000;2.773160
2410.000000;2.769569
2409.000000;2.810566
2408.000000;2.911981
2407.000000;3.064624
2406.000000;3.735752
2405.000000;3.652747
2404.000000;3.279958
2403.000000;3.436495
2402.000000;3.384923
2401.000000;3.674089
2400.000000;3.347888
2399.000000;3.062385
2398.000000;3.248681
2397.000000;3.224414
2396.000000;2.924480
2395.000000;2.914468
2394.000000;3.164913
2393.000000;3.622909
2392.000000;3.266133
2391.000000;3.012413
2390.000000;2.967210
2389.000000;2.974297
2388.000000;2.980943
2387.000000;2.952689
2386.000000;2.883593
2385.000000;2.821354
2384.000000;2.816437
2383.000000;2.909344
2382.000000;3.131979
2381.000000;3.642150
2380.000000;3.885824
2379.000000;3.312799
2378.000000;3.008834
2377.000000;2.800375
2376.000000;2.700011
2375.000000;2.726413
2374.000000;2.809253
2373.000000;2.793859
2372.000000;2.762974
2371.000000;2.836640
2370.000000;2.933534
2369.000000;2.911748
2368.000000;2.926647
2367.000000;2.975452
2366.000000;2.896114
2365.000000;2.833654
2364.000000;2.780312
2363.000000;2.674653
2362.000000;2.592293
2361.000000;2.554057
2360.000000;2.538629
2359.000000;2.547826
2358.000000;2.609737
2357.000000;2.843567
2356.000000;3.178542
2355.000000;3.007643
2354.000000;2.931961
2353.000000;3.041978
2352.000000;3.186387
2351.000000;3.088456
2350.000000;2.870871
2349.000000;2.773361
2348.000000;2.789495
2347.000000;2.942922
2346.000000;3.265782
2345.000000;3.675458
2344.000000;3.382316
2343.000000;2.959164
2342.000000;2.939344
2341.000000;3.383641
2340.000000;3.038453
2339.000000;2.857143
2338.000000;3.027344
2337.000000;3.554837
2336.000000;3.634627
2335.000000;3.690782
2334.000000;3.778519
2333.000000;3.273059
2332.000000;3.048033
2331.000000;2.973179
2330.000000;3.129273
2329.000000;3.577214
2328.000000;3.322491
2327.000000;3.104480
2326.000000;3.194698
2325.000000;3.490339
2324.000000;3.625793
2323.000000;3.525585
2322.000000;3.706526
2321.000000;3.328010
2320.000000;2.923838
2319.000000;2.713770
2318.000000;2.641844
2317.000000;2.693272
2316.000000;2.864077
2315.000000;3.223279
2314.000000;4.495094
2313.000000;3.470735
2312.000000;3.353104
2311.000000;3.372083
2310.000000;3.282967
2309.000000;3.136011
2308.000000;3.027041
2307.000000;2.939279
2306.000000;2.862681
2305.000000;2.855519
2304.000000;2.974567
2303.000000;3.127039
2302.000000;3.045217
2301.000000;2.987065
2300.000000;3.145447
2299.000000;3.568052
2298.000000;3.335028
2297.000000;3.048960
2296.000000;3.074623
2295.000000;3.088166
2294.000000;2.915205
2293.000000;2.841157
2292.000000;2.958678
2291.000000;3.220980
2290.000000;3.055794
2289.000000;2.837161
2288.000000;2.726352
2287.000000;2.694552
2286.000000;2.777692
2285.000000;3.069846
2284.000000;3.713406
2283.000000;3.791167
2282.000000;3.584124
2281.000000;3.021218
2280.000000;2.891057
2279.000000;2.895275
2278.000000;2.826850
2277.000000;2.702806
2276.000000;2.689436
2275.000000;2.792025
2274.000000;2.992025
2273.000000;3.277549
2272.000000;3.580854
2271.000000;3.942736
2270.000000;3.855620
2269.000000;3.349972
2268.000000;3.063862
2267.000000;2.910713
2266.000000;2.814293
2265.000000;2.734690
2264.000000;2.665539
2263.000000;2.631848
2262.000000;2.677332
2261.000000;2.851105
2260.000000;3.266832
2259.000000;3.683109
2258.000000;3.258904
2257.000000;3.206787
2256.000000;3.187337
2255.000000;3.137692
2254.000000;3.204143
2253.000000;3.288908
2252.000000;3.155079
2251.000000;2.970095
2250.000000;2.871399
2249.000000;2.890143
2248.000000;2.917408
2247.000000;2.955012
2246.000000;2.880564
2245.000000;2.709256
2244.000000;2.637977
2243.000000;2.660610
2242.000000;2.732884
2241.000000;2.802213
2240.000000;2.866623
2239.000000;2.961607
2238.000000;3.084241
2237.000000;3.217957
2236.000000;3.289499
2235.000000;3.219577
2234.000000;3.259501
2233.000000;3.683183
2232.000000;3.259191
2231.000000;3.088072
2230.000000;2.953930
2229.000000;2.752421
2228.000000;2.659886
2227.000000;2.715594
2226.000000;2.916952
2225.000000;3.426787
2224.000000;4.103515
2223.000000;3.267937
2222.000000;3.440218
2221.000000;3.600421
2220.000000;3.120317
2219.000000;2.971284
2218.000000;2.942251
2217.000000;2.852804
2216.000000;2.794280
2215.000000;2.819876
2214.000000;2.898724
2213.000000;2.920019
2212.000000;2.818804
2211.000000;2.714877
2210.000000;2.642391
2209.000000;2.593877
2208.000000;2.629263
2207.000000;2.869388
2206.000000;3.373755
2205.000000;2.920747
2204.000000;2.949161
2203.000000;3.343279
2202.000000;3.824446
2201.000000;3.124436
2200.000000;2.844030
2199.000000;2.624985
2198.000000;2.524313
2197.000000;2.549444
2196.000000;2.712760
2195.000000;3.014419
2194.000000;3.180656
2193.000000;2.905148
2192.000000;2.699175
2191.000000;2.673128
2190.000000;2.869077
2189.000000;3.269278
2188.000000;3.565345
2187.000000;3.508746
2186.000000;3.176565
2185.000000;2.968224
2184.000000;2.740850
2183.000000;2.647131
2182.000000;2.755135
2181.000000;3.238118
2180.000000;3.334235
2179.000000;3.052287
2178.000000;3.025509
2177.000000;2.961412
2176.000000;2.788414
2175.000000;2.664449
2174.000000;2.627534
2173.000000;2.624946
2172.000000;2.617374
2171.000000;2.630433
2170.000000;2.704820
2169.000000;2.849966
2168.000000;3.005011
2167.000000;3.181338
2166.000000;3.461829
2165.000000;3.194767
2164.000000;2.939976
2163.000000;2.778740
2162.000000;2.633435
2161.000000;2.609993
2160.000000;2.737579
2159.000000;2.912806
2158.000000;2.882355
2157.000000;2.847544
2156.000000;2.882106
2155.000000;2.974127
2154.000000;3.180890
2153.000000;4.273217
2152.000000;3.191718
2151.000000;2.996161
2150.000000;2.868478
2149.000000;2.704717
2148.000000;2.624131
2147.000000;2.678300
2146.000000;2.910769
2145.000000;3.192661
2144.000000;2.934573
2143.000000;2.674449
2142.000000;2.534489
2141.000000;2.539299
2140.000000;2.738869
2139.000000;2.982233
2138.000000;2.832182
2137.000000;2.721668
2136.000000;2.701490
2135.000000;2.711627
2134.000000;2.785930
2133.000000;3.059179
2132.000000;3.455143
2131.000000;3.117084
2130.000000;2.967760
2129.000000;2.838754
2128.000000;2.738454
2127.000000;2.768323
2126.000000;2.978832
2125.000000;3.239946
2124.000000;2.869508
2123.000000;2.763331
2122.000000;2.856511
2121.000000;3.132613
2120.000000;3.290633
2119.000000;2.986174
2118.000000;2.754094
2117.000000;2.703695
2116.000000;2.819590
2115.000000;3.170253
2114.000000;3.247495
2113.000000;2.979781
2112.000000;3.022938
2111.000000;2.950497
2110.000000;2.746071
2109.000000;2.666515
2108.000000;2.740342
2107.000000;3.044738
2106.000000;3.150638
2105.000000;2.913699
2104.000000;2.708711
2103.000000;2.555631
2102.000000;2.508988
2101.000000;2.561431
2100.000000;2.667554
2099.000000;2.741122
2098.000000;2.726693
2097.000000;2.676260
2096.000000;2.659720
2095.000000;2.717525
2094.000000;2.914617
2093.000000;3.277031
2092.000000;3.239011
2091.000000;3.324311
2090.000000;3.062897
2089.000000;2.654726
2088.000000;2.534519
2087.000000;2.567011
2086.000000;2.724673
2085.000000;2.959462
2084.000000;3.020501
2083.000000;2.832739
2082.000000;2.716148
2081.000000;2.672679
2080.000000;2.633746
2079.000000;2.617633
2078.000000;2.672328
2077.000000;3.030856
2076.000000;2.995664
2075.000000;2.627272
2074.000000;2.525731
2073.000000;2.579913
2072.000000;2.752959
2071.000000;2.948282
2070.000000;2.968603
2069.000000;2.961977
2068.000000;2.987425
2067.000000;2.998942
2066.000000;2.992992
2065.000000;3.030917
2064.000000;3.215290
2063.000000;3.352201
2062.000000;3.028299
2061.000000;2.704877
2060.000000;2.539592
2059.000000;2.538946
2058.000000;2.687511
2057.000000;3.021130
2056.000000;3.198676
2055.000000;2.903895
2054.000000;2.648816
2053.000000;2.508090
2052.000000;2.495150
2051.000000;2.592260
2050.000000;2.760242
2049.000000;2.890598
2048.000000;2.866450
2047.000000;2.806231
2046.000000;2.795271
2045.000000;2.824098
2044.000000;2.904155
2043.000000;3.144316
2042.000000;3.439006
2041.000000;2.889804
2040.000000;2.744696
2039.000000;2.805490
2038.000000;2.898905
2037.000000;2.761359
2036.000000;2.601547
2035.000000;2.478284
2034.000000;2.424253
2033.000000;2.441215
2032.000000;2.518994
2031.000000;2.642824
2030.000000;2.774676
2029.000000;2.853637
2028.000000;2.875253
2027.000000;2.922495
2026.000000;3.036829
2025.000000;3.631885
2024.000000;3.343725
2023.000000;2.951366
2022.000000;2.823610
2021.000000;2.763910
2020.000000;2.690273
2019.000000;2.646408
2018.000000;2.730690
2017.000000;3.000562
2016.000000;3.142997
2015.000000;3.098840
2014.000000;3.146419
2013.000000;2.969892
2012.000000;2.859420
2011.000000;2.824603
2010.000000;2.833913
2009.000000;2.890201
2008.000000;2.951280
2007.000000;2.989036
2006.000000;2.975672
2005.000000;2.794549
2004.000000;2.634608
2003.000000;2.584483
2002.000000;2.595992
2001.000000;2.612492
2000.000000;2.609372
1999.000000;2.623312
1998.000000;2.698408
1997.000000;2.814739
1996.000000;2.843156
1995.000000;2.752332
1994.000000;2.645738
1993.000000;2.595610
1992.000000;2.635076
1991.000000;2.787088
1990.000000;3.032389
1989.000000;3.025250
1988.000000;3.034334
1987.000000;3.057892
1986.000000;2.807077
1985.000000;2.748196
1984.000000;2.840494
1983.000000;2.915428
1982.000000;2.967848
1981.000000;3.129000
1980.000000;3.619700
1979.000000;3.699704
1978.000000;3.210654
1977.000000;3.131218
1976.000000;3.057905
1975.000000;2.878556
1974.000000;2.709847
1973.000000;2.680299
1972.000000;2.850965
1971.000000;3.414332
1970.000000;3.099446
1969.000000;2.955709
1968.000000;3.153039
1967.000000;3.367169
1966.000000;3.322128
1965.000000;3.247543
1964.000000;3.260545
1963.000000;3.303247
1962.000000;3.095643
1961.000000;2.863901
1960.000000;2.755562
1959.000000;2.748838
1958.000000;2.829546
1957.000000;3.061147
1956.000000;3.193576
1955.000000;2.969870
1954.000000;2.920398
1953.000000;2.948387
1952.000000;3.003865
1951.000000;3.425646
1950.000000;3.208103
1949.000000;2.765743
1948.000000;2.683159
1947.000000;2.750615
1946.000000;2.961974
1945.000000;3.284002
1944.000000;3.340566
1943.000000;3.371683
1942.000000;3.717815
1941.000000;3.125843
1940.000000;2.872599
1939.000000;2.796706
1938.000000;2.736297
1937.000000;2.663453
1936.000000;2.626349
1935.000000;2.684110
1934.000000;2.826929
1933.000000;2.943967
1932.000000;2.978016
1931.000000;3.284892
1930.000000;3.582153
1929.000000;2.985332
1928.000000;3.014871
1927.000000;3.034732
1926.000000;2.853853
1925.000000;2.824533
1924.000000;2.907602
1923.000000;2.970299
1922.000000;2.993005
1921.000000;3.017556
1920.000000;3.450945
1919.000000;3.245534
1918.000000;2.806539
1917.000000;2.660122
1916.000000;2.613048
1915.000000;2.670033
1914.000000;2.817198
1913.000000;2.970245
1912.000000;3.043763
1911.000000;3.082215
1910.000000;3.064492
1909.000000;2.965639
1908.000000;2.918632
1907.000000;3.010331
1906.000000;3.214989
1905.000000;3.127026
1904.000000;2.927198
1903.000000;2.883432
1902.000000;2.935001
1901.000000;3.272622
1900.000000;3.507243
1899.000000;3.010265
1898.000000;2.980311
1897.000000;3.059624
1896.000000;2.961106
1895.000000;2.850806
1894.000000;2.841556
1893.000000;2.877282
1892.000000;2.849430
1891.000000;2.753557
1890.000000;2.696818
1889.000000;2.763783
1888.000000;3.068274
1887.000000;3.202315
1886.000000;3.130652
1885.000000;3.488098
1884.000000;3.162225
1883.000000;2.799058
1882.000000;2.617631
1881.000000;2.535298
1880.000000;2.550234
1879.000000;2.654349
1878.000000;2.825305
1877.000000;3.028133
1876.000000;3.258850
1875.000000;3.200512
1874.000000;2.962474
1873.000000;2.845235
1872.000000;2.847494
1871.000000;3.145788
1870.000000;3.328725
1869.000000;2.977075
1868.000000;2.918093
1867.000000;2.979241
1866.000000;3.045144
1865.000000;3.042476
1864.000000;2.957452
1863.000000;2.916133
1862.000000;2.975241
1861.000000;3.108093
1860.000000;3.145883
1859.000000;2.946331
1858.000000;2.804907
1857.000000;2.773903
1856.000000;2.793076
1855.000000;2.991360
1854.000000;3.437415
1853.000000;3.034104
1852.000000;2.839605
1851.000000;2.820779
1850.000000;2.831750
1849.000000;2.863404
1848.000000;2.889951
1847.000000;2.889998
1846.000000;2.864082
1845.000000;2.804315
1844.000000;2.762063
1843.000000;2.802730
1842.000000;2.950215
1841.000000;3.133655
1840.000000;3.238002
1839.000000;3.364119
1838.000000;3.477413
1837.000000;3.244664
1836.000000;3.131230
1835.000000;3.418289
1834.000000;3.286388
1833.000000;2.926293
1832.000000;2.811519
1831.000000;2.815362
1830.000000;2.785004
1829.000000;2.678926
1828.000000;2.613199
1827.000000;2.630262
1826.000000;2.718229
1825.000000;2.832555
1824.000000;2.930741
1823.000000;3.028265
1822.000000;3.061153
1821.000000;2.990950
1820.000000;3.174076
1819.000000;3.338390
1818.000000;2.989775
1817.000000;3.011442
1816.000000;2.998998
1815.000000;2.746580
1814.000000;2.666211
1813.000000;2.775751
1812.000000;3.143819
1811.000000;3.606752
1810.000000;3.210823
1809.000000;2.972487
1808.000000;2.858518
1807.000000;2.819143
1806.000000;2.874697
1805.000000;2.943786
1804.000000;2.986557
1803.000000;3.078918
1802.000000;3.196127
1801.000000;3.103281
1800.000000;2.896154
1799.000000;2.747893
1798.000000;2.655057
1797.000000;2.619737
1796.000000;2.635923
1795.000000;2.870990
1794.000000;3.345109
1793.000000;3.186292
1792.000000;3.443272
1791.000000;3.314827
1790.000000;2.993492
1789.000000;3.060295
1788.000000;3.108551
1787.000000;3.240469
1786.000000;3.320814
1785.000000;3.241518
1784.000000;3.365213
1783.000000;3.630627
1782.000000;3.413836
1781.000000;3.198389
1780.000000;3.104872
1779.000000;3.018149
1778.000000;3.000011
1777.000000;3.050989
1776.000000;3.085219
1775.000000;3.038857
1774.000000;3.024613
1773.000000;3.114525
1772.000000;3.244894
1771.000000;3.283126
1770.000000;2.997570
1769.000000;2.666648
1768.000000;2.481583
1767.000000;2.431194
1766.000000;2.493125
1765.000000;2.659314
1764.000000;2.845507
1763.000000;2.844564
1762.000000;2.841266
1761.000000;2.912567
1760.000000;3.073253
1759.000000;3.503991
1758.000000;3.154292
1757.000000;2.930389
1756.000000;2.983542
1755.000000;2.964303
1754.000000;2.834748
1753.000000;2.726393
1752.000000;2.711188
1751.000000;2.751089
1750.000000;2.783836
1749.000000;2.789082
1748.000000;2.788870
1747.000000;2.813298
1746.000000;2.829961
1745.000000;2.830622
1744.000000;2.904397
1743.000000;3.046577
1742.000000;3.059172
1741.000000;2.998114
1740.000000;2.897011
1739.000000;2.741087
1738.000000;2.579203
1737.000000;2.440505
1736.000000;2.393706
1735.000000;2.488717
1734.000000;2.648383
1733.000000;2.769367
1732.000000;2.849752
1731.000000;2.941367
1730.000000;3.385998
1729.000000;3.319650
1728.000000;2.849313
1727.000000;2.725768
1726.000000;2.740441
1725.000000;2.811185
1724.000000;2.831652
1723.000000;2.774722
1722.000000;2.706064
1721.000000;2.679575
1720.000000;2.731988
1719.000000;2.919971
1718.000000;3.436244
1717.000000;3.637444
1716.000000;3.479107
1715.000000;3.825473
1714.000000;3.426750
1713.000000;3.406041
1712.000000;3.681523
1711.000000;3.829777
1710.000000;3.838916
1709.000000;3.518500
1708.000000;3.107075
1707.000000;2.803656
1706.000000;2.727823
1705.000000;2.813611
1704.000000;2.913547
1703.000000;2.845359
1702.000000;2.603725
1701.000000;2.508220
1700.000000;2.580043
1699.000000;2.697753
1698.000000;2.800205
1697.000000;2.717343
1696.000000;2.629308
1695.000000;2.584829
1694.000000;2.499921
1693.000000;2.473661
1692.000000;2.601547
1691.000000;2.850784
1690.000000;2.957214
1689.000000;3.094319
1688.000000;3.228241
1687.000000;2.850639
1686.000000;2.697078
1685.000000;2.785404
1684.000000;2.849804
1683.000000;2.800031
1682.000000;2.774955
1681.000000;2.771232
1680.000000;2.802141
1679.000000;2.903782
1678.000000;3.042297
1677.000000;3.074448
1676.000000;2.896213
1675.000000;2.788780
1674.000000;2.885620
1673.000000;2.959063
1672.000000;2.678463
1671.000000;2.551157
1670.000000;2.666555
1669.000000;2.972253
1668.000000;3.534390
1667.000000;3.290964
1666.000000;2.824188
1665.000000;2.651765
1664.000000;2.643462
1663.000000;2.675067
1662.000000;2.683411
1661.000000;2.722737
1660.000000;2.804312
1659.000000;2.932459
1658.000000;3.018925
1657.000000;2.981513
1656.000000;2.900840
1655.000000;2.869948
1654.000000;2.922413
1653.000000;2.900438
1652.000000;2.869988
1651.000000;2.883163
1650.000000;2.897486
1649.000000;2.903546
1648.000000;2.776132
1647.000000;2.686383
1646.000000;2.707500
1645.000000;2.740691
1644.000000;2.753588
1643.000000;2.799949
1642.000000;2.883201
1641.000000;2.952973
1640.000000;2.980587
1639.000000;2.905704
1638.000000;2.826061
1637.000000;2.896312
1636.000000;3.166744
1635.000000;3.265779
1634.000000;3.018995
1633.000000;2.870302
1632.000000;2.837670
1631.000000;2.838664
1630.000000;2.760592
1629.000000;2.717750
1628.000000;2.787159
1627.000000;2.850655
1626.000000;2.798475
1625.000000;2.789033
1624.000000;2.878252
1623.000000;2.893666
1622.000000;2.842818
1621.000000;2.838725
1620.000000;2.840821
1619.000000;2.881795
1618.000000;2.963792
1617.000000;3.011841
1616.000000;2.915989
1615.000000;3.044409
1614.000000;3.736345
1613.000000;3.051860
1612.000000;2.808103
1611.000000;2.801233
1610.000000;3.017963
1609.000000;3.574125
1608.000000;2.964217
1607.000000;2.667411
1606.000000;2.555637
1605.000000;2.548010
1604.000000;2.674660
1603.000000;2.806443
1602.000000;2.790849
1601.000000;2.918353
1600.000000;3.062529
1599.000000;2.856685
1598.000000;2.729696
1597.000000;2.740212
1596.000000;2.854085
1595.000000;2.985919
1594.000000;3.315863
1593.000000;3.445164
1592.000000;3.054410
1591.000000;2.992295
1590.000000;3.071225
1589.000000;2.992680
1588.000000;2.806776
1587.000000;2.744056
1586.000000;2.846650
1585.000000;3.193756
1584.000000;3.516782
1583.000000;3.150610
1582.000000;2.979050
1581.000000;2.904784
1580.000000;2.874518
1579.000000;3.038808
1578.000000;3.203354
1577.000000;2.888496
1576.000000;2.813863
1575.000000;2.880233
1574.000000;2.899245
1573.000000;3.361887
1572.000000;3.214640
1571.000000;2.749722
1570.000000;2.659603
1569.000000;2.688166
1568.000000;2.723926
1567.000000;2.902921
1566.000000;3.364359
1565.000000;3.044048
1564.000000;2.802041
1563.000000;2.924259
1562.000000;3.357678
1561.000000;2.682502
1560.000000;2.453469
1559.000000;2.586152
1558.000000;2.762725
1557.000000;2.829118
1556.000000;3.023437
1555.000000;3.203304
1554.000000;2.814861
1553.000000;2.724708
1552.000000;2.766787
1551.000000;2.812780
1550.000000;2.875725
1549.000000;3.182797
1548.000000;3.223997
1547.000000;2.854195
1546.000000;2.795899
1545.000000;2.817552
1544.000000;2.878672
1543.000000;2.876754
1542.000000;2.889165
1541.000000;2.884864
1540.000000;2.837802
1539.000000;2.878509
1538.000000;3.083365
1537.000000;4.181398
1536.000000;3.311634
1535.000000;3.165401
1534.000000;3.458775
1533.000000;3.091633
1532.000000;2.976765
1531.000000;3.074324
1530.000000;3.137600
1529.000000;3.070495
1528.000000;3.077682
1527.000000;3.144981
1526.000000;3.367509
1525.000000;3.455235
1524.000000;3.080295
1523.000000;2.933544
1522.000000;2.958636
1521.000000;3.039173
1520.000000;3.020810
1519.000000;2.896822
1518.000000;2.846547
1517.000000;2.916714
1516.000000;3.049631
1515.000000;3.097632
1514.000000;2.986418
1513.000000;2.917066
1512.000000;3.015926
1511.000000;3.275687
1510.000000;3.398805
1509.000000;3.189693
1508.000000;2.893024
1507.000000;2.697915
1506.000000;2.724204
1505.000000;3.032549
1504.000000;3.251342
1503.000000;2.906221
1502.000000;2.713914
1501.000000;2.611635
1500.000000;2.565345
1499.000000;2.581307
1498.000000;2.647155
1497.000000;2.790540
1496.000000;2.999329
1495.000000;3.243941
1494.000000;3.358377
1493.000000;3.392781
1492.000000;3.212028
1491.000000;2.973629
1490.000000;2.868976
1489.000000;2.938636
1488.000000;3.386510
1487.000000;3.606803
1486.000000;3.232783
1485.000000;3.289743
1484.000000;3.598093
1483.000000;3.472417
1482.000000;3.193155
1481.000000;3.068238
1480.000000;2.957103
1479.000000;2.967487
1478.000000;3.100071
1477.000000;3.076035
1476.000000;2.933851
1475.000000;2.986712
1474.000000;3.109994
1473.000000;2.971352
1472.000000;3.279112
1471.000000;3.293089
1470.000000;2.722169
1469.000000;2.610232
1468.000000;2.626507
1467.000000;2.693209
1466.000000;2.764283
1465.000000;2.831219
1464.000000;2.963885
1463.000000;3.007845
1462.000000;3.089868
1461.000000;3.711079
1460.000000;3.355261
1459.000000;2.873490
1458.000000;2.754543
1457.000000;2.799175
1456.000000;3.044018
1455.000000;3.232689
1454.000000;3.069161
1453.000000;3.017017
1452.000000;3.274030
1451.000000;3.448305
1450.000000;2.962132
1449.000000;2.807864
1448.000000;2.811199
1447.000000;2.834665
1446.000000;2.867947
1445.000000;2.872953
1444.000000;3.114400
1443.000000;3.432764
1442.000000;2.917629
1441.000000;2.813925
1440.000000;3.178020
1439.000000;3.179067
1438.000000;2.820322
1437.000000;2.752798
1436.000000;2.748177
1435.000000;2.778458
1434.000000;2.854545
1433.000000;2.899536
1432.000000;2.930511
1431.000000;2.885156
1430.000000;2.788814
1429.000000;2.758836
1428.000000;2.896642
1427.000000;3.160116
1426.000000;3.039305
1425.000000;2.961819
1424.000000;2.975586
1423.000000;2.832711
1422.000000;2.702921
1421.000000;2.677112
1420.000000;2.767656
1419.000000;2.923012
1418.000000;3.121709
1417.000000;3.332519
1416.000000;3.125876
1415.000000;2.964938
1414.000000;3.058474
1413.000000;3.065680
1412.000000;2.861876
1411.000000;2.721636
1410.000000;2.705852
1409.000000;2.813179
1408.000000;2.997329
1407.000000;3.295737
1406.000000;3.533837
1405.000000;3.184169
1404.000000;3.078357
1403.000000;3.092056
1402.000000;2.895311
1401.000000;2.735189
1400.000000;2.681459
1399.000000;2.687165
1398.000000;2.744266
1397.000000;2.887242
1396.000000;3.256802
1395.000000;3.864593
1394.000000;3.531185
1393.000000;3.181880
1392.000000;2.949159
1391.000000;2.952691
1390.000000;3.332344
1389.000000;3.751687
1388.000000;3.204880
1387.000000;2.992894
1386.000000;2.864839
1385.000000;2.874045
1384.000000;2.936503
1383.000000;2.818045
1382.000000;2.724337
1381.000000;2.771523
1380.000000;2.875573
1379.000000;2.942914
1378.000000;2.930340
1377.000000;2.969148
1376.000000;3.350857
1375.000000;3.041797
1374.000000;2.682908
1373.000000;2.610085
1372.000000;2.717111
1371.000000;2.970677
1370.000000;3.190544
1369.000000;3.187938
1368.000000;3.154814
1367.000000;3.380933
1366.000000;3.664837
1365.000000;3.216587
1364.000000;3.055210
1363.000000;2.952834
1362.000000;2.812955
1361.000000;2.683138
1360.000000;2.665847
1359.000000;2.819339
1358.000000;3.185831
1357.000000;3.955416
1356.000000;3.745834
1355.000000;3.233396
1354.000000;2.975181
1353.000000;2.830811
1352.000000;2.829903
1351.000000;2.916577
1350.000000;3.125741
1349.000000;3.305224
1348.000000;2.873899
1347.000000;2.708255
1346.000000;2.779590
1345.000000;3.041783
1344.000000;3.255761
1343.000000;3.067530
1342.000000;2.979202
1341.000000;2.984854
1340.000000;3.033573
1339.000000;3.274502
1338.000000;3.563805
1337.000000;2.979962
1336.000000;2.692830
1335.000000;2.610041
1334.000000;2.630526
1333.000000;2.620444
1332.000000;2.553784
1331.000000;2.513800
1330.000000;2.492247
1329.000000;2.491390
1328.000000;2.546039
1327.000000;2.684669
1326.000000;2.871300
1325.000000;3.022391
1324.000000;3.090624
1323.000000;3.033092
1322.000000;2.925339
1321.000000;2.855415
1320.000000;2.801144
1319.000000;2.710856
1318.000000;2.641135
1317.000000;2.656155
1316.000000;2.826785
1315.000000;2.939374
1314.000000;2.656270
1313.000000;2.511048
1312.000000;2.510821
1311.000000;2.612014
1310.000000;2.752000
1309.000000;2.807545
1308.000000;2.754458
1307.000000;2.674519
1306.000000;2.620547
1305.000000;2.598798
1304.000000;2.636698
1303.000000;2.738542
1302.000000;2.727091
1301.000000;2.583079
1300.000000;2.496512
1299.000000;2.499591
1298.000000;2.559944
1297.000000;2.655993
1296.000000;2.793030
1295.000000;2.936521
1294.000000;2.939201
1293.000000;2.843323
1292.000000;2.848970
1291.000000;2.958004
1290.000000;3.109946
1289.000000;3.108575
1288.000000;3.005330
1287.000000;3.025036
1286.000000;2.898107
1285.000000;2.755927
1284.000000;2.737119
1283.000000;2.685883
1282.000000;2.621728
1281.000000;2.646662
1280.000000;2.793730
1279.000000;3.097547
1278.000000;3.292809
1277.000000;3.188304
1276.000000;3.043628
1275.000000;2.843425
1274.000000;2.656849
1273.000000;2.537481
1272.000000;2.508051
1271.000000;2.556641
1270.000000;2.655589
1269.000000;2.798986
1268.000000;3.112411
1267.000000;3.078938
1266.000000;2.716138
1265.000000;2.554329
1264.000000;2.513628
1263.000000;2.549614
1262.000000;2.620026
1261.000000;2.683783
1260.000000;2.751871
1259.000000;2.863424
1258.000000;2.988152
1257.000000;3.170057
1256.000000;3.469229
1255.000000;3.201171
1254.000000;2.985018
1253.000000;3.161345
1252.000000;3.312602
1251.000000;2.902087
1250.000000;2.697217
1249.000000;2.639615
1248.000000;2.677769
1247.000000;2.784740
1246.000000;2.912670
1245.000000;3.068831
1244.000000;3.254147
1243.000000;3.289226
1242.000000;3.216533
1241.000000;3.351283
1240.000000;3.381884
1239.000000;3.165338
1238.000000;3.027541
1237.000000;2.973068
1236.000000;2.930902
1235.000000;2.833193
1234.000000;2.783756
1233.000000;2.908564
1232.000000;3.215580
1231.000000;2.939462
1230.000000;2.725582
1229.000000;2.710231
1228.000000;2.760955
1227.000000;2.796109
1226.000000;2.807707
1225.000000;2.833841
1224.000000;2.853437
1223.000000;2.829349
1222.000000;2.841876
1221.000000;3.034518
1220.000000;3.140372
1219.000000;3.000455
1218.000000;3.096068
1217.000000;3.449467
1216.000000;3.264586
1215.000000;3.269670
1214.000000;3.300110
1213.000000;3.113846
1212.000000;3.027699
1211.000000;2.976707
1210.000000;2.959600
1209.000000;2.886336
1208.000000;2.737737
1207.000000;2.636833
1206.000000;2.617175
1205.000000;2.685954
1204.000000;2.895908
1203.000000;3.199643
1202.000000;3.172384
1201.000000;3.154065
1200.000000;3.125459
