Criado como novo conjunto de dados;"e0108.spp","-4271564.3 Secs"
cm-1;Abs
10000.000000;1.042957
9999.000000;1.044677
9998.000000;1.046078
9997.000000;1.045700
9996.000000;1.043617
9995.000000;1.041509
9994.000000;1.040679
9993.000000;1.041009
9992.000000;1.041486
9991.000000;1.041544
9990.000000;1.041317
9989.000000;1.041018
9988.000000;1.040563
9987.000000;1.039879
9986.000000;1.039164
9985.000000;1.038664
9984.000000;1.038340
9983.000000;1.037918
9982.000000;1.037164
9981.000000;1.036073
9980.000000;1.034948
9979.000000;1.034307
9978.000000;1.034516
9977.000000;1.035389
9976.000000;1.036277
9975.000000;1.036682
9974.000000;1.036703
9973.000000;1.036734
9972.000000;1.036788
9971.000000;1.036348
9970.000000;1.035009
9969.000000;1.033156
9968.000000;1.031762
9967.000000;1.031420
9966.000000;1.031731
9965.000000;1.031799
9964.000000;1.031309
9963.000000;1.030898
9962.000000;1.031388
9961.000000;1.032827
9960.000000;1.034364
9959.000000;1.034952
9958.000000;1.034077
9957.000000;1.031980
9956.000000;1.029444
9955.000000;1.027375
9954.000000;1.026288
9953.000000;1.025982
9952.000000;1.025802
9951.000000;1.025387
9950.000000;1.025111
9949.000000;1.025598
9948.000000;1.026828
9947.000000;1.027923
9946.000000;1.027996
9945.000000;1.027132
9944.000000;1.026260
9943.000000;1.025976
9942.000000;1.025822
9941.000000;1.024929
9940.000000;1.023208
9939.000000;1.021517
9938.000000;1.020668
9937.000000;1.020665
9936.000000;1.021044
9935.000000;1.021577
9934.000000;1.022286
9933.000000;1.023032
9932.000000;1.023523
9931.000000;1.023717
9930.000000;1.023884
9929.000000;1.024211
9928.000000;1.024657
9927.000000;1.025203
9926.000000;1.025830
9925.000000;1.026099
9924.000000;1.025254
9923.000000;1.023133
9922.000000;1.020666
9921.000000;1.019022
9920.000000;1.018421
9919.000000;1.018160
9918.000000;1.017746
9917.000000;1.017440
9916.000000;1.017513
9915.000000;1.017541
9914.000000;1.016931
9913.000000;1.015880
9912.000000;1.015257
9911.000000;1.015562
9910.000000;1.016435
9909.000000;1.017184
9908.000000;1.017382
9907.000000;1.016825
9906.000000;1.015414
9905.000000;1.013492
9904.000000;1.011994
9903.000000;1.011756
9902.000000;1.012679
9901.000000;1.013869
9900.000000;1.014607
9899.000000;1.014849
9898.000000;1.014796
9897.000000;1.014394
9896.000000;1.013507
9895.000000;1.012285
9894.000000;1.011082
9893.000000;1.010101
9892.000000;1.009256
9891.000000;1.008325
9890.000000;1.007149
9889.000000;1.005792
9888.000000;1.004621
9887.000000;1.004115
9886.000000;1.004441
9885.000000;1.005248
9884.000000;1.005989
9883.000000;1.006449
9882.000000;1.006805
9881.000000;1.007188
9880.000000;1.007326
9879.000000;1.006725
9878.000000;1.005237
9877.000000;1.003394
9876.000000;1.002074
9875.000000;1.001731
9874.000000;1.001992
9873.000000;1.002114
9872.000000;1.001831
9871.000000;1.001527
9870.000000;1.001543
9869.000000;1.001615
9868.000000;1.001260
9867.000000;1.000511
9866.000000;0.999877
9865.000000;0.999603
9864.000000;0.999366
9863.000000;0.998882
9862.000000;0.998478
9861.000000;0.998700
9860.000000;0.999487
9859.000000;1.000084
9858.000000;0.999852
9857.000000;0.998959
9856.000000;0.998152
9855.000000;0.998012
9854.000000;0.998538
9853.000000;0.999299
9852.000000;0.999791
9851.000000;0.999696
9850.000000;0.999045
9849.000000;0.998189
9848.000000;0.997519
9847.000000;0.997136
9846.000000;0.996805
9845.000000;0.996248
9844.000000;0.995452
9843.000000;0.994686
9842.000000;0.994219
9841.000000;0.994059
9840.000000;0.993970
9839.000000;0.993713
9838.000000;0.993224
9837.000000;0.992560
9836.000000;0.991730
9835.000000;0.990685
9834.000000;0.989511
9833.000000;0.988521
9832.000000;0.988023
9831.000000;0.988053
9830.000000;0.988434
9829.000000;0.989026
9828.000000;0.989726
9827.000000;0.990242
9826.000000;0.990119
9825.000000;0.989155
9824.000000;0.987657
9823.000000;0.986187
9822.000000;0.985176
9821.000000;0.984862
9820.000000;0.985369
9819.000000;0.986549
9818.000000;0.987810
9817.000000;0.988422
9816.000000;0.988089
9815.000000;0.987055
9814.000000;0.985682
9813.000000;0.984174
9812.000000;0.982721
9811.000000;0.981643
9810.000000;0.981194
9809.000000;0.981311
9808.000000;0.981682
9807.000000;0.981986
9806.000000;0.982008
9805.000000;0.981616
9804.000000;0.980844
9803.000000;0.980024
9802.000000;0.979627
9801.000000;0.979808
9800.000000;0.980100
9799.000000;0.979730
9798.000000;0.978369
9797.000000;0.976554
9796.000000;0.975262
9795.000000;0.975028
9794.000000;0.975552
9793.000000;0.976099
9792.000000;0.976172
9791.000000;0.975775
9790.000000;0.975255
9789.000000;0.975042
9788.000000;0.975381
9787.000000;0.976103
9786.000000;0.976678
9785.000000;0.976666
9784.000000;0.976120
9783.000000;0.975454
9782.000000;0.974994
9781.000000;0.974769
9780.000000;0.974595
9779.000000;0.974184
9778.000000;0.973308
9777.000000;0.972121
9776.000000;0.971249
9775.000000;0.971251
9774.000000;0.971961
9773.000000;0.972640
9772.000000;0.972800
9771.000000;0.972569
9770.000000;0.972164
9769.000000;0.971382
9768.000000;0.969938
9767.000000;0.968115
9766.000000;0.966740
9765.000000;0.966504
9764.000000;0.967457
9763.000000;0.969058
9762.000000;0.970510
9761.000000;0.971147
9760.000000;0.970802
9759.000000;0.969898
9758.000000;0.969078
9757.000000;0.968664
9756.000000;0.968497
9755.000000;0.968251
9754.000000;0.967845
9753.000000;0.967481
9752.000000;0.967300
9751.000000;0.967004
9750.000000;0.965979
9749.000000;0.963982
9748.000000;0.961652
9747.000000;0.960109
9746.000000;0.959970
9745.000000;0.960923
9744.000000;0.962236
9743.000000;0.963415
9742.000000;0.964233
9741.000000;0.964479
9740.000000;0.964046
9739.000000;0.963123
9738.000000;0.961967
9737.000000;0.960607
9736.000000;0.959071
9735.000000;0.957770
9734.000000;0.957238
9733.000000;0.957493
9732.000000;0.958043
9731.000000;0.958553
9730.000000;0.959075
9729.000000;0.959503
9728.000000;0.959331
9727.000000;0.958337
9726.000000;0.957199
9725.000000;0.956904
9724.000000;0.957634
9723.000000;0.958596
9722.000000;0.958894
9721.000000;0.958266
9720.000000;0.956990
9719.000000;0.955488
9718.000000;0.954214
9717.000000;0.953576
9716.000000;0.953642
9715.000000;0.954051
9714.000000;0.954360
9713.000000;0.954409
9712.000000;0.954209
9711.000000;0.953668
9710.000000;0.952672
9709.000000;0.951423
9708.000000;0.950430
9707.000000;0.950078
9706.000000;0.950318
9705.000000;0.950798
9704.000000;0.951191
9703.000000;0.951320
9702.000000;0.951109
9701.000000;0.950567
9700.000000;0.949841
9699.000000;0.949153
9698.000000;0.948607
9697.000000;0.948109
9696.000000;0.947612
9695.000000;0.947378
9694.000000;0.947781
9693.000000;0.948770
9692.000000;0.949688
9691.000000;0.949882
9690.000000;0.949442
9689.000000;0.949097
9688.000000;0.949285
9687.000000;0.949553
9686.000000;0.949105
9685.000000;0.947794
9684.000000;0.946313
9683.000000;0.945459
9682.000000;0.945454
9681.000000;0.945953
9680.000000;0.946440
9679.000000;0.946540
9678.000000;0.946196
9677.000000;0.945682
9676.000000;0.945373
9675.000000;0.945394
9674.000000;0.945558
9673.000000;0.945634
9672.000000;0.945481
9671.000000;0.944870
9670.000000;0.943509
9669.000000;0.941516
9668.000000;0.939671
9667.000000;0.938850
9666.000000;0.939168
9665.000000;0.939890
9664.000000;0.940232
9663.000000;0.940075
9662.000000;0.939739
9661.000000;0.939318
9660.000000;0.938555
9659.000000;0.937313
9658.000000;0.935931
9657.000000;0.935068
9656.000000;0.935243
9655.000000;0.936406
9654.000000;0.937882
9653.000000;0.938873
9652.000000;0.939159
9651.000000;0.939212
9650.000000;0.939454
9649.000000;0.939566
9648.000000;0.938829
9647.000000;0.937117
9646.000000;0.935175
9645.000000;0.933778
9644.000000;0.932977
9643.000000;0.932441
9642.000000;0.932176
9641.000000;0.932445
9640.000000;0.933069
9639.000000;0.933357
9638.000000;0.932890
9637.000000;0.932018
9636.000000;0.931336
9635.000000;0.930936
9634.000000;0.930426
9633.000000;0.929551
9632.000000;0.928518
9631.000000;0.927740
9630.000000;0.927434
9629.000000;0.927496
9628.000000;0.927638
9627.000000;0.927697
9626.000000;0.927774
9625.000000;0.927948
9624.000000;0.927912
9623.000000;0.927221
9622.000000;0.926067
9621.000000;0.925397
9620.000000;0.925914
9619.000000;0.927186
9618.000000;0.928117
9617.000000;0.928170
9616.000000;0.927696
9615.000000;0.927154
9614.000000;0.926566
9613.000000;0.925861
9612.000000;0.925231
9611.000000;0.924861
9610.000000;0.924634
9609.000000;0.924403
9608.000000;0.924278
9607.000000;0.924400
9606.000000;0.924627
9605.000000;0.924700
9604.000000;0.924533
9603.000000;0.924078
9602.000000;0.923104
9601.000000;0.921475
9600.000000;0.919594
9599.000000;0.918250
9598.000000;0.917935
9597.000000;0.918467
9596.000000;0.919274
9595.000000;0.919871
9594.000000;0.920106
9593.000000;0.920112
9592.000000;0.920122
9591.000000;0.920245
9590.000000;0.920381
9589.000000;0.920347
9588.000000;0.920041
9587.000000;0.919418
9586.000000;0.918447
9585.000000;0.917250
9584.000000;0.916205
9583.000000;0.915742
9582.000000;0.915988
9581.000000;0.916698
9580.000000;0.917487
9579.000000;0.918006
9578.000000;0.918040
9577.000000;0.917654
9576.000000;0.917256
9575.000000;0.917248
9574.000000;0.917526
9573.000000;0.917503
9572.000000;0.916785
9571.000000;0.915699
9570.000000;0.914928
9569.000000;0.914664
9568.000000;0.914373
9567.000000;0.913515
9566.000000;0.912301
9565.000000;0.911473
9564.000000;0.911448
9563.000000;0.911981
9562.000000;0.912666
9561.000000;0.913374
9560.000000;0.913936
9559.000000;0.913778
9558.000000;0.912463
9557.000000;0.910535
9556.000000;0.909245
9555.000000;0.909232
9554.000000;0.909876
9553.000000;0.910192
9552.000000;0.910003
9551.000000;0.909836
9550.000000;0.909934
9549.000000;0.909911
9548.000000;0.909382
9547.000000;0.908514
9546.000000;0.907757
9545.000000;0.907300
9544.000000;0.907004
9543.000000;0.906707
9542.000000;0.906408
9541.000000;0.906169
9540.000000;0.906004
9539.000000;0.905923
9538.000000;0.906047
9537.000000;0.906555
9536.000000;0.907407
9535.000000;0.908205
9534.000000;0.908464
9533.000000;0.908034
9532.000000;0.907141
9531.000000;0.906056
9530.000000;0.904920
9529.000000;0.903912
9528.000000;0.903317
9527.000000;0.903236
9526.000000;0.903416
9525.000000;0.903572
9524.000000;0.903761
9523.000000;0.904207
9522.000000;0.904811
9521.000000;0.905072
9520.000000;0.904528
9519.000000;0.903170
9518.000000;0.901445
9517.000000;0.899957
9516.000000;0.899152
9515.000000;0.899108
9514.000000;0.899501
9513.000000;0.899831
9512.000000;0.899769
9511.000000;0.899355
9510.000000;0.898887
9509.000000;0.898621
9508.000000;0.898527
9507.000000;0.898315
9506.000000;0.897782
9505.000000;0.897174
9504.000000;0.897057
9503.000000;0.897726
9502.000000;0.898780
9501.000000;0.899446
9500.000000;0.899341
9499.000000;0.898837
9498.000000;0.898625
9497.000000;0.898937
9496.000000;0.899294
9495.000000;0.899078
9494.000000;0.898342
9493.000000;0.897806
9492.000000;0.897963
9491.000000;0.898412
9490.000000;0.898327
9489.000000;0.897391
9488.000000;0.895952
9487.000000;0.894388
9486.000000;0.892843
9485.000000;0.891629
9484.000000;0.891307
9483.000000;0.892069
9482.000000;0.893355
9481.000000;0.894394
9480.000000;0.894886
9479.000000;0.894939
9478.000000;0.894629
9477.000000;0.893944
9476.000000;0.892968
9475.000000;0.891868
9474.000000;0.890841
9473.000000;0.890248
9472.000000;0.890498
9471.000000;0.891481
9470.000000;0.892371
9469.000000;0.892354
9468.000000;0.891446
9467.000000;0.890282
9466.000000;0.889311
9465.000000;0.888561
9464.000000;0.888006
9463.000000;0.887681
9462.000000;0.887478
9461.000000;0.887222
9460.000000;0.886939
9459.000000;0.886761
9458.000000;0.886636
9457.000000;0.886421
9456.000000;0.886178
9455.000000;0.886075
9454.000000;0.886093
9453.000000;0.886136
9452.000000;0.886283
9451.000000;0.886554
9450.000000;0.886616
9449.000000;0.886194
9448.000000;0.885676
9447.000000;0.885781
9446.000000;0.886598
9445.000000;0.887471
9444.000000;0.887866
9443.000000;0.887782
9442.000000;0.887197
9441.000000;0.885819
9440.000000;0.883733
9439.000000;0.881809
9438.000000;0.880956
9437.000000;0.881200
9436.000000;0.881830
9435.000000;0.882243
9434.000000;0.882340
9433.000000;0.882278
9432.000000;0.882181
9431.000000;0.882057
9430.000000;0.881808
9429.000000;0.881360
9428.000000;0.880889
9427.000000;0.880750
9426.000000;0.881074
9425.000000;0.881598
9424.000000;0.881999
9423.000000;0.882177
9422.000000;0.882080
9421.000000;0.881559
9420.000000;0.880661
9419.000000;0.879842
9418.000000;0.879588
9417.000000;0.879926
9416.000000;0.880489
9415.000000;0.880902
9414.000000;0.880908
9413.000000;0.880326
9412.000000;0.879218
9411.000000;0.877999
9410.000000;0.877072
9409.000000;0.876358
9408.000000;0.875496
9407.000000;0.874481
9406.000000;0.873862
9405.000000;0.874199
9404.000000;0.875432
9403.000000;0.876848
9402.000000;0.877594
9401.000000;0.877236
9400.000000;0.875958
9399.000000;0.874322
9398.000000;0.872868
9397.000000;0.871938
9396.000000;0.871740
9395.000000;0.872342
9394.000000;0.873522
9393.000000;0.874763
9392.000000;0.875562
9391.000000;0.875745
9390.000000;0.875475
9389.000000;0.875072
9388.000000;0.874800
9387.000000;0.874656
9386.000000;0.874323
9385.000000;0.873520
9384.000000;0.872451
9383.000000;0.871677
9382.000000;0.871472
9381.000000;0.871540
9380.000000;0.871495
9379.000000;0.871334
9378.000000;0.871221
9377.000000;0.871109
9376.000000;0.870907
9375.000000;0.870844
9374.000000;0.871234
9373.000000;0.871948
9372.000000;0.872484
9371.000000;0.872628
9370.000000;0.872668
9369.000000;0.872850
9368.000000;0.872903
9367.000000;0.872338
9366.000000;0.871056
9365.000000;0.869462
9364.000000;0.868079
9363.000000;0.867214
9362.000000;0.866913
9361.000000;0.867070
9360.000000;0.867537
9359.000000;0.868171
9358.000000;0.868817
9357.000000;0.869270
9356.000000;0.869367
9355.000000;0.869154
9354.000000;0.868891
9353.000000;0.868829
9352.000000;0.868953
9351.000000;0.868955
9350.000000;0.868498
9349.000000;0.867522
9348.000000;0.866323
9347.000000;0.865317
9346.000000;0.864722
9345.000000;0.864507
9344.000000;0.864594
9343.000000;0.864976
9342.000000;0.865582
9341.000000;0.866123
9340.000000;0.866233
9339.000000;0.865785
9338.000000;0.864950
9337.000000;0.863994
9336.000000;0.863152
9335.000000;0.862685
9334.000000;0.862795
9333.000000;0.863308
9332.000000;0.863594
9331.000000;0.863050
9330.000000;0.861784
9329.000000;0.860660
9328.000000;0.860534
9327.000000;0.861475
9326.000000;0.862744
9325.000000;0.863478
9324.000000;0.863332
9323.000000;0.862545
9322.000000;0.861569
9321.000000;0.860748
9320.000000;0.860186
9319.000000;0.859789
9318.000000;0.859425
9317.000000;0.859122
9316.000000;0.859075
9315.000000;0.859375
9314.000000;0.859815
9313.000000;0.860075
9312.000000;0.860074
9311.000000;0.860019
9310.000000;0.860099
9309.000000;0.860253
9308.000000;0.860255
9307.000000;0.859945
9306.000000;0.859350
9305.000000;0.858685
9304.000000;0.858276
9303.000000;0.858331
9302.000000;0.858716
9301.000000;0.859036
9300.000000;0.859038
9299.000000;0.858901
9298.000000;0.859013
9297.000000;0.859495
9296.000000;0.860008
9295.000000;0.860058
9294.000000;0.859434
9293.000000;0.858358
9292.000000;0.857238
9291.000000;0.856334
9290.000000;0.855654
9289.000000;0.855123
9288.000000;0.854776
9287.000000;0.854702
9286.000000;0.854825
9285.000000;0.854892
9284.000000;0.854737
9283.000000;0.854512
9282.000000;0.854533
9281.000000;0.854882
9280.000000;0.855263
9279.000000;0.855326
9278.000000;0.855087
9277.000000;0.854879
9276.000000;0.854869
9275.000000;0.854799
9274.000000;0.854382
9273.000000;0.853822
9272.000000;0.853624
9271.000000;0.853895
9270.000000;0.854112
9269.000000;0.853796
9268.000000;0.853145
9267.000000;0.852763
9266.000000;0.852920
9265.000000;0.853393
9264.000000;0.853929
9263.000000;0.854457
9262.000000;0.854809
9261.000000;0.854637
9260.000000;0.853825
9259.000000;0.852728
9258.000000;0.851755
9257.000000;0.850906
9256.000000;0.849949
9255.000000;0.848950
9254.000000;0.848355
9253.000000;0.848502
9252.000000;0.849241
9251.000000;0.850090
9250.000000;0.850634
9249.000000;0.850730
9248.000000;0.850444
9247.000000;0.849934
9246.000000;0.849378
9245.000000;0.848914
9244.000000;0.848574
9243.000000;0.848262
9242.000000;0.847846
9241.000000;0.847311
9240.000000;0.846854
9239.000000;0.846807
9238.000000;0.847364
9237.000000;0.848317
9236.000000;0.849071
9235.000000;0.849055
9234.000000;0.848253
9233.000000;0.847294
9232.000000;0.846906
9231.000000;0.847266
9230.000000;0.847941
9229.000000;0.848405
9228.000000;0.848433
9227.000000;0.847994
9226.000000;0.847058
9225.000000;0.845760
9224.000000;0.844588
9223.000000;0.844104
9222.000000;0.844417
9221.000000;0.845070
9220.000000;0.845458
9219.000000;0.845326
9218.000000;0.844917
9217.000000;0.844763
9216.000000;0.845244
9215.000000;0.846195
9214.000000;0.847015
9213.000000;0.847306
9212.000000;0.847303
9211.000000;0.847442
9210.000000;0.847665
9209.000000;0.847471
9208.000000;0.846671
9207.000000;0.845735
9206.000000;0.845241
9205.000000;0.845213
9204.000000;0.845183
9203.000000;0.844755
9202.000000;0.843953
9201.000000;0.843129
9200.000000;0.842645
9199.000000;0.842541
9198.000000;0.842438
9197.000000;0.841881
9196.000000;0.840882
9195.000000;0.840050
9194.000000;0.840051
9193.000000;0.840977
9192.000000;0.842266
9191.000000;0.843186
9190.000000;0.843366
9189.000000;0.842957
9188.000000;0.842339
9187.000000;0.841731
9186.000000;0.841081
9185.000000;0.840379
9184.000000;0.839928
9183.000000;0.840111
9182.000000;0.840865
9181.000000;0.841589
9180.000000;0.841657
9179.000000;0.840902
9178.000000;0.839576
9177.000000;0.838041
9176.000000;0.836619
9175.000000;0.835617
9174.000000;0.835311
9173.000000;0.835834
9172.000000;0.837036
9171.000000;0.838401
9170.000000;0.839224
9169.000000;0.839093
9168.000000;0.838297
9167.000000;0.837616
9166.000000;0.837626
9165.000000;0.838276
9164.000000;0.839080
9163.000000;0.839577
9162.000000;0.839593
9161.000000;0.839310
9160.000000;0.839154
9159.000000;0.839433
9158.000000;0.839946
9157.000000;0.840111
9156.000000;0.839562
9155.000000;0.838497
9154.000000;0.837409
9153.000000;0.836694
9152.000000;0.836547
9151.000000;0.836898
9150.000000;0.837288
9149.000000;0.837113
9148.000000;0.836262
9147.000000;0.835290
9146.000000;0.834730
9145.000000;0.834519
9144.000000;0.834363
9143.000000;0.834346
9142.000000;0.834683
9141.000000;0.835070
9140.000000;0.834893
9139.000000;0.834146
9138.000000;0.833582
9137.000000;0.833761
9136.000000;0.834385
9135.000000;0.834831
9134.000000;0.834958
9133.000000;0.835048
9132.000000;0.835200
9131.000000;0.835195
9130.000000;0.834905
9129.000000;0.834499
9128.000000;0.834236
9127.000000;0.834248
9126.000000;0.834556
9125.000000;0.835069
9124.000000;0.835547
9123.000000;0.835739
9122.000000;0.835627
9121.000000;0.835376
9120.000000;0.834992
9119.000000;0.834224
9118.000000;0.832920
9117.000000;0.831382
9116.000000;0.830236
9115.000000;0.829948
9114.000000;0.830494
9113.000000;0.831409
9112.000000;0.832107
9111.000000;0.832270
9110.000000;0.832065
9109.000000;0.831958
9108.000000;0.832231
9107.000000;0.832718
9106.000000;0.833072
9105.000000;0.833163
9104.000000;0.833088
9103.000000;0.832881
9102.000000;0.832479
9101.000000;0.831973
9100.000000;0.831618
9099.000000;0.831513
9098.000000;0.831483
9097.000000;0.831379
9096.000000;0.831277
9095.000000;0.831203
9094.000000;0.830933
9093.000000;0.830301
9092.000000;0.829548
9091.000000;0.829081
9090.000000;0.829008
9089.000000;0.829142
9088.000000;0.829366
9087.000000;0.829691
9086.000000;0.830027
9085.000000;0.830206
9084.000000;0.830240
9083.000000;0.830229
9082.000000;0.830057
9081.000000;0.829520
9080.000000;0.828821
9079.000000;0.828521
9078.000000;0.828828
9077.000000;0.829238
9076.000000;0.829132
9075.000000;0.828501
9074.000000;0.827845
9073.000000;0.827516
9072.000000;0.827409
9071.000000;0.827227
9070.000000;0.826849
9069.000000;0.826487
9068.000000;0.826561
9067.000000;0.827304
9066.000000;0.828393
9065.000000;0.829101
9064.000000;0.828945
9063.000000;0.828108
9062.000000;0.827116
9061.000000;0.826315
9060.000000;0.825812
9059.000000;0.825694
9058.000000;0.825994
9057.000000;0.826472
9056.000000;0.826704
9055.000000;0.826455
9054.000000;0.825899
9053.000000;0.825472
9052.000000;0.825531
9051.000000;0.826026
9050.000000;0.826403
9049.000000;0.826008
9048.000000;0.824758
9047.000000;0.823349
9046.000000;0.822614
9045.000000;0.822803
9044.000000;0.823568
9043.000000;0.824430
9042.000000;0.825056
9041.000000;0.825287
9040.000000;0.825192
9039.000000;0.825043
9038.000000;0.825016
9037.000000;0.824971
9036.000000;0.824718
9035.000000;0.824391
9034.000000;0.824248
9033.000000;0.824195
9032.000000;0.823861
9031.000000;0.823190
9030.000000;0.822614
9029.000000;0.822544
9028.000000;0.822923
9027.000000;0.823434
9026.000000;0.823875
9025.000000;0.824188
9024.000000;0.824330
9023.000000;0.824321
9022.000000;0.824339
9021.000000;0.824533
9020.000000;0.824767
9019.000000;0.824687
9018.000000;0.824089
9017.000000;0.823160
9016.000000;0.822337
9015.000000;0.821951
9014.000000;0.821958
9013.000000;0.822033
9012.000000;0.821934
9011.000000;0.821760
9010.000000;0.821818
9009.000000;0.822274
9008.000000;0.822961
9007.000000;0.823486
9006.000000;0.823446
9005.000000;0.822668
9004.000000;0.821389
9003.000000;0.820207
9002.000000;0.819656
9001.000000;0.819763
9000.000000;0.820112
8999.000000;0.820327
8998.000000;0.820394
8997.000000;0.820494
8996.000000;0.820680
8995.000000;0.820787
8994.000000;0.820644
8993.000000;0.820347
8992.000000;0.820305
8991.000000;0.820905
8990.000000;0.822016
8989.000000;0.822928
8988.000000;0.822970
8987.000000;0.822158
8986.000000;0.821040
8985.000000;0.819999
8984.000000;0.819011
8983.000000;0.818073
8982.000000;0.817517
8981.000000;0.817653
8980.000000;0.818358
8979.000000;0.819254
8978.000000;0.820147
8977.000000;0.821028
8976.000000;0.821745
8975.000000;0.821994
8974.000000;0.821690
8973.000000;0.821142
8972.000000;0.820768
8971.000000;0.820767
8970.000000;0.821109
8969.000000;0.821696
8968.000000;0.822350
8967.000000;0.822751
8966.000000;0.822624
8965.000000;0.822055
8964.000000;0.821496
8963.000000;0.821327
8962.000000;0.821482
8961.000000;0.821637
8960.000000;0.821679
8959.000000;0.821784
8958.000000;0.822014
8957.000000;0.822086
8956.000000;0.821702
8955.000000;0.820919
8954.000000;0.820022
8953.000000;0.819191
8952.000000;0.818511
8951.000000;0.818175
8950.000000;0.818374
8949.000000;0.818980
8948.000000;0.819574
8947.000000;0.819866
8946.000000;0.819877
8945.000000;0.819702
8944.000000;0.819344
8943.000000;0.818885
8942.000000;0.818593
8941.000000;0.818647
8940.000000;0.818858
8939.000000;0.818838
8938.000000;0.818410
8937.000000;0.817759
8936.000000;0.817291
8935.000000;0.817379
8934.000000;0.818122
8933.000000;0.819170
8932.000000;0.819903
8931.000000;0.819913
8930.000000;0.819298
8929.000000;0.818407
8928.000000;0.817482
8927.000000;0.816690
8926.000000;0.816357
8925.000000;0.816822
8924.000000;0.817970
8923.000000;0.819154
8922.000000;0.819721
8921.000000;0.819531
8920.000000;0.818889
8919.000000;0.818129
8918.000000;0.817391
8917.000000;0.816737
8916.000000;0.816309
8915.000000;0.816274
8914.000000;0.816654
8913.000000;0.817240
8912.000000;0.817700
8911.000000;0.817820
8910.000000;0.817665
8909.000000;0.817478
8908.000000;0.817401
8907.000000;0.817334
8906.000000;0.817108
8905.000000;0.816739
8904.000000;0.816435
8903.000000;0.816356
8902.000000;0.816483
8901.000000;0.816742
8900.000000;0.817140
8899.000000;0.817658
8898.000000;0.818111
8897.000000;0.818299
8896.000000;0.818277
8895.000000;0.818286
8894.000000;0.818366
8893.000000;0.818246
8892.000000;0.817757
8891.000000;0.817170
8890.000000;0.816901
8889.000000;0.816964
8888.000000;0.816963
8887.000000;0.816622
8886.000000;0.816105
8885.000000;0.815755
8884.000000;0.815716
8883.000000;0.815893
8882.000000;0.816112
8881.000000;0.816188
8880.000000;0.815967
8879.000000;0.815477
8878.000000;0.815004
8877.000000;0.814878
8876.000000;0.815164
8875.000000;0.815599
8874.000000;0.815821
8873.000000;0.815649
8872.000000;0.815232
8871.000000;0.815003
8870.000000;0.815392
8869.000000;0.816446
8868.000000;0.817727
8867.000000;0.818668
8866.000000;0.819058
8865.000000;0.819109
8864.000000;0.819083
8863.000000;0.818973
8862.000000;0.818569
8861.000000;0.817782
8860.000000;0.816853
8859.000000;0.816271
8858.000000;0.816404
8857.000000;0.817149
8856.000000;0.817968
8855.000000;0.818391
8854.000000;0.818488
8853.000000;0.818706
8852.000000;0.819191
8851.000000;0.819487
8850.000000;0.819063
8849.000000;0.818051
8848.000000;0.817199
8847.000000;0.817084
8846.000000;0.817573
8845.000000;0.818127
8844.000000;0.818418
8843.000000;0.818512
8842.000000;0.818596
8841.000000;0.818797
8840.000000;0.819181
8839.000000;0.819692
8838.000000;0.820055
8837.000000;0.819961
8836.000000;0.819456
8835.000000;0.818966
8834.000000;0.818823
8833.000000;0.818906
8832.000000;0.818893
8831.000000;0.818727
8830.000000;0.818647
8829.000000;0.818815
8828.000000;0.819126
8827.000000;0.819375
8826.000000;0.819472
8825.000000;0.819453
8824.000000;0.819379
8823.000000;0.819270
8822.000000;0.819118
8821.000000;0.818971
8820.000000;0.818990
8819.000000;0.819317
8818.000000;0.819812
8817.000000;0.820078
8816.000000;0.819897
8815.000000;0.819549
8814.000000;0.819499
8813.000000;0.819821
8812.000000;0.820149
8811.000000;0.820146
8810.000000;0.819823
8809.000000;0.819430
8808.000000;0.819310
8807.000000;0.819834
8806.000000;0.821109
8805.000000;0.822600
8804.000000;0.823366
8803.000000;0.822955
8802.000000;0.821906
8801.000000;0.821157
8800.000000;0.821114
8799.000000;0.821505
8798.000000;0.821955
8797.000000;0.822376
8796.000000;0.822812
8795.000000;0.823196
8794.000000;0.823366
8793.000000;0.823229
8792.000000;0.822886
8791.000000;0.822613
8790.000000;0.822641
8789.000000;0.822852
8788.000000;0.822819
8787.000000;0.822306
8786.000000;0.821627
8785.000000;0.821316
8784.000000;0.821518
8783.000000;0.821924
8782.000000;0.822251
8781.000000;0.822538
8780.000000;0.822925
8779.000000;0.823402
8778.000000;0.823863
8777.000000;0.824241
8776.000000;0.824485
8775.000000;0.824550
8774.000000;0.824505
8773.000000;0.824530
8772.000000;0.824741
8771.000000;0.825072
8770.000000;0.825382
8769.000000;0.825564
8768.000000;0.825550
8767.000000;0.825381
8766.000000;0.825303
8765.000000;0.825606
8764.000000;0.826236
8763.000000;0.826736
8762.000000;0.826739
8761.000000;0.826410
8760.000000;0.826221
8759.000000;0.826392
8758.000000;0.826746
8757.000000;0.827063
8756.000000;0.827377
8755.000000;0.827849
8754.000000;0.828473
8753.000000;0.829015
8752.000000;0.829239
8751.000000;0.829183
8750.000000;0.829164
8749.000000;0.829460
8748.000000;0.830007
8747.000000;0.830501
8746.000000;0.830780
8745.000000;0.830942
8744.000000;0.831047
8743.000000;0.830971
8742.000000;0.830681
8741.000000;0.830472
8740.000000;0.830652
8739.000000;0.831130
8738.000000;0.831569
8737.000000;0.831869
8736.000000;0.832195
8735.000000;0.832556
8734.000000;0.832701
8733.000000;0.832509
8732.000000;0.832187
8731.000000;0.831951
8730.000000;0.831777
8729.000000;0.831618
8728.000000;0.831630
8727.000000;0.831970
8726.000000;0.832533
8725.000000;0.833124
8724.000000;0.833770
8723.000000;0.834643
8722.000000;0.835706
8721.000000;0.836641
8720.000000;0.837113
8719.000000;0.837033
8718.000000;0.836625
8717.000000;0.836346
8716.000000;0.836584
8715.000000;0.837263
8714.000000;0.837829
8713.000000;0.837849
8712.000000;0.837512
8711.000000;0.837320
8710.000000;0.837392
8709.000000;0.837376
8708.000000;0.837062
8707.000000;0.836756
8706.000000;0.836926
8705.000000;0.837674
8704.000000;0.838676
8703.000000;0.839500
8702.000000;0.839883
8701.000000;0.839852
8700.000000;0.839672
8699.000000;0.839604
8698.000000;0.839669
8697.000000;0.839716
8696.000000;0.839685
8695.000000;0.839645
8694.000000;0.839618
8693.000000;0.839614
8692.000000;0.839833
8691.000000;0.840495
8690.000000;0.841377
8689.000000;0.841829
8688.000000;0.841501
8687.000000;0.840801
8686.000000;0.840369
8685.000000;0.840319
8684.000000;0.840321
8683.000000;0.840281
8682.000000;0.840552
8681.000000;0.841416
8680.000000;0.842627
8679.000000;0.843589
8678.000000;0.843888
8677.000000;0.843631
8676.000000;0.843344
8675.000000;0.843505
8674.000000;0.844059
8673.000000;0.844449
8672.000000;0.844253
8671.000000;0.843675
8670.000000;0.843257
8669.000000;0.843221
8668.000000;0.843357
8667.000000;0.843460
8666.000000;0.843552
8665.000000;0.843670
8664.000000;0.843732
8663.000000;0.843737
8662.000000;0.843844
8661.000000;0.844139
8660.000000;0.844524
8659.000000;0.844933
8658.000000;0.845444
8657.000000;0.846031
8656.000000;0.846435
8655.000000;0.846487
8654.000000;0.846412
8653.000000;0.846542
8652.000000;0.846821
8651.000000;0.846822
8650.000000;0.846269
8649.000000;0.845354
8648.000000;0.844534
8647.000000;0.844155
8646.000000;0.844265
8645.000000;0.844636
8644.000000;0.844911
8643.000000;0.844850
8642.000000;0.844534
8641.000000;0.844281
8640.000000;0.844361
8639.000000;0.844818
8638.000000;0.845532
8637.000000;0.846359
8636.000000;0.847142
8635.000000;0.847696
8634.000000;0.847900
8633.000000;0.847809
8632.000000;0.847612
8631.000000;0.847437
8630.000000;0.847280
8629.000000;0.847131
8628.000000;0.847108
8627.000000;0.847350
8626.000000;0.847781
8625.000000;0.848072
8624.000000;0.847926
8623.000000;0.847390
8622.000000;0.846840
8621.000000;0.846648
8620.000000;0.846881
8619.000000;0.847298
8618.000000;0.847587
8617.000000;0.847610
8616.000000;0.847426
8615.000000;0.847118
8614.000000;0.846671
8613.000000;0.846076
8612.000000;0.845504
8611.000000;0.845232
8610.000000;0.845400
8609.000000;0.845934
8608.000000;0.846709
8607.000000;0.847608
8606.000000;0.848364
8605.000000;0.848610
8604.000000;0.848295
8603.000000;0.847908
8602.000000;0.847994
8601.000000;0.848527
8600.000000;0.848984
8599.000000;0.849022
8598.000000;0.848796
8597.000000;0.848578
8596.000000;0.848361
8595.000000;0.848029
8594.000000;0.847662
8593.000000;0.847481
8592.000000;0.847561
8591.000000;0.847768
8590.000000;0.847938
8589.000000;0.847985
8588.000000;0.847930
8587.000000;0.847906
8586.000000;0.848093
8585.000000;0.848519
8584.000000;0.848967
8583.000000;0.849177
8582.000000;0.849096
8581.000000;0.848871
8580.000000;0.848675
8579.000000;0.848632
8578.000000;0.848818
8577.000000;0.849168
8576.000000;0.849407
8575.000000;0.849242
8574.000000;0.848705
8573.000000;0.848174
8572.000000;0.847990
8571.000000;0.848127
8570.000000;0.848307
8569.000000;0.848351
8568.000000;0.848335
8567.000000;0.848429
8566.000000;0.848682
8565.000000;0.848999
8564.000000;0.849232
8563.000000;0.849245
8562.000000;0.848957
8561.000000;0.848413
8560.000000;0.847837
8559.000000;0.847480
8558.000000;0.847390
8557.000000;0.847394
8556.000000;0.847367
8555.000000;0.847425
8554.000000;0.847780
8553.000000;0.848490
8552.000000;0.849436
8551.000000;0.850445
8550.000000;0.851295
8549.000000;0.851688
8548.000000;0.851475
8547.000000;0.850908
8546.000000;0.850488
8545.000000;0.850480
8544.000000;0.850709
8543.000000;0.850865
8542.000000;0.850819
8541.000000;0.850582
8540.000000;0.850183
8539.000000;0.849744
8538.000000;0.849520
8537.000000;0.849669
8536.000000;0.850014
8535.000000;0.850182
8534.000000;0.849971
8533.000000;0.849470
8532.000000;0.848916
8531.000000;0.848545
8530.000000;0.848557
8529.000000;0.849018
8528.000000;0.849714
8527.000000;0.850206
8526.000000;0.850153
8525.000000;0.849613
8524.000000;0.849016
8523.000000;0.848799
8522.000000;0.849012
8521.000000;0.849316
8520.000000;0.849399
8519.000000;0.849364
8518.000000;0.849572
8517.000000;0.850099
8516.000000;0.850525
8515.000000;0.850405
8514.000000;0.849818
8513.000000;0.849277
8512.000000;0.849145
8511.000000;0.849264
8510.000000;0.849187
8509.000000;0.848671
8508.000000;0.847917
8507.000000;0.847397
8506.000000;0.847488
8505.000000;0.848202
8504.000000;0.849201
8503.000000;0.850033
8502.000000;0.850400
8501.000000;0.850272
8500.000000;0.849866
8499.000000;0.849510
8498.000000;0.849443
8497.000000;0.849678
8496.000000;0.850064
8495.000000;0.850486
8494.000000;0.850907
8493.000000;0.851231
8492.000000;0.851286
8491.000000;0.851000
8490.000000;0.850514
8489.000000;0.850014
8488.000000;0.849559
8487.000000;0.849167
8486.000000;0.848959
8485.000000;0.849070
8484.000000;0.849464
8483.000000;0.849952
8482.000000;0.850337
8481.000000;0.850476
8480.000000;0.850282
8479.000000;0.849808
8478.000000;0.849282
8477.000000;0.848917
8476.000000;0.848726
8475.000000;0.848646
8474.000000;0.848795
8473.000000;0.849396
8472.000000;0.850426
8471.000000;0.851494
8470.000000;0.852153
8469.000000;0.852252
8468.000000;0.851940
8467.000000;0.851452
8466.000000;0.850968
8465.000000;0.850601
8464.000000;0.850374
8463.000000;0.850209
8462.000000;0.850007
8461.000000;0.849784
8460.000000;0.849708
8459.000000;0.849943
8458.000000;0.850421
8457.000000;0.850787
8456.000000;0.850665
8455.000000;0.850048
8454.000000;0.849379
8453.000000;0.849207
8452.000000;0.849737
8451.000000;0.850716
8450.000000;0.851674
8449.000000;0.852246
8448.000000;0.852360
8447.000000;0.852213
8446.000000;0.852060
8445.000000;0.851963
8444.000000;0.851786
8443.000000;0.851453
8442.000000;0.851078
8441.000000;0.850781
8440.000000;0.850513
8439.000000;0.850212
8438.000000;0.850037
8437.000000;0.850215
8436.000000;0.850681
8435.000000;0.851086
8434.000000;0.851200
8433.000000;0.851111
8432.000000;0.850988
8431.000000;0.850836
8430.000000;0.850628
8429.000000;0.850504
8428.000000;0.850645
8427.000000;0.850995
8426.000000;0.851258
8425.000000;0.851216
8424.000000;0.850992
8423.000000;0.850967
8422.000000;0.851437
8421.000000;0.852313
8420.000000;0.853110
8419.000000;0.853318
8418.000000;0.852858
8417.000000;0.852163
8416.000000;0.851774
8415.000000;0.851881
8414.000000;0.852264
8413.000000;0.852591
8412.000000;0.852686
8411.000000;0.852555
8410.000000;0.852269
8409.000000;0.851872
8408.000000;0.851395
8407.000000;0.850921
8406.000000;0.850621
8405.000000;0.850681
8404.000000;0.851174
8403.000000;0.851975
8402.000000;0.852832
8401.000000;0.853496
8400.000000;0.853822
8399.000000;0.853833
8398.000000;0.853706
8397.000000;0.853664
8396.000000;0.853781
8395.000000;0.853890
8394.000000;0.853744
8393.000000;0.853311
8392.000000;0.852883
8391.000000;0.852817
8390.000000;0.853197
8389.000000;0.853767
8388.000000;0.854225
8387.000000;0.854487
8386.000000;0.854613
8385.000000;0.854551
8384.000000;0.854120
8383.000000;0.853301
8382.000000;0.852427
8381.000000;0.851956
8380.000000;0.852081
8379.000000;0.852605
8378.000000;0.853182
8377.000000;0.853590
8376.000000;0.853815
8375.000000;0.853959
8374.000000;0.854106
8373.000000;0.854222
8372.000000;0.854177
8371.000000;0.853906
8370.000000;0.853557
8369.000000;0.853416
8368.000000;0.853635
8367.000000;0.854075
8366.000000;0.854436
8365.000000;0.854545
8364.000000;0.854502
8363.000000;0.854540
8362.000000;0.854761
8361.000000;0.855003
8360.000000;0.855003
8359.000000;0.854671
8358.000000;0.854190
8357.000000;0.853830
8356.000000;0.853725
8355.000000;0.853814
8354.000000;0.853938
8353.000000;0.853971
8352.000000;0.853922
8351.000000;0.853956
8350.000000;0.854243
8349.000000;0.854727
8348.000000;0.855109
8347.000000;0.855152
8346.000000;0.854956
8345.000000;0.854819
8344.000000;0.854862
8343.000000;0.854919
8342.000000;0.854785
8341.000000;0.854464
8340.000000;0.854114
8339.000000;0.853879
8338.000000;0.853838
8337.000000;0.854040
8336.000000;0.854473
8335.000000;0.854975
8334.000000;0.855274
8333.000000;0.855169
8332.000000;0.854692
8331.000000;0.854087
8330.000000;0.853625
8329.000000;0.853450
8328.000000;0.853559
8327.000000;0.853864
8326.000000;0.854255
8325.000000;0.854629
8324.000000;0.854941
8323.000000;0.855189
8322.000000;0.855317
8321.000000;0.855204
8320.000000;0.854861
8319.000000;0.854564
8318.000000;0.854591
8317.000000;0.854829
8316.000000;0.854873
8315.000000;0.854632
8314.000000;0.854556
8313.000000;0.855035
8312.000000;0.855781
8311.000000;0.856118
8310.000000;0.855811
8309.000000;0.855280
8308.000000;0.854999
8307.000000;0.855028
8306.000000;0.855242
8305.000000;0.855663
8304.000000;0.856305
8303.000000;0.856852
8302.000000;0.856813
8301.000000;0.856024
8300.000000;0.854880
8299.000000;0.854036
8298.000000;0.853929
8297.000000;0.854487
8296.000000;0.855215
8295.000000;0.855599
8294.000000;0.855517
8293.000000;0.855244
8292.000000;0.855055
8291.000000;0.854965
8290.000000;0.854876
8289.000000;0.854832
8288.000000;0.854939
8287.000000;0.855140
8286.000000;0.855258
8285.000000;0.855251
8284.000000;0.855231
8283.000000;0.855243
8282.000000;0.855203
8281.000000;0.855135
8280.000000;0.855267
8279.000000;0.855746
8278.000000;0.856339
8277.000000;0.856583
8276.000000;0.856270
8275.000000;0.855692
8274.000000;0.855364
8273.000000;0.855558
8272.000000;0.856121
8271.000000;0.856690
8270.000000;0.857003
8269.000000;0.857013
8268.000000;0.856806
8267.000000;0.856534
8266.000000;0.856366
8265.000000;0.856409
8264.000000;0.856598
8263.000000;0.856739
8262.000000;0.856722
8261.000000;0.856650
8260.000000;0.856678
8259.000000;0.856772
8258.000000;0.856727
8257.000000;0.856460
8256.000000;0.856179
8255.000000;0.856194
8254.000000;0.856580
8253.000000;0.857102
8252.000000;0.857449
8251.000000;0.857484
8250.000000;0.857269
8249.000000;0.856936
8248.000000;0.856591
8247.000000;0.856308
8246.000000;0.856151
8245.000000;0.856162
8244.000000;0.856342
8243.000000;0.856623
8242.000000;0.856862
8241.000000;0.856902
8240.000000;0.856695
8239.000000;0.856380
8238.000000;0.856193
8237.000000;0.856298
8236.000000;0.856687
8235.000000;0.857220
8234.000000;0.857717
8233.000000;0.858037
8232.000000;0.858158
8231.000000;0.858190
8230.000000;0.858259
8229.000000;0.858341
8228.000000;0.858281
8227.000000;0.857995
8226.000000;0.857587
8225.000000;0.857241
8224.000000;0.857066
8223.000000;0.857082
8222.000000;0.857275
8221.000000;0.857583
8220.000000;0.857897
8219.000000;0.858155
8218.000000;0.858403
8217.000000;0.858661
8216.000000;0.858769
8215.000000;0.858494
8214.000000;0.857819
8213.000000;0.857046
8212.000000;0.856589
8211.000000;0.856706
8210.000000;0.857388
8209.000000;0.858380
8208.000000;0.859261
8207.000000;0.859646
8206.000000;0.859430
8205.000000;0.858883
8204.000000;0.858453
8203.000000;0.858443
8202.000000;0.858820
8201.000000;0.859275
8200.000000;0.859475
8199.000000;0.859301
8198.000000;0.858895
8197.000000;0.858494
8196.000000;0.858269
8195.000000;0.858324
8194.000000;0.858717
8193.000000;0.859363
8192.000000;0.859937
8191.000000;0.860043
8190.000000;0.859543
8189.000000;0.858703
8188.000000;0.858011
8187.000000;0.857884
8186.000000;0.858438
8185.000000;0.859407
8184.000000;0.860266
8183.000000;0.860573
8182.000000;0.860278
8181.000000;0.859672
8180.000000;0.859072
8179.000000;0.858657
8178.000000;0.858541
8177.000000;0.858779
8176.000000;0.859244
8175.000000;0.859652
8174.000000;0.859833
8173.000000;0.859886
8172.000000;0.859970
8171.000000;0.860087
8170.000000;0.860167
8169.000000;0.860235
8168.000000;0.860345
8167.000000;0.860416
8166.000000;0.860341
8165.000000;0.860198
8164.000000;0.860170
8163.000000;0.860255
8162.000000;0.860254
8161.000000;0.860108
8160.000000;0.860051
8159.000000;0.860295
8158.000000;0.860693
8157.000000;0.860883
8156.000000;0.860769
8155.000000;0.860668
8154.000000;0.860936
8153.000000;0.861518
8152.000000;0.861992
8151.000000;0.862022
8150.000000;0.861666
8149.000000;0.861209
8148.000000;0.860790
8147.000000;0.860329
8146.000000;0.859797
8145.000000;0.859405
8144.000000;0.859426
8143.000000;0.859882
8142.000000;0.860489
8141.000000;0.860896
8140.000000;0.860939
8139.000000;0.860691
8138.000000;0.860361
8137.000000;0.860177
8136.000000;0.860290
8135.000000;0.860711
8134.000000;0.861276
8133.000000;0.861691
8132.000000;0.861683
8131.000000;0.861231
8130.000000;0.860676
8129.000000;0.860491
8128.000000;0.860844
8127.000000;0.861407
8126.000000;0.861683
8125.000000;0.861504
8124.000000;0.861114
8123.000000;0.860821
8122.000000;0.860699
8121.000000;0.860663
8120.000000;0.860667
8119.000000;0.860737
8118.000000;0.860889
8117.000000;0.861130
8116.000000;0.861505
8115.000000;0.862038
8114.000000;0.862608
8113.000000;0.862981
8112.000000;0.863000
8111.000000;0.862715
8110.000000;0.862342
8109.000000;0.862107
8108.000000;0.862098
8107.000000;0.862210
8106.000000;0.862242
8105.000000;0.862118
8104.000000;0.861980
8103.000000;0.862004
8102.000000;0.862146
8101.000000;0.862204
8100.000000;0.862129
8099.000000;0.862120
8098.000000;0.862341
8097.000000;0.862676
8096.000000;0.862894
8095.000000;0.862953
8094.000000;0.862995
8093.000000;0.863088
8092.000000;0.863156
8091.000000;0.863146
8090.000000;0.863105
8089.000000;0.863077
8088.000000;0.863064
8087.000000;0.863131
8086.000000;0.863383
8085.000000;0.863767
8084.000000;0.864022
8083.000000;0.863976
8082.000000;0.863780
8081.000000;0.863727
8080.000000;0.863904
8079.000000;0.864149
8078.000000;0.864299
8077.000000;0.864344
8076.000000;0.864325
8075.000000;0.864234
8074.000000;0.864050
8073.000000;0.863808
8072.000000;0.863602
8071.000000;0.863571
8070.000000;0.863881
8069.000000;0.864571
8068.000000;0.865401
8067.000000;0.865938
8066.000000;0.865898
8065.000000;0.865376
8064.000000;0.864703
8063.000000;0.864135
8062.000000;0.863735
8061.000000;0.863488
8060.000000;0.863431
8059.000000;0.863601
8058.000000;0.863948
8057.000000;0.864341
8056.000000;0.864684
8055.000000;0.864954
8054.000000;0.865129
8053.000000;0.865137
8052.000000;0.864971
8051.000000;0.864799
8050.000000;0.864818
8049.000000;0.865002
8048.000000;0.865111
8047.000000;0.865018
8046.000000;0.864892
8045.000000;0.864945
8044.000000;0.865134
8043.000000;0.865259
8042.000000;0.865286
8041.000000;0.865374
8040.000000;0.865609
8039.000000;0.865895
8038.000000;0.866149
8037.000000;0.866401
8036.000000;0.866649
8035.000000;0.866758
8034.000000;0.866645
8033.000000;0.866445
8032.000000;0.866383
8031.000000;0.866504
8030.000000;0.866639
8029.000000;0.866618
8028.000000;0.866411
8027.000000;0.866085
8026.000000;0.865701
8025.000000;0.865292
8024.000000;0.864931
8023.000000;0.864775
8022.000000;0.864986
8021.000000;0.865537
8020.000000;0.866125
8019.000000;0.866387
8018.000000;0.866224
8017.000000;0.865851
8016.000000;0.865526
8015.000000;0.865334
8014.000000;0.865275
8013.000000;0.865393
8012.000000;0.865702
8011.000000;0.866061
8010.000000;0.866294
8009.000000;0.866407
8008.000000;0.866562
8007.000000;0.866867
8006.000000;0.867285
8005.000000;0.867744
8004.000000;0.868179
8003.000000;0.868436
8002.000000;0.868302
8001.000000;0.867752
8000.000000;0.867091
7999.000000;0.866723
7998.000000;0.866791
7997.000000;0.867112
7996.000000;0.867443
7995.000000;0.867721
7994.000000;0.868018
7993.000000;0.868376
7992.000000;0.868748
7991.000000;0.869075
7990.000000;0.869297
7989.000000;0.869317
7988.000000;0.869051
7987.000000;0.868560
7986.000000;0.868081
7985.000000;0.867846
7984.000000;0.867895
7983.000000;0.868107
7982.000000;0.868375
7981.000000;0.868668
7980.000000;0.868942
7979.000000;0.869088
7978.000000;0.869043
7977.000000;0.868878
7976.000000;0.868747
7975.000000;0.868734
7974.000000;0.868794
7973.000000;0.868821
7972.000000;0.868777
7971.000000;0.868780
7970.000000;0.869036
7969.000000;0.869608
7968.000000;0.870240
7967.000000;0.870509
7966.000000;0.870238
7965.000000;0.869694
7964.000000;0.869313
7963.000000;0.869284
7962.000000;0.869473
7961.000000;0.869673
7960.000000;0.869786
7959.000000;0.869791
7958.000000;0.869711
7957.000000;0.869659
7956.000000;0.869790
7955.000000;0.870118
7954.000000;0.870452
7953.000000;0.870624
7952.000000;0.870687
7951.000000;0.870795
7950.000000;0.870952
7949.000000;0.871050
7948.000000;0.871095
7947.000000;0.871222
7946.000000;0.871443
7945.000000;0.871566
7944.000000;0.871438
7943.000000;0.871168
7942.000000;0.870976
7941.000000;0.870918
7940.000000;0.870888
7939.000000;0.870846
7938.000000;0.870896
7937.000000;0.871128
7936.000000;0.871494
7935.000000;0.871868
7934.000000;0.872131
7933.000000;0.872222
7932.000000;0.872165
7931.000000;0.872063
7930.000000;0.871989
7929.000000;0.871881
7928.000000;0.871659
7927.000000;0.871414
7926.000000;0.871352
7925.000000;0.871519
7924.000000;0.871702
7923.000000;0.871693
7922.000000;0.871514
7921.000000;0.871329
7920.000000;0.871265
7919.000000;0.871405
7918.000000;0.871837
7917.000000;0.872536
7916.000000;0.873276
7915.000000;0.873801
7914.000000;0.874053
7913.000000;0.874145
7912.000000;0.874155
7911.000000;0.874080
7910.000000;0.873944
7909.000000;0.873813
7908.000000;0.873729
7907.000000;0.873717
7906.000000;0.873806
7905.000000;0.873925
7904.000000;0.873827
7903.000000;0.873335
7902.000000;0.872643
7901.000000;0.872215
7900.000000;0.872303
7899.000000;0.872700
7898.000000;0.873019
7897.000000;0.873103
7896.000000;0.873101
7895.000000;0.873236
7894.000000;0.873570
7893.000000;0.873919
7892.000000;0.874008
7891.000000;0.873766
7890.000000;0.873477
7889.000000;0.873508
7888.000000;0.873881
7887.000000;0.874250
7886.000000;0.874358
7885.000000;0.874337
7884.000000;0.874478
7883.000000;0.874829
7882.000000;0.875164
7881.000000;0.875259
7880.000000;0.875076
7879.000000;0.874740
7878.000000;0.874454
7877.000000;0.874401
7876.000000;0.874616
7875.000000;0.874963
7874.000000;0.875311
7873.000000;0.875672
7872.000000;0.876076
7871.000000;0.876387
7870.000000;0.876381
7869.000000;0.876037
7868.000000;0.875625
7867.000000;0.875457
7866.000000;0.875611
7865.000000;0.875931
7864.000000;0.876238
7863.000000;0.876499
7862.000000;0.876779
7861.000000;0.877072
7860.000000;0.877240
7859.000000;0.877166
7858.000000;0.876936
7857.000000;0.876769
7856.000000;0.876762
7855.000000;0.876786
7854.000000;0.876704
7853.000000;0.876589
7852.000000;0.876632
7851.000000;0.876908
7850.000000;0.877325
7849.000000;0.877767
7848.000000;0.878161
7847.000000;0.878414
7846.000000;0.878438
7845.000000;0.878273
7844.000000;0.878112
7843.000000;0.878132
7842.000000;0.878361
7841.000000;0.878735
7840.000000;0.879201
7839.000000;0.879695
7838.000000;0.880053
7837.000000;0.880090
7836.000000;0.879804
7835.000000;0.879422
7834.000000;0.879169
7833.000000;0.879045
7832.000000;0.878920
7831.000000;0.878814
7830.000000;0.878929
7829.000000;0.879337
7828.000000;0.879792
7827.000000;0.879956
7826.000000;0.879779
7825.000000;0.879503
7824.000000;0.879333
7823.000000;0.879265
7822.000000;0.879233
7821.000000;0.879281
7820.000000;0.879509
7819.000000;0.879940
7818.000000;0.880494
7817.000000;0.881024
7816.000000;0.881346
7815.000000;0.881345
7814.000000;0.881116
7813.000000;0.880929
7812.000000;0.880991
7811.000000;0.881283
7810.000000;0.881662
7809.000000;0.882023
7808.000000;0.882298
7807.000000;0.882391
7806.000000;0.882243
7805.000000;0.881924
7804.000000;0.881589
7803.000000;0.881354
7802.000000;0.881288
7801.000000;0.881445
7800.000000;0.881824
7799.000000;0.882300
7798.000000;0.882695
7797.000000;0.882908
7796.000000;0.882963
7795.000000;0.882937
7794.000000;0.882895
7793.000000;0.882849
7792.000000;0.882763
7791.000000;0.882629
7790.000000;0.882560
7789.000000;0.882716
7788.000000;0.883099
7787.000000;0.883507
7786.000000;0.883767
7785.000000;0.883911
7784.000000;0.884054
7783.000000;0.884180
7782.000000;0.884206
7781.000000;0.884170
7780.000000;0.884206
7779.000000;0.884360
7778.000000;0.884578
7777.000000;0.884837
7776.000000;0.885150
7775.000000;0.885440
7774.000000;0.885561
7773.000000;0.885497
7772.000000;0.885402
7771.000000;0.885429
7770.000000;0.885588
7769.000000;0.885794
7768.000000;0.885943
7767.000000;0.885952
7766.000000;0.885849
7765.000000;0.885841
7764.000000;0.886110
7763.000000;0.886525
7762.000000;0.886726
7761.000000;0.886586
7760.000000;0.886432
7759.000000;0.886654
7758.000000;0.887234
7757.000000;0.887818
7756.000000;0.888159
7755.000000;0.888290
7754.000000;0.888302
7753.000000;0.888190
7752.000000;0.887967
7751.000000;0.887746
7750.000000;0.887626
7749.000000;0.887607
7748.000000;0.887697
7747.000000;0.887971
7746.000000;0.888428
7745.000000;0.888872
7744.000000;0.889077
7743.000000;0.889062
7742.000000;0.889057
7741.000000;0.889217
7740.000000;0.889475
7739.000000;0.889700
7738.000000;0.889870
7737.000000;0.890022
7736.000000;0.890123
7735.000000;0.890111
7734.000000;0.890037
7733.000000;0.890059
7732.000000;0.890295
7731.000000;0.890717
7730.000000;0.891196
7729.000000;0.891592
7728.000000;0.891822
7727.000000;0.891890
7726.000000;0.891885
7725.000000;0.891899
7724.000000;0.891948
7723.000000;0.891997
7722.000000;0.892047
7721.000000;0.892151
7720.000000;0.892330
7719.000000;0.892538
7718.000000;0.892707
7717.000000;0.892812
7716.000000;0.892900
7715.000000;0.893066
7714.000000;0.893391
7713.000000;0.893832
7712.000000;0.894229
7711.000000;0.894454
7710.000000;0.894544
7709.000000;0.894600
7708.000000;0.894601
7707.000000;0.894467
7706.000000;0.894268
7705.000000;0.894234
7704.000000;0.894497
7703.000000;0.894948
7702.000000;0.895389
7701.000000;0.895708
7700.000000;0.895875
7699.000000;0.895924
7698.000000;0.896040
7697.000000;0.896485
7696.000000;0.897283
7695.000000;0.898058
7694.000000;0.898363
7693.000000;0.898143
7692.000000;0.897736
7691.000000;0.897479
7690.000000;0.897450
7689.000000;0.897555
7688.000000;0.897679
7687.000000;0.897732
7686.000000;0.897667
7685.000000;0.897521
7684.000000;0.897379
7683.000000;0.897290
7682.000000;0.897279
7681.000000;0.897419
7680.000000;0.897766
7679.000000;0.898255
7678.000000;0.898736
7677.000000;0.899139
7676.000000;0.899486
7675.000000;0.899770
7674.000000;0.899921
7673.000000;0.899933
7672.000000;0.899896
7671.000000;0.899900
7670.000000;0.899985
7669.000000;0.900202
7668.000000;0.900586
7667.000000;0.901038
7666.000000;0.901371
7665.000000;0.901543
7664.000000;0.901725
7663.000000;0.902050
7662.000000;0.902410
7661.000000;0.902628
7660.000000;0.902753
7659.000000;0.903007
7658.000000;0.903445
7657.000000;0.903810
7656.000000;0.903813
7655.000000;0.903486
7654.000000;0.903179
7653.000000;0.903215
7652.000000;0.903615
7651.000000;0.904146
7650.000000;0.904596
7649.000000;0.904948
7648.000000;0.905295
7647.000000;0.905661
7646.000000;0.905961
7645.000000;0.906110
7644.000000;0.906136
7643.000000;0.906157
7642.000000;0.906290
7641.000000;0.906556
7640.000000;0.906880
7639.000000;0.907173
7638.000000;0.907414
7637.000000;0.907642
7636.000000;0.907873
7635.000000;0.908076
7634.000000;0.908240
7633.000000;0.908397
7632.000000;0.908532
7631.000000;0.908589
7630.000000;0.908607
7629.000000;0.908778
7628.000000;0.909241
7627.000000;0.909873
7626.000000;0.910403
7625.000000;0.910714
7624.000000;0.910905
7623.000000;0.911089
7622.000000;0.911264
7621.000000;0.911414
7620.000000;0.911608
7619.000000;0.911919
7618.000000;0.912322
7617.000000;0.912729
7616.000000;0.913057
7615.000000;0.913255
7614.000000;0.913332
7613.000000;0.913392
7612.000000;0.913568
7611.000000;0.913881
7610.000000;0.914228
7609.000000;0.914530
7608.000000;0.914819
7607.000000;0.915135
7606.000000;0.915413
7605.000000;0.915558
7604.000000;0.915590
7603.000000;0.915663
7602.000000;0.915920
7601.000000;0.916347
7600.000000;0.916754
7599.000000;0.916940
7598.000000;0.916899
7597.000000;0.916864
7596.000000;0.917076
7595.000000;0.917532
7594.000000;0.918026
7593.000000;0.918404
7592.000000;0.918681
7591.000000;0.918950
7590.000000;0.919285
7589.000000;0.919746
7588.000000;0.920344
7587.000000;0.920981
7586.000000;0.921529
7585.000000;0.922004
7584.000000;0.922527
7583.000000;0.923088
7582.000000;0.923487
7581.000000;0.923596
7580.000000;0.923532
7579.000000;0.923471
7578.000000;0.923446
7577.000000;0.923434
7576.000000;0.923519
7575.000000;0.923800
7574.000000;0.924197
7573.000000;0.924547
7572.000000;0.924857
7571.000000;0.925290
7570.000000;0.925904
7569.000000;0.926553
7568.000000;0.927091
7567.000000;0.927523
7566.000000;0.927915
7565.000000;0.928242
7564.000000;0.928422
7563.000000;0.928449
7562.000000;0.928441
7561.000000;0.928548
7560.000000;0.928861
7559.000000;0.929368
7558.000000;0.929975
7557.000000;0.930560
7556.000000;0.931024
7555.000000;0.931329
7554.000000;0.931520
7553.000000;0.931698
7552.000000;0.931922
7551.000000;0.932157
7550.000000;0.932360
7549.000000;0.932604
7548.000000;0.932999
7547.000000;0.933497
7546.000000;0.933892
7545.000000;0.934097
7544.000000;0.934280
7543.000000;0.934622
7542.000000;0.935045
7541.000000;0.935351
7540.000000;0.935576
7539.000000;0.935991
7538.000000;0.936717
7537.000000;0.937523
7536.000000;0.938085
7535.000000;0.938341
7534.000000;0.938497
7533.000000;0.938770
7532.000000;0.939221
7531.000000;0.939785
7530.000000;0.940355
7529.000000;0.940802
7528.000000;0.941042
7527.000000;0.941145
7526.000000;0.941337
7525.000000;0.941792
7524.000000;0.942405
7523.000000;0.942835
7522.000000;0.942872
7521.000000;0.942730
7520.000000;0.942867
7519.000000;0.943521
7518.000000;0.944501
7517.000000;0.945441
7516.000000;0.946134
7515.000000;0.946556
7514.000000;0.946721
7513.000000;0.946656
7512.000000;0.946495
7511.000000;0.946427
7510.000000;0.946567
7509.000000;0.946937
7508.000000;0.947528
7507.000000;0.948267
7506.000000;0.948963
7505.000000;0.949425
7504.000000;0.949672
7503.000000;0.949899
7502.000000;0.950244
7501.000000;0.950666
7500.000000;0.951109
7499.000000;0.951593
7498.000000;0.952107
7497.000000;0.952540
7496.000000;0.952805
7495.000000;0.952987
7494.000000;0.953276
7493.000000;0.953780
7492.000000;0.954459
7491.000000;0.955169
7490.000000;0.955737
7489.000000;0.956052
7488.000000;0.956173
7487.000000;0.956309
7486.000000;0.956605
7485.000000;0.956985
7484.000000;0.957277
7483.000000;0.957465
7482.000000;0.957751
7481.000000;0.958341
7480.000000;0.959244
7479.000000;0.960264
7478.000000;0.961154
7477.000000;0.961765
7476.000000;0.962091
7475.000000;0.962210
7474.000000;0.962174
7473.000000;0.962007
7472.000000;0.961794
7471.000000;0.961735
7470.000000;0.962014
7469.000000;0.962641
7468.000000;0.963457
7467.000000;0.964296
7466.000000;0.965082
7465.000000;0.965777
7464.000000;0.966325
7463.000000;0.966706
7462.000000;0.967001
7461.000000;0.967344
7460.000000;0.967800
7459.000000;0.968326
7458.000000;0.968820
7457.000000;0.969189
7456.000000;0.969399
7455.000000;0.969491
7454.000000;0.969566
7453.000000;0.969725
7452.000000;0.970010
7451.000000;0.970392
7450.000000;0.970831
7449.000000;0.971316
7448.000000;0.971847
7447.000000;0.972389
7446.000000;0.972887
7445.000000;0.973333
7444.000000;0.973794
7443.000000;0.974360
7442.000000;0.975028
7441.000000;0.975669
7440.000000;0.976128
7439.000000;0.976350
7438.000000;0.976406
7437.000000;0.976415
7436.000000;0.976482
7435.000000;0.976708
7434.000000;0.977180
7433.000000;0.977872
7432.000000;0.978590
7431.000000;0.979115
7430.000000;0.979418
7429.000000;0.979669
7428.000000;0.980014
7427.000000;0.980419
7426.000000;0.980780
7425.000000;0.981105
7424.000000;0.981462
7423.000000;0.981811
7422.000000;0.982017
7421.000000;0.982084
7420.000000;0.982239
7419.000000;0.982716
7418.000000;0.983490
7417.000000;0.984314
7416.000000;0.984967
7415.000000;0.985390
7414.000000;0.985629
7413.000000;0.985765
7412.000000;0.985925
7411.000000;0.986262
7410.000000;0.986822
7409.000000;0.987476
7408.000000;0.988029
7407.000000;0.988400
7406.000000;0.988649
7405.000000;0.988871
7404.000000;0.989116
7403.000000;0.989434
7402.000000;0.989876
7401.000000;0.990410
7400.000000;0.990907
7399.000000;0.991260
7398.000000;0.991501
7397.000000;0.991749
7396.000000;0.992067
7395.000000;0.992432
7394.000000;0.992855
7393.000000;0.993403
7392.000000;0.994053
7391.000000;0.994616
7390.000000;0.994913
7389.000000;0.994978
7388.000000;0.995013
7387.000000;0.995142
7386.000000;0.995330
7385.000000;0.995516
7384.000000;0.995733
7383.000000;0.996085
7382.000000;0.996650
7381.000000;0.997391
7380.000000;0.998143
7379.000000;0.998709
7378.000000;0.999047
7377.000000;0.999287
7376.000000;0.999519
7375.000000;0.999666
7374.000000;0.999671
7373.000000;0.999690
7372.000000;0.999957
7371.000000;1.000493
7370.000000;1.001119
7369.000000;1.001745
7368.000000;1.002499
7367.000000;1.003451
7366.000000;1.004404
7365.000000;1.005077
7364.000000;1.005382
7363.000000;1.005442
7362.000000;1.005488
7361.000000;1.005765
7360.000000;1.006383
7359.000000;1.007178
7358.000000;1.007812
7357.000000;1.008101
7356.000000;1.008176
7355.000000;1.008283
7354.000000;1.008493
7353.000000;1.008716
7352.000000;1.008924
7351.000000;1.009200
7350.000000;1.009576
7349.000000;1.010002
7348.000000;1.010491
7347.000000;1.011163
7346.000000;1.012046
7345.000000;1.012914
7344.000000;1.013436
7343.000000;1.013496
7342.000000;1.013322
7341.000000;1.013299
7340.000000;1.013661
7339.000000;1.014346
7338.000000;1.015083
7337.000000;1.015657
7336.000000;1.016070
7335.000000;1.016461
7334.000000;1.016926
7333.000000;1.017422
7332.000000;1.017837
7331.000000;1.018165
7330.000000;1.018583
7329.000000;1.019273
7328.000000;1.020156
7327.000000;1.020933
7326.000000;1.021411
7325.000000;1.021719
7324.000000;1.022165
7323.000000;1.022874
7322.000000;1.023684
7321.000000;1.024405
7320.000000;1.025070
7319.000000;1.025802
7318.000000;1.026544
7317.000000;1.027129
7316.000000;1.027550
7315.000000;1.027948
7314.000000;1.028394
7313.000000;1.028808
7312.000000;1.029136
7311.000000;1.029474
7310.000000;1.029956
7309.000000;1.030598
7308.000000;1.031310
7307.000000;1.032027
7306.000000;1.032771
7305.000000;1.033592
7304.000000;1.034518
7303.000000;1.035556
7302.000000;1.036637
7301.000000;1.037646
7300.000000;1.038523
7299.000000;1.039271
7298.000000;1.039863
7297.000000;1.040273
7296.000000;1.040618
7295.000000;1.041129
7294.000000;1.041938
7293.000000;1.042962
7292.000000;1.044016
7291.000000;1.044981
7290.000000;1.045837
7289.000000;1.046587
7288.000000;1.047267
7287.000000;1.047989
7286.000000;1.048876
7285.000000;1.049930
7284.000000;1.051077
7283.000000;1.052290
7282.000000;1.053541
7281.000000;1.054736
7280.000000;1.055818
7279.000000;1.056849
7278.000000;1.057898
7277.000000;1.058907
7276.000000;1.059795
7275.000000;1.060668
7274.000000;1.061737
7273.000000;1.063016
7272.000000;1.064299
7271.000000;1.065479
7270.000000;1.066703
7269.000000;1.068113
7268.000000;1.069617
7267.000000;1.071022
7266.000000;1.072292
7265.000000;1.073518
7264.000000;1.074718
7263.000000;1.075810
7262.000000;1.076808
7261.000000;1.077907
7260.000000;1.079307
7259.000000;1.080985
7258.000000;1.082702
7257.000000;1.084228
7256.000000;1.085549
7255.000000;1.086833
7254.000000;1.088190
7253.000000;1.089574
7252.000000;1.090969
7251.000000;1.092537
7250.000000;1.094483
7249.000000;1.096779
7248.000000;1.099079
7247.000000;1.100983
7246.000000;1.102386
7245.000000;1.103530
7244.000000;1.104776
7243.000000;1.106359
7242.000000;1.108300
7241.000000;1.110444
7240.000000;1.112621
7239.000000;1.114827
7238.000000;1.117149
7237.000000;1.119494
7236.000000;1.121607
7235.000000;1.123404
7234.000000;1.125096
7233.000000;1.126956
7232.000000;1.129061
7231.000000;1.131310
7230.000000;1.133648
7229.000000;1.136171
7228.000000;1.138960
7227.000000;1.141934
7226.000000;1.144916
7225.000000;1.147758
7224.000000;1.150401
7223.000000;1.152874
7222.000000;1.155259
7221.000000;1.157613
7220.000000;1.159958
7219.000000;1.162395
7218.000000;1.165114
7217.000000;1.168175
7216.000000;1.171356
7215.000000;1.174348
7214.000000;1.177098
7213.000000;1.179867
7212.000000;1.182940
7211.000000;1.186301
7210.000000;1.189674
7209.000000;1.192865
7208.000000;1.195960
7207.000000;1.199174
7206.000000;1.202531
7205.000000;1.205813
7204.000000;1.208871
7203.000000;1.211917
7202.000000;1.215334
7201.000000;1.219192
7200.000000;1.223132
7199.000000;1.226808
7198.000000;1.230273
7197.000000;1.233834
7196.000000;1.237653
7195.000000;1.241671
7194.000000;1.245817
7193.000000;1.250053
7192.000000;1.254215
7191.000000;1.258072
7190.000000;1.261667
7189.000000;1.265400
7188.000000;1.269624
7187.000000;1.274222
7186.000000;1.278741
7185.000000;1.282921
7184.000000;1.286935
7183.000000;1.291093
7182.000000;1.295511
7181.000000;1.300122
7180.000000;1.304813
7179.000000;1.309450
7178.000000;1.313932
7177.000000;1.318318
7176.000000;1.322810
7175.000000;1.327538
7174.000000;1.332398
7173.000000;1.337220
7172.000000;1.341988
7171.000000;1.346800
7170.000000;1.351662
7169.000000;1.356456
7168.000000;1.361140
7167.000000;1.365829
7166.000000;1.370632
7165.000000;1.375572
7164.000000;1.380618
7163.000000;1.385689
7162.000000;1.390662
7161.000000;1.395548
7160.000000;1.400588
7159.000000;1.405977
7158.000000;1.411557
7157.000000;1.416978
7156.000000;1.422075
7155.000000;1.426921
7154.000000;1.431557
7153.000000;1.435930
7152.000000;1.440184
7151.000000;1.444698
7150.000000;1.449717
7149.000000;1.455141
7148.000000;1.460748
7147.000000;1.466403
7146.000000;1.471978
7145.000000;1.477315
7144.000000;1.482360
7143.000000;1.487231
7142.000000;1.492099
7141.000000;1.497144
7140.000000;1.502597
7139.000000;1.508567
7138.000000;1.514747
7137.000000;1.520546
7136.000000;1.525659
7135.000000;1.530325
7134.000000;1.534924
7133.000000;1.539553
7132.000000;1.544141
7131.000000;1.548768
7130.000000;1.553645
7129.000000;1.558870
7128.000000;1.564336
7127.000000;1.569808
7126.000000;1.575063
7125.000000;1.580082
7124.000000;1.585165
7123.000000;1.590659
7122.000000;1.596524
7121.000000;1.602328
7120.000000;1.607721
7119.000000;1.612720
7118.000000;1.617522
7117.000000;1.622293
7116.000000;1.627142
7115.000000;1.631978
7114.000000;1.636400
7113.000000;1.640109
7112.000000;1.643545
7111.000000;1.647661
7110.000000;1.652848
7109.000000;1.658474
7108.000000;1.663803
7107.000000;1.668938
7106.000000;1.674306
7105.000000;1.679634
7104.000000;1.684160
7103.000000;1.687744
7102.000000;1.691126
7101.000000;1.695020
7100.000000;1.699440
7099.000000;1.703973
7098.000000;1.708326
7097.000000;1.712433
7096.000000;1.716354
7095.000000;1.720261
7094.000000;1.724293
7093.000000;1.728324
7092.000000;1.732101
7091.000000;1.735729
7090.000000;1.739743
7089.000000;1.744488
7088.000000;1.749564
7087.000000;1.754106
7086.000000;1.757626
7085.000000;1.760454
7084.000000;1.763291
7083.000000;1.766421
7082.000000;1.769537
7081.000000;1.772379
7080.000000;1.775274
7079.000000;1.778728
7078.000000;1.782633
7077.000000;1.786310
7076.000000;1.789444
7075.000000;1.792569
7074.000000;1.796349
7073.000000;1.800704
7072.000000;1.804965
7071.000000;1.808637
7070.000000;1.811632
7069.000000;1.813975
7068.000000;1.815787
7067.000000;1.817485
7066.000000;1.819527
7065.000000;1.821945
7064.000000;1.824442
7063.000000;1.826877
7062.000000;1.829343
7061.000000;1.831958
7060.000000;1.834995
7059.000000;1.839050
7058.000000;1.844454
7057.000000;1.850350
7056.000000;1.855009
7055.000000;1.857467
7054.000000;1.858390
7053.000000;1.859130
7052.000000;1.860528
7051.000000;1.862831
7050.000000;1.866048
7049.000000;1.869779
7048.000000;1.873032
7047.000000;1.874925
7046.000000;1.875642
7045.000000;1.876293
7044.000000;1.877796
7043.000000;1.880102
7042.000000;1.882420
7041.000000;1.884010
7040.000000;1.884886
7039.000000;1.885915
7038.000000;1.888090
7037.000000;1.891510
7036.000000;1.895196
7035.000000;1.898116
7034.000000;1.900213
7033.000000;1.902158
7032.000000;1.904310
7031.000000;1.906290
7030.000000;1.907536
7029.000000;1.907952
7028.000000;1.908006
7027.000000;1.908368
7026.000000;1.909423
7025.000000;1.910896
7024.000000;1.911937
7023.000000;1.911868
7022.000000;1.910959
7021.000000;1.910342
7020.000000;1.911111
7019.000000;1.913559
7018.000000;1.917097
7017.000000;1.920596
7016.000000;1.922902
7015.000000;1.923531
7014.000000;1.923141
7013.000000;1.923082
7012.000000;1.924182
7011.000000;1.926044
7010.000000;1.927703
7009.000000;1.928884
7008.000000;1.930297
7007.000000;1.932637
7006.000000;1.935652
7005.000000;1.938402
7004.000000;1.940159
7003.000000;1.940806
7002.000000;1.940492
7001.000000;1.939374
7000.000000;1.937904
6999.000000;1.936965
6998.000000;1.937264
6997.000000;1.938679
6996.000000;1.940422
6995.000000;1.941827
6994.000000;1.942792
6993.000000;1.943438
6992.000000;1.943840
6991.000000;1.944253
6990.000000;1.945182
6989.000000;1.946893
6988.000000;1.949032
6987.000000;1.950972
6986.000000;1.952359
6985.000000;1.953068
6984.000000;1.952909
6983.000000;1.951871
6982.000000;1.950541
6981.000000;1.949718
6980.000000;1.949561
6979.000000;1.949628
6978.000000;1.949855
6977.000000;1.950818
6976.000000;1.952583
6975.000000;1.953874
6974.000000;1.953231
6973.000000;1.950921
6972.000000;1.948923
6971.000000;1.948868
6970.000000;1.950625
6969.000000;1.953046
6968.000000;1.955391
6967.000000;1.957452
6966.000000;1.958675
6965.000000;1.958131
6964.000000;1.955649
6963.000000;1.952392
6962.000000;1.949963
6961.000000;1.949259
6960.000000;1.950296
6959.000000;1.952677
6958.000000;1.955766
6957.000000;1.958640
6956.000000;1.960409
6955.000000;1.960816
6954.000000;1.960269
6953.000000;1.959320
6952.000000;1.958365
6951.000000;1.957884
6950.000000;1.958467
6949.000000;1.960248
6948.000000;1.962542
6947.000000;1.964381
6946.000000;1.965369
6945.000000;1.965789
6944.000000;1.966007
6943.000000;1.966079
6942.000000;1.965932
6941.000000;1.965543
6940.000000;1.964824
6939.000000;1.963601
6938.000000;1.962001
6937.000000;1.960739
6936.000000;1.960672
6935.000000;1.961890
6934.000000;1.963399
6933.000000;1.963938
6932.000000;1.963188
6931.000000;1.961938
6930.000000;1.960933
6929.000000;1.959905
6928.000000;1.958151
6927.000000;1.955945
6926.000000;1.954704
6925.000000;1.955446
6924.000000;1.957511
6923.000000;1.959171
6922.000000;1.959371
6921.000000;1.958494
6920.000000;1.957452
6919.000000;1.956618
6918.000000;1.955822
6917.000000;1.954949
6916.000000;1.954260
6915.000000;1.954197
6914.000000;1.954906
6913.000000;1.955854
6912.000000;1.956083
6911.000000;1.955215
6910.000000;1.954157
6909.000000;1.954262
6908.000000;1.955655
6907.000000;1.956877
6906.000000;1.956489
6905.000000;1.954635
6904.000000;1.952618
6903.000000;1.951402
6902.000000;1.951118
6901.000000;1.951682
6900.000000;1.953047
6899.000000;1.954731
6898.000000;1.955737
6897.000000;1.955395
6896.000000;1.954156
6895.000000;1.953330
6894.000000;1.954077
6893.000000;1.956448
6892.000000;1.959091
6891.000000;1.960066
6890.000000;1.958512
6889.000000;1.955548
6888.000000;1.953153
6887.000000;1.952228
6886.000000;1.952125
6885.000000;1.951945
6884.000000;1.951638
6883.000000;1.951550
6882.000000;1.951461
6881.000000;1.950674
6880.000000;1.948884
6879.000000;1.946539
6878.000000;1.944485
6877.000000;1.943539
6876.000000;1.944199
6875.000000;1.946277
6874.000000;1.948686
6873.000000;1.949978
6872.000000;1.949423
6871.000000;1.947580
6870.000000;1.945721
6869.000000;1.944664
6868.000000;1.944131
6867.000000;1.943330
6866.000000;1.942094
6865.000000;1.941135
6864.000000;1.941012
6863.000000;1.941190
6862.000000;1.940633
6861.000000;1.939287
6860.000000;1.938278
6859.000000;1.938457
6858.000000;1.939344
6857.000000;1.939924
6856.000000;1.940005
6855.000000;1.940094
6854.000000;1.940219
6853.000000;1.939734
6852.000000;1.938403
6851.000000;1.936942
6850.000000;1.936124
6849.000000;1.935839
6848.000000;1.935386
6847.000000;1.934437
6846.000000;1.933396
6845.000000;1.932895
6844.000000;1.933097
6843.000000;1.933388
6842.000000;1.932713
6841.000000;1.930530
6840.000000;1.927515
6839.000000;1.925039
6838.000000;1.923825
6837.000000;1.923385
6836.000000;1.922902
6835.000000;1.922251
6834.000000;1.921810
6833.000000;1.921594
6832.000000;1.921118
6831.000000;1.920087
6830.000000;1.918726
6829.000000;1.917363
6828.000000;1.916151
6827.000000;1.915320
6826.000000;1.915182
6825.000000;1.915551
6824.000000;1.915486
6823.000000;1.914059
6822.000000;1.911359
6821.000000;1.908422
6820.000000;1.906174
6819.000000;1.904661
6818.000000;1.903297
6817.000000;1.901669
6816.000000;1.899957
6815.000000;1.898621
6814.000000;1.897755
6813.000000;1.896867
6812.000000;1.895408
6811.000000;1.893475
6810.000000;1.891727
6809.000000;1.890510
6808.000000;1.889349
6807.000000;1.887526
6806.000000;1.885002
6805.000000;1.882451
6804.000000;1.880483
6803.000000;1.879135
6802.000000;1.878044
6801.000000;1.876820
6800.000000;1.875197
6799.000000;1.873169
6798.000000;1.871052
6797.000000;1.869132
6796.000000;1.867208
6795.000000;1.864838
6794.000000;1.862179
6793.000000;1.860103
6792.000000;1.859139
6791.000000;1.858604
6790.000000;1.857214
6789.000000;1.854458
6788.000000;1.850999
6787.000000;1.847807
6786.000000;1.845398
6785.000000;1.843828
6784.000000;1.842887
6783.000000;1.842082
6782.000000;1.840830
6781.000000;1.839000
6780.000000;1.837101
6779.000000;1.835721
6778.000000;1.834877
6777.000000;1.834002
6776.000000;1.832468
6775.000000;1.830039
6774.000000;1.826988
6773.000000;1.823893
6772.000000;1.821255
6771.000000;1.819167
6770.000000;1.817389
6769.000000;1.815751
6768.000000;1.814277
6767.000000;1.812818
6766.000000;1.810844
6765.000000;1.807968
6764.000000;1.804623
6763.000000;1.801857
6762.000000;1.800297
6761.000000;1.799488
6760.000000;1.798403
6759.000000;1.796521
6758.000000;1.794206
6757.000000;1.792103
6756.000000;1.790459
6755.000000;1.789044
6754.000000;1.787471
6753.000000;1.785451
6752.000000;1.782880
6751.000000;1.779958
6750.000000;1.777184
6749.000000;1.774951
6748.000000;1.773072
6747.000000;1.770919
6746.000000;1.768137
6745.000000;1.765036
6744.000000;1.762165
6743.000000;1.759776
6742.000000;1.757877
6741.000000;1.756532
6740.000000;1.755775
6739.000000;1.755317
6738.000000;1.754601
6737.000000;1.753204
6736.000000;1.751045
6735.000000;1.748294
6734.000000;1.745264
6733.000000;1.742339
6732.000000;1.739749
6731.000000;1.737426
6730.000000;1.735232
6729.000000;1.733266
6728.000000;1.731729
6727.000000;1.730548
6726.000000;1.729369
6725.000000;1.727900
6724.000000;1.726030
6723.000000;1.723691
6722.000000;1.720944
6721.000000;1.718196
6720.000000;1.715967
6719.000000;1.714336
6718.000000;1.712948
6717.000000;1.711576
6716.000000;1.710321
6715.000000;1.709053
6714.000000;1.707125
6713.000000;1.704058
6712.000000;1.700275
6711.000000;1.696785
6710.000000;1.694226
6709.000000;1.692455
6708.000000;1.690947
6707.000000;1.689289
6706.000000;1.687316
6705.000000;1.685120
6704.000000;1.683017
6703.000000;1.681228
6702.000000;1.679629
6701.000000;1.677868
6700.000000;1.675747
6699.000000;1.673393
6698.000000;1.671102
6697.000000;1.669099
6696.000000;1.667385
6695.000000;1.665736
6694.000000;1.663938
6693.000000;1.662110
6692.000000;1.660630
6691.000000;1.659583
6690.000000;1.658444
6689.000000;1.656595
6688.000000;1.654076
6687.000000;1.651545
6686.000000;1.649466
6685.000000;1.647640
6684.000000;1.645581
6683.000000;1.643161
6682.000000;1.640718
6681.000000;1.638671
6680.000000;1.637138
6679.000000;1.635851
6678.000000;1.634373
6677.000000;1.632416
6676.000000;1.630020
6675.000000;1.627422
6674.000000;1.624822
6673.000000;1.622334
6672.000000;1.620072
6671.000000;1.618124
6670.000000;1.616428
6669.000000;1.614807
6668.000000;1.613154
6667.000000;1.611474
6666.000000;1.609775
6665.000000;1.608043
6664.000000;1.606335
6663.000000;1.604773
6662.000000;1.603352
6661.000000;1.601882
6660.000000;1.600168
6659.000000;1.598177
6658.000000;1.596006
6657.000000;1.593773
6656.000000;1.591573
6655.000000;1.589453
6654.000000;1.587369
6653.000000;1.585277
6652.000000;1.583278
6651.000000;1.581566
6650.000000;1.580166
6649.000000;1.578846
6648.000000;1.577351
6647.000000;1.575637
6646.000000;1.573782
6645.000000;1.571829
6644.000000;1.569816
6643.000000;1.567874
6642.000000;1.566105
6641.000000;1.564434
6640.000000;1.562752
6639.000000;1.561134
6638.000000;1.559746
6637.000000;1.558518
6636.000000;1.557140
6635.000000;1.555448
6634.000000;1.553642
6633.000000;1.552013
6632.000000;1.550582
6631.000000;1.549166
6630.000000;1.547672
6629.000000;1.546136
6628.000000;1.544510
6627.000000;1.542637
6626.000000;1.540518
6625.000000;1.538434
6624.000000;1.536679
6623.000000;1.535223
6622.000000;1.533753
6621.000000;1.532005
6620.000000;1.529979
6619.000000;1.527877
6618.000000;1.525933
6617.000000;1.524283
6616.000000;1.522895
6615.000000;1.521578
6614.000000;1.520156
6613.000000;1.518653
6612.000000;1.517254
6611.000000;1.516030
6610.000000;1.514784
6609.000000;1.513243
6608.000000;1.511380
6607.000000;1.509486
6606.000000;1.507874
6605.000000;1.506562
6604.000000;1.505264
6603.000000;1.503693
6602.000000;1.501858
6601.000000;1.500062
6600.000000;1.498603
6599.000000;1.497532
6598.000000;1.496654
6597.000000;1.495703
6596.000000;1.494488
6595.000000;1.492956
6594.000000;1.491223
6593.000000;1.489505
6592.000000;1.487934
6591.000000;1.486442
6590.000000;1.484878
6589.000000;1.483213
6588.000000;1.481529
6587.000000;1.479864
6586.000000;1.478195
6585.000000;1.476566
6584.000000;1.475094
6583.000000;1.473774
6582.000000;1.472427
6581.000000;1.470892
6580.000000;1.469212
6579.000000;1.467570
6578.000000;1.466125
6577.000000;1.464933
6576.000000;1.463939
6575.000000;1.462979
6574.000000;1.461858
6573.000000;1.460489
6572.000000;1.458907
6571.000000;1.457170
6570.000000;1.455376
6569.000000;1.453747
6568.000000;1.452511
6567.000000;1.451597
6566.000000;1.450630
6565.000000;1.449351
6564.000000;1.447882
6563.000000;1.446435
6562.000000;1.444974
6561.000000;1.443369
6560.000000;1.441747
6559.000000;1.440394
6558.000000;1.439339
6557.000000;1.438314
6556.000000;1.437123
6555.000000;1.435823
6554.000000;1.434535
6553.000000;1.433286
6552.000000;1.432102
6551.000000;1.431051
6550.000000;1.430081
6549.000000;1.429002
6548.000000;1.427703
6547.000000;1.426281
6546.000000;1.424870
6545.000000;1.423469
6544.000000;1.422022
6543.000000;1.420520
6542.000000;1.418955
6541.000000;1.417320
6540.000000;1.415750
6539.000000;1.414511
6538.000000;1.413729
6537.000000;1.413188
6536.000000;1.412512
6535.000000;1.411494
6534.000000;1.410194
6533.000000;1.408818
6532.000000;1.407586
6531.000000;1.406611
6530.000000;1.405770
6529.000000;1.404781
6528.000000;1.403517
6527.000000;1.402171
6526.000000;1.401003
6525.000000;1.399992
6524.000000;1.398901
6523.000000;1.397617
6522.000000;1.396276
6521.000000;1.395045
6520.000000;1.393936
6519.000000;1.392854
6518.000000;1.391726
6517.000000;1.390524
6516.000000;1.389269
6515.000000;1.388041
6514.000000;1.386929
6513.000000;1.385932
6512.000000;1.384947
6511.000000;1.383883
6510.000000;1.382742
6509.000000;1.381589
6508.000000;1.380479
6507.000000;1.379422
6506.000000;1.378391
6505.000000;1.377372
6504.000000;1.376384
6503.000000;1.375457
6502.000000;1.374563
6501.000000;1.373647
6500.000000;1.372726
6499.000000;1.371879
6498.000000;1.371090
6497.000000;1.370200
6496.000000;1.369097
6495.000000;1.367874
6494.000000;1.366686
6493.000000;1.365538
6492.000000;1.364357
6491.000000;1.363223
6490.000000;1.362326
6489.000000;1.361669
6488.000000;1.360988
6487.000000;1.360049
6486.000000;1.358900
6485.000000;1.357724
6484.000000;1.356572
6483.000000;1.355380
6482.000000;1.354164
6481.000000;1.353061
6480.000000;1.352166
6479.000000;1.351415
6478.000000;1.350651
6477.000000;1.349752
6476.000000;1.348708
6475.000000;1.347608
6474.000000;1.346576
6473.000000;1.345666
6472.000000;1.344831
6471.000000;1.343998
6470.000000;1.343168
6469.000000;1.342388
6468.000000;1.341653
6467.000000;1.340890
6466.000000;1.340037
6465.000000;1.339102
6464.000000;1.338108
6463.000000;1.337052
6462.000000;1.335944
6461.000000;1.334877
6460.000000;1.333975
6459.000000;1.333250
6458.000000;1.332554
6457.000000;1.331719
6456.000000;1.330736
6455.000000;1.329758
6454.000000;1.328919
6453.000000;1.328210
6452.000000;1.327523
6451.000000;1.326776
6450.000000;1.325946
6449.000000;1.325039
6448.000000;1.324084
6447.000000;1.323134
6446.000000;1.322202
6445.000000;1.321216
6444.000000;1.320104
6443.000000;1.318928
6442.000000;1.317862
6441.000000;1.317007
6440.000000;1.316298
6439.000000;1.315612
6438.000000;1.314913
6437.000000;1.314245
6436.000000;1.313609
6435.000000;1.312935
6434.000000;1.312151
6433.000000;1.311266
6432.000000;1.310373
6431.000000;1.309607
6430.000000;1.309062
6429.000000;1.308697
6428.000000;1.308314
6427.000000;1.307691
6426.000000;1.306748
6425.000000;1.305606
6424.000000;1.304477
6423.000000;1.303518
6422.000000;1.302755
6421.000000;1.302097
6420.000000;1.301394
6419.000000;1.300548
6418.000000;1.299604
6417.000000;1.298734
6416.000000;1.298087
6415.000000;1.297648
6414.000000;1.297243
6413.000000;1.296700
6412.000000;1.295975
6411.000000;1.295151
6410.000000;1.294348
6409.000000;1.293653
6408.000000;1.293081
6407.000000;1.292545
6406.000000;1.291887
6405.000000;1.291010
6404.000000;1.289991
6403.000000;1.289011
6402.000000;1.288169
6401.000000;1.287410
6400.000000;1.286650
6399.000000;1.285890
6398.000000;1.285180
6397.000000;1.284534
6396.000000;1.283937
6395.000000;1.283395
6394.000000;1.282878
6393.000000;1.282261
6392.000000;1.281410
6391.000000;1.280359
6390.000000;1.279330
6389.000000;1.278542
6388.000000;1.278022
6387.000000;1.277598
6386.000000;1.277062
6385.000000;1.276341
6384.000000;1.275566
6383.000000;1.274962
6382.000000;1.274641
6381.000000;1.274476
6380.000000;1.274214
6379.000000;1.273693
6378.000000;1.272941
6377.000000;1.272082
6376.000000;1.271240
6375.000000;1.270508
6374.000000;1.269917
6373.000000;1.269412
6372.000000;1.268883
6371.000000;1.268259
6370.000000;1.267528
6369.000000;1.266697
6368.000000;1.265798
6367.000000;1.264955
6366.000000;1.264334
6365.000000;1.263983
6364.000000;1.263769
6363.000000;1.263504
6362.000000;1.263075
6361.000000;1.262445
6360.000000;1.261642
6359.000000;1.260800
6358.000000;1.260090
6357.000000;1.259526
6356.000000;1.258892
6355.000000;1.257999
6354.000000;1.256942
6353.000000;1.256006
6352.000000;1.255343
6351.000000;1.254880
6350.000000;1.254502
6349.000000;1.254162
6348.000000;1.253797
6347.000000;1.253292
6346.000000;1.252616
6345.000000;1.251910
6344.000000;1.251344
6343.000000;1.250949
6342.000000;1.250638
6341.000000;1.250334
6340.000000;1.249987
6339.000000;1.249537
6338.000000;1.248952
6337.000000;1.248310
6336.000000;1.247730
6335.000000;1.247237
6334.000000;1.246752
6333.000000;1.246205
6332.000000;1.245597
6331.000000;1.244946
6330.000000;1.244264
6329.000000;1.243604
6328.000000;1.243070
6327.000000;1.242710
6326.000000;1.242451
6325.000000;1.242169
6324.000000;1.241792
6323.000000;1.241305
6322.000000;1.240708
6321.000000;1.240039
6320.000000;1.239397
6319.000000;1.238865
6318.000000;1.238425
6317.000000;1.237996
6316.000000;1.237561
6315.000000;1.237181
6314.000000;1.236857
6313.000000;1.236496
6312.000000;1.236032
6311.000000;1.235524
6310.000000;1.235050
6309.000000;1.234565
6308.000000;1.233955
6307.000000;1.233213
6306.000000;1.232493
6305.000000;1.231954
6304.000000;1.231601
6303.000000;1.231292
6302.000000;1.230861
6301.000000;1.230247
6300.000000;1.229529
6299.000000;1.228849
6298.000000;1.228304
6297.000000;1.227906
6296.000000;1.227632
6295.000000;1.227462
6294.000000;1.227331
6293.000000;1.227109
6292.000000;1.226701
6291.000000;1.226167
6290.000000;1.225670
6289.000000;1.225304
6288.000000;1.225028
6287.000000;1.224762
6286.000000;1.224468
6285.000000;1.224116
6284.000000;1.223656
6283.000000;1.223059
6282.000000;1.222378
6281.000000;1.221714
6280.000000;1.221154
6279.000000;1.220730
6278.000000;1.220394
6277.000000;1.220031
6276.000000;1.219553
6275.000000;1.219011
6274.000000;1.218572
6273.000000;1.218340
6272.000000;1.218258
6271.000000;1.218191
6270.000000;1.218052
6269.000000;1.217794
6268.000000;1.217352
6267.000000;1.216702
6266.000000;1.215949
6265.000000;1.215291
6264.000000;1.214871
6263.000000;1.214675
6262.000000;1.214564
6261.000000;1.214368
6260.000000;1.213987
6259.000000;1.213449
6258.000000;1.212897
6257.000000;1.212462
6256.000000;1.212157
6255.000000;1.211909
6254.000000;1.211661
6253.000000;1.211407
6252.000000;1.211144
6251.000000;1.210851
6250.000000;1.210526
6249.000000;1.210194
6248.000000;1.209870
6247.000000;1.209538
6246.000000;1.209184
6245.000000;1.208814
6244.000000;1.208457
6243.000000;1.208148
6242.000000;1.207915
6241.000000;1.207746
6240.000000;1.207569
6239.000000;1.207304
6238.000000;1.206955
6237.000000;1.206615
6236.000000;1.206372
6235.000000;1.206224
6234.000000;1.206084
6233.000000;1.205855
6232.000000;1.205482
6231.000000;1.204969
6230.000000;1.204371
6229.000000;1.203767
6228.000000;1.203243
6227.000000;1.202875
6226.000000;1.202710
6225.000000;1.202721
6224.000000;1.202782
6223.000000;1.202725
6222.000000;1.202428
6221.000000;1.201884
6220.000000;1.201204
6219.000000;1.200562
6218.000000;1.200095
6217.000000;1.199828
6216.000000;1.199678
6215.000000;1.199558
6214.000000;1.199433
6213.000000;1.199300
6212.000000;1.199131
6211.000000;1.198896
6210.000000;1.198609
6209.000000;1.198303
6208.000000;1.197990
6207.000000;1.197676
6206.000000;1.197391
6205.000000;1.197155
6204.000000;1.196919
6203.000000;1.196621
6202.000000;1.196301
6201.000000;1.196076
6200.000000;1.195991
6199.000000;1.195946
6198.000000;1.195806
6197.000000;1.195532
6196.000000;1.195166
6195.000000;1.194752
6194.000000;1.194330
6193.000000;1.193971
6192.000000;1.193707
6191.000000;1.193470
6190.000000;1.193150
6189.000000;1.192745
6188.000000;1.192372
6187.000000;1.192123
6186.000000;1.191967
6185.000000;1.191822
6184.000000;1.191671
6183.000000;1.191543
6182.000000;1.191417
6181.000000;1.191237
6180.000000;1.190992
6179.000000;1.190730
6178.000000;1.190479
6177.000000;1.190217
6176.000000;1.189945
6175.000000;1.189720
6174.000000;1.189568
6173.000000;1.189414
6172.000000;1.189183
6171.000000;1.188935
6170.000000;1.188811
6169.000000;1.188846
6168.000000;1.188907
6167.000000;1.188835
6166.000000;1.188592
6165.000000;1.188240
6164.000000;1.187843
6163.000000;1.187449
6162.000000;1.187127
6161.000000;1.186939
6160.000000;1.186881
6159.000000;1.186884
6158.000000;1.186866
6157.000000;1.186760
6156.000000;1.186507
6155.000000;1.186083
6154.000000;1.185550
6153.000000;1.185041
6152.000000;1.184681
6151.000000;1.184522
6150.000000;1.184529
6149.000000;1.184590
6148.000000;1.184569
6147.000000;1.184408
6146.000000;1.184177
6145.000000;1.183993
6144.000000;1.183883
6143.000000;1.183757
6142.000000;1.183529
6141.000000;1.183207
6140.000000;1.182857
6139.000000;1.182537
6138.000000;1.182297
6137.000000;1.182185
6136.000000;1.182198
6135.000000;1.182228
6134.000000;1.182143
6133.000000;1.181917
6132.000000;1.181653
6131.000000;1.181455
6130.000000;1.181332
6129.000000;1.181247
6128.000000;1.181190
6127.000000;1.181175
6126.000000;1.181162
6125.000000;1.181067
6124.000000;1.180845
6123.000000;1.180534
6122.000000;1.180213
6121.000000;1.179931
6120.000000;1.179712
6119.000000;1.179563
6118.000000;1.179449
6117.000000;1.179285
6116.000000;1.178998
6115.000000;1.178612
6114.000000;1.178213
6113.000000;1.177865
6112.000000;1.177567
6111.000000;1.177313
6110.000000;1.177127
6109.000000;1.177025
6108.000000;1.177000
6107.000000;1.177055
6106.000000;1.177213
6105.000000;1.177454
6104.000000;1.177670
6103.000000;1.177733
6102.000000;1.177592
6101.000000;1.177300
6100.000000;1.176960
6099.000000;1.176675
6098.000000;1.176515
6097.000000;1.176464
6096.000000;1.176409
6095.000000;1.176240
6094.000000;1.175965
6093.000000;1.175699
6092.000000;1.175521
6091.000000;1.175393
6090.000000;1.175241
6089.000000;1.175061
6088.000000;1.174894
6087.000000;1.174740
6086.000000;1.174554
6085.000000;1.174331
6084.000000;1.174148
6083.000000;1.174094
6082.000000;1.174174
6081.000000;1.174320
6080.000000;1.174451
6079.000000;1.174503
6078.000000;1.174428
6077.000000;1.174212
6076.000000;1.173926
6075.000000;1.173682
6074.000000;1.173546
6073.000000;1.173487
6072.000000;1.173459
6071.000000;1.173486
6070.000000;1.173620
6069.000000;1.173838
6068.000000;1.174012
6067.000000;1.174001
6066.000000;1.173761
6065.000000;1.173381
6064.000000;1.173032
6063.000000;1.172857
6062.000000;1.172865
6061.000000;1.172941
6060.000000;1.172971
6059.000000;1.172946
6058.000000;1.172901
6057.000000;1.172822
6056.000000;1.172679
6055.000000;1.172524
6054.000000;1.172466
6053.000000;1.172524
6052.000000;1.172600
6051.000000;1.172631
6050.000000;1.172667
6049.000000;1.172760
6048.000000;1.172853
6047.000000;1.172837
6046.000000;1.172683
6045.000000;1.172426
6044.000000;1.172088
6043.000000;1.171691
6042.000000;1.171322
6041.000000;1.171104
6040.000000;1.171087
6039.000000;1.171226
6038.000000;1.171435
6037.000000;1.171627
6036.000000;1.171716
6035.000000;1.171666
6034.000000;1.171536
6033.000000;1.171430
6032.000000;1.171398
6031.000000;1.171425
6030.000000;1.171488
6029.000000;1.171587
6028.000000;1.171698
6027.000000;1.171766
6026.000000;1.171763
6025.000000;1.171714
6024.000000;1.171662
6023.000000;1.171628
6022.000000;1.171601
6021.000000;1.171538
6020.000000;1.171385
6019.000000;1.171138
6018.000000;1.170869
6017.000000;1.170683
6016.000000;1.170624
6015.000000;1.170674
6014.000000;1.170797
6013.000000;1.170944
6012.000000;1.171039
6011.000000;1.171034
6010.000000;1.170996
6009.000000;1.171062
6008.000000;1.171274
6007.000000;1.171522
6006.000000;1.171675
6005.000000;1.171721
6004.000000;1.171732
6003.000000;1.171748
6002.000000;1.171741
6001.000000;1.171670
6000.000000;1.171539
5999.000000;1.171396
5998.000000;1.171337
5997.000000;1.171472
5996.000000;1.171833
5995.000000;1.172291
5994.000000;1.172628
5993.000000;1.172712
5992.000000;1.172618
5991.000000;1.172524
5990.000000;1.172528
5989.000000;1.172591
5988.000000;1.172647
5987.000000;1.172702
5986.000000;1.172795
5985.000000;1.172908
5984.000000;1.172980
5983.000000;1.173007
5982.000000;1.173058
5981.000000;1.173169
5980.000000;1.173286
5979.000000;1.173347
5978.000000;1.173377
5977.000000;1.173456
5976.000000;1.173633
5975.000000;1.173890
5974.000000;1.174175
5973.000000;1.174421
5972.000000;1.174589
5971.000000;1.174715
5970.000000;1.174904
5969.000000;1.175198
5968.000000;1.175503
5967.000000;1.175686
5966.000000;1.175732
5965.000000;1.175749
5964.000000;1.175829
5963.000000;1.175991
5962.000000;1.176231
5961.000000;1.176547
5960.000000;1.176899
5959.000000;1.177218
5958.000000;1.177489
5957.000000;1.177755
5956.000000;1.178021
5955.000000;1.178233
5954.000000;1.178366
5953.000000;1.178472
5952.000000;1.178596
5951.000000;1.178709
5950.000000;1.178786
5949.000000;1.178904
5948.000000;1.179192
5947.000000;1.179672
5946.000000;1.180215
5945.000000;1.180650
5944.000000;1.180899
5943.000000;1.181016
5942.000000;1.181110
5941.000000;1.181248
5940.000000;1.181407
5939.000000;1.181539
5938.000000;1.181662
5937.000000;1.181864
5936.000000;1.182188
5935.000000;1.182560
5934.000000;1.182846
5933.000000;1.182990
5932.000000;1.183075
5931.000000;1.183248
5930.000000;1.183595
5929.000000;1.184075
5928.000000;1.184551
5927.000000;1.184889
5926.000000;1.185056
5925.000000;1.185111
5924.000000;1.185125
5923.000000;1.185136
5922.000000;1.185164
5921.000000;1.185245
5920.000000;1.185398
5919.000000;1.185611
5918.000000;1.185860
5917.000000;1.186131
5916.000000;1.186404
5915.000000;1.186644
5914.000000;1.186837
5913.000000;1.187021
5912.000000;1.187224
5911.000000;1.187392
5910.000000;1.187416
5909.000000;1.187250
5908.000000;1.186980
5907.000000;1.186747
5906.000000;1.186642
5905.000000;1.186670
5904.000000;1.186786
5903.000000;1.186923
5902.000000;1.187009
5901.000000;1.187017
5900.000000;1.187020
5899.000000;1.187131
5898.000000;1.187366
5897.000000;1.187600
5896.000000;1.187711
5895.000000;1.187754
5894.000000;1.187899
5893.000000;1.188210
5892.000000;1.188555
5891.000000;1.188777
5890.000000;1.188891
5889.000000;1.189032
5888.000000;1.189255
5887.000000;1.189464
5886.000000;1.189539
5885.000000;1.189456
5884.000000;1.189294
5883.000000;1.189152
5882.000000;1.189106
5881.000000;1.189189
5880.000000;1.189401
5879.000000;1.189728
5878.000000;1.190145
5877.000000;1.190567
5876.000000;1.190856
5875.000000;1.190914
5874.000000;1.190799
5873.000000;1.190679
5872.000000;1.190686
5871.000000;1.190845
5870.000000;1.191136
5869.000000;1.191544
5868.000000;1.192020
5867.000000;1.192460
5866.000000;1.192780
5865.000000;1.193009
5864.000000;1.193253
5863.000000;1.193583
5862.000000;1.193970
5861.000000;1.194321
5860.000000;1.194557
5859.000000;1.194673
5858.000000;1.194757
5857.000000;1.194940
5856.000000;1.195295
5855.000000;1.195766
5854.000000;1.196227
5853.000000;1.196598
5852.000000;1.196916
5851.000000;1.197295
5850.000000;1.197812
5849.000000;1.198423
5848.000000;1.198989
5847.000000;1.199404
5846.000000;1.199700
5845.000000;1.200015
5844.000000;1.200455
5843.000000;1.200986
5842.000000;1.201478
5841.000000;1.201836
5840.000000;1.202095
5839.000000;1.202385
5838.000000;1.202809
5837.000000;1.203325
5836.000000;1.203794
5835.000000;1.204129
5834.000000;1.204404
5833.000000;1.204756
5832.000000;1.205209
5831.000000;1.205649
5830.000000;1.205979
5829.000000;1.206253
5828.000000;1.206600
5827.000000;1.207079
5826.000000;1.207642
5825.000000;1.208226
5824.000000;1.208814
5823.000000;1.209396
5822.000000;1.209918
5821.000000;1.210319
5820.000000;1.210606
5819.000000;1.210865
5818.000000;1.211177
5817.000000;1.211555
5816.000000;1.211975
5815.000000;1.212446
5814.000000;1.213013
5813.000000;1.213679
5812.000000;1.214368
5811.000000;1.215000
5810.000000;1.215568
5809.000000;1.216132
5808.000000;1.216728
5807.000000;1.217324
5806.000000;1.217868
5805.000000;1.218336
5804.000000;1.218753
5803.000000;1.219183
5802.000000;1.219690
5801.000000;1.220277
5800.000000;1.220876
5799.000000;1.221429
5798.000000;1.221963
5797.000000;1.222554
5796.000000;1.223196
5795.000000;1.223785
5794.000000;1.224223
5793.000000;1.224528
5792.000000;1.224816
5791.000000;1.225207
5790.000000;1.225761
5789.000000;1.226454
5788.000000;1.227189
5787.000000;1.227845
5786.000000;1.228364
5785.000000;1.228799
5784.000000;1.229247
5783.000000;1.229750
5782.000000;1.230267
5781.000000;1.230749
5780.000000;1.231210
5779.000000;1.231720
5778.000000;1.232334
5777.000000;1.233034
5776.000000;1.233755
5775.000000;1.234439
5774.000000;1.235055
5773.000000;1.235586
5772.000000;1.236034
5771.000000;1.236447
5770.000000;1.236910
5769.000000;1.237469
5768.000000;1.238093
5767.000000;1.238734
5766.000000;1.239388
5765.000000;1.240063
5764.000000;1.240710
5763.000000;1.241249
5762.000000;1.241655
5761.000000;1.241976
5760.000000;1.242274
5759.000000;1.242597
5758.000000;1.243001
5757.000000;1.243531
5756.000000;1.244179
5755.000000;1.244903
5754.000000;1.245697
5753.000000;1.246562
5752.000000;1.247419
5751.000000;1.248121
5750.000000;1.248614
5749.000000;1.249032
5748.000000;1.249557
5747.000000;1.250231
5746.000000;1.250943
5745.000000;1.251599
5744.000000;1.252215
5743.000000;1.252861
5742.000000;1.253536
5741.000000;1.254142
5740.000000;1.254583
5739.000000;1.254886
5738.000000;1.255210
5737.000000;1.255700
5736.000000;1.256346
5735.000000;1.256993
5734.000000;1.257507
5733.000000;1.257893
5732.000000;1.258255
5731.000000;1.258681
5730.000000;1.259190
5729.000000;1.259755
5728.000000;1.260347
5727.000000;1.260970
5726.000000;1.261661
5725.000000;1.262441
5724.000000;1.263264
5723.000000;1.264055
5722.000000;1.264788
5721.000000;1.265491
5720.000000;1.266162
5719.000000;1.266747
5718.000000;1.267233
5717.000000;1.267711
5716.000000;1.268289
5715.000000;1.268984
5714.000000;1.269748
5713.000000;1.270550
5712.000000;1.271377
5711.000000;1.272168
5710.000000;1.272851
5709.000000;1.273440
5708.000000;1.274051
5707.000000;1.274772
5706.000000;1.275566
5705.000000;1.276316
5704.000000;1.276946
5703.000000;1.277488
5702.000000;1.278049
5701.000000;1.278712
5700.000000;1.279477
5699.000000;1.280258
5698.000000;1.280964
5697.000000;1.281597
5696.000000;1.282224
5695.000000;1.282886
5694.000000;1.283552
5693.000000;1.284168
5692.000000;1.284711
5691.000000;1.285216
5690.000000;1.285748
5689.000000;1.286372
5688.000000;1.287110
5687.000000;1.287913
5686.000000;1.288695
5685.000000;1.289413
5684.000000;1.290096
5683.000000;1.290796
5682.000000;1.291519
5681.000000;1.292218
5680.000000;1.292855
5679.000000;1.293449
5678.000000;1.294070
5677.000000;1.294769
5676.000000;1.295508
5675.000000;1.296176
5674.000000;1.296704
5673.000000;1.297170
5672.000000;1.297734
5671.000000;1.298458
5670.000000;1.299234
5669.000000;1.299926
5668.000000;1.300539
5667.000000;1.301196
5666.000000;1.301975
5665.000000;1.302822
5664.000000;1.303637
5663.000000;1.304364
5662.000000;1.304977
5661.000000;1.305442
5660.000000;1.305763
5659.000000;1.306025
5658.000000;1.306353
5657.000000;1.306802
5656.000000;1.307336
5655.000000;1.307882
5654.000000;1.308381
5653.000000;1.308798
5652.000000;1.309147
5651.000000;1.309511
5650.000000;1.309981
5649.000000;1.310563
5648.000000;1.311202
5647.000000;1.311888
5646.000000;1.312663
5645.000000;1.313491
5644.000000;1.314223
5643.000000;1.314760
5642.000000;1.315208
5641.000000;1.315776
5640.000000;1.316532
5639.000000;1.317346
5638.000000;1.318049
5637.000000;1.318586
5636.000000;1.319013
5635.000000;1.319427
5634.000000;1.319905
5633.000000;1.320460
5632.000000;1.321026
5631.000000;1.321533
5630.000000;1.322015
5629.000000;1.322562
5628.000000;1.323179
5627.000000;1.323745
5626.000000;1.324162
5625.000000;1.324473
5624.000000;1.324795
5623.000000;1.325186
5622.000000;1.325628
5621.000000;1.326096
5620.000000;1.326572
5619.000000;1.327006
5618.000000;1.327346
5617.000000;1.327616
5616.000000;1.327912
5615.000000;1.328311
5614.000000;1.328810
5613.000000;1.329349
5612.000000;1.329854
5611.000000;1.330252
5610.000000;1.330500
5609.000000;1.330633
5608.000000;1.330766
5607.000000;1.331032
5606.000000;1.331491
5605.000000;1.332091
5604.000000;1.332697
5603.000000;1.333181
5602.000000;1.333506
5601.000000;1.333732
5600.000000;1.333931
5599.000000;1.334118
5598.000000;1.334281
5597.000000;1.334467
5596.000000;1.334761
5595.000000;1.335184
5594.000000;1.335627
5593.000000;1.335944
5592.000000;1.336093
5591.000000;1.336169
5590.000000;1.336297
5589.000000;1.336516
5588.000000;1.336778
5587.000000;1.337033
5586.000000;1.337276
5585.000000;1.337512
5584.000000;1.337698
5583.000000;1.337766
5582.000000;1.337723
5581.000000;1.337680
5580.000000;1.337757
5579.000000;1.337948
5578.000000;1.338123
5577.000000;1.338193
5576.000000;1.338253
5575.000000;1.338505
5574.000000;1.339018
5573.000000;1.339615
5572.000000;1.340030
5571.000000;1.340159
5570.000000;1.340118
5569.000000;1.340062
5568.000000;1.340051
5567.000000;1.340068
5566.000000;1.340097
5565.000000;1.340126
5564.000000;1.340124
5563.000000;1.340092
5562.000000;1.340085
5561.000000;1.340132
5560.000000;1.340174
5559.000000;1.340143
5558.000000;1.340099
5557.000000;1.340172
5556.000000;1.340398
5555.000000;1.340674
5554.000000;1.340894
5553.000000;1.341059
5552.000000;1.341215
5551.000000;1.341377
5550.000000;1.341529
5549.000000;1.341656
5548.000000;1.341710
5547.000000;1.341608
5546.000000;1.341316
5545.000000;1.340942
5544.000000;1.340686
5543.000000;1.340692
5542.000000;1.340929
5541.000000;1.341216
5540.000000;1.341377
5539.000000;1.341380
5538.000000;1.341341
5537.000000;1.341384
5536.000000;1.341543
5535.000000;1.341783
5534.000000;1.342062
5533.000000;1.342322
5532.000000;1.342488
5531.000000;1.342529
5530.000000;1.342509
5529.000000;1.342487
5528.000000;1.342427
5527.000000;1.342260
5526.000000;1.342029
5525.000000;1.341877
5524.000000;1.341872
5523.000000;1.341944
5522.000000;1.341989
5521.000000;1.341973
5520.000000;1.341921
5519.000000;1.341880
5518.000000;1.341900
5517.000000;1.342017
5516.000000;1.342192
5515.000000;1.342347
5514.000000;1.342462
5513.000000;1.342574
5512.000000;1.342696
5511.000000;1.342802
5510.000000;1.342914
5509.000000;1.343096
5508.000000;1.343338
5507.000000;1.343532
5506.000000;1.343613
5505.000000;1.343657
5504.000000;1.343773
5503.000000;1.343976
5502.000000;1.344222
5501.000000;1.344476
5500.000000;1.344706
5499.000000;1.344853
5498.000000;1.344852
5497.000000;1.344738
5496.000000;1.344645
5495.000000;1.344704
5494.000000;1.344937
5493.000000;1.345238
5492.000000;1.345485
5491.000000;1.345628
5490.000000;1.345724
5489.000000;1.345881
5488.000000;1.346178
5487.000000;1.346623
5486.000000;1.347149
5485.000000;1.347610
5484.000000;1.347832
5483.000000;1.347768
5482.000000;1.347639
5481.000000;1.347762
5480.000000;1.348233
5479.000000;1.348856
5478.000000;1.349386
5477.000000;1.349767
5476.000000;1.350091
5475.000000;1.350469
5474.000000;1.350944
5473.000000;1.351454
5472.000000;1.351873
5471.000000;1.352148
5470.000000;1.352349
5469.000000;1.352553
5468.000000;1.352759
5467.000000;1.352958
5466.000000;1.353229
5465.000000;1.353642
5464.000000;1.354119
5463.000000;1.354530
5462.000000;1.354910
5461.000000;1.355404
5460.000000;1.356035
5459.000000;1.356671
5458.000000;1.357219
5457.000000;1.357730
5456.000000;1.358300
5455.000000;1.358937
5454.000000;1.359557
5453.000000;1.360100
5452.000000;1.360641
5451.000000;1.361316
5450.000000;1.362133
5449.000000;1.362913
5448.000000;1.363519
5447.000000;1.364061
5446.000000;1.364738
5445.000000;1.365602
5444.000000;1.366549
5443.000000;1.367488
5442.000000;1.368439
5441.000000;1.369462
5440.000000;1.370540
5439.000000;1.371585
5438.000000;1.372507
5437.000000;1.373295
5436.000000;1.374056
5435.000000;1.374955
5434.000000;1.376021
5433.000000;1.377089
5432.000000;1.378029
5431.000000;1.378932
5430.000000;1.379951
5429.000000;1.381121
5428.000000;1.382405
5427.000000;1.383768
5426.000000;1.385163
5425.000000;1.386544
5424.000000;1.387895
5423.000000;1.389204
5422.000000;1.390441
5421.000000;1.391596
5420.000000;1.392740
5419.000000;1.394005
5418.000000;1.395525
5417.000000;1.397388
5416.000000;1.399595
5415.000000;1.402018
5414.000000;1.404406
5413.000000;1.406540
5412.000000;1.408395
5411.000000;1.410131
5410.000000;1.411937
5409.000000;1.413874
5408.000000;1.415898
5407.000000;1.417989
5406.000000;1.420164
5405.000000;1.422381
5404.000000;1.424551
5403.000000;1.426680
5402.000000;1.428844
5401.000000;1.431137
5400.000000;1.433678
5399.000000;1.436549
5398.000000;1.439701
5397.000000;1.442965
5396.000000;1.446192
5395.000000;1.449388
5394.000000;1.452637
5393.000000;1.455965
5392.000000;1.459294
5391.000000;1.462559
5390.000000;1.465813
5389.000000;1.469131
5388.000000;1.472537
5387.000000;1.476091
5386.000000;1.479900
5385.000000;1.483955
5384.000000;1.488126
5383.000000;1.492390
5382.000000;1.496855
5381.000000;1.501533
5380.000000;1.506221
5379.000000;1.510753
5378.000000;1.515241
5377.000000;1.519926
5376.000000;1.524861
5375.000000;1.529881
5374.000000;1.534907
5373.000000;1.540097
5372.000000;1.545595
5371.000000;1.551343
5370.000000;1.557267
5369.000000;1.563447
5368.000000;1.569948
5367.000000;1.576660
5366.000000;1.583418
5365.000000;1.590182
5364.000000;1.597016
5363.000000;1.603991
5362.000000;1.611190
5361.000000;1.618759
5360.000000;1.626786
5359.000000;1.635141
5358.000000;1.643591
5357.000000;1.652055
5356.000000;1.660686
5355.000000;1.669698
5354.000000;1.679156
5353.000000;1.688910
5352.000000;1.698721
5351.000000;1.708497
5350.000000;1.718416
5349.000000;1.728748
5348.000000;1.739546
5347.000000;1.750613
5346.000000;1.761831
5345.000000;1.773382
5344.000000;1.785515
5343.000000;1.798215
5342.000000;1.811253
5341.000000;1.824589
5340.000000;1.838441
5339.000000;1.852991
5338.000000;1.868167
5337.000000;1.883574
5336.000000;1.898700
5335.000000;1.913391
5334.000000;1.928120
5333.000000;1.943586
5332.000000;1.960102
5331.000000;1.977431
5330.000000;1.995171
5329.000000;2.013120
5328.000000;2.031235
5327.000000;2.049467
5326.000000;2.067808
5325.000000;2.086343
5324.000000;2.105167
5323.000000;2.124512
5322.000000;2.144933
5321.000000;2.166989
5320.000000;2.190490
5319.000000;2.214296
5318.000000;2.237153
5317.000000;2.258676
5316.000000;2.279459
5315.000000;2.300527
5314.000000;2.322790
5313.000000;2.346561
5312.000000;2.371294
5311.000000;2.395978
5310.000000;2.419947
5309.000000;2.443104
5308.000000;2.465477
5307.000000;2.487198
5306.000000;2.509119
5305.000000;2.532712
5304.000000;2.558799
5303.000000;2.586477
5302.000000;2.613436
5301.000000;2.637350
5300.000000;2.657121
5299.000000;2.673332
5298.000000;2.687962
5297.000000;2.703482
5296.000000;2.721518
5295.000000;2.741838
5294.000000;2.762489
5293.000000;2.781332
5292.000000;2.797897
5291.000000;2.813460
5290.000000;2.828875
5289.000000;2.842859
5288.000000;2.853361
5287.000000;2.860542
5286.000000;2.867033
5285.000000;2.875079
5284.000000;2.884635
5283.000000;2.894302
5282.000000;2.903133
5281.000000;2.911132
5280.000000;2.919072
5279.000000;2.928349
5278.000000;2.939643
5277.000000;2.951015
5276.000000;2.958686
5275.000000;2.960921
5274.000000;2.959861
5273.000000;2.958419
5272.000000;2.957297
5271.000000;2.955633
5270.000000;2.952674
5269.000000;2.948400
5268.000000;2.944025
5267.000000;2.942162
5266.000000;2.944683
5265.000000;2.949716
5264.000000;2.952649
5263.000000;2.951401
5262.000000;2.948804
5261.000000;2.948395
5260.000000;2.950323
5259.000000;2.953055
5258.000000;2.956487
5257.000000;2.960695
5256.000000;2.963804
5255.000000;2.964182
5254.000000;2.963932
5253.000000;2.967436
5252.000000;2.976452
5251.000000;2.988142
5250.000000;2.997489
5249.000000;3.001003
5248.000000;2.998439
5247.000000;2.992030
5246.000000;2.984716
5245.000000;2.978544
5244.000000;2.973847
5243.000000;2.969889
5242.000000;2.966181
5241.000000;2.962867
5240.000000;2.960700
5239.000000;2.961377
5238.000000;2.966722
5237.000000;2.976169
5236.000000;2.985451
5235.000000;2.988863
5234.000000;2.983621
5233.000000;2.972506
5232.000000;2.961960
5231.000000;2.957410
5230.000000;2.959639
5229.000000;2.964369
5228.000000;2.966180
5227.000000;2.963864
5226.000000;2.960752
5225.000000;2.959538
5224.000000;2.959111
5223.000000;2.957657
5222.000000;2.956307
5221.000000;2.957316
5220.000000;2.960112
5219.000000;2.961463
5218.000000;2.959763
5217.000000;2.957385
5216.000000;2.957880
5215.000000;2.962397
5214.000000;2.969558
5213.000000;2.977317
5212.000000;2.983724
5211.000000;2.986698
5210.000000;2.984853
5209.000000;2.979416
5208.000000;2.974537
5207.000000;2.973928
5206.000000;2.976507
5205.000000;2.977141
5204.000000;2.972829
5203.000000;2.965807
5202.000000;2.960135
5201.000000;2.957603
5200.000000;2.957484
5199.000000;2.958830
5198.000000;2.961169
5197.000000;2.963028
5196.000000;2.961847
5195.000000;2.956922
5194.000000;2.951169
5193.000000;2.948472
5192.000000;2.950093
5191.000000;2.954038
5190.000000;2.957302
5189.000000;2.958266
5188.000000;2.957156
5187.000000;2.955168
5186.000000;2.954114
5185.000000;2.956538
5184.000000;2.964538
5183.000000;2.976921
5182.000000;2.987395
5181.000000;2.987747
5180.000000;2.975876
5179.000000;2.959768
5178.000000;2.950569
5177.000000;2.952735
5176.000000;2.960980
5175.000000;2.965623
5174.000000;2.962164
5173.000000;2.955012
5172.000000;2.951485
5171.000000;2.955162
5170.000000;2.963981
5169.000000;2.972283
5168.000000;2.975549
5167.000000;2.973806
5166.000000;2.970446
5165.000000;2.968600
5164.000000;2.969224
5163.000000;2.971399
5162.000000;2.972790
5161.000000;2.970422
5160.000000;2.963111
5159.000000;2.953850
5158.000000;2.947936
5157.000000;2.947650
5156.000000;2.950042
5155.000000;2.950735
5154.000000;2.949014
5153.000000;2.947767
5152.000000;2.949225
5151.000000;2.952518
5150.000000;2.955380
5149.000000;2.956775
5148.000000;2.956985
5147.000000;2.956290
5146.000000;2.954509
5145.000000;2.951801
5144.000000;2.949265
5143.000000;2.947779
5142.000000;2.946629
5141.000000;2.944667
5140.000000;2.942849
5139.000000;2.944069
5138.000000;2.949784
5137.000000;2.957957
5136.000000;2.965256
5135.000000;2.970415
5134.000000;2.973708
5133.000000;2.973982
5132.000000;2.969350
5131.000000;2.961406
5130.000000;2.955780
5129.000000;2.956908
5128.000000;2.963848
5127.000000;2.971684
5126.000000;2.975651
5125.000000;2.973858
5124.000000;2.967883
5123.000000;2.961840
5122.000000;2.959450
5121.000000;2.960458
5120.000000;2.960725
5119.000000;2.957265
5118.000000;2.952794
5117.000000;2.953511
5116.000000;2.961632
5115.000000;2.971100
5114.000000;2.972827
5113.000000;2.965168
5112.000000;2.955449
5111.000000;2.950059
5110.000000;2.947884
5109.000000;2.944460
5108.000000;2.939844
5107.000000;2.939466
5106.000000;2.946711
5105.000000;2.957495
5104.000000;2.964402
5103.000000;2.965234
5102.000000;2.963786
5101.000000;2.962460
5100.000000;2.959743
5099.000000;2.955541
5098.000000;2.953171
5097.000000;2.954456
5096.000000;2.956492
5095.000000;2.954829
5094.000000;2.948743
5093.000000;2.941998
5092.000000;2.939298
5091.000000;2.942868
5090.000000;2.950636
5089.000000;2.956610
5088.000000;2.955413
5087.000000;2.948316
5086.000000;2.942538
5085.000000;2.943715
5084.000000;2.950891
5083.000000;2.958713
5082.000000;2.962864
5081.000000;2.962379
5080.000000;2.958475
5079.000000;2.953308
5078.000000;2.948676
5077.000000;2.944438
5076.000000;2.939267
5075.000000;2.933769
5074.000000;2.930966
5073.000000;2.932350
5072.000000;2.935197
5071.000000;2.935555
5070.000000;2.932937
5069.000000;2.929834
5068.000000;2.927930
5067.000000;2.927915
5066.000000;2.931745
5065.000000;2.941076
5064.000000;2.952691
5063.000000;2.958600
5062.000000;2.953603
5061.000000;2.941369
5060.000000;2.930290
5059.000000;2.925724
5058.000000;2.927845
5057.000000;2.933946
5056.000000;2.940647
5055.000000;2.944862
5054.000000;2.944779
5053.000000;2.940816
5052.000000;2.935746
5051.000000;2.933651
5050.000000;2.937613
5049.000000;2.947289
5048.000000;2.958143
5047.000000;2.964191
5046.000000;2.963110
5045.000000;2.957124
5044.000000;2.949062
5043.000000;2.940241
5042.000000;2.931350
5041.000000;2.923757
5040.000000;2.919530
5039.000000;2.919824
5038.000000;2.923244
5037.000000;2.926097
5036.000000;2.925124
5035.000000;2.920675
5034.000000;2.916547
5033.000000;2.916095
5032.000000;2.918845
5031.000000;2.921339
5030.000000;2.921151
5029.000000;2.919215
5028.000000;2.918200
5027.000000;2.919565
5026.000000;2.921702
5025.000000;2.920732
5024.000000;2.914391
5023.000000;2.904873
5022.000000;2.896700
5021.000000;2.892584
5020.000000;2.892261
5019.000000;2.894352
5018.000000;2.897587
5017.000000;2.900067
5016.000000;2.899246
5015.000000;2.894152
5014.000000;2.887084
5013.000000;2.881672
5012.000000;2.879600
5011.000000;2.880205
5010.000000;2.882033
5009.000000;2.883260
5008.000000;2.881932
5007.000000;2.878052
5006.000000;2.874646
5005.000000;2.874168
5004.000000;2.874517
5003.000000;2.871622
5002.000000;2.866203
5001.000000;2.864119
5000.000000;2.868627
4999.000000;2.875317
4998.000000;2.876639
4997.000000;2.870620
4996.000000;2.862236
4995.000000;2.856761
4994.000000;2.855058
4993.000000;2.854666
4992.000000;2.853044
4991.000000;2.849467
4990.000000;2.845051
4989.000000;2.841340
4988.000000;2.838580
4987.000000;2.835940
4986.000000;2.833666
4985.000000;2.833499
4984.000000;2.835717
4983.000000;2.837135
4982.000000;2.834340
4981.000000;2.828386
4980.000000;2.823518
4979.000000;2.821281
4978.000000;2.818402
4977.000000;2.811525
4976.000000;2.802305
4975.000000;2.795471
4974.000000;2.792948
4973.000000;2.792354
4972.000000;2.791069
4971.000000;2.789832
4970.000000;2.791071
4969.000000;2.794907
4968.000000;2.798184
4967.000000;2.797508
4966.000000;2.792842
4965.000000;2.786995
4964.000000;2.782347
4963.000000;2.779624
4962.000000;2.778767
4961.000000;2.779316
4960.000000;2.780205
4959.000000;2.780547
4958.000000;2.780729
4957.000000;2.781501
4956.000000;2.781923
4955.000000;2.779816
4954.000000;2.774742
4953.000000;2.768732
4952.000000;2.763026
4951.000000;2.756013
4950.000000;2.746054
4949.000000;2.735034
4948.000000;2.726970
4947.000000;2.723718
4946.000000;2.723708
4945.000000;2.724542
4944.000000;2.725278
4943.000000;2.725746
4942.000000;2.725157
4941.000000;2.722625
4940.000000;2.718374
4939.000000;2.713511
4938.000000;2.709009
4937.000000;2.705306
4936.000000;2.702336
4935.000000;2.699537
4934.000000;2.696165
4933.000000;2.691938
4932.000000;2.687151
4931.000000;2.682124
4930.000000;2.677010
4929.000000;2.672249
4928.000000;2.668539
4927.000000;2.666029
4926.000000;2.663997
4925.000000;2.661655
4924.000000;2.658827
4923.000000;2.655561
4922.000000;2.651824
4921.000000;2.647974
4920.000000;2.644667
4919.000000;2.641923
4918.000000;2.638920
4917.000000;2.635053
4916.000000;2.630786
4915.000000;2.626844
4914.000000;2.622965
4913.000000;2.618365
4912.000000;2.613162
4911.000000;2.608299
4910.000000;2.604198
4909.000000;2.600524
4908.000000;2.597254
4907.000000;2.594928
4906.000000;2.593599
4905.000000;2.592438
4904.000000;2.590794
4903.000000;2.588852
4902.000000;2.586757
4901.000000;2.583908
4900.000000;2.579956
4899.000000;2.575882
4898.000000;2.572942
4897.000000;2.570731
4896.000000;2.567495
4895.000000;2.562645
4894.000000;2.557814
4893.000000;2.554917
4892.000000;2.554078
4891.000000;2.553714
4890.000000;2.552235
4889.000000;2.549143
4888.000000;2.544467
4887.000000;2.538622
4886.000000;2.533201
4885.000000;2.530284
4884.000000;2.530078
4883.000000;2.529981
4882.000000;2.526955
4881.000000;2.520773
4880.000000;2.514061
4879.000000;2.509377
4878.000000;2.507123
4877.000000;2.506051
4876.000000;2.504737
4875.000000;2.502362
4874.000000;2.498871
4873.000000;2.494995
4872.000000;2.491771
4871.000000;2.489608
4870.000000;2.487995
4869.000000;2.486292
4868.000000;2.484367
4867.000000;2.482218
4866.000000;2.479534
4865.000000;2.476180
4864.000000;2.472676
4863.000000;2.469498
4862.000000;2.466142
4861.000000;2.461615
4860.000000;2.455815
4859.000000;2.449731
4858.000000;2.444245
4857.000000;2.439437
4856.000000;2.435137
4855.000000;2.431449
4854.000000;2.428446
4853.000000;2.425889
4852.000000;2.423663
4851.000000;2.422083
4850.000000;2.421290
4849.000000;2.420542
4848.000000;2.418641
4847.000000;2.415181
4846.000000;2.410985
4845.000000;2.407067
4844.000000;2.403548
4843.000000;2.399853
4842.000000;2.395622
4841.000000;2.391092
4840.000000;2.386716
4839.000000;2.382746
4838.000000;2.379222
4837.000000;2.376084
4836.000000;2.373173
4835.000000;2.370309
4834.000000;2.367525
4833.000000;2.365052
4832.000000;2.362880
4831.000000;2.360536
4830.000000;2.357596
4829.000000;2.354276
4828.000000;2.351147
4827.000000;2.348280
4826.000000;2.345090
4825.000000;2.341201
4824.000000;2.337077
4823.000000;2.333519
4822.000000;2.330803
4821.000000;2.328538
4820.000000;2.326164
4819.000000;2.323407
4818.000000;2.320468
4817.000000;2.317949
4816.000000;2.316322
4815.000000;2.315115
4814.000000;2.312916
4813.000000;2.308762
4812.000000;2.303428
4811.000000;2.298654
4810.000000;2.295078
4809.000000;2.291632
4808.000000;2.287253
4807.000000;2.282536
4806.000000;2.279010
4805.000000;2.277091
4804.000000;2.275476
4803.000000;2.272633
4802.000000;2.268397
4801.000000;2.263920
4800.000000;2.260416
4799.000000;2.258233
4798.000000;2.256874
4797.000000;2.255518
4796.000000;2.253570
4795.000000;2.251021
4794.000000;2.248317
4793.000000;2.245772
4792.000000;2.243306
4791.000000;2.240754
4790.000000;2.238146
4789.000000;2.235493
4788.000000;2.232535
4787.000000;2.229075
4786.000000;2.225479
4785.000000;2.222444
4784.000000;2.220156
4783.000000;2.217992
4782.000000;2.215228
4781.000000;2.211842
4780.000000;2.208420
4779.000000;2.205419
4778.000000;2.202742
4777.000000;2.199953
4776.000000;2.196753
4775.000000;2.193259
4774.000000;2.189931
4773.000000;2.187241
4772.000000;2.185301
4771.000000;2.183792
4770.000000;2.182253
4769.000000;2.180364
4768.000000;2.177921
4767.000000;2.174740
4766.000000;2.170793
4765.000000;2.166480
4764.000000;2.162575
4763.000000;2.159740
4762.000000;2.157990
4761.000000;2.156558
4760.000000;2.154360
4759.000000;2.150876
4758.000000;2.146730
4757.000000;2.143179
4756.000000;2.140908
4755.000000;2.139426
4754.000000;2.137765
4753.000000;2.135592
4752.000000;2.133319
4751.000000;2.131158
4750.000000;2.128569
4749.000000;2.124940
4748.000000;2.120526
4747.000000;2.116372
4746.000000;2.113340
4745.000000;2.111393
4744.000000;2.109804
4743.000000;2.107902
4742.000000;2.105557
4741.000000;2.103041
4740.000000;2.100566
4739.000000;2.098092
4738.000000;2.095525
4737.000000;2.092931
4736.000000;2.090471
4735.000000;2.088198
4734.000000;2.086114
4733.000000;2.084345
4732.000000;2.083030
4731.000000;2.081907
4730.000000;2.080201
4729.000000;2.077172
4728.000000;2.072908
4727.000000;2.068510
4726.000000;2.065294
4725.000000;2.063613
4724.000000;2.062460
4723.000000;2.060427
4722.000000;2.057146
4721.000000;2.053565
4720.000000;2.050715
4719.000000;2.048552
4718.000000;2.046235
4717.000000;2.043295
4716.000000;2.040139
4715.000000;2.037466
4714.000000;2.035555
4713.000000;2.034117
4712.000000;2.032555
4711.000000;2.030359
4710.000000;2.027512
4709.000000;2.024573
4708.000000;2.022216
4707.000000;2.020661
4706.000000;2.019644
4705.000000;2.018767
4704.000000;2.017661
4703.000000;2.015967
4702.000000;2.013557
4701.000000;2.010777
4700.000000;2.008169
4699.000000;2.005924
4698.000000;2.003853
4697.000000;2.001799
4696.000000;1.999684
4695.000000;1.997249
4694.000000;1.994326
4693.000000;1.991459
4692.000000;1.989665
4691.000000;1.989228
4690.000000;1.989150
4689.000000;1.988212
4688.000000;1.986291
4687.000000;1.984241
4686.000000;1.982713
4685.000000;1.981512
4684.000000;1.980039
4683.000000;1.978005
4682.000000;1.975679
4681.000000;1.973597
4680.000000;1.972006
4679.000000;1.970574
4678.000000;1.968792
4677.000000;1.966636
4676.000000;1.964599
4675.000000;1.963015
4674.000000;1.961671
4673.000000;1.960210
4672.000000;1.958551
4671.000000;1.956740
4670.000000;1.954722
4669.000000;1.952517
4668.000000;1.950328
4667.000000;1.948258
4666.000000;1.946206
4665.000000;1.944261
4664.000000;1.942810
4663.000000;1.941925
4662.000000;1.940990
4661.000000;1.939405
4660.000000;1.937358
4659.000000;1.935454
4658.000000;1.933812
4657.000000;1.932063
4656.000000;1.930081
4655.000000;1.928149
4654.000000;1.926381
4653.000000;1.924514
4652.000000;1.922389
4651.000000;1.920278
4650.000000;1.918618
4649.000000;1.917640
4648.000000;1.917248
4647.000000;1.917019
4646.000000;1.916377
4645.000000;1.915029
4644.000000;1.913211
4643.000000;1.911323
4642.000000;1.909445
4641.000000;1.907481
4640.000000;1.905577
4639.000000;1.904064
4638.000000;1.903064
4637.000000;1.902450
4636.000000;1.902078
4635.000000;1.901710
4634.000000;1.900880
4633.000000;1.899292
4632.000000;1.897326
4631.000000;1.895697
4630.000000;1.894577
4629.000000;1.893495
4628.000000;1.892095
4627.000000;1.890536
4626.000000;1.889041
4625.000000;1.887514
4624.000000;1.885799
4623.000000;1.883978
4622.000000;1.882229
4621.000000;1.880632
4620.000000;1.879276
4619.000000;1.878293
4618.000000;1.877683
4617.000000;1.877253
4616.000000;1.876737
4615.000000;1.875821
4614.000000;1.874179
4613.000000;1.871876
4612.000000;1.869601
4611.000000;1.868078
4610.000000;1.867255
4609.000000;1.866533
4608.000000;1.865729
4607.000000;1.865188
4606.000000;1.864918
4605.000000;1.864337
4604.000000;1.863202
4603.000000;1.862102
4602.000000;1.861551
4601.000000;1.861124
4600.000000;1.860095
4599.000000;1.858561
4598.000000;1.857309
4597.000000;1.856738
4596.000000;1.856417
4595.000000;1.855646
4594.000000;1.854064
4593.000000;1.851836
4592.000000;1.849624
4591.000000;1.848253
4590.000000;1.848015
4589.000000;1.848306
4588.000000;1.848243
4587.000000;1.847608
4586.000000;1.846859
4585.000000;1.846360
4584.000000;1.845990
4583.000000;1.845515
4582.000000;1.844879
4581.000000;1.844017
4580.000000;1.842736
4579.000000;1.841004
4578.000000;1.839169
4577.000000;1.837722
4576.000000;1.836917
4575.000000;1.836688
4574.000000;1.836783
4573.000000;1.836915
4572.000000;1.836869
4571.000000;1.836565
4570.000000;1.836014
4569.000000;1.835228
4568.000000;1.834200
4567.000000;1.832917
4566.000000;1.831361
4565.000000;1.829582
4564.000000;1.827827
4563.000000;1.826476
4562.000000;1.825734
4561.000000;1.825473
4560.000000;1.825427
4559.000000;1.825432
4558.000000;1.825381
4557.000000;1.825145
4556.000000;1.824737
4555.000000;1.824363
4554.000000;1.824062
4553.000000;1.823425
4552.000000;1.822020
4551.000000;1.820099
4550.000000;1.818555
4549.000000;1.818073
4548.000000;1.818481
4547.000000;1.818971
4546.000000;1.818796
4545.000000;1.817737
4544.000000;1.816170
4543.000000;1.814805
4542.000000;1.814222
4541.000000;1.814425
4540.000000;1.814858
4539.000000;1.814939
4538.000000;1.814585
4537.000000;1.814166
4536.000000;1.814036
4535.000000;1.814228
4534.000000;1.814547
4533.000000;1.814774
4532.000000;1.814718
4531.000000;1.814206
4530.000000;1.813225
4529.000000;1.812114
4528.000000;1.811361
4527.000000;1.811040
4526.000000;1.810626
4525.000000;1.809600
4524.000000;1.808186
4523.000000;1.807224
4522.000000;1.807297
4521.000000;1.808227
4520.000000;1.809436
4519.000000;1.810471
4518.000000;1.811011
4517.000000;1.810768
4516.000000;1.809780
4515.000000;1.808632
4514.000000;1.807960
4513.000000;1.807789
4512.000000;1.807628
4511.000000;1.807194
4510.000000;1.806700
4509.000000;1.806390
4508.000000;1.806166
4507.000000;1.805836
4506.000000;1.805455
4505.000000;1.805188
4504.000000;1.805041
4503.000000;1.804943
4502.000000;1.804958
4501.000000;1.805187
4500.000000;1.805536
4499.000000;1.805839
4498.000000;1.806153
4497.000000;1.806683
4496.000000;1.807391
4495.000000;1.807929
4494.000000;1.808068
4493.000000;1.807955
4492.000000;1.807822
4491.000000;1.807620
4490.000000;1.807142
4489.000000;1.806410
4488.000000;1.805717
4487.000000;1.805332
4486.000000;1.805384
4485.000000;1.805957
4484.000000;1.807023
4483.000000;1.808218
4482.000000;1.808973
4481.000000;1.809045
4480.000000;1.808802
4479.000000;1.808782
4478.000000;1.809105
4477.000000;1.809437
4476.000000;1.809465
4475.000000;1.809245
4474.000000;1.809128
4473.000000;1.809407
4472.000000;1.810040
4471.000000;1.810690
4470.000000;1.811150
4469.000000;1.811687
4468.000000;1.812705
4467.000000;1.814047
4466.000000;1.814993
4465.000000;1.815152
4464.000000;1.815022
4463.000000;1.815360
4462.000000;1.816274
4461.000000;1.817305
4460.000000;1.818158
4459.000000;1.818873
4458.000000;1.819435
4457.000000;1.819759
4456.000000;1.820046
4455.000000;1.820619
4454.000000;1.821366
4453.000000;1.821871
4452.000000;1.822190
4451.000000;1.823015
4450.000000;1.824844
4449.000000;1.827375
4448.000000;1.829915
4447.000000;1.832042
4446.000000;1.833682
4445.000000;1.834889
4444.000000;1.835881
4443.000000;1.836980
4442.000000;1.838253
4441.000000;1.839388
4440.000000;1.840170
4439.000000;1.840874
4438.000000;1.842000
4437.000000;1.843774
4436.000000;1.846048
4435.000000;1.848467
4434.000000;1.850636
4433.000000;1.852357
4432.000000;1.853815
4431.000000;1.855275
4430.000000;1.856586
4429.000000;1.857395
4428.000000;1.857940
4427.000000;1.859120
4426.000000;1.861491
4425.000000;1.864631
4424.000000;1.867752
4423.000000;1.870480
4422.000000;1.872685
4421.000000;1.874108
4420.000000;1.874802
4419.000000;1.875601
4418.000000;1.877410
4417.000000;1.880142
4416.000000;1.882841
4415.000000;1.884796
4414.000000;1.886110
4413.000000;1.887345
4412.000000;1.889094
4411.000000;1.891788
4410.000000;1.895332
4409.000000;1.898861
4408.000000;1.901378
4407.000000;1.902822
4406.000000;1.904204
4405.000000;1.906582
4404.000000;1.910130
4403.000000;1.914120
4402.000000;1.917526
4401.000000;1.919743
4400.000000;1.921082
4399.000000;1.922560
4398.000000;1.924987
4397.000000;1.928254
4396.000000;1.931582
4395.000000;1.934259
4394.000000;1.935967
4393.000000;1.936784
4392.000000;1.937312
4391.000000;1.938563
4390.000000;1.941164
4389.000000;1.944773
4388.000000;1.948630
4387.000000;1.952455
4386.000000;1.956254
4385.000000;1.959485
4384.000000;1.961324
4383.000000;1.961829
4382.000000;1.962102
4381.000000;1.963039
4380.000000;1.964589
4379.000000;1.966460
4378.000000;1.968903
4377.000000;1.972309
4376.000000;1.976419
4375.000000;1.980432
4374.000000;1.983789
4373.000000;1.986517
4372.000000;1.988802
4371.000000;1.990490
4370.000000;1.991212
4369.000000;1.991065
4368.000000;1.991079
4367.000000;1.992657
4366.000000;1.996240
4365.000000;2.000698
4364.000000;2.004477
4363.000000;2.007263
4362.000000;2.010038
4361.000000;2.013579
4360.000000;2.017524
4359.000000;2.020957
4358.000000;2.023294
4357.000000;2.024332
4356.000000;2.024101
4355.000000;2.023120
4354.000000;2.022412
4353.000000;2.023082
4352.000000;2.025938
4351.000000;2.031074
4350.000000;2.037343
4349.000000;2.042474
4348.000000;2.044539
4347.000000;2.043604
4346.000000;2.041587
4345.000000;2.040556
4344.000000;2.041517
4343.000000;2.044356
4342.000000;2.048137
4341.000000;2.051520
4340.000000;2.053713
4339.000000;2.055271
4338.000000;2.057459
4337.000000;2.060743
4336.000000;2.064378
4335.000000;2.067480
4334.000000;2.069882
4333.000000;2.071796
4332.000000;2.073434
4331.000000;2.075227
4330.000000;2.077650
4329.000000;2.080445
4328.000000;2.082571
4327.000000;2.083350
4326.000000;2.083293
4325.000000;2.083486
4324.000000;2.084470
4323.000000;2.085903
4322.000000;2.087028
4321.000000;2.087431
4320.000000;2.087740
4319.000000;2.089470
4318.000000;2.093635
4317.000000;2.099489
4316.000000;2.105168
4315.000000;2.109551
4314.000000;2.112942
4313.000000;2.115961
4312.000000;2.118708
4311.000000;2.121282
4310.000000;2.123975
4309.000000;2.126247
4308.000000;2.126570
4307.000000;2.124395
4306.000000;2.121619
4305.000000;2.120994
4304.000000;2.123322
4303.000000;2.126776
4302.000000;2.128715
4301.000000;2.128043
4300.000000;2.126154
4299.000000;2.125872
4298.000000;2.129180
4297.000000;2.135551
4296.000000;2.142635
4295.000000;2.148702
4294.000000;2.153766
4293.000000;2.158187
4292.000000;2.161597
4291.000000;2.164127
4290.000000;2.167363
4289.000000;2.172344
4288.000000;2.177102
4287.000000;2.178325
4286.000000;2.175958
4285.000000;2.173883
4284.000000;2.175376
4283.000000;2.179719
4282.000000;2.183889
4281.000000;2.186615
4280.000000;2.189481
4279.000000;2.194101
4278.000000;2.199621
4277.000000;2.203866
4276.000000;2.206658
4275.000000;2.210529
4274.000000;2.217380
4273.000000;2.225526
4272.000000;2.230858
4271.000000;2.230989
4270.000000;2.227563
4269.000000;2.224190
4268.000000;2.223139
4267.000000;2.224443
4266.000000;2.227248
4265.000000;2.231160
4264.000000;2.236518
4263.000000;2.243644
4262.000000;2.251441
4261.000000;2.257240
4260.000000;2.259412
4259.000000;2.259895
4258.000000;2.262475
4257.000000;2.268525
4256.000000;2.275573
4255.000000;2.280368
4254.000000;2.282174
4253.000000;2.282218
4252.000000;2.282583
4251.000000;2.286188
4250.000000;2.294564
4249.000000;2.304925
4248.000000;2.312041
4247.000000;2.313843
4246.000000;2.313746
4245.000000;2.315567
4244.000000;2.318541
4243.000000;2.319445
4242.000000;2.317781
4241.000000;2.316105
4240.000000;2.316660
4239.000000;2.320422
4238.000000;2.328608
4237.000000;2.341938
4236.000000;2.357357
4235.000000;2.367982
4234.000000;2.368536
4233.000000;2.360093
4232.000000;2.348596
4231.000000;2.341221
4230.000000;2.344858
4229.000000;2.363365
4228.000000;2.392449
4227.000000;2.418841
4226.000000;2.429630
4225.000000;2.423711
4224.000000;2.410125
4223.000000;2.398751
4222.000000;2.396445
4221.000000;2.405752
4220.000000;2.421913
4219.000000;2.433174
4218.000000;2.430181
4217.000000;2.418180
4216.000000;2.413279
4215.000000;2.424957
4214.000000;2.447981
4213.000000;2.469313
4212.000000;2.479139
4211.000000;2.475625
4210.000000;2.463717
4209.000000;2.450398
4208.000000;2.441069
4207.000000;2.438484
4206.000000;2.440836
4205.000000;2.442939
4204.000000;2.441240
4203.000000;2.436097
4202.000000;2.430277
4201.000000;2.426642
4200.000000;2.426798
4199.000000;2.432373
4198.000000;2.447071
4197.000000;2.473695
4196.000000;2.504946
4195.000000;2.519439
4194.000000;2.499869
4193.000000;2.458657
4192.000000;2.425171
4191.000000;2.416014
4190.000000;2.429601
4189.000000;2.455328
4188.000000;2.481099
4187.000000;2.496319
4186.000000;2.497436
4185.000000;2.491366
4184.000000;2.488233
4183.000000;2.492614
4182.000000;2.499756
4181.000000;2.501299
4180.000000;2.496815
4179.000000;2.492552
4178.000000;2.490637
4177.000000;2.487885
4176.000000;2.483244
4175.000000;2.479456
4174.000000;2.477067
4173.000000;2.476247
4172.000000;2.482237
4171.000000;2.501366
4170.000000;2.535889
4169.000000;2.576559
4168.000000;2.607118
4167.000000;2.625735
4166.000000;2.641353
4165.000000;2.655385
4164.000000;2.658566
4163.000000;2.644069
4162.000000;2.621609
4161.000000;2.613644
4160.000000;2.636005
4159.000000;2.680896
4158.000000;2.714423
4157.000000;2.711776
4156.000000;2.694198
4155.000000;2.689177
4154.000000;2.693598
4153.000000;2.685817
4152.000000;2.659200
4151.000000;2.633307
4150.000000;2.624116
4149.000000;2.623795
4148.000000;2.613636
4147.000000;2.598713
4146.000000;2.595801
4145.000000;2.594235
4144.000000;2.571392
4143.000000;2.533211
4142.000000;2.505002
4141.000000;2.503368
4140.000000;2.526813
4139.000000;2.557749
4138.000000;2.572804
4137.000000;2.563598
4136.000000;2.543950
4135.000000;2.525159
4134.000000;2.509342
4133.000000;2.502212
4132.000000;2.512158
4131.000000;2.543018
4130.000000;2.585024
4129.000000;2.615071
4128.000000;2.619867
4127.000000;2.609403
4126.000000;2.601483
4125.000000;2.609217
4124.000000;2.633626
4123.000000;2.664344
4122.000000;2.686723
4121.000000;2.680375
4120.000000;2.661261
4119.000000;2.658578
4118.000000;2.649537
4117.000000;2.624805
4116.000000;2.611550
4115.000000;2.600087
4114.000000;2.574832
4113.000000;2.548239
4112.000000;2.530405
4111.000000;2.528127
4110.000000;2.548722
4109.000000;2.582742
4108.000000;2.604605
4107.000000;2.603065
4106.000000;2.581065
4105.000000;2.553234
4104.000000;2.550289
4103.000000;2.590684
4102.000000;2.657027
4101.000000;2.688769
4100.000000;2.645699
4099.000000;2.573592
4098.000000;2.528234
4097.000000;2.528604
4096.000000;2.570649
4095.000000;2.641455
4094.000000;2.725028
4093.000000;2.795442
4092.000000;2.848075
4091.000000;2.898341
4090.000000;2.864344
4089.000000;2.753099
4088.000000;2.656078
4087.000000;2.591579
4086.000000;2.561637
4085.000000;2.566982
4084.000000;2.607761
4083.000000;2.679124
4082.000000;2.748060
4081.000000;2.761150
4080.000000;2.715357
4079.000000;2.648373
4078.000000;2.585075
4077.000000;2.522591
4076.000000;2.455693
4075.000000;2.393944
4074.000000;2.348336
4073.000000;2.324146
4072.000000;2.321597
4071.000000;2.340856
4070.000000;2.379251
4069.000000;2.423525
4068.000000;2.460197
4067.000000;2.494486
4066.000000;2.538097
4065.000000;2.571630
4064.000000;2.557537
4063.000000;2.501071
4062.000000;2.432900
4061.000000;2.381263
4060.000000;2.361740
4059.000000;2.388367
4058.000000;2.476453
4057.000000;2.615726
4056.000000;2.747590
4055.000000;2.815382
4054.000000;2.850476
4053.000000;2.791075
4052.000000;2.611800
4051.000000;2.479619
4050.000000;2.440792
4049.000000;2.484014
4048.000000;2.532569
4047.000000;2.503401
4046.000000;2.482118
4045.000000;2.535094
4044.000000;2.596522
4043.000000;2.543275
4042.000000;2.457744
4041.000000;2.441310
4040.000000;2.493400
4039.000000;2.561021
4038.000000;2.600824
4037.000000;2.599827
4036.000000;2.539631
4035.000000;2.474359
4034.000000;2.424852
4033.000000;2.402064
4032.000000;2.433381
4031.000000;2.510705
4030.000000;2.582307
4029.000000;2.602240
4028.000000;2.574113
4027.000000;2.547572
4026.000000;2.562618
4025.000000;2.594765
4024.000000;2.591179
4023.000000;2.537253
4022.000000;2.450692
4021.000000;2.374850
4020.000000;2.347827
4019.000000;2.381330
4018.000000;2.458835
4017.000000;2.528532
4016.000000;2.566639
4015.000000;2.622131
4014.000000;2.723058
4013.000000;2.807344
4012.000000;2.856641
4011.000000;2.859531
4010.000000;2.782341
4009.000000;2.708985
4008.000000;2.657395
4007.000000;2.664334
4006.000000;2.761453
4005.000000;2.756679
4004.000000;2.569590
4003.000000;2.418188
4002.000000;2.318988
4001.000000;2.288414
4000.000000;2.354086
3999.000000;2.564663
3998.000000;3.009136
3997.000000;3.128222
3996.000000;2.970596
3995.000000;3.183830
3994.000000;3.629839
3993.000000;3.248082
3992.000000;2.858270
3991.000000;2.643238
3990.000000;2.511019
3989.000000;2.476645
3988.000000;2.504063
3987.000000;2.543827
3986.000000;2.570215
3985.000000;2.608011
3984.000000;2.662016
3983.000000;2.692420
3982.000000;2.700308
3981.000000;2.724665
3980.000000;2.767181
3979.000000;2.802414
3978.000000;2.842211
3977.000000;2.930087
3976.000000;3.033387
3975.000000;3.051256
3974.000000;3.036497
3973.000000;3.036431
3972.000000;3.096776
3971.000000;3.306766
3970.000000;3.031513
3969.000000;2.695926
3968.000000;2.574995
3967.000000;2.532710
3966.000000;2.528735
3965.000000;2.554467
3964.000000;2.612682
3963.000000;2.694235
3962.000000;2.803065
3961.000000;2.929923
3960.000000;2.997283
3959.000000;3.004227
3958.000000;2.986503
3957.000000;2.936803
3956.000000;2.868186
3955.000000;2.789762
3954.000000;2.740209
3953.000000;2.731496
3952.000000;2.755255
3951.000000;2.821410
3950.000000;2.922061
3949.000000;3.188924
3948.000000;3.602981
3947.000000;3.154418
3946.000000;2.992256
3945.000000;2.892522
3944.000000;2.774892
3943.000000;2.688459
3942.000000;2.691333
3941.000000;2.784091
3940.000000;2.918672
3939.000000;2.990206
3938.000000;2.944692
3937.000000;2.880938
3936.000000;2.872491
3935.000000;2.943524
3934.000000;3.116920
3933.000000;3.436072
3932.000000;3.270229
3931.000000;3.019369
3930.000000;2.911959
3929.000000;2.907926
3928.000000;3.021727
3927.000000;3.188590
3926.000000;3.250766
3925.000000;3.355455
3924.000000;3.443908
3923.000000;3.291783
3922.000000;3.381616
3921.000000;3.188903
3920.000000;2.705187
3919.000000;2.529910
3918.000000;2.530674
3917.000000;2.670919
3916.000000;2.942649
3915.000000;3.384628
3914.000000;3.192945
3913.000000;2.940347
3912.000000;2.957333
3911.000000;3.078687
3910.000000;3.230189
3909.000000;3.297162
3908.000000;3.293286
3907.000000;3.258812
3906.000000;3.208355
3905.000000;3.086062
3904.000000;2.974663
3903.000000;2.926310
3902.000000;2.894247
3901.000000;2.892041
3900.000000;2.863322
3899.000000;2.816177
3898.000000;2.835535
3897.000000;2.908947
3896.000000;2.996495
3895.000000;3.082828
3894.000000;3.185563
3893.000000;3.330152
3892.000000;3.471279
3891.000000;3.433588
3890.000000;3.247948
3889.000000;3.049995
3888.000000;2.920097
3887.000000;2.920723
3886.000000;2.995679
3885.000000;3.024595
3884.000000;2.980050
3883.000000;2.918023
3882.000000;2.912942
3881.000000;3.034099
3880.000000;3.103697
3879.000000;3.078708
3878.000000;3.082688
3877.000000;3.048039
3876.000000;3.037140
3875.000000;3.112137
3874.000000;3.203774
3873.000000;3.248329
3872.000000;3.261068
3871.000000;3.280092
3870.000000;3.320840
3869.000000;3.343971
3868.000000;3.267345
3867.000000;3.184675
3866.000000;3.209226
3865.000000;3.368546
3864.000000;3.376691
3863.000000;3.117091
3862.000000;3.010702
3861.000000;3.067447
3860.000000;3.292680
3859.000000;3.679384
3858.000000;3.845236
3857.000000;3.782525
3856.000000;3.754837
3855.000000;3.792782
3854.000000;3.921463
3853.000000;4.083952
3852.000000;3.797820
3851.000000;3.455647
3850.000000;3.274124
3849.000000;3.272692
3848.000000;3.325407
3847.000000;3.101050
3846.000000;2.963298
3845.000000;3.096011
3844.000000;3.622280
3843.000000;3.529757
3842.000000;3.415299
3841.000000;3.570209
3840.000000;3.711627
3839.000000;3.758171
3838.000000;3.652289
3837.000000;3.632659
3836.000000;3.606528
3835.000000;3.187473
3834.000000;3.008760
3833.000000;3.021438
3832.000000;3.010213
3831.000000;2.968317
3830.000000;3.021975
3829.000000;3.315622
3828.000000;3.850420
3827.000000;3.548583
3826.000000;3.466840
3825.000000;3.464982
3824.000000;3.377352
3823.000000;3.438275
3822.000000;3.627647
3821.000000;3.960647
3820.000000;4.602176
3819.000000;3.982070
3818.000000;3.618629
3817.000000;3.390908
3816.000000;3.233242
3815.000000;3.142108
3814.000000;3.147129
3813.000000;3.343687
3812.000000;3.808925
3811.000000;3.900359
3810.000000;3.621507
3809.000000;3.401043
3808.000000;3.247498
3807.000000;3.224983
3806.000000;3.270603
3805.000000;3.344791
3804.000000;3.462210
3803.000000;3.665591
3802.000000;4.072965
3801.000000;3.888096
3800.000000;3.538390
3799.000000;3.322976
3798.000000;3.139928
3797.000000;3.080614
3796.000000;3.191983
3795.000000;3.392123
3794.000000;3.203932
3793.000000;3.028746
3792.000000;2.973954
3791.000000;2.975760
3790.000000;3.032591
3789.000000;3.219000
3788.000000;3.698915
3787.000000;3.872030
3786.000000;3.731111
3785.000000;3.632442
3784.000000;3.309208
3783.000000;3.261190
3782.000000;3.517021
3781.000000;3.718353
3780.000000;3.351256
3779.000000;3.178416
3778.000000;3.110740
3777.000000;3.132488
3776.000000;3.308557
3775.000000;3.979969
3774.000000;3.637352
3773.000000;3.276588
3772.000000;3.188620
3771.000000;3.151953
3770.000000;3.255812
3769.000000;3.342075
3768.000000;3.157670
3767.000000;3.106679
3766.000000;3.371603
3765.000000;4.260082
3764.000000;4.012505
3763.000000;3.504180
3762.000000;3.219923
3761.000000;3.151655
3760.000000;3.244234
3759.000000;3.491664
3758.000000;3.991881
3757.000000;4.195677
3756.000000;3.950332
3755.000000;3.928077
3754.000000;4.032832
3753.000000;4.191015
3752.000000;4.351665
3751.000000;4.275275
3750.000000;4.092693
3749.000000;4.031739
3748.000000;3.959090
3747.000000;3.811791
3746.000000;3.745283
3745.000000;3.848677
3744.000000;3.863677
3743.000000;3.631620
3742.000000;3.404020
3741.000000;3.303980
3740.000000;3.299229
3739.000000;3.311329
3738.000000;3.311761
3737.000000;3.295373
3736.000000;3.226708
3735.000000;3.114861
3734.000000;3.062209
3733.000000;3.172824
3732.000000;3.603402
3731.000000;3.776342
3730.000000;3.299714
3729.000000;3.186183
3728.000000;3.195297
3727.000000;3.345291
3726.000000;3.970287
3725.000000;3.819479
3724.000000;3.287281
3723.000000;3.145723
3722.000000;3.119061
3721.000000;3.207444
3720.000000;3.315186
3719.000000;3.409964
3718.000000;3.589936
3717.000000;3.524254
3716.000000;3.299131
3715.000000;3.212914
3714.000000;3.251983
3713.000000;3.317250
3712.000000;3.264112
3711.000000;3.090158
3710.000000;2.967255
3709.000000;3.007797
3708.000000;3.258059
3707.000000;3.536613
3706.000000;3.320640
3705.000000;3.184617
3704.000000;3.315689
3703.000000;3.367553
3702.000000;3.412893
3701.000000;3.533559
3700.000000;3.160887
3699.000000;3.001358
3698.000000;3.086771
3697.000000;3.551400
3696.000000;3.892517
3695.000000;3.523875
3694.000000;3.542783
3693.000000;3.562818
3692.000000;3.584594
3691.000000;3.612222
3690.000000;3.552917
3689.000000;3.459609
3688.000000;3.418181
3687.000000;3.431665
3686.000000;3.298999
3685.000000;3.027382
3684.000000;2.853469
3683.000000;2.855803
3682.000000;3.059667
3681.000000;3.571075
3680.000000;4.375563
3679.000000;4.063514
3678.000000;4.026435
3677.000000;3.828289
3676.000000;3.536615
3675.000000;3.436530
3674.000000;3.544583
3673.000000;3.700349
3672.000000;3.673746
3671.000000;3.512912
3670.000000;3.231550
3669.000000;3.022053
3668.000000;2.970201
3667.000000;2.955478
3666.000000;2.920081
3665.000000;2.963901
3664.000000;3.151630
3663.000000;3.447718
3662.000000;3.708352
3661.000000;3.838674
3660.000000;3.593813
3659.000000;3.314946
3658.000000;3.181721
3657.000000;3.235208
3656.000000;3.481865
3655.000000;3.581135
3654.000000;3.444580
3653.000000;3.368755
3652.000000;3.352634
3651.000000;3.374527
3650.000000;3.299977
3649.000000;3.108427
3648.000000;2.941520
3647.000000;2.897404
3646.000000;2.973975
3645.000000;3.081647
3644.000000;3.099879
3643.000000;3.045236
3642.000000;3.042512
3641.000000;3.154162
3640.000000;3.233629
3639.000000;3.137622
3638.000000;3.073963
3637.000000;3.092171
3636.000000;3.091982
3635.000000;3.028932
3634.000000;2.967533
3633.000000;2.917989
3632.000000;2.879263
3631.000000;2.890060
3630.000000;3.052876
3629.000000;3.457003
3628.000000;3.401778
3627.000000;3.183214
3626.000000;3.190896
3625.000000;3.298028
3624.000000;3.501547
3623.000000;3.643732
3622.000000;3.431152
3621.000000;3.209091
3620.000000;3.095573
3619.000000;3.076135
3618.000000;3.136152
3617.000000;3.234841
3616.000000;3.313513
3615.000000;3.351272
3614.000000;3.538305
3613.000000;3.901695
3612.000000;3.487598
3611.000000;3.165689
3610.000000;2.997732
3609.000000;2.947938
3608.000000;2.993859
3607.000000;3.152286
3606.000000;3.488779
3605.000000;3.284226
3604.000000;3.043379
3603.000000;3.026349
3602.000000;3.145654
3601.000000;3.266253
3600.000000;3.200435
3599.000000;3.128314
3598.000000;3.140796
3597.000000;3.215356
3596.000000;3.282656
3595.000000;3.470598
3594.000000;3.554033
3593.000000;3.211777
3592.000000;2.986107
3591.000000;2.839171
3590.000000;2.779458
3589.000000;2.857329
3588.000000;3.080546
3587.000000;3.197752
3586.000000;3.172341
3585.000000;3.174418
3584.000000;3.051769
3583.000000;2.966826
3582.000000;2.994813
3581.000000;3.159156
3580.000000;3.443603
3579.000000;3.480311
3578.000000;3.345342
3577.000000;3.182854
3576.000000;3.056755
3575.000000;3.266174
3574.000000;3.666390
3573.000000;3.162782
3572.000000;3.056292
3571.000000;3.419798
3570.000000;3.896163
3569.000000;3.250052
3568.000000;3.120239
3567.000000;3.137666
3566.000000;3.260812
3565.000000;3.351124
3564.000000;3.353617
3563.000000;3.763122
3562.000000;3.391863
3561.000000;3.062861
3560.000000;3.122128
3559.000000;3.338603
3558.000000;3.162132
3557.000000;2.966911
3556.000000;2.958433
3555.000000;3.042721
3554.000000;3.191614
3553.000000;3.425054
3552.000000;3.359071
3551.000000;3.025433
3550.000000;2.843572
3549.000000;2.792722
3548.000000;2.837841
3547.000000;2.955001
3546.000000;3.123849
3545.000000;3.315754
3544.000000;3.413611
3543.000000;3.356336
3542.000000;3.184470
3541.000000;3.083872
3540.000000;3.072802
3539.000000;3.110122
3538.000000;3.250494
3537.000000;3.426649
3536.000000;3.640267
3535.000000;3.309663
3534.000000;2.927153
3533.000000;2.800857
3532.000000;2.849789
3531.000000;3.074442
3530.000000;3.305929
3529.000000;3.267017
3528.000000;3.252372
3527.000000;3.231341
3526.000000;3.161847
3525.000000;3.157235
3524.000000;3.159931
3523.000000;3.061710
3522.000000;3.057408
3521.000000;3.284718
3520.000000;3.264117
3519.000000;3.022425
3518.000000;2.994722
3517.000000;3.066724
3516.000000;3.305564
3515.000000;3.511592
3514.000000;3.167133
3513.000000;3.051236
3512.000000;3.250837
3511.000000;3.413871
3510.000000;3.163137
3509.000000;2.999752
3508.000000;2.905806
3507.000000;2.894749
3506.000000;2.955378
3505.000000;3.000822
3504.000000;3.046015
3503.000000;3.130390
3502.000000;3.206817
3501.000000;3.242496
3500.000000;3.293857
3499.000000;3.443431
3498.000000;3.572605
3497.000000;3.539975
3496.000000;3.710096
3495.000000;3.507957
3494.000000;3.170486
3493.000000;3.106607
3492.000000;3.215566
3491.000000;3.216836
3490.000000;3.075745
3489.000000;3.065577
3488.000000;3.182402
3487.000000;3.281402
3486.000000;3.174045
3485.000000;3.009158
3484.000000;2.934257
3483.000000;2.974479
3482.000000;3.235634
3481.000000;3.495326
3480.000000;3.154676
3479.000000;2.935045
3478.000000;2.834660
3477.000000;2.797253
3476.000000;2.845921
3475.000000;3.032506
3474.000000;3.142702
3473.000000;2.932131
3472.000000;2.840389
3471.000000;2.880609
3470.000000;2.939358
3469.000000;2.942228
3468.000000;2.857909
3467.000000;2.787871
3466.000000;2.818692
3465.000000;2.930079
3464.000000;3.034742
3463.000000;3.108365
3462.000000;3.141522
3461.000000;3.115626
3460.000000;3.102930
3459.000000;3.205459
3458.000000;3.339374
3457.000000;3.377007
3456.000000;3.399651
3455.000000;3.454378
3454.000000;3.346840
3453.000000;3.243535
3452.000000;3.583168
3451.000000;3.541356
3450.000000;3.128928
3449.000000;3.071140
3448.000000;3.151692
3447.000000;3.333498
3446.000000;3.585773
3445.000000;3.570697
3444.000000;3.769643
3443.000000;3.687769
3442.000000;3.108573
3441.000000;2.871344
3440.000000;2.786174
3439.000000;2.783315
3438.000000;2.835938
3437.000000;2.933472
3436.000000;3.100129
3435.000000;3.308879
3434.000000;3.470208
3433.000000;3.503675
3432.000000;3.464577
3431.000000;3.399349
3430.000000;3.533211
3429.000000;3.918874
3428.000000;3.554027
3427.000000;3.209114
3426.000000;3.054084
3425.000000;3.002440
3424.000000;3.049259
3423.000000;3.154681
3422.000000;3.210923
3421.000000;3.163437
3420.000000;3.164796
3419.000000;3.260257
3418.000000;3.416129
3417.000000;3.580692
3416.000000;3.557556
3415.000000;3.489537
3414.000000;3.320833
3413.000000;3.132679
3412.000000;3.036825
3411.000000;3.202093
3410.000000;3.658723
3409.000000;3.251530
3408.000000;2.982554
3407.000000;2.930679
3406.000000;2.945619
3405.000000;3.002955
3404.000000;3.062956
3403.000000;3.155151
3402.000000;3.478577
3401.000000;3.571099
3400.000000;3.142473
3399.000000;2.954271
3398.000000;2.867167
3397.000000;2.812911
3396.000000;2.763973
3395.000000;2.738087
3394.000000;2.762756
3393.000000;2.868811
3392.000000;3.055020
3391.000000;3.405436
3390.000000;4.110390
3389.000000;3.577257
3388.000000;3.517789
3387.000000;3.496410
3386.000000;3.161686
3385.000000;2.933345
3384.000000;2.791492
3383.000000;2.757282
3382.000000;2.799846
3381.000000;2.862208
3380.000000;2.925855
3379.000000;3.003438
3378.000000;3.053382
3377.000000;3.052915
3376.000000;2.999898
3375.000000;2.953387
3374.000000;2.940244
3373.000000;3.031038
3372.000000;3.275766
3371.000000;3.337194
3370.000000;3.147056
3369.000000;3.268445
3368.000000;3.854283
3367.000000;3.170708
3366.000000;2.854492
3365.000000;2.763830
3364.000000;2.769846
3363.000000;2.869448
3362.000000;3.099624
3361.000000;3.314778
3360.000000;2.969597
3359.000000;2.792697
3358.000000;2.794187
3357.000000;2.966445
3356.000000;3.463306
3355.000000;3.373411
3354.000000;2.999423
3353.000000;2.885600
3352.000000;2.853145
3351.000000;2.900234
3350.000000;2.991422
3349.000000;3.023158
3348.000000;2.983150
3347.000000;2.940680
3346.000000;2.976182
3345.000000;3.112102
3344.000000;3.283828
3343.000000;3.332714
3342.000000;3.167450
3341.000000;2.989420
3340.000000;2.931029
3339.000000;3.040937
3338.000000;3.279696
3337.000000;3.270551
3336.000000;3.099864
3335.000000;2.928419
3334.000000;2.812327
3333.000000;2.799968
3332.000000;2.843631
3331.000000;2.850306
3330.000000;2.819673
3329.000000;2.805250
3328.000000;2.841647
3327.000000;2.865891
3326.000000;2.858546
3325.000000;2.860127
3324.000000;2.925678
3323.000000;3.502265
3322.000000;3.541940
3321.000000;2.963843
3320.000000;2.918269
3319.000000;2.940644
3318.000000;3.024527
3317.000000;3.074834
3316.000000;2.930794
3315.000000;2.770480
3314.000000;2.687989
3313.000000;2.719263
3312.000000;2.883989
3311.000000;3.233850
3310.000000;3.661562
3309.000000;3.451660
3308.000000;3.168819
3307.000000;3.179504
3306.000000;3.206343
3305.000000;3.020678
3304.000000;2.971466
3303.000000;3.057462
3302.000000;3.211402
3301.000000;3.460612
3300.000000;3.405403
3299.000000;3.196646
3298.000000;3.183646
3297.000000;3.283215
3296.000000;3.354885
3295.000000;3.329973
3294.000000;3.176739
3293.000000;2.950891
3292.000000;2.774068
3291.000000;2.690484
3290.000000;2.708936
3289.000000;2.824777
3288.000000;3.049582
3287.000000;3.122976
3286.000000;2.959490
3285.000000;2.868554
3284.000000;3.017615
3283.000000;3.534506
3282.000000;3.305419
3281.000000;3.128972
3280.000000;3.146367
3279.000000;3.098881
3278.000000;3.138853
3277.000000;3.365262
3276.000000;3.869618
3275.000000;3.790386
3274.000000;3.443033
3273.000000;3.325784
3272.000000;3.390708
3271.000000;3.219760
3270.000000;3.198610
3269.000000;3.591281
3268.000000;3.249265
3267.000000;2.969091
3266.000000;2.965234
3265.000000;3.034509
3264.000000;3.192362
3263.000000;3.286958
3262.000000;3.193653
3261.000000;3.157320
3260.000000;3.207465
3259.000000;3.255527
3258.000000;3.267681
3257.000000;3.538811
3256.000000;3.786194
3255.000000;3.231163
3254.000000;3.014383
3253.000000;2.891313
3252.000000;2.819722
3251.000000;2.857357
3250.000000;3.097282
3249.000000;3.465554
3248.000000;3.249575
3247.000000;3.131596
3246.000000;3.244069
3245.000000;3.308764
3244.000000;3.066187
3243.000000;2.941615
3242.000000;2.990890
3241.000000;3.207219
3240.000000;3.568025
3239.000000;3.175300
3238.000000;2.894281
3237.000000;2.819895
3236.000000;2.917325
3235.000000;3.211129
3234.000000;3.058439
3233.000000;2.956298
3232.000000;3.315097
3231.000000;3.327041
3230.000000;2.947724
3229.000000;2.854899
3228.000000;2.889445
3227.000000;3.003582
3226.000000;3.131324
3225.000000;3.099934
3224.000000;3.079485
3223.000000;3.198251
3222.000000;3.244278
3221.000000;3.134988
3220.000000;3.132581
3219.000000;3.224529
3218.000000;3.198615
3217.000000;3.060289
3216.000000;3.010816
3215.000000;3.129892
3214.000000;3.346756
3213.000000;3.330664
3212.000000;3.295180
3211.000000;3.354047
3210.000000;3.351335
3209.000000;3.317405
3208.000000;3.092830
3207.000000;2.865161
3206.000000;2.769832
3205.000000;2.787483
3204.000000;2.912885
3203.000000;3.041164
3202.000000;2.970746
3201.000000;2.872395
3200.000000;2.875205
3199.000000;2.961042
3198.000000;3.109084
3197.000000;3.222280
3196.000000;3.401458
3195.000000;3.764731
3194.000000;3.333084
3193.000000;3.007470
3192.000000;2.968451
3191.000000;3.045112
3190.000000;3.166732
3189.000000;3.181202
3188.000000;3.099147
3187.000000;3.358425
3186.000000;3.313614
3185.000000;2.889936
3184.000000;2.794239
3183.000000;2.891773
3182.000000;3.134211
3181.000000;3.402932
3180.000000;3.367202
3179.000000;3.333887
3178.000000;3.410010
3177.000000;3.210422
3176.000000;2.993350
3175.000000;3.040828
3174.000000;3.444421
3173.000000;3.808010
3172.000000;3.505041
3171.000000;3.134152
3170.000000;2.870199
3169.000000;2.770546
3168.000000;2.752405
3167.000000;2.813073
3166.000000;2.972101
3165.000000;3.367240
3164.000000;3.930066
3163.000000;3.435391
3162.000000;3.288960
3161.000000;3.330512
3160.000000;3.300070
3159.000000;3.161415
3158.000000;3.111992
3157.000000;3.216661
3156.000000;3.147033
3155.000000;2.926552
3154.000000;2.761372
3153.000000;2.682904
3152.000000;2.695532
3151.000000;2.839577
3150.000000;3.293069
3149.000000;3.388845
3148.000000;3.000543
3147.000000;2.956144
3146.000000;3.100543
3145.000000;3.269527
3144.000000;3.316687
3143.000000;3.306652
3142.000000;3.192014
3141.000000;3.125135
3140.000000;3.093531
3139.000000;3.054803
3138.000000;3.068575
3137.000000;3.101750
3136.000000;3.120397
3135.000000;3.296613
3134.000000;3.459710
3133.000000;3.187307
3132.000000;3.017783
3131.000000;3.084289
3130.000000;3.469999
3129.000000;3.264868
3128.000000;2.920442
3127.000000;2.808929
3126.000000;2.762561
3125.000000;2.777791
3124.000000;2.846098
3123.000000;2.946670
3122.000000;3.045588
3121.000000;3.132908
3120.000000;3.225050
3119.000000;3.254415
3118.000000;3.143632
3117.000000;3.110544
3116.000000;3.378887
3115.000000;3.450973
3114.000000;3.212852
3113.000000;3.182143
3112.000000;3.096654
3111.000000;3.069743
3110.000000;3.139227
3109.000000;3.178095
3108.000000;3.281695
3107.000000;3.394168
3106.000000;3.158643
3105.000000;2.917778
3104.000000;2.800707
3103.000000;2.737730
3102.000000;2.724390
3101.000000;2.756118
3100.000000;2.819999
3099.000000;2.884285
3098.000000;2.982253
3097.000000;3.210913
3096.000000;3.254771
3095.000000;3.060351
3094.000000;3.009405
3093.000000;2.971524
3092.000000;2.933579
3091.000000;2.995949
3090.000000;3.354480
3089.000000;3.781580
3088.000000;3.250574
3087.000000;3.140910
3086.000000;3.161637
3085.000000;3.253385
3084.000000;3.398971
3083.000000;3.368060
3082.000000;3.268303
3081.000000;3.131002
3080.000000;3.004639
3079.000000;2.911270
3078.000000;2.860353
3077.000000;2.837728
3076.000000;2.849828
3075.000000;2.892158
3074.000000;2.944581
3073.000000;2.944109
3072.000000;2.931910
3071.000000;2.980254
3070.000000;3.203728
3069.000000;3.766056
3068.000000;3.639134
3067.000000;3.466835
3066.000000;3.479078
3065.000000;3.322379
3064.000000;3.187488
3063.000000;3.160232
3062.000000;3.209029
3061.000000;3.409686
3060.000000;3.337686
3059.000000;3.001363
3058.000000;2.872255
3057.000000;2.886677
3056.000000;3.082647
3055.000000;3.039521
3054.000000;2.749773
3053.000000;2.656820
3052.000000;2.701441
3051.000000;2.862244
3050.000000;3.119875
3049.000000;3.479741
3048.000000;4.022532
3047.000000;3.618156
3046.000000;3.266176
3045.000000;3.115591
3044.000000;3.045994
3043.000000;3.043604
3042.000000;3.094151
3041.000000;3.234376
3040.000000;3.460455
3039.000000;3.356789
3038.000000;3.108007
3037.000000;2.963547
3036.000000;2.877379
3035.000000;2.838712
3034.000000;2.847792
3033.000000;2.902799
3032.000000;2.938465
3031.000000;2.884443
3030.000000;2.855646
3029.000000;2.996894
3028.000000;3.241935
3027.000000;3.199927
3026.000000;3.151477
3025.000000;3.304291
3024.000000;3.525865
3023.000000;3.572717
3022.000000;3.428538
3021.000000;3.309462
3020.000000;3.244855
3019.000000;3.189898
3018.000000;3.094159
3017.000000;2.989610
3016.000000;2.951369
3015.000000;2.995605
3014.000000;3.083876
3013.000000;3.110188
3012.000000;2.999103
3011.000000;2.864526
3010.000000;2.798352
3009.000000;2.799313
3008.000000;2.812736
3007.000000;2.774972
3006.000000;2.698131
3005.000000;2.664788
3004.000000;2.717320
3003.000000;2.861134
3002.000000;3.055859
3001.000000;3.090121
3000.000000;3.001392
2999.000000;2.967331
2998.000000;3.027823
2997.000000;3.149443
2996.000000;3.170559
2995.000000;3.172786
2994.000000;3.274485
2993.000000;3.253336
2992.000000;3.314321
2991.000000;3.860417
2990.000000;3.800356
2989.000000;3.603179
2988.000000;3.417235
2987.000000;3.102633
2986.000000;3.011042
2985.000000;3.131110
2984.000000;3.328326
2983.000000;3.247691
2982.000000;3.186418
2981.000000;3.256780
2980.000000;3.400099
2979.000000;3.558676
2978.000000;3.387712
2977.000000;3.175020
2976.000000;3.100204
2975.000000;3.080095
2974.000000;3.075357
2973.000000;3.136898
2972.000000;3.354644
2971.000000;3.570065
2970.000000;3.336610
2969.000000;3.130721
2968.000000;3.019498
2967.000000;3.020154
2966.000000;3.026950
2965.000000;2.895913
2964.000000;2.813504
2963.000000;2.913022
2962.000000;3.317606
2961.000000;3.492429
2960.000000;3.200899
2959.000000;3.155717
2958.000000;3.134194
2957.000000;3.128808
2956.000000;3.065796
2955.000000;2.887073
2954.000000;2.744944
2953.000000;2.704873
2952.000000;2.782377
2951.000000;2.986754
2950.000000;3.534217
2949.000000;4.130007
2948.000000;3.529660
2947.000000;3.474182
2946.000000;3.237377
2945.000000;3.025982
2944.000000;2.907711
2943.000000;2.849548
2942.000000;2.869395
2941.000000;2.966316
2940.000000;3.126785
2939.000000;3.281590
2938.000000;3.337834
2937.000000;3.177266
2936.000000;3.016876
2935.000000;2.991454
2934.000000;3.110529
2933.000000;3.137066
2932.000000;2.990411
2931.000000;2.948444
2930.000000;3.073977
2929.000000;3.357046
2928.000000;3.401830
2927.000000;3.266150
2926.000000;3.142615
2925.000000;2.995404
2924.000000;2.970251
2923.000000;3.056179
2922.000000;3.080354
2921.000000;3.004365
2920.000000;2.943208
2919.000000;2.933973
2918.000000;3.013949
2917.000000;3.158090
2916.000000;3.397981
2915.000000;3.455082
2914.000000;3.162792
2913.000000;2.974307
2912.000000;2.818216
2911.000000;2.670737
2910.000000;2.567370
2909.000000;2.520004
2908.000000;2.530966
2907.000000;2.601560
2906.000000;2.718702
2905.000000;2.861179
2904.000000;2.984009
2903.000000;3.161350
2902.000000;3.564381
2901.000000;3.233510
2900.000000;2.867049
2899.000000;2.751126
2898.000000;2.761434
2897.000000;2.883031
2896.000000;3.031780
2895.000000;3.203054
2894.000000;3.089405
2893.000000;2.765490
2892.000000;2.613365
2891.000000;2.654032
2890.000000;2.974485
2889.000000;3.169049
2888.000000;2.955319
2887.000000;3.057842
2886.000000;3.417362
2885.000000;3.390096
2884.000000;3.235111
2883.000000;3.297261
2882.000000;3.451006
2881.000000;3.579642
2880.000000;3.450113
2879.000000;3.177101
2878.000000;3.013442
2877.000000;2.892379
2876.000000;2.763876
2875.000000;2.683519
2874.000000;2.692099
2873.000000;2.812636
2872.000000;2.918498
2871.000000;2.817473
2870.000000;2.718091
2869.000000;2.705114
2868.000000;2.769608
2867.000000;2.894903
2866.000000;3.183640
2865.000000;3.674891
2864.000000;3.307232
2863.000000;3.078227
2862.000000;3.100719
2861.000000;3.430014
2860.000000;3.461739
2859.000000;2.996142
2858.000000;2.848762
2857.000000;2.878874
2856.000000;2.922933
2855.000000;2.884899
2854.000000;2.864697
2853.000000;2.863232
2852.000000;2.841302
2851.000000;2.860287
2850.000000;2.965910
2849.000000;3.075776
2848.000000;3.044762
2847.000000;2.966532
2846.000000;2.873588
2845.000000;2.790627
2844.000000;2.758397
2843.000000;2.746028
2842.000000;2.730280
2841.000000;2.760194
2840.000000;2.872845
2839.000000;3.022882
2838.000000;3.160662
2837.000000;3.231330
2836.000000;3.134036
2835.000000;3.031794
2834.000000;3.016704
2833.000000;3.045173
2832.000000;3.040433
2831.000000;2.955871
2830.000000;2.893652
2829.000000;2.943532
2828.000000;3.224329
2827.000000;3.523766
2826.000000;3.180863
2825.000000;3.023348
2824.000000;2.936600
2823.000000;2.832697
2822.000000;2.761264
2821.000000;2.733136
2820.000000;2.730916
2819.000000;2.722234
2818.000000;2.718157
2817.000000;2.748636
2816.000000;2.825669
2815.000000;2.935450
2814.000000;3.062849
2813.000000;3.077484
2812.000000;2.956054
2811.000000;2.895123
2810.000000;2.925323
2809.000000;3.014737
2808.000000;3.120043
2807.000000;3.128084
2806.000000;3.099684
2805.000000;3.171081
2804.000000;3.284548
2803.000000;3.061690
2802.000000;2.863597
2801.000000;2.786867
2800.000000;2.892244
2799.000000;3.360114
2798.000000;3.006925
2797.000000;2.676705
2796.000000;2.597260
2795.000000;2.659196
2794.000000;2.880026
2793.000000;3.357461
2792.000000;3.876752
2791.000000;3.415020
2790.000000;3.267929
2789.000000;3.172848
2788.000000;3.106450
2787.000000;3.001210
2786.000000;2.875920
2785.000000;2.812746
2784.000000;2.837433
2783.000000;2.942486
2782.000000;2.974019
2781.000000;2.913749
2780.000000;2.905759
2779.000000;2.932427
2778.000000;2.965610
2777.000000;3.062455
2776.000000;3.232208
2775.000000;3.207911
2774.000000;2.990923
2773.000000;2.831084
2772.000000;2.747271
2771.000000;2.735207
2770.000000;2.790989
2769.000000;2.913677
2768.000000;3.050217
2767.000000;3.024767
2766.000000;2.917718
2765.000000;2.853079
2764.000000;2.815502
2763.000000;2.789231
2762.000000;2.755057
2761.000000;2.732019
2760.000000;2.763423
2759.000000;2.903991
2758.000000;3.078733
2757.000000;3.151333
2756.000000;3.413516
2755.000000;3.760773
2754.000000;4.037789
2753.000000;3.592707
2752.000000;3.085679
2751.000000;2.865110
2750.000000;2.748510
2749.000000;2.731083
2748.000000;2.823142
2747.000000;3.026918
2746.000000;3.305021
2745.000000;3.240878
2744.000000;3.038304
2743.000000;2.978454
2742.000000;3.036175
2741.000000;3.190831
2740.000000;3.562436
2739.000000;3.698416
2738.000000;3.259904
2737.000000;3.154414
2736.000000;3.223024
2735.000000;3.218531
2734.000000;3.206602
2733.000000;3.317872
2732.000000;2.978080
2731.000000;2.687632
2730.000000;2.603388
2729.000000;2.638672
2728.000000;2.788691
2727.000000;3.015231
2726.000000;3.104526
2725.000000;3.083085
2724.000000;3.163648
2723.000000;3.258415
2722.000000;3.149088
2721.000000;3.005894
2720.000000;2.945071
2719.000000;2.946832
2718.000000;2.964096
2717.000000;2.962528
2716.000000;2.943927
2715.000000;2.910419
2714.000000;2.876075
2713.000000;2.843718
2712.000000;2.812473
2711.000000;2.808571
2710.000000;2.883459
2709.000000;3.061402
2708.000000;3.075864
2707.000000;2.899032
2706.000000;2.821666
2705.000000;2.822466
2704.000000;2.868581
2703.000000;2.933570
2702.000000;3.020133
2701.000000;3.146103
2700.000000;3.321595
2699.000000;3.788365
2698.000000;3.906478
2697.000000;3.484857
2696.000000;3.322968
2695.000000;3.200225
2694.000000;3.098794
2693.000000;2.992213
2692.000000;2.907468
2691.000000;2.905776
2690.000000;3.031513
2689.000000;3.205533
2688.000000;3.159914
2687.000000;3.110048
2686.000000;3.217067
2685.000000;3.391531
2684.000000;3.302576
2683.000000;3.205364
2682.000000;3.359541
2681.000000;3.377007
2680.000000;3.123602
2679.000000;3.116257
2678.000000;3.027908
2677.000000;2.830568
2676.000000;2.778866
2675.000000;2.934300
2674.000000;3.470673
2673.000000;3.190165
2672.000000;2.881672
2671.000000;2.837860
2670.000000;2.821034
2669.000000;2.814128
2668.000000;2.831165
2667.000000;2.921498
2666.000000;3.088171
2665.000000;3.283391
2664.000000;3.581690
2663.000000;3.905660
2662.000000;3.315147
2661.000000;2.975417
2660.000000;2.807705
2659.000000;2.739912
2658.000000;2.745941
2657.000000;2.809597
2656.000000;2.935980
2655.000000;3.119011
2654.000000;3.178427
2653.000000;3.035464
2652.000000;2.928372
2651.000000;2.887678
2650.000000;2.931037
2649.000000;3.025253
2648.000000;2.919924
2647.000000;2.769968
2646.000000;2.764457
2645.000000;2.911506
2644.000000;3.142006
2643.000000;3.151306
2642.000000;3.176967
2641.000000;3.405731
2640.000000;3.477541
2639.000000;3.492253
2638.000000;3.284011
2637.000000;2.989960
2636.000000;2.829217
2635.000000;2.758747
2634.000000;2.731211
2633.000000;2.718586
2632.000000;2.731162
2631.000000;2.785262
2630.000000;2.884104
2629.000000;3.038461
2628.000000;3.232958
2627.000000;3.253830
2626.000000;3.126283
2625.000000;3.114420
2624.000000;3.192590
2623.000000;3.290538
2622.000000;3.301340
2621.000000;3.301495
2620.000000;3.682805
2619.000000;3.195470
2618.000000;2.815949
2617.000000;2.733612
2616.000000;2.818095
2615.000000;3.129285
2614.000000;3.357713
2613.000000;3.198523
2612.000000;3.229790
2611.000000;3.329150
2610.000000;3.241426
2609.000000;3.133541
2608.000000;3.050393
2607.000000;2.937800
2606.000000;2.800697
2605.000000;2.719613
2604.000000;2.720153
2603.000000;2.785288
2602.000000;2.905556
2601.000000;3.282806
2600.000000;3.643013
2599.000000;3.191749
2598.000000;3.507900
2597.000000;3.595365
2596.000000;3.139790
2595.000000;3.084915
2594.000000;3.022427
2593.000000;2.975194
2592.000000;2.952984
2591.000000;2.962039
2590.000000;3.036947
2589.000000;2.921174
2588.000000;2.743028
2587.000000;2.694244
2586.000000;2.751955
2585.000000;2.813124
2584.000000;2.792409
2583.000000;2.793608
2582.000000;2.911642
2581.000000;3.180219
2580.000000;3.305447
2579.000000;3.164679
2578.000000;3.129339
2577.000000;3.134303
2576.000000;3.126684
2575.000000;3.061691
2574.000000;2.986952
2573.000000;2.954490
2572.000000;2.955029
2571.000000;2.980494
2570.000000;3.076984
2569.000000;3.428118
2568.000000;3.151151
2567.000000;2.773747
2566.000000;2.668253
2565.000000;2.690079
2564.000000;2.813906
2563.000000;3.003253
2562.000000;3.270473
2561.000000;3.605285
2560.000000;3.404543
2559.000000;3.191367
2558.000000;3.121951
2557.000000;3.164811
2556.000000;3.348806
2555.000000;3.585006
2554.000000;3.434588
2553.000000;3.113071
2552.000000;2.903672
2551.000000;2.808364
2550.000000;2.794127
2549.000000;2.847500
2548.000000;3.004216
2547.000000;3.191865
2546.000000;3.097168
2545.000000;2.970837
2544.000000;2.948930
2543.000000;2.926512
2542.000000;2.876769
2541.000000;2.876439
2540.000000;2.998473
2539.000000;3.130208
2538.000000;2.946862
2537.000000;2.744437
2536.000000;2.651144
2535.000000;2.655969
2534.000000;2.774378
2533.000000;2.977470
2532.000000;3.119073
2531.000000;3.225223
2530.000000;3.269649
2529.000000;3.090847
2528.000000;2.974393
2527.000000;2.969947
2526.000000;2.904506
2525.000000;2.772248
2524.000000;2.730699
2523.000000;2.793628
2522.000000;2.916020
2521.000000;3.033514
2520.000000;3.228601
2519.000000;3.256785
2518.000000;2.962873
2517.000000;2.836057
2516.000000;2.861949
2515.000000;3.094966
2514.000000;3.141659
2513.000000;2.922661
2512.000000;2.895354
2511.000000;3.041673
2510.000000;3.634231
2509.000000;3.088632
2508.000000;2.758069
2507.000000;2.698820
2506.000000;2.751316
2505.000000;2.882969
2504.000000;2.954772
2503.000000;2.920572
2502.000000;2.906956
2501.000000;3.019205
2500.000000;3.382936
2499.000000;3.271383
2498.000000;2.923841
2497.000000;2.805077
2496.000000;2.768131
2495.000000;2.794867
2494.000000;2.904881
2493.000000;3.123791
2492.000000;3.313378
2491.000000;3.236006
2490.000000;3.177721
2489.000000;3.226124
2488.000000;3.420720
2487.000000;3.634760
2486.000000;3.340902
2485.000000;3.044329
2484.000000;2.879190
2483.000000;2.834393
2482.000000;2.932746
2481.000000;3.280492
2480.000000;3.430725
2479.000000;3.194407
2478.000000;3.115212
2477.000000;3.091683
2476.000000;3.148565
2475.000000;3.317612
2474.000000;3.390967
2473.000000;3.248033
2472.000000;3.173464
2471.000000;3.198194
2470.000000;3.163673
2469.000000;3.015871
2468.000000;2.934104
2467.000000;2.915259
2466.000000;2.890513
2465.000000;2.918013
2464.000000;3.089836
2463.000000;3.639666
2462.000000;3.951049
2461.000000;3.634887
2460.000000;3.603069
2459.000000;3.289807
2458.000000;3.172943
2457.000000;3.245127
2456.000000;3.744713
2455.000000;3.342940
2454.000000;2.987532
2453.000000;2.892143
2452.000000;2.948864
2451.000000;3.085813
2450.000000;2.989231
2449.000000;2.911211
2448.000000;2.971287
2447.000000;3.045775
2446.000000;3.027263
2445.000000;3.051394
2444.000000;3.130483
2443.000000;3.118034
2442.000000;3.027217
2441.000000;2.959365
2440.000000;2.970461
2439.000000;3.063194
2438.000000;3.311278
2437.000000;3.775634
2436.000000;3.736960
2435.000000;3.802030
2434.000000;3.294995
2433.000000;2.975495
2432.000000;2.874325
2431.000000;2.787066
2430.000000;2.708014
2429.000000;2.670902
2428.000000;2.722882
2427.000000;2.883178
2426.000000;3.143339
2425.000000;3.367206
2424.000000;3.155258
2423.000000;2.961444
2422.000000;2.930945
2421.000000;3.061354
2420.000000;3.232203
2419.000000;3.063904
2418.000000;2.897186
2417.000000;2.828471
2416.000000;2.824865
2415.000000;2.877551
2414.000000;3.013752
2413.000000;3.335406
2412.000000;3.293695
2411.000000;2.936802
2410.000000;2.825162
2409.000000;2.814815
2408.000000;2.868057
2407.000000;2.909307
2406.000000;2.917370
2405.000000;2.961149
2404.000000;3.196822
2403.000000;3.716730
2402.000000;3.324164
2401.000000;3.184173
2400.000000;3.280819
2399.000000;3.371461
2398.000000;3.543694
2397.000000;3.954906
2396.000000;3.466210
2395.000000;3.250382
2394.000000;3.248557
2393.000000;3.499325
2392.000000;3.252535
2391.000000;2.968546
2390.000000;2.912752
2389.000000;2.918250
2388.000000;2.907070
2387.000000;2.955657
2386.000000;3.265490
2385.000000;3.815057
2384.000000;3.284462
2383.000000;3.134503
2382.000000;3.155269
2381.000000;3.420689
2380.000000;3.536691
2379.000000;3.262562
2378.000000;3.340224
2377.000000;3.216886
2376.000000;2.915427
2375.000000;2.789318
2374.000000;2.807054
2373.000000;2.944339
2372.000000;3.054165
2371.000000;3.066684
2370.000000;3.094486
2369.000000;3.110865
2368.000000;3.151258
2367.000000;3.229030
2366.000000;3.274808
2365.000000;3.239296
2364.000000;3.144217
2363.000000;3.051241
2362.000000;3.010370
2361.000000;3.038719
2360.000000;3.120222
2359.000000;3.196967
2358.000000;3.215426
2357.000000;3.188008
2356.000000;3.151936
2355.000000;3.123506
2354.000000;3.100293
2353.000000;3.144993
2352.000000;3.167369
2351.000000;3.102026
2350.000000;3.147771
2349.000000;3.390611
2348.000000;3.884738
2347.000000;3.709707
2346.000000;3.361710
2345.000000;3.151862
2344.000000;3.052119
2343.000000;3.052076
2342.000000;3.126496
2341.000000;3.275890
2340.000000;3.379330
2339.000000;3.269468
2338.000000;3.196135
2337.000000;3.246772
2336.000000;3.395027
2335.000000;3.266249
2334.000000;3.016696
2333.000000;2.898636
2332.000000;2.892144
2331.000000;2.993314
2330.000000;3.205435
2329.000000;3.471922
2328.000000;3.595431
2327.000000;3.677903
2326.000000;3.699609
2325.000000;3.544199
2324.000000;3.454086
2323.000000;3.523851
2322.000000;3.480011
2321.000000;3.220034
2320.000000;3.119847
2319.000000;3.187665
2318.000000;3.281680
2317.000000;3.440421
2316.000000;3.960551
2315.000000;3.261151
2314.000000;3.075745
2313.000000;3.081627
2312.000000;3.159296
2311.000000;3.195828
2310.000000;3.155206
2309.000000;3.072917
2308.000000;2.984903
2307.000000;2.930438
2306.000000;2.949264
2305.000000;3.037152
2304.000000;3.118512
2303.000000;3.155738
2302.000000;3.197490
2301.000000;3.305006
2300.000000;3.273660
2299.000000;3.018239
2298.000000;2.823470
2297.000000;2.721109
2296.000000;2.705741
2295.000000;2.785046
2294.000000;2.962034
2293.000000;3.295505
2292.000000;3.578243
2291.000000;3.297428
2290.000000;3.203376
2289.000000;3.069864
2288.000000;2.911273
2287.000000;2.833622
2286.000000;2.803996
2285.000000;2.814633
2284.000000;2.880312
2283.000000;2.940414
2282.000000;2.921255
2281.000000;2.920967
2280.000000;2.996021
2279.000000;3.042548
2278.000000;3.003148
2277.000000;3.022181
2276.000000;3.041631
2275.000000;2.986606
2274.000000;2.970347
2273.000000;3.002838
2272.000000;3.013437
2271.000000;2.950025
2270.000000;2.840399
2269.000000;2.794302
2268.000000;2.885734
2267.000000;3.138571
2266.000000;3.503830
2265.000000;3.730893
2264.000000;3.142623
2263.000000;2.979906
2262.000000;3.076565
2261.000000;3.231238
2260.000000;3.243871
2259.000000;3.463954
2258.000000;3.703308
2257.000000;3.047817
2256.000000;2.887885
2255.000000;2.898166
2254.000000;3.060817
2253.000000;3.350674
2252.000000;3.467053
2251.000000;3.527589
2250.000000;3.499386
2249.000000;3.137985
2248.000000;3.052852
2247.000000;3.169471
2246.000000;3.298513
2245.000000;3.572796
2244.000000;3.636607
2243.000000;3.174128
2242.000000;3.024003
2241.000000;3.063160
2240.000000;3.201093
2239.000000;3.212484
2238.000000;3.209151
2237.000000;3.301974
2236.000000;3.380839
2235.000000;3.542689
2234.000000;3.514215
2233.000000;3.145227
2232.000000;2.966940
2231.000000;2.907043
2230.000000;2.898524
2229.000000;2.872134
2228.000000;2.797218
2227.000000;2.712641
2226.000000;2.680229
2225.000000;2.742307
2224.000000;2.946993
2223.000000;3.282911
2222.000000;3.262793
2221.000000;3.098646
2220.000000;3.093560
2219.000000;3.231230
2218.000000;3.530857
2217.000000;3.545243
2216.000000;3.196258
2215.000000;2.992724
2214.000000;2.972930
2213.000000;3.003635
2212.000000;2.921361
2211.000000;2.860655
2210.000000;2.906391
2209.000000;3.066796
2208.000000;3.311982
2207.000000;3.718648
2206.000000;3.581851
2205.000000;3.170053
2204.000000;3.062927
2203.000000;3.036235
2202.000000;2.937195
2201.000000;2.880933
2200.000000;2.946095
2199.000000;3.076130
2198.000000;3.227563
2197.000000;3.481474
2196.000000;3.342808
2195.000000;3.130518
2194.000000;3.305802
2193.000000;3.321245
2192.000000;3.009315
2191.000000;2.943095
2190.000000;3.129946
2189.000000;3.617815
2188.000000;3.293249
2187.000000;3.077666
2186.000000;2.988196
2185.000000;2.893939
2184.000000;2.819949
2183.000000;2.765077
2182.000000;2.759207
2181.000000;2.788162
2180.000000;2.805533
2179.000000;2.791041
2178.000000;2.764298
2177.000000;2.732390
2176.000000;2.696185
2175.000000;2.678367
2174.000000;2.691285
2173.000000;2.715986
2172.000000;2.730101
2171.000000;2.760682
2170.000000;2.866149
2169.000000;3.095014
2168.000000;3.266987
2167.000000;3.214703
2166.000000;3.147306
2165.000000;3.002337
2164.000000;2.887677
2163.000000;2.839275
2162.000000;2.881584
2161.000000;3.022809
2160.000000;3.520880
2159.000000;3.481854
2158.000000;3.258747
2157.000000;3.455787
2156.000000;3.379113
2155.000000;3.275794
2154.000000;3.423352
2153.000000;3.335826
2152.000000;3.155429
2151.000000;3.081848
2150.000000;3.087739
2149.000000;3.280992
2148.000000;3.972983
2147.000000;3.107595
2146.000000;2.879444
2145.000000;2.798945
2144.000000;2.800399
2143.000000;2.867778
2142.000000;3.062172
2141.000000;3.385531
2140.000000;3.482479
2139.000000;3.214634
2138.000000;3.017430
2137.000000;3.011577
2136.000000;3.096142
2135.000000;2.971412
2134.000000;2.885817
2133.000000;2.976008
2132.000000;3.190420
2131.000000;3.459753
2130.000000;3.409283
2129.000000;3.282631
2128.000000;3.350314
2127.000000;3.545199
2126.000000;3.416920
2125.000000;3.297366
2124.000000;3.160025
2123.000000;2.985598
2122.000000;2.843293
2121.000000;2.747084
2120.000000;2.681340
2119.000000;2.663333
2118.000000;2.706935
2117.000000;2.806724
2116.000000;2.972883
2115.000000;3.286314
2114.000000;3.420045
2113.000000;3.633409
2112.000000;3.764870
2111.000000;3.229129
2110.000000;3.220242
2109.000000;3.189198
2108.000000;3.059624
2107.000000;3.151081
2106.000000;3.551814
2105.000000;4.163422
2104.000000;3.252458
2103.000000;2.880811
2102.000000;2.756608
2101.000000;2.783266
2100.000000;2.941825
2099.000000;3.171695
2098.000000;3.167187
2097.000000;3.109121
2096.000000;3.113288
2095.000000;3.179169
2094.000000;3.273793
2093.000000;2.964889
2092.000000;2.795288
2091.000000;2.823588
2090.000000;3.064525
2089.000000;3.446109
2088.000000;3.315787
2087.000000;3.221912
2086.000000;3.095468
2085.000000;2.892483
2084.000000;2.832209
2083.000000;2.900000
2082.000000;3.319900
2081.000000;3.321695
2080.000000;2.945602
2079.000000;2.869189
2078.000000;2.928027
2077.000000;3.085155
2076.000000;3.252669
2075.000000;3.288104
2074.000000;3.215751
2073.000000;3.277551
2072.000000;3.203045
2071.000000;2.939835
2070.000000;2.770327
2069.000000;2.675618
2068.000000;2.663536
2067.000000;2.749881
2066.000000;2.950466
2065.000000;3.288612
2064.000000;3.170402
2063.000000;2.857564
2062.000000;2.757280
2061.000000;2.745779
2060.000000;2.787237
2059.000000;2.833937
2058.000000;2.922410
2057.000000;3.079776
2056.000000;3.110957
2055.000000;3.079702
2054.000000;3.306121
2053.000000;3.736802
2052.000000;3.275347
2051.000000;3.012127
2050.000000;2.911575
2049.000000;2.948597
2048.000000;3.136428
2047.000000;3.122376
2046.000000;3.029552
2045.000000;3.025557
2044.000000;3.067124
2043.000000;3.090540
2042.000000;3.061806
2041.000000;3.026028
2040.000000;2.880193
2039.000000;2.743105
2038.000000;2.735678
2037.000000;2.905408
2036.000000;3.365306
2035.000000;3.292279
2034.000000;2.982019
2033.000000;2.971696
2032.000000;3.011355
2031.000000;2.990882
2030.000000;2.872920
2029.000000;2.797177
2028.000000;2.817250
2027.000000;2.951116
2026.000000;3.185938
2025.000000;3.161271
2024.000000;2.974394
2023.000000;2.880738
2022.000000;2.887871
2021.000000;3.019785
2020.000000;3.017873
2019.000000;2.919491
2018.000000;3.031149
2017.000000;3.295208
2016.000000;3.015677
2015.000000;2.911647
2014.000000;2.933530
2013.000000;2.993882
2012.000000;3.066762
2011.000000;3.156696
2010.000000;3.229419
2009.000000;3.225686
2008.000000;3.107209
2007.000000;3.019701
2006.000000;3.022445
2005.000000;3.001776
2004.000000;2.881781
2003.000000;2.846370
2002.000000;2.926297
2001.000000;2.909536
2000.000000;2.833388
1999.000000;2.870213
1998.000000;3.070059
1997.000000;3.516945
1996.000000;3.221703
1995.000000;3.052188
1994.000000;3.103800
1993.000000;3.291517
1992.000000;3.852975
1991.000000;3.707324
1990.000000;3.393889
1989.000000;3.347143
1988.000000;3.448472
1987.000000;3.351299
1986.000000;3.063991
1985.000000;2.957771
1984.000000;3.012345
1983.000000;3.286699
1982.000000;3.346116
1981.000000;3.031934
1980.000000;2.995099
1979.000000;2.983014
1978.000000;2.863887
1977.000000;2.819071
1976.000000;2.942625
1975.000000;3.380581
1974.000000;3.861878
1973.000000;3.688619
1972.000000;3.604051
1971.000000;3.478913
1970.000000;3.681718
1969.000000;3.990777
1968.000000;3.512722
1967.000000;3.378340
1966.000000;3.557550
1965.000000;3.268448
1964.000000;2.955658
1963.000000;2.829731
1962.000000;2.792949
1961.000000;2.789594
1960.000000;2.818496
1959.000000;2.902765
1958.000000;3.049805
1957.000000;3.300961
1956.000000;3.806001
1955.000000;3.825304
1954.000000;3.433593
1953.000000;3.232840
1952.000000;3.073552
1951.000000;2.966841
1950.000000;2.962582
1949.000000;3.031677
1948.000000;3.735463
1947.000000;3.412013
1946.000000;2.926130
1945.000000;2.872564
1944.000000;2.946404
1943.000000;3.056765
1942.000000;2.987443
1941.000000;2.856144
1940.000000;2.799806
1939.000000;2.888726
1938.000000;3.111527
1937.000000;3.133675
1936.000000;3.179498
1935.000000;3.160472
1934.000000;2.918717
1933.000000;2.845659
1932.000000;2.937310
1931.000000;3.353937
1930.000000;3.655682
1929.000000;2.962492
1928.000000;2.779448
1927.000000;2.707862
1926.000000;2.770461
1925.000000;2.911061
1924.000000;3.003145
1923.000000;2.965807
1922.000000;2.916459
1921.000000;2.953509
1920.000000;3.069929
1919.000000;3.233333
1918.000000;3.289840
1917.000000;3.137031
1916.000000;3.098149
1915.000000;3.250767
1914.000000;3.626158
1913.000000;3.344107
1912.000000;3.107660
1911.000000;3.097742
1910.000000;3.167874
1909.000000;3.068523
1908.000000;2.980616
1907.000000;2.998246
1906.000000;3.087236
1905.000000;3.441663
1904.000000;3.748241
1903.000000;3.001912
1902.000000;2.800108
1901.000000;2.749901
1900.000000;2.853098
1899.000000;3.056913
1898.000000;3.270055
1897.000000;3.474203
1896.000000;3.380429
1895.000000;3.234373
1894.000000;3.378753
1893.000000;3.717902
1892.000000;3.403739
1891.000000;3.125704
1890.000000;2.999516
1889.000000;2.856263
1888.000000;2.773592
1887.000000;2.865083
1886.000000;3.253880
1885.000000;3.264030
1884.000000;3.056756
1883.000000;3.056742
1882.000000;3.159837
1881.000000;3.157461
1880.000000;3.013407
1879.000000;2.981421
1878.000000;3.197595
1877.000000;3.445646
1876.000000;3.099843
1875.000000;3.039054
1874.000000;3.109181
1873.000000;3.102483
1872.000000;3.031595
1871.000000;3.098963
1870.000000;3.359185
1869.000000;3.660846
1868.000000;3.378004
1867.000000;3.174685
1866.000000;3.092841
1865.000000;3.037198
1864.000000;3.045726
1863.000000;3.114020
1862.000000;3.348089
1861.000000;3.445551
1860.000000;3.155176
1859.000000;3.060211
1858.000000;3.052003
1857.000000;3.035135
1856.000000;3.067751
1855.000000;3.180570
1854.000000;3.281533
1853.000000;3.143602
1852.000000;2.910572
1851.000000;2.816291
1850.000000;2.805398
1849.000000;2.786606
1848.000000;2.761351
1847.000000;2.821336
1846.000000;3.013039
1845.000000;3.271052
1844.000000;3.483481
1843.000000;3.450631
1842.000000;3.341002
1841.000000;3.419619
1840.000000;4.029901
1839.000000;3.624943
1838.000000;3.203214
1837.000000;3.052085
1836.000000;3.015420
1835.000000;3.090407
1834.000000;3.156006
1833.000000;3.187113
1832.000000;3.264492
1831.000000;3.368893
1830.000000;3.448079
1829.000000;3.221337
1828.000000;3.101467
1827.000000;3.163533
1826.000000;3.288831
1825.000000;3.308760
1824.000000;3.092038
1823.000000;2.935375
1822.000000;2.971427
1821.000000;3.249725
1820.000000;3.412450
1819.000000;3.198391
1818.000000;3.145187
1817.000000;3.149501
1816.000000;3.232174
1815.000000;3.570161
1814.000000;4.020621
1813.000000;3.620360
1812.000000;3.462553
1811.000000;3.502344
1810.000000;3.486928
1809.000000;3.212340
1808.000000;3.025189
1807.000000;3.007681
1806.000000;3.223263
1805.000000;3.810169
1804.000000;3.192881
1803.000000;3.000826
1802.000000;2.964756
1801.000000;3.008113
1800.000000;3.145570
1799.000000;3.250257
1798.000000;3.159017
1797.000000;3.025587
1796.000000;2.970497
1795.000000;2.939920
1794.000000;2.831288
1793.000000;2.715544
1792.000000;2.671445
1791.000000;2.700094
1790.000000;2.772012
1789.000000;2.834661
1788.000000;2.959969
1787.000000;3.332636
1786.000000;3.176864
1785.000000;2.909149
1784.000000;2.903043
1783.000000;3.098848
1782.000000;3.295009
1781.000000;3.224062
1780.000000;3.185397
1779.000000;3.184070
1778.000000;3.247773
1777.000000;3.571773
1776.000000;3.806949
1775.000000;3.468944
1774.000000;3.556524
1773.000000;3.598245
1772.000000;3.909297
1771.000000;3.523284
1770.000000;3.256944
1769.000000;3.122083
1768.000000;2.977987
1767.000000;2.841652
1766.000000;2.779895
1765.000000;2.835308
1764.000000;3.296102
1763.000000;3.613833
1762.000000;3.028129
1761.000000;2.863794
1760.000000;2.782792
1759.000000;2.814740
1758.000000;2.869360
1757.000000;2.860963
1756.000000;2.843568
1755.000000;2.922243
1754.000000;3.099161
1753.000000;3.173893
1752.000000;3.216534
1751.000000;3.421187
1750.000000;3.397054
1749.000000;3.082948
1748.000000;3.069604
1747.000000;3.334535
1746.000000;3.373944
1745.000000;3.247753
1744.000000;3.234687
1743.000000;3.160246
1742.000000;3.088433
1741.000000;3.092252
1740.000000;3.027429
1739.000000;2.890671
1738.000000;2.805444
1737.000000;2.808970
1736.000000;2.859723
1735.000000;2.851528
1734.000000;2.793232
1733.000000;2.792444
1732.000000;2.906142
1731.000000;3.095758
1730.000000;3.322932
1729.000000;3.550297
1728.000000;3.493327
1727.000000;3.237084
1726.000000;3.182011
1725.000000;3.237462
1724.000000;3.000977
1723.000000;2.799170
1722.000000;2.739917
1721.000000;2.799597
1720.000000;2.903013
1719.000000;2.968273
1718.000000;3.038850
1717.000000;3.027992
1716.000000;2.917574
1715.000000;2.868687
1714.000000;2.909377
1713.000000;3.043631
1712.000000;3.181648
1711.000000;3.421064
1710.000000;3.757820
1709.000000;3.309570
1708.000000;3.101719
1707.000000;3.057332
1706.000000;2.920937
1705.000000;2.721468
1704.000000;2.579395
1703.000000;2.552558
1702.000000;2.638531
1701.000000;2.717014
1700.000000;2.696257
1699.000000;2.729369
1698.000000;3.016755
1697.000000;3.701720
1696.000000;4.057490
1695.000000;3.627373
1694.000000;3.373317
1693.000000;3.074119
1692.000000;2.906211
1691.000000;2.844326
1690.000000;2.770989
1689.000000;2.666018
1688.000000;2.596238
1687.000000;2.797515
1686.000000;3.343879
1685.000000;3.119087
1684.000000;3.100678
1683.000000;3.169775
1682.000000;2.977818
1681.000000;2.756986
1680.000000;2.627287
1679.000000;2.609727
1678.000000;2.726634
1677.000000;2.870392
1676.000000;2.924465
1675.000000;2.974427
1674.000000;3.041699
1673.000000;3.056575
1672.000000;2.968580
1671.000000;2.906095
1670.000000;2.897996
1669.000000;2.906293
1668.000000;2.930153
1667.000000;2.949751
1666.000000;2.931456
1665.000000;2.957983
1664.000000;3.109510
1663.000000;3.351330
1662.000000;3.492379
1661.000000;3.500027
1660.000000;3.431629
1659.000000;3.231730
1658.000000;3.028637
1657.000000;2.972960
1656.000000;3.058559
1655.000000;2.878682
1654.000000;2.708679
1653.000000;2.709453
1652.000000;2.833211
1651.000000;2.910957
1650.000000;2.763552
1649.000000;2.657693
1648.000000;2.633284
1647.000000;2.634296
1646.000000;2.634472
1645.000000;2.625865
1644.000000;2.606396
1643.000000;2.610312
1642.000000;2.695096
1641.000000;2.864737
1640.000000;2.976405
1639.000000;3.010392
1638.000000;3.037079
1637.000000;2.899851
1636.000000;2.784792
1635.000000;2.758047
1634.000000;2.870183
1633.000000;2.972129
1632.000000;2.829023
1631.000000;2.688465
1630.000000;2.615854
1629.000000;2.586745
1628.000000;2.602231
1627.000000;2.678392
1626.000000;2.827208
1625.000000;3.227801
1624.000000;3.290495
1623.000000;2.993808
1622.000000;2.938775
1621.000000;2.883566
1620.000000;2.806756
1619.000000;2.781880
1618.000000;2.898342
1617.000000;3.040579
1616.000000;2.993456
1615.000000;3.021073
1614.000000;3.172847
1613.000000;3.528710
1612.000000;3.634002
1611.000000;3.207848
1610.000000;3.149304
1609.000000;3.255278
1608.000000;3.385709
1607.000000;3.499257
1606.000000;3.759309
1605.000000;3.501966
1604.000000;3.069282
1603.000000;2.909969
1602.000000;2.887909
1601.000000;2.891220
1600.000000;2.847891
1599.000000;2.836056
1598.000000;2.857951
1597.000000;2.868024
1596.000000;2.901151
1595.000000;2.976869
1594.000000;3.065721
1593.000000;3.167296
1592.000000;3.267411
1591.000000;3.142880
1590.000000;2.955049
1589.000000;2.889671
1588.000000;2.946801
1587.000000;3.144413
1586.000000;3.549154
1585.000000;3.712025
1584.000000;3.369489
1583.000000;3.097088
1582.000000;2.949817
1581.000000;2.905928
1580.000000;2.917921
1579.000000;2.938601
1578.000000;2.891491
1577.000000;2.771494
1576.000000;2.696324
1575.000000;2.716812
1574.000000;2.835520
1573.000000;3.004816
1572.000000;3.118633
1571.000000;3.195525
1570.000000;3.140189
1569.000000;3.060775
1568.000000;3.251874
1567.000000;3.558307
1566.000000;3.179861
1565.000000;2.983166
1564.000000;2.955900
1563.000000;3.175560
1562.000000;3.419068
1561.000000;2.960266
1560.000000;2.869201
1559.000000;2.864174
1558.000000;2.969744
1557.000000;3.273560
1556.000000;3.165919
1555.000000;2.987832
1554.000000;2.925399
1553.000000;2.971340
1552.000000;3.111446
1551.000000;3.225475
1550.000000;3.255612
1549.000000;3.102128
1548.000000;3.006973
1547.000000;3.012895
1546.000000;2.934703
1545.000000;2.863873
1544.000000;2.893015
1543.000000;3.071154
1542.000000;2.606461
1541.000000;2.311682
1540.000000;2.323712
1539.000000;2.528969
1538.000000;2.974412
1537.000000;3.165657
1536.000000;2.922064
1535.000000;2.892577
1534.000000;3.013582
1533.000000;3.227922
1532.000000;3.066340
1531.000000;2.952233
1530.000000;3.106720
1529.000000;3.177862
1528.000000;3.041146
1527.000000;3.047105
1526.000000;3.095755
1525.000000;3.246541
1524.000000;3.181570
1523.000000;2.860124
1522.000000;2.785102
1521.000000;2.806423
1520.000000;2.817107
1519.000000;2.855797
1518.000000;2.993366
1517.000000;3.317289
1516.000000;3.596855
1515.000000;3.280223
1514.000000;3.058536
1513.000000;2.996319
1512.000000;3.004048
1511.000000;3.053440
1510.000000;3.122446
1509.000000;3.151147
1508.000000;3.125419
1507.000000;3.150118
1506.000000;3.062772
1505.000000;2.913212
1504.000000;2.883507
1503.000000;2.895323
1502.000000;2.896702
1501.000000;2.895486
1500.000000;2.865195
1499.000000;2.768061
1498.000000;2.715161
1497.000000;2.791984
1496.000000;2.962609
1495.000000;3.547149
1494.000000;3.561083
1493.000000;2.969197
1492.000000;2.884902
1491.000000;2.893789
1490.000000;2.875095
1489.000000;2.843990
1488.000000;2.892157
1487.000000;3.066207
1486.000000;3.343662
1485.000000;3.224567
1484.000000;2.930846
1483.000000;2.848362
1482.000000;2.915117
1481.000000;3.069316
1480.000000;3.234895
1479.000000;3.229519
1478.000000;3.164214
1477.000000;3.154392
1476.000000;3.276455
1475.000000;3.364745
1474.000000;3.032549
1473.000000;2.861320
1472.000000;2.850321
1471.000000;2.951121
1470.000000;3.135217
1469.000000;3.245033
1468.000000;3.407664
1467.000000;3.873395
1466.000000;3.597838
1465.000000;3.231443
1464.000000;3.028523
1463.000000;2.843325
1462.000000;2.721298
1461.000000;2.689815
1460.000000;2.813524
1459.000000;3.149259
1458.000000;3.542251
1457.000000;3.655929
1456.000000;3.486862
1455.000000;3.561616
1454.000000;4.052645
1453.000000;3.676477
1452.000000;3.504370
1451.000000;3.257455
1450.000000;3.078532
1449.000000;3.115866
1448.000000;3.397176
1447.000000;3.930143
1446.000000;3.444982
1445.000000;3.049797
1444.000000;2.889924
1443.000000;2.902969
1442.000000;3.035195
1441.000000;3.191223
1440.000000;3.505791
1439.000000;3.713126
1438.000000;3.275796
1437.000000;3.057970
1436.000000;2.985994
1435.000000;3.044415
1434.000000;3.187164
1433.000000;3.201497
1432.000000;3.070373
1431.000000;2.909533
1430.000000;2.812109
1429.000000;2.789634
1428.000000;2.818515
1427.000000;2.859040
1426.000000;2.853754
1425.000000;2.824480
1424.000000;2.808415
1423.000000;2.837202
1422.000000;2.960876
1421.000000;3.228194
1420.000000;3.605434
1419.000000;3.879087
1418.000000;3.860015
1417.000000;3.432447
1416.000000;3.077557
1415.000000;2.885548
1414.000000;2.783931
1413.000000;2.768234
1412.000000;2.821739
1411.000000;2.961228
1410.000000;3.291788
1409.000000;3.143137
1408.000000;2.868626
1407.000000;2.862330
1406.000000;2.986269
1405.000000;3.227387
1404.000000;3.720188
1403.000000;3.561249
1402.000000;3.185855
1401.000000;3.018559
1400.000000;2.930573
1399.000000;2.873071
1398.000000;2.842935
1397.000000;2.897702
1396.000000;3.087534
1395.000000;3.422968
1394.000000;3.474669
1393.000000;3.234552
1392.000000;3.291336
1391.000000;3.427583
1390.000000;3.183774
1389.000000;3.019509
1388.000000;2.993872
1387.000000;3.083412
1386.000000;3.277169
1385.000000;3.137686
1384.000000;2.941089
1383.000000;2.887174
1382.000000;2.920132
1381.000000;3.041745
1380.000000;3.246311
1379.000000;3.572755
1378.000000;3.257006
1377.000000;2.913446
1376.000000;2.818008
1375.000000;2.838635
1374.000000;2.912797
1373.000000;2.960315
1372.000000;3.106593
1371.000000;3.622455
1370.000000;3.314483
1369.000000;3.022208
1368.000000;2.978004
1367.000000;2.978960
1366.000000;3.013024
1365.000000;3.162411
1364.000000;3.561268
1363.000000;3.465391
1362.000000;3.107377
1361.000000;3.010697
1360.000000;3.137977
1359.000000;3.351641
1358.000000;3.140975
1357.000000;3.014723
1356.000000;3.121292
1355.000000;3.170059
1354.000000;3.017536
1353.000000;2.918765
1352.000000;2.951980
1351.000000;3.092383
1350.000000;3.302652
1349.000000;3.723488
1348.000000;3.734512
1347.000000;3.492558
1346.000000;3.722087
1345.000000;3.458555
1344.000000;3.125984
1343.000000;3.035531
1342.000000;3.044239
1341.000000;3.099849
1340.000000;3.208873
1339.000000;3.332261
1338.000000;3.321371
1337.000000;3.385719
1336.000000;3.696075
1335.000000;3.541205
1334.000000;3.321163
1333.000000;3.421379
1332.000000;3.364665
1331.000000;3.204317
1330.000000;3.145236
1329.000000;3.216047
1328.000000;3.701919
1327.000000;3.358134
1326.000000;2.984322
1325.000000;2.925167
1324.000000;3.094181
1323.000000;3.213118
1322.000000;2.949782
1321.000000;2.819659
1320.000000;2.935522
1319.000000;3.362198
1318.000000;3.151250
1317.000000;2.909627
1316.000000;2.959320
1315.000000;3.175812
1314.000000;3.391494
1313.000000;3.290357
1312.000000;3.262131
1311.000000;3.220768
1310.000000;3.078648
1309.000000;3.024978
1308.000000;3.240134
1307.000000;3.755107
1306.000000;3.422137
1305.000000;3.250211
1304.000000;3.252715
1303.000000;3.321568
1302.000000;3.926068
1301.000000;3.469959
1300.000000;3.077358
1299.000000;3.046754
1298.000000;3.095104
1297.000000;3.200847
1296.000000;3.293964
1295.000000;3.327632
1294.000000;3.425909
1293.000000;3.425218
1292.000000;3.272776
1291.000000;3.200457
1290.000000;3.280590
1289.000000;3.421746
1288.000000;3.764720
1287.000000;4.233290
1286.000000;3.513629
1285.000000;3.319600
1284.000000;3.119204
1283.000000;2.923998
1282.000000;2.850175
1281.000000;2.870444
1280.000000;2.988421
1279.000000;3.119936
1278.000000;3.034722
1277.000000;2.864326
1276.000000;2.784761
1275.000000;2.818405
1274.000000;3.057468
1273.000000;3.304802
1272.000000;3.121809
1271.000000;3.058450
1270.000000;3.136041
1269.000000;3.169092
1268.000000;3.228625
1267.000000;3.239327
1266.000000;3.141753
1265.000000;3.082829
1264.000000;3.336048
1263.000000;4.084111
1262.000000;3.310697
1261.000000;3.121737
1260.000000;3.119139
1259.000000;3.144854
1258.000000;3.170912
1257.000000;3.114281
1256.000000;3.125873
1255.000000;3.180400
1254.000000;3.170120
1253.000000;3.070084
1252.000000;2.972217
1251.000000;2.901842
1250.000000;2.869181
1249.000000;2.867718
1248.000000;2.895971
1247.000000;2.970256
1246.000000;3.029824
1245.000000;2.930189
1244.000000;2.791375
1243.000000;2.738940
1242.000000;2.772047
1241.000000;2.849708
1240.000000;2.897292
1239.000000;2.884667
1238.000000;2.870274
1237.000000;2.851159
1236.000000;2.804039
1235.000000;2.790929
1234.000000;2.830073
1233.000000;2.866836
1232.000000;2.861280
1231.000000;2.841162
1230.000000;2.887268
1229.000000;3.038256
1228.000000;3.293988
1227.000000;3.640943
1226.000000;3.478759
1225.000000;3.280222
1224.000000;3.283557
1223.000000;3.321726
1222.000000;3.523830
1221.000000;3.637565
1220.000000;3.354230
1219.000000;3.235583
1218.000000;3.221113
1217.000000;3.360311
1216.000000;3.824761
1215.000000;3.706363
1214.000000;3.350519
1213.000000;3.301143
1212.000000;3.421095
1211.000000;3.729112
1210.000000;4.210572
1209.000000;3.386373
1208.000000;3.071851
1207.000000;3.031498
1206.000000;3.036115
1205.000000;3.094845
1204.000000;3.373749
1203.000000;3.634688
1202.000000;3.729064
1201.000000;3.637872
1200.000000;3.394418
