Criado como novo conjunto de dados;"e0108.spp","-4210540.8 Secs"
cm-1;Abs
10000.000000;1.056667
9999.000000;1.057526
9998.000000;1.057571
9997.000000;1.056031
9996.000000;1.053100
9995.000000;1.049888
9994.000000;1.047696
9993.000000;1.047088
9992.000000;1.047723
9991.000000;1.048888
9990.000000;1.049982
9989.000000;1.050461
9988.000000;1.049757
9987.000000;1.047746
9986.000000;1.045247
9985.000000;1.043623
9984.000000;1.043716
9983.000000;1.045284
9982.000000;1.047348
9981.000000;1.048807
9980.000000;1.048818
9979.000000;1.047171
9978.000000;1.044648
9977.000000;1.042730
9976.000000;1.042501
9975.000000;1.043799
9974.000000;1.045419
9973.000000;1.045983
9972.000000;1.044693
9971.000000;1.041742
9970.000000;1.038292
9969.000000;1.035823
9968.000000;1.035092
9967.000000;1.035742
9966.000000;1.036942
9965.000000;1.038150
9964.000000;1.039101
9963.000000;1.039551
9962.000000;1.039533
9961.000000;1.039554
9960.000000;1.039970
9959.000000;1.040296
9958.000000;1.039687
9957.000000;1.038036
9956.000000;1.036082
9955.000000;1.034483
9954.000000;1.033325
9953.000000;1.032505
9952.000000;1.031960
9951.000000;1.031476
9950.000000;1.030883
9949.000000;1.030506
9948.000000;1.030843
9947.000000;1.031706
9946.000000;1.032323
9945.000000;1.032484
9944.000000;1.032850
9943.000000;1.033716
9942.000000;1.034168
9941.000000;1.033097
9940.000000;1.030667
9939.000000;1.028126
9938.000000;1.026430
9937.000000;1.025612
9936.000000;1.025257
9935.000000;1.025024
9934.000000;1.024682
9933.000000;1.024134
9932.000000;1.023510
9931.000000;1.023051
9930.000000;1.022983
9929.000000;1.023492
9928.000000;1.024540
9927.000000;1.025643
9926.000000;1.026037
9925.000000;1.025334
9924.000000;1.023915
9923.000000;1.022467
9922.000000;1.021394
9921.000000;1.020800
9920.000000;1.020629
9919.000000;1.020561
9918.000000;1.020195
9917.000000;1.019686
9916.000000;1.019738
9915.000000;1.020560
9914.000000;1.021230
9913.000000;1.020757
9912.000000;1.019495
9911.000000;1.018687
9910.000000;1.018660
9909.000000;1.018317
9908.000000;1.016694
9907.000000;1.014344
9906.000000;1.012702
9905.000000;1.012579
9904.000000;1.013670
9903.000000;1.015125
9902.000000;1.016135
9901.000000;1.016218
9900.000000;1.015442
9899.000000;1.014394
9898.000000;1.013631
9897.000000;1.013103
9896.000000;1.012362
9895.000000;1.011343
9894.000000;1.010596
9893.000000;1.010573
9892.000000;1.010888
9891.000000;1.010623
9890.000000;1.009427
9889.000000;1.008011
9888.000000;1.007291
9887.000000;1.007347
9886.000000;1.007561
9885.000000;1.007560
9884.000000;1.007512
9883.000000;1.007489
9882.000000;1.007117
9881.000000;1.006255
9880.000000;1.005583
9879.000000;1.005942
9878.000000;1.007203
9877.000000;1.008260
9876.000000;1.008261
9875.000000;1.007444
9874.000000;1.006589
9873.000000;1.006000
9872.000000;1.005337
9871.000000;1.004282
9870.000000;1.003075
9869.000000;1.002286
9868.000000;1.002094
9867.000000;1.001965
9866.000000;1.001192
9865.000000;0.999751
9864.000000;0.998432
9863.000000;0.997935
9862.000000;0.998108
9861.000000;0.998320
9860.000000;0.998287
9859.000000;0.998174
9858.000000;0.998080
9857.000000;0.997893
9856.000000;0.997620
9855.000000;0.997428
9854.000000;0.997300
9853.000000;0.997034
9852.000000;0.996684
9851.000000;0.996559
9850.000000;0.996633
9849.000000;0.996337
9848.000000;0.995276
9847.000000;0.993813
9846.000000;0.992572
9845.000000;0.991596
9844.000000;0.990434
9843.000000;0.988956
9842.000000;0.987622
9841.000000;0.986929
9840.000000;0.987005
9839.000000;0.987848
9838.000000;0.989489
9837.000000;0.991600
9836.000000;0.993245
9835.000000;0.993507
9834.000000;0.992350
9833.000000;0.990471
9832.000000;0.988381
9831.000000;0.986127
9830.000000;0.984010
9829.000000;0.982893
9828.000000;0.983278
9827.000000;0.984443
9826.000000;0.985168
9825.000000;0.985227
9824.000000;0.985456
9823.000000;0.986179
9822.000000;0.986372
9821.000000;0.984948
9820.000000;0.982358
9819.000000;0.980157
9818.000000;0.979228
9817.000000;0.979096
9816.000000;0.978971
9815.000000;0.978800
9814.000000;0.979034
9813.000000;0.979763
9812.000000;0.980497
9811.000000;0.980705
9810.000000;0.980305
9809.000000;0.979633
9808.000000;0.979017
9807.000000;0.978461
9806.000000;0.977783
9805.000000;0.977042
9804.000000;0.976559
9803.000000;0.976348
9802.000000;0.975814
9801.000000;0.974458
9800.000000;0.972751
9799.000000;0.971728
9798.000000;0.971675
9797.000000;0.971773
9796.000000;0.971299
9795.000000;0.970607
9794.000000;0.970382
9793.000000;0.970371
9792.000000;0.969632
9791.000000;0.967977
9790.000000;0.966459
9789.000000;0.966212
9788.000000;0.967277
9787.000000;0.968812
9786.000000;0.970109
9785.000000;0.971030
9784.000000;0.971599
9783.000000;0.971633
9782.000000;0.970921
9781.000000;0.969591
9780.000000;0.968093
9779.000000;0.966815
9778.000000;0.965783
9777.000000;0.964801
9776.000000;0.963850
9775.000000;0.963252
9774.000000;0.963336
9773.000000;0.964018
9772.000000;0.964837
9771.000000;0.965363
9770.000000;0.965434
9769.000000;0.965035
9768.000000;0.964275
9767.000000;0.963544
9766.000000;0.963386
9765.000000;0.963868
9764.000000;0.964221
9763.000000;0.963447
9762.000000;0.961360
9761.000000;0.958834
9760.000000;0.957031
9759.000000;0.956552
9758.000000;0.957209
9757.000000;0.958285
9756.000000;0.958991
9755.000000;0.959015
9754.000000;0.958766
9753.000000;0.958876
9752.000000;0.959409
9751.000000;0.959836
9750.000000;0.959833
9749.000000;0.959673
9748.000000;0.959568
9747.000000;0.959070
9746.000000;0.957678
9745.000000;0.955770
9744.000000;0.954284
9743.000000;0.953504
9742.000000;0.952843
9741.000000;0.951977
9740.000000;0.951578
9739.000000;0.952438
9738.000000;0.954202
9737.000000;0.955464
9736.000000;0.955126
9735.000000;0.953409
9734.000000;0.951545
9733.000000;0.950690
9732.000000;0.951149
9731.000000;0.952303
9730.000000;0.953176
9729.000000;0.953199
9728.000000;0.952525
9727.000000;0.951619
9726.000000;0.950668
9725.000000;0.949524
9724.000000;0.948117
9723.000000;0.946678
9722.000000;0.945549
9721.000000;0.944900
9720.000000;0.944655
9719.000000;0.944571
9718.000000;0.944414
9717.000000;0.944146
9716.000000;0.943902
9715.000000;0.943674
9714.000000;0.943144
9713.000000;0.942086
9712.000000;0.940948
9711.000000;0.940729
9710.000000;0.942007
9709.000000;0.944131
9708.000000;0.945573
9707.000000;0.945199
9706.000000;0.943196
9705.000000;0.940799
9704.000000;0.939212
9703.000000;0.938740
9702.000000;0.938756
9701.000000;0.938425
9700.000000;0.937516
9699.000000;0.936578
9698.000000;0.936319
9697.000000;0.936895
9696.000000;0.937840
9695.000000;0.938641
9694.000000;0.939237
9693.000000;0.939867
9692.000000;0.940492
9691.000000;0.940600
9690.000000;0.939712
9689.000000;0.938034
9688.000000;0.936438
9687.000000;0.935706
9686.000000;0.935826
9685.000000;0.936095
9684.000000;0.935872
9683.000000;0.935120
9682.000000;0.934210
9681.000000;0.933390
9680.000000;0.932647
9679.000000;0.931995
9678.000000;0.931643
9677.000000;0.931736
9676.000000;0.932018
9675.000000;0.931924
9674.000000;0.931100
9673.000000;0.929786
9672.000000;0.928655
9671.000000;0.928254
9670.000000;0.928547
9669.000000;0.928937
9668.000000;0.928786
9667.000000;0.927973
9666.000000;0.926955
9665.000000;0.926270
9664.000000;0.926076
9663.000000;0.926255
9662.000000;0.926819
9661.000000;0.927834
9660.000000;0.928864
9659.000000;0.928879
9658.000000;0.927154
9657.000000;0.924284
9656.000000;0.921942
9655.000000;0.921465
9654.000000;0.922734
9653.000000;0.924423
9652.000000;0.925198
9651.000000;0.924652
9650.000000;0.923312
9649.000000;0.922034
9648.000000;0.921418
9647.000000;0.921523
9646.000000;0.921882
9645.000000;0.921823
9644.000000;0.921038
9643.000000;0.919921
9642.000000;0.919236
9641.000000;0.919386
9640.000000;0.920071
9639.000000;0.920625
9638.000000;0.920545
9637.000000;0.919674
9636.000000;0.918171
9635.000000;0.916499
9634.000000;0.915266
9633.000000;0.914739
9632.000000;0.914593
9631.000000;0.914363
9630.000000;0.914078
9629.000000;0.914089
9628.000000;0.914326
9627.000000;0.914185
9626.000000;0.913312
9625.000000;0.912090
9624.000000;0.911107
9623.000000;0.910480
9622.000000;0.910064
9621.000000;0.909978
9620.000000;0.910479
9619.000000;0.911419
9618.000000;0.912212
9617.000000;0.912392
9616.000000;0.912011
9615.000000;0.911513
9614.000000;0.911357
9613.000000;0.911613
9612.000000;0.911744
9611.000000;0.910997
9610.000000;0.909306
9609.000000;0.907614
9608.000000;0.906950
9607.000000;0.907372
9606.000000;0.908141
9605.000000;0.908753
9604.000000;0.909288
9603.000000;0.909791
9602.000000;0.909941
9601.000000;0.909554
9600.000000;0.908954
9599.000000;0.908529
9598.000000;0.908243
9597.000000;0.907827
9596.000000;0.907161
9595.000000;0.906283
9594.000000;0.905317
9593.000000;0.904578
9592.000000;0.904480
9591.000000;0.905045
9590.000000;0.905685
9589.000000;0.905680
9588.000000;0.904792
9587.000000;0.903338
9586.000000;0.901852
9585.000000;0.900812
9584.000000;0.900383
9583.000000;0.900194
9582.000000;0.899627
9581.000000;0.898575
9580.000000;0.897641
9579.000000;0.897403
9578.000000;0.897700
9577.000000;0.897870
9576.000000;0.897531
9575.000000;0.896852
9574.000000;0.896220
9573.000000;0.895943
9572.000000;0.896136
9571.000000;0.896502
9570.000000;0.896326
9569.000000;0.895080
9568.000000;0.893111
9567.000000;0.891496
9566.000000;0.891074
9565.000000;0.891782
9564.000000;0.892929
9563.000000;0.893908
9562.000000;0.894563
9561.000000;0.894997
9560.000000;0.895235
9559.000000;0.895115
9558.000000;0.894492
9557.000000;0.893460
9556.000000;0.892313
9555.000000;0.891325
9554.000000;0.890630
9553.000000;0.890269
9552.000000;0.890159
9551.000000;0.890042
9550.000000;0.889634
9549.000000;0.888925
9548.000000;0.888142
9547.000000;0.887399
9546.000000;0.886619
9545.000000;0.885878
9544.000000;0.885519
9543.000000;0.885684
9542.000000;0.885975
9541.000000;0.885796
9540.000000;0.884928
9539.000000;0.883603
9538.000000;0.882239
9537.000000;0.881393
9536.000000;0.881696
9535.000000;0.883339
9534.000000;0.885589
9533.000000;0.887181
9532.000000;0.887370
9531.000000;0.886426
9530.000000;0.885122
9529.000000;0.883974
9528.000000;0.883017
9527.000000;0.882054
9526.000000;0.880999
9525.000000;0.880129
9524.000000;0.879995
9523.000000;0.880883
9522.000000;0.882306
9521.000000;0.883181
9520.000000;0.882708
9519.000000;0.881061
9518.000000;0.879239
9517.000000;0.878252
9516.000000;0.878387
9515.000000;0.879043
9514.000000;0.879268
9513.000000;0.878624
9512.000000;0.877556
9511.000000;0.876831
9510.000000;0.876694
9509.000000;0.876777
9508.000000;0.876658
9507.000000;0.876191
9506.000000;0.875346
9505.000000;0.874149
9504.000000;0.872956
9503.000000;0.872395
9502.000000;0.872742
9501.000000;0.873532
9500.000000;0.874045
9499.000000;0.874051
9498.000000;0.873837
9497.000000;0.873613
9496.000000;0.873265
9495.000000;0.872702
9494.000000;0.872137
9493.000000;0.871807
9492.000000;0.871616
9491.000000;0.871316
9490.000000;0.870980
9489.000000;0.870978
9488.000000;0.871342
9487.000000;0.871396
9486.000000;0.870376
9485.000000;0.868469
9484.000000;0.866886
9483.000000;0.866691
9482.000000;0.867718
9481.000000;0.868862
9480.000000;0.869313
9479.000000;0.869173
9478.000000;0.868829
9477.000000;0.868198
9476.000000;0.866975
9475.000000;0.865421
9474.000000;0.864400
9473.000000;0.864454
9472.000000;0.865102
9471.000000;0.865326
9470.000000;0.864668
9469.000000;0.863699
9468.000000;0.863373
9467.000000;0.864047
9466.000000;0.865200
9465.000000;0.866012
9464.000000;0.866109
9463.000000;0.865726
9462.000000;0.865254
9461.000000;0.864755
9460.000000;0.864015
9459.000000;0.863032
9458.000000;0.862253
9457.000000;0.862123
9456.000000;0.862462
9455.000000;0.862591
9454.000000;0.862175
9453.000000;0.861735
9452.000000;0.862048
9451.000000;0.863144
9450.000000;0.864196
9449.000000;0.864383
9448.000000;0.863625
9447.000000;0.862419
9446.000000;0.861261
9445.000000;0.860377
9444.000000;0.859766
9443.000000;0.859300
9442.000000;0.858857
9441.000000;0.858457
9440.000000;0.858195
9439.000000;0.858006
9438.000000;0.857668
9437.000000;0.857126
9436.000000;0.856599
9435.000000;0.856244
9434.000000;0.855899
9433.000000;0.855337
9432.000000;0.854618
9431.000000;0.854009
9430.000000;0.853680
9429.000000;0.853664
9428.000000;0.853962
9427.000000;0.854460
9426.000000;0.854853
9425.000000;0.854869
9424.000000;0.854493
9423.000000;0.853833
9422.000000;0.852897
9421.000000;0.851751
9420.000000;0.850789
9419.000000;0.850501
9418.000000;0.850909
9417.000000;0.851472
9416.000000;0.851615
9415.000000;0.851164
9414.000000;0.850293
9413.000000;0.849284
9412.000000;0.848389
9411.000000;0.847707
9410.000000;0.847144
9409.000000;0.846627
9408.000000;0.846318
9407.000000;0.846418
9406.000000;0.846820
9405.000000;0.847239
9404.000000;0.847649
9403.000000;0.848193
9402.000000;0.848650
9401.000000;0.848429
9400.000000;0.847332
9399.000000;0.846004
9398.000000;0.845295
9397.000000;0.845368
9396.000000;0.845696
9395.000000;0.845739
9394.000000;0.845374
9393.000000;0.844807
9392.000000;0.844375
9391.000000;0.844393
9390.000000;0.844921
9389.000000;0.845612
9388.000000;0.846003
9387.000000;0.845992
9386.000000;0.845879
9385.000000;0.845900
9384.000000;0.845840
9383.000000;0.845193
9382.000000;0.843738
9381.000000;0.841913
9380.000000;0.840527
9379.000000;0.840049
9378.000000;0.840203
9377.000000;0.840374
9376.000000;0.840370
9375.000000;0.840557
9374.000000;0.841243
9373.000000;0.842217
9372.000000;0.843055
9371.000000;0.843598
9370.000000;0.843903
9369.000000;0.843896
9368.000000;0.843379
9367.000000;0.842304
9366.000000;0.840840
9365.000000;0.839234
9364.000000;0.837782
9363.000000;0.836852
9362.000000;0.836632
9361.000000;0.836886
9360.000000;0.837184
9359.000000;0.837396
9358.000000;0.837684
9357.000000;0.838004
9356.000000;0.837968
9355.000000;0.837350
9354.000000;0.836454
9353.000000;0.835765
9352.000000;0.835427
9351.000000;0.835251
9350.000000;0.835069
9349.000000;0.834854
9348.000000;0.834574
9347.000000;0.834197
9346.000000;0.833814
9345.000000;0.833593
9344.000000;0.833551
9343.000000;0.833522
9342.000000;0.833344
9341.000000;0.832979
9340.000000;0.832442
9339.000000;0.831788
9338.000000;0.831212
9337.000000;0.830957
9336.000000;0.831023
9335.000000;0.831132
9334.000000;0.831116
9333.000000;0.831200
9332.000000;0.831668
9331.000000;0.832302
9330.000000;0.832455
9329.000000;0.831806
9328.000000;0.830828
9327.000000;0.830292
9326.000000;0.830416
9325.000000;0.830704
9324.000000;0.830609
9323.000000;0.830136
9322.000000;0.829691
9321.000000;0.829481
9320.000000;0.829294
9319.000000;0.828869
9318.000000;0.828320
9317.000000;0.828035
9316.000000;0.828146
9315.000000;0.828247
9314.000000;0.827779
9313.000000;0.826689
9312.000000;0.825511
9311.000000;0.824749
9310.000000;0.824349
9309.000000;0.823960
9308.000000;0.823542
9307.000000;0.823457
9306.000000;0.823940
9305.000000;0.824711
9304.000000;0.825271
9303.000000;0.825463
9302.000000;0.825566
9301.000000;0.825858
9300.000000;0.826218
9299.000000;0.826226
9298.000000;0.825637
9297.000000;0.824704
9296.000000;0.823947
9295.000000;0.823545
9294.000000;0.823057
9293.000000;0.821892
9292.000000;0.820099
9291.000000;0.818535
9290.000000;0.818109
9289.000000;0.818912
9288.000000;0.820139
9287.000000;0.820829
9286.000000;0.820592
9285.000000;0.819714
9284.000000;0.818761
9283.000000;0.818194
9282.000000;0.818175
9281.000000;0.818540
9280.000000;0.818870
9279.000000;0.818737
9278.000000;0.818062
9277.000000;0.817273
9276.000000;0.816990
9275.000000;0.817414
9274.000000;0.818067
9273.000000;0.818231
9272.000000;0.817624
9271.000000;0.816578
9270.000000;0.815627
9269.000000;0.815104
9268.000000;0.815096
9267.000000;0.815483
9266.000000;0.815881
9265.000000;0.815768
9264.000000;0.814985
9263.000000;0.814057
9262.000000;0.813757
9261.000000;0.814247
9260.000000;0.814813
9259.000000;0.814571
9258.000000;0.813402
9257.000000;0.812078
9256.000000;0.811489
9255.000000;0.811814
9254.000000;0.812463
9253.000000;0.812728
9252.000000;0.812431
9251.000000;0.811895
9250.000000;0.811410
9249.000000;0.810900
9248.000000;0.810156
9247.000000;0.809235
9246.000000;0.808534
9245.000000;0.808450
9244.000000;0.809047
9243.000000;0.810021
9242.000000;0.810949
9241.000000;0.811595
9240.000000;0.811990
9239.000000;0.812245
9238.000000;0.812343
9237.000000;0.812183
9236.000000;0.811791
9235.000000;0.811313
9234.000000;0.810772
9233.000000;0.809986
9232.000000;0.808872
9231.000000;0.807769
9230.000000;0.807253
9229.000000;0.807579
9228.000000;0.808397
9227.000000;0.809074
9226.000000;0.809253
9225.000000;0.809081
9224.000000;0.808923
9223.000000;0.808896
9222.000000;0.808742
9221.000000;0.808167
9220.000000;0.807220
9219.000000;0.806255
9218.000000;0.805560
9217.000000;0.805181
9216.000000;0.805126
9215.000000;0.805494
9214.000000;0.806251
9213.000000;0.807015
9212.000000;0.807299
9211.000000;0.806936
9210.000000;0.806150
9209.000000;0.805271
9208.000000;0.804557
9207.000000;0.804242
9206.000000;0.804448
9205.000000;0.804963
9204.000000;0.805297
9203.000000;0.805123
9202.000000;0.804588
9201.000000;0.804069
9200.000000;0.803726
9199.000000;0.803418
9198.000000;0.803004
9197.000000;0.802550
9196.000000;0.802181
9195.000000;0.801863
9194.000000;0.801462
9193.000000;0.800971
9192.000000;0.800558
9191.000000;0.800369
9190.000000;0.800389
9189.000000;0.800538
9188.000000;0.800786
9187.000000;0.801091
9186.000000;0.801293
9185.000000;0.801219
9184.000000;0.800861
9183.000000;0.800293
9182.000000;0.799446
9181.000000;0.798203
9180.000000;0.796795
9179.000000;0.795830
9178.000000;0.795718
9177.000000;0.796198
9176.000000;0.796638
9175.000000;0.796724
9174.000000;0.796663
9173.000000;0.796791
9172.000000;0.797200
9171.000000;0.797714
9170.000000;0.798005
9169.000000;0.797757
9168.000000;0.796960
9167.000000;0.796080
9166.000000;0.795721
9165.000000;0.796019
9164.000000;0.796534
9163.000000;0.796752
9162.000000;0.796521
9161.000000;0.796001
9160.000000;0.795419
9159.000000;0.794979
9158.000000;0.794780
9157.000000;0.794702
9156.000000;0.794517
9155.000000;0.794222
9154.000000;0.794113
9153.000000;0.794389
9152.000000;0.794815
9151.000000;0.794928
9150.000000;0.794487
9149.000000;0.793622
9148.000000;0.792662
9147.000000;0.791948
9146.000000;0.791675
9145.000000;0.791756
9144.000000;0.791855
9143.000000;0.791699
9142.000000;0.791303
9141.000000;0.790817
9140.000000;0.790286
9139.000000;0.789688
9138.000000;0.789134
9137.000000;0.788850
9136.000000;0.788976
9135.000000;0.789471
9134.000000;0.790193
9133.000000;0.790947
9132.000000;0.791497
9131.000000;0.791634
9130.000000;0.791239
9129.000000;0.790280
9128.000000;0.788848
9127.000000;0.787294
9126.000000;0.786182
9125.000000;0.785913
9124.000000;0.786359
9123.000000;0.786963
9122.000000;0.787240
9121.000000;0.787173
9120.000000;0.787167
9119.000000;0.787620
9118.000000;0.788471
9117.000000;0.789156
9116.000000;0.789127
9115.000000;0.788452
9114.000000;0.787750
9113.000000;0.787477
9112.000000;0.787468
9111.000000;0.787273
9110.000000;0.786725
9109.000000;0.785999
9108.000000;0.785326
9107.000000;0.784923
9106.000000;0.784998
9105.000000;0.785469
9104.000000;0.785772
9103.000000;0.785353
9102.000000;0.784392
9101.000000;0.783650
9100.000000;0.783547
9099.000000;0.783739
9098.000000;0.783709
9097.000000;0.783433
9096.000000;0.783254
9095.000000;0.783373
9094.000000;0.783708
9093.000000;0.784043
9092.000000;0.784046
9091.000000;0.783370
9090.000000;0.782080
9089.000000;0.780909
9088.000000;0.780698
9087.000000;0.781517
9086.000000;0.782562
9085.000000;0.783008
9084.000000;0.782742
9083.000000;0.782173
9082.000000;0.781606
9081.000000;0.781055
9080.000000;0.780533
9079.000000;0.780221
9078.000000;0.780270
9077.000000;0.780618
9076.000000;0.781090
9075.000000;0.781562
9074.000000;0.781937
9073.000000;0.782046
9072.000000;0.781715
9071.000000;0.780974
9070.000000;0.780083
9069.000000;0.779314
9068.000000;0.778748
9067.000000;0.778316
9066.000000;0.778006
9065.000000;0.777915
9064.000000;0.778060
9063.000000;0.778215
9062.000000;0.778044
9061.000000;0.777485
9060.000000;0.776908
9059.000000;0.776806
9058.000000;0.777293
9057.000000;0.777990
9056.000000;0.778411
9055.000000;0.778344
9054.000000;0.777819
9053.000000;0.776950
9052.000000;0.776011
9051.000000;0.775489
9050.000000;0.775708
9049.000000;0.776372
9048.000000;0.776800
9047.000000;0.776731
9046.000000;0.776561
9045.000000;0.776651
9044.000000;0.776715
9043.000000;0.776243
9042.000000;0.775336
9041.000000;0.774701
9040.000000;0.774828
9039.000000;0.775474
9038.000000;0.776021
9037.000000;0.776123
9036.000000;0.775907
9035.000000;0.775679
9034.000000;0.775607
9033.000000;0.775670
9032.000000;0.775836
9031.000000;0.776171
9030.000000;0.776649
9029.000000;0.776881
9028.000000;0.776302
9027.000000;0.774827
9026.000000;0.773137
9025.000000;0.772067
9024.000000;0.771803
9023.000000;0.771891
9022.000000;0.771892
9021.000000;0.771710
9020.000000;0.771374
9019.000000;0.770910
9018.000000;0.770524
9017.000000;0.770530
9016.000000;0.770881
9015.000000;0.771049
9014.000000;0.770598
9013.000000;0.769713
9012.000000;0.768974
9011.000000;0.768758
9010.000000;0.769041
9009.000000;0.769612
9008.000000;0.770252
9007.000000;0.770746
9006.000000;0.770934
9005.000000;0.770796
9004.000000;0.770436
9003.000000;0.770005
9002.000000;0.769656
9001.000000;0.769443
9000.000000;0.769232
8999.000000;0.768863
8998.000000;0.768462
8997.000000;0.768365
8996.000000;0.768589
8995.000000;0.768604
8994.000000;0.767961
8993.000000;0.767004
8992.000000;0.766613
8991.000000;0.767198
8990.000000;0.768240
8989.000000;0.768913
8988.000000;0.768938
8987.000000;0.768623
8986.000000;0.768249
8985.000000;0.767726
8984.000000;0.766950
8983.000000;0.766240
8982.000000;0.766144
8981.000000;0.766775
8980.000000;0.767535
8979.000000;0.767727
8978.000000;0.767342
8977.000000;0.767014
8976.000000;0.767166
8975.000000;0.767499
8974.000000;0.767477
8973.000000;0.767089
8972.000000;0.766831
8971.000000;0.767033
8970.000000;0.767486
8969.000000;0.767769
8968.000000;0.767704
8967.000000;0.767405
8966.000000;0.767072
8965.000000;0.766855
8964.000000;0.766799
8963.000000;0.766766
8962.000000;0.766486
8961.000000;0.765813
8960.000000;0.764958
8959.000000;0.764347
8958.000000;0.764253
8957.000000;0.764585
8956.000000;0.765003
8955.000000;0.765188
8954.000000;0.765016
8953.000000;0.764551
8952.000000;0.763937
8951.000000;0.763304
8950.000000;0.762734
8949.000000;0.762266
8948.000000;0.761958
8947.000000;0.761916
8946.000000;0.762226
8945.000000;0.762781
8944.000000;0.763228
8943.000000;0.763221
8942.000000;0.762781
8941.000000;0.762319
8940.000000;0.762208
8939.000000;0.762381
8938.000000;0.762488
8937.000000;0.762357
8936.000000;0.762143
8935.000000;0.762029
8934.000000;0.761973
8933.000000;0.761851
8932.000000;0.761679
8931.000000;0.761531
8930.000000;0.761325
8929.000000;0.760867
8928.000000;0.760161
8927.000000;0.759501
8926.000000;0.759211
8925.000000;0.759366
8924.000000;0.759827
8923.000000;0.760443
8922.000000;0.761081
8921.000000;0.761533
8920.000000;0.761581
8919.000000;0.761257
8918.000000;0.760888
8917.000000;0.760755
8916.000000;0.760746
8915.000000;0.760505
8914.000000;0.759917
8913.000000;0.759300
8912.000000;0.759032
8911.000000;0.759127
8910.000000;0.759298
8909.000000;0.759350
8908.000000;0.759307
8907.000000;0.759171
8906.000000;0.758804
8905.000000;0.758196
8904.000000;0.757703
8903.000000;0.757780
8902.000000;0.758493
8901.000000;0.759412
8900.000000;0.760041
8899.000000;0.760255
8898.000000;0.760293
8897.000000;0.760453
8896.000000;0.760824
8895.000000;0.761208
8894.000000;0.761256
8893.000000;0.760788
8892.000000;0.760046
8891.000000;0.759488
8890.000000;0.759264
8889.000000;0.759074
8888.000000;0.758652
8887.000000;0.758188
8886.000000;0.758039
8885.000000;0.758189
8884.000000;0.758288
8883.000000;0.758178
8882.000000;0.758040
8881.000000;0.758007
8880.000000;0.757983
8879.000000;0.757914
8878.000000;0.757955
8877.000000;0.758183
8876.000000;0.758433
8875.000000;0.758586
8874.000000;0.758801
8873.000000;0.759231
8872.000000;0.759675
8871.000000;0.759768
8870.000000;0.759409
8869.000000;0.758821
8868.000000;0.758292
8867.000000;0.758048
8866.000000;0.758221
8865.000000;0.758685
8864.000000;0.759025
8863.000000;0.758914
8862.000000;0.758449
8861.000000;0.757938
8860.000000;0.757476
8859.000000;0.756992
8858.000000;0.756596
8857.000000;0.756520
8856.000000;0.756740
8855.000000;0.756979
8854.000000;0.757143
8853.000000;0.757414
8852.000000;0.757816
8851.000000;0.757995
8850.000000;0.757643
8849.000000;0.756929
8848.000000;0.756314
8847.000000;0.756056
8846.000000;0.756074
8845.000000;0.756183
8844.000000;0.756297
8843.000000;0.756455
8842.000000;0.756783
8841.000000;0.757393
8840.000000;0.758212
8839.000000;0.758942
8838.000000;0.759236
8837.000000;0.758926
8836.000000;0.758115
8835.000000;0.757106
8834.000000;0.756222
8833.000000;0.755599
8832.000000;0.755141
8831.000000;0.754771
8830.000000;0.754648
8829.000000;0.754969
8828.000000;0.755562
8827.000000;0.755906
8826.000000;0.755659
8825.000000;0.755029
8824.000000;0.754500
8823.000000;0.754315
8822.000000;0.754339
8821.000000;0.754347
8820.000000;0.754310
8819.000000;0.754381
8818.000000;0.754665
8817.000000;0.755061
8816.000000;0.755397
8815.000000;0.755700
8814.000000;0.756173
8813.000000;0.756798
8812.000000;0.757160
8811.000000;0.756924
8810.000000;0.756351
8809.000000;0.756035
8808.000000;0.756161
8807.000000;0.756378
8806.000000;0.756430
8805.000000;0.756505
8804.000000;0.756792
8803.000000;0.757080
8802.000000;0.757099
8801.000000;0.757017
8800.000000;0.757233
8799.000000;0.757766
8798.000000;0.758200
8797.000000;0.758234
8796.000000;0.758014
8795.000000;0.757859
8794.000000;0.757847
8793.000000;0.757790
8792.000000;0.757564
8791.000000;0.757359
8790.000000;0.757503
8789.000000;0.758010
8788.000000;0.758423
8787.000000;0.758283
8786.000000;0.757736
8785.000000;0.757392
8784.000000;0.757534
8783.000000;0.757747
8782.000000;0.757499
8781.000000;0.756846
8780.000000;0.756344
8779.000000;0.756398
8778.000000;0.756964
8777.000000;0.757776
8776.000000;0.758612
8775.000000;0.759326
8774.000000;0.759831
8773.000000;0.760089
8772.000000;0.760081
8771.000000;0.759808
8770.000000;0.759408
8769.000000;0.759161
8768.000000;0.759245
8767.000000;0.759570
8766.000000;0.759948
8765.000000;0.760330
8764.000000;0.760724
8763.000000;0.760985
8762.000000;0.760922
8761.000000;0.760554
8760.000000;0.760118
8759.000000;0.759846
8758.000000;0.759901
8757.000000;0.760442
8756.000000;0.761502
8755.000000;0.762752
8754.000000;0.763624
8753.000000;0.763779
8752.000000;0.763417
8751.000000;0.763052
8750.000000;0.763064
8749.000000;0.763437
8748.000000;0.763846
8747.000000;0.763952
8746.000000;0.763663
8745.000000;0.763132
8744.000000;0.762548
8743.000000;0.762036
8742.000000;0.761728
8741.000000;0.761748
8740.000000;0.762008
8739.000000;0.762229
8738.000000;0.762345
8737.000000;0.762676
8736.000000;0.763457
8735.000000;0.764372
8734.000000;0.764855
8733.000000;0.764754
8732.000000;0.764348
8731.000000;0.763797
8730.000000;0.763058
8729.000000;0.762412
8728.000000;0.762515
8727.000000;0.763595
8726.000000;0.764901
8725.000000;0.765392
8724.000000;0.764907
8723.000000;0.764313
8722.000000;0.764499
8721.000000;0.765481
8720.000000;0.766497
8719.000000;0.766778
8718.000000;0.766183
8717.000000;0.765263
8716.000000;0.764818
8715.000000;0.765262
8714.000000;0.766286
8713.000000;0.767130
8712.000000;0.767248
8711.000000;0.766709
8710.000000;0.766016
8709.000000;0.765640
8708.000000;0.765752
8707.000000;0.766253
8706.000000;0.766910
8705.000000;0.767450
8704.000000;0.767686
8703.000000;0.767650
8702.000000;0.767543
8701.000000;0.767498
8700.000000;0.767442
8699.000000;0.767256
8698.000000;0.767026
8697.000000;0.767016
8696.000000;0.767382
8695.000000;0.768008
8694.000000;0.768653
8693.000000;0.769147
8692.000000;0.769393
8691.000000;0.769300
8690.000000;0.768859
8689.000000;0.768268
8688.000000;0.767843
8687.000000;0.767753
8686.000000;0.767851
8685.000000;0.767808
8684.000000;0.767460
8683.000000;0.767076
8682.000000;0.767217
8681.000000;0.768185
8680.000000;0.769585
8679.000000;0.770586
8678.000000;0.770718
8677.000000;0.770329
8676.000000;0.770139
8675.000000;0.770432
8674.000000;0.770851
8673.000000;0.770930
8672.000000;0.770631
8671.000000;0.770266
8670.000000;0.770034
8669.000000;0.769823
8668.000000;0.769481
8667.000000;0.769147
8666.000000;0.769183
8665.000000;0.769725
8664.000000;0.770429
8663.000000;0.770766
8662.000000;0.770540
8661.000000;0.770031
8660.000000;0.769674
8659.000000;0.769729
8658.000000;0.770192
8657.000000;0.770830
8656.000000;0.771286
8655.000000;0.771361
8654.000000;0.771251
8653.000000;0.771319
8652.000000;0.771573
8651.000000;0.771602
8650.000000;0.771190
8649.000000;0.770735
8648.000000;0.770793
8647.000000;0.771394
8646.000000;0.772046
8645.000000;0.772324
8644.000000;0.772180
8643.000000;0.771746
8642.000000;0.771175
8641.000000;0.770707
8640.000000;0.770613
8639.000000;0.770954
8638.000000;0.771513
8637.000000;0.772004
8636.000000;0.772241
8635.000000;0.772147
8634.000000;0.771812
8633.000000;0.771528
8632.000000;0.771572
8631.000000;0.771887
8630.000000;0.772125
8629.000000;0.772039
8628.000000;0.771667
8627.000000;0.771154
8626.000000;0.770608
8625.000000;0.770181
8624.000000;0.770038
8623.000000;0.770154
8622.000000;0.770303
8621.000000;0.770369
8620.000000;0.770468
8619.000000;0.770692
8618.000000;0.770915
8617.000000;0.771033
8616.000000;0.771179
8615.000000;0.771479
8614.000000;0.771738
8613.000000;0.771647
8612.000000;0.771238
8611.000000;0.770893
8610.000000;0.770875
8609.000000;0.771062
8608.000000;0.771199
8607.000000;0.771221
8606.000000;0.771249
8605.000000;0.771405
8604.000000;0.771716
8603.000000;0.772133
8602.000000;0.772538
8601.000000;0.772775
8600.000000;0.772777
8599.000000;0.772684
8598.000000;0.772752
8597.000000;0.773076
8596.000000;0.773412
8595.000000;0.773355
8594.000000;0.772744
8593.000000;0.771856
8592.000000;0.771124
8591.000000;0.770691
8590.000000;0.770364
8589.000000;0.770007
8588.000000;0.769811
8587.000000;0.770053
8586.000000;0.770671
8585.000000;0.771267
8584.000000;0.771507
8583.000000;0.771390
8582.000000;0.771123
8581.000000;0.770898
8580.000000;0.770850
8579.000000;0.771083
8578.000000;0.771560
8577.000000;0.772024
8576.000000;0.772169
8575.000000;0.771917
8574.000000;0.771451
8573.000000;0.770993
8572.000000;0.770667
8571.000000;0.770561
8570.000000;0.770764
8569.000000;0.771202
8568.000000;0.771550
8567.000000;0.771495
8566.000000;0.771079
8565.000000;0.770657
8564.000000;0.770505
8563.000000;0.770575
8562.000000;0.770628
8561.000000;0.770474
8560.000000;0.770071
8559.000000;0.769538
8558.000000;0.769168
8557.000000;0.769249
8556.000000;0.769737
8555.000000;0.770184
8554.000000;0.770167
8553.000000;0.769736
8552.000000;0.769356
8551.000000;0.769428
8550.000000;0.769954
8549.000000;0.770621
8548.000000;0.771031
8547.000000;0.770925
8546.000000;0.770343
8545.000000;0.769647
8544.000000;0.769250
8543.000000;0.769285
8542.000000;0.769575
8541.000000;0.769881
8540.000000;0.770067
8539.000000;0.770052
8538.000000;0.769803
8537.000000;0.769462
8536.000000;0.769327
8535.000000;0.769563
8534.000000;0.769977
8533.000000;0.770176
8532.000000;0.769929
8531.000000;0.769337
8530.000000;0.768716
8529.000000;0.768366
8528.000000;0.768395
8527.000000;0.768650
8526.000000;0.768815
8525.000000;0.768645
8524.000000;0.768168
8523.000000;0.767663
8522.000000;0.767453
8521.000000;0.767680
8520.000000;0.768209
8519.000000;0.768741
8518.000000;0.769042
8517.000000;0.769096
8516.000000;0.769016
8515.000000;0.768863
8514.000000;0.768642
8513.000000;0.768431
8512.000000;0.768366
8511.000000;0.768437
8510.000000;0.768440
8509.000000;0.768245
8508.000000;0.768042
8507.000000;0.768173
8506.000000;0.768723
8505.000000;0.769351
8504.000000;0.769589
8503.000000;0.769264
8502.000000;0.768600
8501.000000;0.767943
8500.000000;0.767460
8499.000000;0.767124
8498.000000;0.766923
8497.000000;0.766960
8496.000000;0.767309
8495.000000;0.767858
8494.000000;0.768396
8493.000000;0.768763
8492.000000;0.768847
8491.000000;0.768521
8490.000000;0.767795
8489.000000;0.767008
8488.000000;0.766605
8487.000000;0.766661
8486.000000;0.766792
8485.000000;0.766692
8484.000000;0.766575
8483.000000;0.766880
8482.000000;0.767623
8481.000000;0.768291
8480.000000;0.768400
8479.000000;0.767957
8478.000000;0.767296
8477.000000;0.766665
8476.000000;0.766136
8475.000000;0.765820
8474.000000;0.765943
8473.000000;0.766600
8472.000000;0.767521
8471.000000;0.768183
8470.000000;0.768221
8469.000000;0.767688
8468.000000;0.766919
8467.000000;0.766199
8466.000000;0.765633
8465.000000;0.765288
8464.000000;0.765278
8463.000000;0.765622
8462.000000;0.766096
8461.000000;0.766383
8460.000000;0.766356
8459.000000;0.766152
8458.000000;0.765956
8457.000000;0.765817
8456.000000;0.765740
8455.000000;0.765835
8454.000000;0.766231
8453.000000;0.766838
8452.000000;0.767302
8451.000000;0.767333
8450.000000;0.767027
8449.000000;0.766764
8448.000000;0.766748
8447.000000;0.766781
8446.000000;0.766559
8445.000000;0.766094
8444.000000;0.765703
8443.000000;0.765619
8442.000000;0.765764
8441.000000;0.765947
8440.000000;0.766091
8439.000000;0.766181
8438.000000;0.766132
8437.000000;0.765882
8436.000000;0.765551
8435.000000;0.765361
8434.000000;0.765365
8433.000000;0.765395
8432.000000;0.765296
8431.000000;0.765140
8430.000000;0.765178
8429.000000;0.765583
8428.000000;0.766259
8427.000000;0.766859
8426.000000;0.767024
8425.000000;0.766672
8424.000000;0.766058
8423.000000;0.765526
8422.000000;0.765213
8421.000000;0.765041
8420.000000;0.764910
8419.000000;0.764802
8418.000000;0.764739
8417.000000;0.764753
8416.000000;0.764909
8415.000000;0.765231
8414.000000;0.765590
8413.000000;0.765768
8412.000000;0.765690
8411.000000;0.765512
8410.000000;0.765424
8409.000000;0.765462
8408.000000;0.765537
8407.000000;0.765533
8406.000000;0.765349
8405.000000;0.764960
8404.000000;0.764553
8403.000000;0.764476
8402.000000;0.764899
8401.000000;0.765543
8400.000000;0.765936
8399.000000;0.765944
8398.000000;0.765872
8397.000000;0.766006
8396.000000;0.766206
8395.000000;0.766106
8394.000000;0.765636
8393.000000;0.765175
8392.000000;0.765148
8391.000000;0.765566
8390.000000;0.766026
8389.000000;0.766131
8388.000000;0.765849
8387.000000;0.765465
8386.000000;0.765247
8385.000000;0.765205
8384.000000;0.765132
8383.000000;0.764830
8382.000000;0.764314
8381.000000;0.763840
8380.000000;0.763704
8379.000000;0.763953
8378.000000;0.764312
8377.000000;0.764466
8376.000000;0.764398
8375.000000;0.764363
8374.000000;0.764508
8373.000000;0.764665
8372.000000;0.764610
8371.000000;0.764381
8370.000000;0.764211
8369.000000;0.764202
8368.000000;0.764234
8367.000000;0.764189
8366.000000;0.764138
8365.000000;0.764268
8364.000000;0.764681
8363.000000;0.765258
8362.000000;0.765691
8361.000000;0.765689
8360.000000;0.765253
8359.000000;0.764696
8358.000000;0.764312
8357.000000;0.764076
8356.000000;0.763800
8355.000000;0.763509
8354.000000;0.763468
8353.000000;0.763794
8352.000000;0.764264
8351.000000;0.764576
8350.000000;0.764646
8349.000000;0.764528
8348.000000;0.764233
8347.000000;0.763807
8346.000000;0.763457
8345.000000;0.763395
8344.000000;0.763560
8343.000000;0.763650
8342.000000;0.763433
8341.000000;0.762944
8340.000000;0.762427
8339.000000;0.762184
8338.000000;0.762400
8337.000000;0.762942
8336.000000;0.763347
8335.000000;0.763198
8334.000000;0.762542
8333.000000;0.761829
8332.000000;0.761414
8331.000000;0.761267
8330.000000;0.761193
8329.000000;0.761200
8328.000000;0.761516
8327.000000;0.762298
8326.000000;0.763414
8325.000000;0.764497
8324.000000;0.765172
8323.000000;0.765286
8322.000000;0.764982
8321.000000;0.764564
8320.000000;0.764273
8319.000000;0.764137
8318.000000;0.763999
8317.000000;0.763676
8316.000000;0.763175
8315.000000;0.762786
8314.000000;0.762869
8313.000000;0.763431
8312.000000;0.763983
8311.000000;0.764000
8310.000000;0.763487
8309.000000;0.762918
8308.000000;0.762615
8307.000000;0.762418
8306.000000;0.762101
8305.000000;0.761848
8304.000000;0.762043
8303.000000;0.762681
8302.000000;0.763273
8301.000000;0.763421
8300.000000;0.763270
8299.000000;0.763240
8298.000000;0.763443
8297.000000;0.763570
8296.000000;0.763364
8295.000000;0.762985
8294.000000;0.762797
8293.000000;0.762860
8292.000000;0.762872
8291.000000;0.762613
8290.000000;0.762281
8289.000000;0.762218
8288.000000;0.762431
8287.000000;0.762593
8286.000000;0.762503
8285.000000;0.762311
8284.000000;0.762241
8283.000000;0.762267
8282.000000;0.762222
8281.000000;0.762085
8280.000000;0.761960
8279.000000;0.761849
8278.000000;0.761630
8277.000000;0.761268
8276.000000;0.760904
8275.000000;0.760689
8274.000000;0.760647
8273.000000;0.760751
8272.000000;0.761006
8271.000000;0.761387
8270.000000;0.761749
8269.000000;0.761892
8268.000000;0.761722
8267.000000;0.761334
8266.000000;0.760958
8265.000000;0.760827
8264.000000;0.761024
8263.000000;0.761415
8262.000000;0.761740
8261.000000;0.761829
8260.000000;0.761700
8259.000000;0.761483
8258.000000;0.761280
8257.000000;0.761148
8256.000000;0.761140
8255.000000;0.761304
8254.000000;0.761618
8253.000000;0.761957
8252.000000;0.762128
8251.000000;0.761969
8250.000000;0.761474
8249.000000;0.760848
8248.000000;0.760391
8247.000000;0.760255
8246.000000;0.760332
8245.000000;0.760433
8244.000000;0.760547
8243.000000;0.760812
8242.000000;0.761256
8241.000000;0.761665
8240.000000;0.761792
8239.000000;0.761626
8238.000000;0.761391
8237.000000;0.761290
8236.000000;0.761333
8235.000000;0.761379
8234.000000;0.761294
8233.000000;0.761071
8232.000000;0.760839
8231.000000;0.760730
8230.000000;0.760741
8229.000000;0.760748
8228.000000;0.760687
8227.000000;0.760641
8226.000000;0.760658
8225.000000;0.760570
8224.000000;0.760172
8223.000000;0.759596
8222.000000;0.759345
8221.000000;0.759827
8220.000000;0.760900
8219.000000;0.761974
8218.000000;0.762508
8217.000000;0.762371
8216.000000;0.761798
8215.000000;0.761141
8214.000000;0.760671
8213.000000;0.760471
8212.000000;0.760441
8211.000000;0.760410
8210.000000;0.760291
8209.000000;0.760127
8208.000000;0.760012
8207.000000;0.760005
8206.000000;0.760125
8205.000000;0.760364
8204.000000;0.760692
8203.000000;0.761053
8202.000000;0.761386
8201.000000;0.761640
8200.000000;0.761768
8199.000000;0.761739
8198.000000;0.761558
8197.000000;0.761293
8196.000000;0.761068
8195.000000;0.761008
8194.000000;0.761128
8193.000000;0.761258
8192.000000;0.761127
8191.000000;0.760592
8190.000000;0.759800
8189.000000;0.759114
8188.000000;0.758842
8187.000000;0.759014
8186.000000;0.759361
8185.000000;0.759536
8184.000000;0.759402
8183.000000;0.759147
8182.000000;0.759068
8181.000000;0.759250
8180.000000;0.759504
8179.000000;0.759635
8178.000000;0.759667
8177.000000;0.759753
8176.000000;0.759953
8175.000000;0.760196
8174.000000;0.760393
8173.000000;0.760457
8172.000000;0.760275
8171.000000;0.759804
8170.000000;0.759228
8169.000000;0.758876
8168.000000;0.758912
8167.000000;0.759175
8166.000000;0.759375
8165.000000;0.759407
8164.000000;0.759421
8163.000000;0.759604
8162.000000;0.759925
8161.000000;0.760131
8160.000000;0.759994
8159.000000;0.759570
8158.000000;0.759153
8157.000000;0.758968
8156.000000;0.758982
8155.000000;0.759064
8154.000000;0.759213
8153.000000;0.759516
8152.000000;0.759918
8151.000000;0.760211
8150.000000;0.760242
8149.000000;0.760032
8148.000000;0.759663
8147.000000;0.759207
8146.000000;0.758801
8145.000000;0.758613
8144.000000;0.758647
8143.000000;0.758691
8142.000000;0.758583
8141.000000;0.758471
8140.000000;0.758659
8139.000000;0.759220
8138.000000;0.759877
8137.000000;0.760266
8136.000000;0.760262
8135.000000;0.760017
8134.000000;0.759747
8133.000000;0.759529
8132.000000;0.759291
8131.000000;0.758972
8130.000000;0.758668
8129.000000;0.758568
8128.000000;0.758750
8127.000000;0.759091
8126.000000;0.759415
8125.000000;0.759655
8124.000000;0.759834
8123.000000;0.759956
8122.000000;0.759989
8121.000000;0.759930
8120.000000;0.759807
8119.000000;0.759638
8118.000000;0.759446
8117.000000;0.759307
8116.000000;0.759319
8115.000000;0.759510
8114.000000;0.759820
8113.000000;0.760170
8112.000000;0.760477
8111.000000;0.760620
8110.000000;0.760488
8109.000000;0.760097
8108.000000;0.759606
8107.000000;0.759174
8106.000000;0.758860
8105.000000;0.758698
8104.000000;0.758752
8103.000000;0.759010
8102.000000;0.759273
8101.000000;0.759293
8100.000000;0.759064
8099.000000;0.758847
8098.000000;0.758864
8097.000000;0.759061
8096.000000;0.759254
8095.000000;0.759420
8094.000000;0.759675
8093.000000;0.760010
8092.000000;0.760212
8091.000000;0.760111
8090.000000;0.759782
8089.000000;0.759420
8088.000000;0.759115
8087.000000;0.758845
8086.000000;0.758633
8085.000000;0.758560
8084.000000;0.758639
8083.000000;0.758763
8082.000000;0.758807
8081.000000;0.758737
8080.000000;0.758617
8079.000000;0.758530
8078.000000;0.758518
8077.000000;0.758552
8076.000000;0.758566
8075.000000;0.758538
8074.000000;0.758524
8073.000000;0.758578
8072.000000;0.758695
8071.000000;0.758857
8070.000000;0.759095
8069.000000;0.759418
8068.000000;0.759706
8067.000000;0.759772
8066.000000;0.759572
8065.000000;0.759273
8064.000000;0.759097
8063.000000;0.759114
8062.000000;0.759191
8061.000000;0.759134
8060.000000;0.758879
8059.000000;0.758571
8058.000000;0.758413
8057.000000;0.758429
8056.000000;0.758415
8055.000000;0.758216
8054.000000;0.757986
8053.000000;0.758049
8052.000000;0.758534
8051.000000;0.759241
8050.000000;0.759892
8049.000000;0.760374
8048.000000;0.760687
8047.000000;0.760779
8046.000000;0.760561
8045.000000;0.760063
8044.000000;0.759494
8043.000000;0.759112
8042.000000;0.759041
8041.000000;0.759175
8040.000000;0.759262
8039.000000;0.759147
8038.000000;0.758935
8037.000000;0.758885
8036.000000;0.759118
8035.000000;0.759484
8034.000000;0.759734
8033.000000;0.759745
8032.000000;0.759557
8031.000000;0.759262
8030.000000;0.758927
8029.000000;0.758609
8028.000000;0.758371
8027.000000;0.758246
8026.000000;0.758195
8025.000000;0.758104
8024.000000;0.757894
8023.000000;0.757662
8022.000000;0.757637
8021.000000;0.757895
8020.000000;0.758189
8019.000000;0.758186
8018.000000;0.757892
8017.000000;0.757650
8016.000000;0.757718
8015.000000;0.757994
8014.000000;0.758229
8013.000000;0.758333
8012.000000;0.758357
8011.000000;0.758330
8010.000000;0.758273
8009.000000;0.758292
8008.000000;0.758455
8007.000000;0.758660
8006.000000;0.758783
8005.000000;0.758902
8004.000000;0.759160
8003.000000;0.759427
8002.000000;0.759335
8001.000000;0.758754
8000.000000;0.758046
7999.000000;0.757694
7998.000000;0.757797
7997.000000;0.758081
7996.000000;0.758315
7995.000000;0.758508
7994.000000;0.758708
7993.000000;0.758819
7992.000000;0.758737
7991.000000;0.758562
7990.000000;0.758543
7989.000000;0.758787
7988.000000;0.759132
7987.000000;0.759333
7986.000000;0.759311
7985.000000;0.759201
7984.000000;0.759184
7983.000000;0.759331
7982.000000;0.759593
7981.000000;0.759877
7980.000000;0.760079
7979.000000;0.760078
7978.000000;0.759773
7977.000000;0.759189
7976.000000;0.758552
7975.000000;0.758184
7974.000000;0.758233
7973.000000;0.758523
7972.000000;0.758729
7971.000000;0.758718
7970.000000;0.758631
7969.000000;0.758598
7968.000000;0.758508
7967.000000;0.758173
7966.000000;0.757654
7965.000000;0.757263
7964.000000;0.757249
7963.000000;0.757592
7962.000000;0.758125
7961.000000;0.758700
7960.000000;0.759185
7959.000000;0.759432
7958.000000;0.759374
7957.000000;0.759109
7956.000000;0.758826
7955.000000;0.758666
7954.000000;0.758689
7953.000000;0.758874
7952.000000;0.759078
7951.000000;0.759075
7950.000000;0.758750
7949.000000;0.758260
7948.000000;0.757906
7947.000000;0.757840
7946.000000;0.757954
7945.000000;0.758032
7944.000000;0.757957
7943.000000;0.757779
7942.000000;0.757656
7941.000000;0.757737
7940.000000;0.758046
7939.000000;0.758448
7938.000000;0.758755
7937.000000;0.758872
7936.000000;0.758830
7935.000000;0.758711
7934.000000;0.758604
7933.000000;0.758602
7932.000000;0.758737
7931.000000;0.758916
7930.000000;0.758988
7929.000000;0.758911
7928.000000;0.758808
7927.000000;0.758808
7926.000000;0.758899
7925.000000;0.758977
7924.000000;0.758991
7923.000000;0.758979
7922.000000;0.758973
7921.000000;0.758961
7920.000000;0.758943
7919.000000;0.758969
7918.000000;0.759058
7917.000000;0.759146
7916.000000;0.759164
7915.000000;0.759120
7914.000000;0.759059
7913.000000;0.758954
7912.000000;0.758760
7911.000000;0.758558
7910.000000;0.758532
7909.000000;0.758750
7908.000000;0.759033
7907.000000;0.759144
7906.000000;0.759043
7905.000000;0.758879
7904.000000;0.758770
7903.000000;0.758698
7902.000000;0.758602
7901.000000;0.758473
7900.000000;0.758343
7899.000000;0.758262
7898.000000;0.758302
7897.000000;0.758494
7896.000000;0.758746
7895.000000;0.758909
7894.000000;0.758977
7893.000000;0.759113
7892.000000;0.759435
7891.000000;0.759839
7890.000000;0.760107
7889.000000;0.760146
7888.000000;0.760024
7887.000000;0.759841
7886.000000;0.759630
7885.000000;0.759412
7884.000000;0.759238
7883.000000;0.759159
7882.000000;0.759171
7881.000000;0.759204
7880.000000;0.759167
7879.000000;0.759024
7878.000000;0.758845
7877.000000;0.758757
7876.000000;0.758831
7875.000000;0.759055
7874.000000;0.759392
7873.000000;0.759810
7872.000000;0.760212
7871.000000;0.760435
7870.000000;0.760393
7869.000000;0.760194
7868.000000;0.760050
7867.000000;0.760079
7866.000000;0.760250
7865.000000;0.760450
7864.000000;0.760556
7863.000000;0.760465
7862.000000;0.760163
7861.000000;0.759781
7860.000000;0.759512
7859.000000;0.759468
7858.000000;0.759615
7857.000000;0.759843
7856.000000;0.760041
7855.000000;0.760115
7854.000000;0.760041
7853.000000;0.759917
7852.000000;0.759902
7851.000000;0.760071
7850.000000;0.760336
7849.000000;0.760539
7848.000000;0.760589
7847.000000;0.760508
7846.000000;0.760381
7845.000000;0.760281
7844.000000;0.760227
7843.000000;0.760176
7842.000000;0.760080
7841.000000;0.759947
7840.000000;0.759847
7839.000000;0.759828
7838.000000;0.759875
7837.000000;0.759947
7836.000000;0.760043
7835.000000;0.760190
7834.000000;0.760389
7833.000000;0.760610
7832.000000;0.760839
7831.000000;0.761075
7830.000000;0.761252
7829.000000;0.761239
7828.000000;0.760980
7827.000000;0.760642
7826.000000;0.760512
7825.000000;0.760715
7824.000000;0.761086
7823.000000;0.761388
7822.000000;0.761566
7821.000000;0.761698
7820.000000;0.761776
7819.000000;0.761683
7818.000000;0.761406
7817.000000;0.761109
7816.000000;0.760967
7815.000000;0.761026
7814.000000;0.761261
7813.000000;0.761641
7812.000000;0.762048
7811.000000;0.762258
7810.000000;0.762161
7809.000000;0.761928
7808.000000;0.761822
7807.000000;0.761889
7806.000000;0.761954
7805.000000;0.761903
7804.000000;0.761808
7803.000000;0.761766
7802.000000;0.761750
7801.000000;0.761714
7800.000000;0.761704
7799.000000;0.761792
7798.000000;0.761941
7797.000000;0.762050
7796.000000;0.762109
7795.000000;0.762242
7794.000000;0.762547
7793.000000;0.762942
7792.000000;0.763187
7791.000000;0.763118
7790.000000;0.762833
7789.000000;0.762607
7788.000000;0.762607
7787.000000;0.762734
7786.000000;0.762798
7785.000000;0.762757
7784.000000;0.762679
7783.000000;0.762555
7782.000000;0.762332
7781.000000;0.762126
7780.000000;0.762208
7779.000000;0.762676
7778.000000;0.763277
7777.000000;0.763661
7776.000000;0.763727
7775.000000;0.763621
7774.000000;0.763480
7773.000000;0.763351
7772.000000;0.763298
7771.000000;0.763421
7770.000000;0.763716
7769.000000;0.764027
7768.000000;0.764183
7767.000000;0.764136
7766.000000;0.763947
7765.000000;0.763726
7764.000000;0.763593
7763.000000;0.763612
7762.000000;0.763702
7761.000000;0.763706
7760.000000;0.763588
7759.000000;0.763504
7758.000000;0.763618
7757.000000;0.763888
7756.000000;0.764112
7755.000000;0.764140
7754.000000;0.763998
7753.000000;0.763840
7752.000000;0.763841
7751.000000;0.764115
7750.000000;0.764616
7749.000000;0.765139
7748.000000;0.765475
7747.000000;0.765582
7746.000000;0.765548
7745.000000;0.765432
7744.000000;0.765214
7743.000000;0.764959
7742.000000;0.764894
7741.000000;0.765233
7740.000000;0.765933
7739.000000;0.766691
7738.000000;0.767181
7737.000000;0.767282
7736.000000;0.767096
7735.000000;0.766833
7734.000000;0.766672
7733.000000;0.766696
7732.000000;0.766899
7731.000000;0.767216
7730.000000;0.767546
7729.000000;0.767764
7728.000000;0.767774
7727.000000;0.767586
7726.000000;0.767329
7725.000000;0.767134
7724.000000;0.767027
7723.000000;0.766950
7722.000000;0.766880
7721.000000;0.766859
7720.000000;0.766921
7719.000000;0.767032
7718.000000;0.767153
7717.000000;0.767299
7716.000000;0.767507
7715.000000;0.767744
7714.000000;0.767904
7713.000000;0.767919
7712.000000;0.767825
7711.000000;0.767712
7710.000000;0.767633
7709.000000;0.767608
7708.000000;0.767673
7707.000000;0.767882
7706.000000;0.768210
7705.000000;0.768516
7704.000000;0.768641
7703.000000;0.768550
7702.000000;0.768363
7701.000000;0.768249
7700.000000;0.768333
7699.000000;0.768642
7698.000000;0.769096
7697.000000;0.769520
7696.000000;0.769765
7695.000000;0.769817
7694.000000;0.769785
7693.000000;0.769766
7692.000000;0.769786
7691.000000;0.769872
7690.000000;0.770094
7689.000000;0.770453
7688.000000;0.770799
7687.000000;0.770939
7686.000000;0.770826
7685.000000;0.770576
7684.000000;0.770334
7683.000000;0.770191
7682.000000;0.770192
7681.000000;0.770328
7680.000000;0.770505
7679.000000;0.770610
7678.000000;0.770648
7677.000000;0.770745
7676.000000;0.770995
7675.000000;0.771355
7674.000000;0.771718
7673.000000;0.772029
7672.000000;0.772271
7671.000000;0.772415
7670.000000;0.772447
7669.000000;0.772416
7668.000000;0.772375
7667.000000;0.772316
7666.000000;0.772245
7665.000000;0.772315
7664.000000;0.772729
7663.000000;0.773463
7662.000000;0.774166
7661.000000;0.774458
7660.000000;0.774294
7659.000000;0.773969
7658.000000;0.773774
7657.000000;0.773736
7656.000000;0.773703
7655.000000;0.773588
7654.000000;0.773465
7653.000000;0.773484
7652.000000;0.773753
7651.000000;0.774253
7650.000000;0.774824
7649.000000;0.775238
7648.000000;0.775374
7647.000000;0.775307
7646.000000;0.775190
7645.000000;0.775089
7644.000000;0.775011
7643.000000;0.775038
7642.000000;0.775278
7641.000000;0.775666
7640.000000;0.775978
7639.000000;0.776085
7638.000000;0.776098
7637.000000;0.776162
7636.000000;0.776264
7635.000000;0.776335
7634.000000;0.776448
7633.000000;0.776742
7632.000000;0.777201
7631.000000;0.777669
7630.000000;0.778073
7629.000000;0.778473
7628.000000;0.778873
7627.000000;0.779147
7626.000000;0.779215
7625.000000;0.779181
7624.000000;0.779208
7623.000000;0.779332
7622.000000;0.779457
7621.000000;0.779498
7620.000000;0.779473
7619.000000;0.779477
7618.000000;0.779610
7617.000000;0.779909
7616.000000;0.780314
7615.000000;0.780729
7614.000000;0.781101
7613.000000;0.781422
7612.000000;0.781651
7611.000000;0.781734
7610.000000;0.781709
7609.000000;0.781726
7608.000000;0.781908
7607.000000;0.782234
7606.000000;0.782585
7605.000000;0.782858
7604.000000;0.783031
7603.000000;0.783164
7602.000000;0.783352
7601.000000;0.783634
7600.000000;0.783907
7599.000000;0.784005
7598.000000;0.783897
7597.000000;0.783767
7596.000000;0.783853
7595.000000;0.784241
7594.000000;0.784821
7593.000000;0.785391
7592.000000;0.785758
7591.000000;0.785842
7590.000000;0.785739
7589.000000;0.785663
7588.000000;0.785750
7587.000000;0.785955
7586.000000;0.786165
7585.000000;0.786369
7584.000000;0.786656
7583.000000;0.787065
7582.000000;0.787526
7581.000000;0.787932
7580.000000;0.788228
7579.000000;0.788433
7578.000000;0.788604
7577.000000;0.788793
7576.000000;0.789015
7575.000000;0.789261
7574.000000;0.789528
7573.000000;0.789795
7572.000000;0.789972
7571.000000;0.789971
7570.000000;0.789866
7569.000000;0.789906
7568.000000;0.790267
7567.000000;0.790837
7566.000000;0.791328
7565.000000;0.791576
7564.000000;0.791666
7563.000000;0.791777
7562.000000;0.792009
7561.000000;0.792360
7560.000000;0.792764
7559.000000;0.793131
7558.000000;0.793406
7557.000000;0.793632
7556.000000;0.793882
7555.000000;0.794122
7554.000000;0.794226
7553.000000;0.794158
7552.000000;0.794076
7551.000000;0.794175
7550.000000;0.794492
7549.000000;0.794899
7548.000000;0.795259
7547.000000;0.795532
7546.000000;0.795767
7545.000000;0.796073
7544.000000;0.796563
7543.000000;0.797245
7542.000000;0.797939
7541.000000;0.798419
7540.000000;0.798650
7539.000000;0.798823
7538.000000;0.799108
7537.000000;0.799447
7536.000000;0.799655
7535.000000;0.799686
7534.000000;0.799707
7533.000000;0.799912
7532.000000;0.800355
7531.000000;0.800960
7530.000000;0.801582
7529.000000;0.802046
7528.000000;0.802234
7527.000000;0.802229
7526.000000;0.802285
7525.000000;0.802571
7524.000000;0.802964
7523.000000;0.803194
7522.000000;0.803168
7521.000000;0.803088
7520.000000;0.803217
7519.000000;0.803629
7518.000000;0.804186
7517.000000;0.804696
7516.000000;0.805049
7515.000000;0.805263
7514.000000;0.805437
7513.000000;0.805644
7512.000000;0.805871
7511.000000;0.806080
7510.000000;0.806325
7509.000000;0.806706
7508.000000;0.807222
7507.000000;0.807720
7506.000000;0.808067
7505.000000;0.808304
7504.000000;0.808582
7503.000000;0.808983
7502.000000;0.809433
7501.000000;0.809786
7500.000000;0.809951
7499.000000;0.809980
7498.000000;0.810060
7497.000000;0.810360
7496.000000;0.810880
7495.000000;0.811444
7494.000000;0.811869
7493.000000;0.812127
7492.000000;0.812313
7491.000000;0.812519
7490.000000;0.812771
7489.000000;0.813048
7488.000000;0.813328
7487.000000;0.813622
7486.000000;0.813984
7485.000000;0.814455
7484.000000;0.814979
7483.000000;0.815430
7482.000000;0.815745
7481.000000;0.816003
7480.000000;0.816325
7479.000000;0.816747
7478.000000;0.817217
7477.000000;0.817661
7476.000000;0.818002
7475.000000;0.818175
7474.000000;0.818211
7473.000000;0.818266
7472.000000;0.818493
7471.000000;0.818879
7470.000000;0.819282
7469.000000;0.819606
7468.000000;0.819885
7467.000000;0.820198
7466.000000;0.820570
7465.000000;0.820969
7464.000000;0.821349
7463.000000;0.821682
7462.000000;0.822002
7461.000000;0.822409
7460.000000;0.822974
7459.000000;0.823621
7458.000000;0.824163
7457.000000;0.824462
7456.000000;0.824531
7455.000000;0.824488
7454.000000;0.824462
7453.000000;0.824559
7452.000000;0.824821
7451.000000;0.825174
7450.000000;0.825465
7449.000000;0.825622
7448.000000;0.825747
7447.000000;0.826017
7446.000000;0.826487
7445.000000;0.827059
7444.000000;0.827611
7443.000000;0.828123
7442.000000;0.828623
7441.000000;0.829065
7440.000000;0.829329
7439.000000;0.829352
7438.000000;0.829230
7437.000000;0.829152
7436.000000;0.829255
7435.000000;0.829578
7434.000000;0.830105
7433.000000;0.830787
7432.000000;0.831498
7431.000000;0.832066
7430.000000;0.832410
7429.000000;0.832624
7428.000000;0.832883
7427.000000;0.833255
7426.000000;0.833654
7425.000000;0.833943
7424.000000;0.834061
7423.000000;0.834086
7422.000000;0.834201
7421.000000;0.834568
7420.000000;0.835179
7419.000000;0.835840
7418.000000;0.836347
7417.000000;0.836648
7416.000000;0.836795
7415.000000;0.836811
7414.000000;0.836713
7413.000000;0.836653
7412.000000;0.836885
7411.000000;0.837492
7410.000000;0.838240
7409.000000;0.838781
7408.000000;0.838991
7407.000000;0.839034
7406.000000;0.839155
7405.000000;0.839462
7404.000000;0.839910
7403.000000;0.840399
7402.000000;0.840831
7401.000000;0.841139
7400.000000;0.841315
7399.000000;0.841401
7398.000000;0.841424
7397.000000;0.841371
7396.000000;0.841258
7395.000000;0.841212
7394.000000;0.841426
7393.000000;0.841992
7392.000000;0.842796
7391.000000;0.843609
7390.000000;0.844252
7389.000000;0.844646
7388.000000;0.844773
7387.000000;0.844680
7386.000000;0.844528
7385.000000;0.844527
7384.000000;0.844773
7383.000000;0.845182
7382.000000;0.845634
7381.000000;0.846090
7380.000000;0.846546
7379.000000;0.846932
7378.000000;0.847152
7377.000000;0.847197
7376.000000;0.847157
7375.000000;0.847153
7374.000000;0.847311
7373.000000;0.847706
7372.000000;0.848273
7371.000000;0.848800
7370.000000;0.849123
7369.000000;0.849316
7368.000000;0.849615
7367.000000;0.850136
7366.000000;0.850750
7365.000000;0.851258
7364.000000;0.851566
7363.000000;0.851690
7362.000000;0.851717
7361.000000;0.851805
7360.000000;0.852107
7359.000000;0.852607
7358.000000;0.853098
7357.000000;0.853390
7356.000000;0.853501
7355.000000;0.853608
7354.000000;0.853826
7353.000000;0.854119
7352.000000;0.854406
7351.000000;0.854667
7350.000000;0.854945
7349.000000;0.855285
7348.000000;0.855705
7347.000000;0.856180
7346.000000;0.856634
7345.000000;0.856983
7344.000000;0.857192
7343.000000;0.857302
7342.000000;0.857388
7341.000000;0.857516
7340.000000;0.857742
7339.000000;0.858098
7338.000000;0.858556
7337.000000;0.859041
7336.000000;0.859488
7335.000000;0.859875
7334.000000;0.860222
7333.000000;0.860578
7332.000000;0.860978
7331.000000;0.861393
7330.000000;0.861764
7329.000000;0.862116
7328.000000;0.862596
7327.000000;0.863330
7326.000000;0.864221
7325.000000;0.865015
7324.000000;0.865586
7323.000000;0.866046
7322.000000;0.866516
7321.000000;0.866946
7320.000000;0.867245
7319.000000;0.867479
7318.000000;0.867807
7317.000000;0.868279
7316.000000;0.868814
7315.000000;0.869324
7314.000000;0.869777
7313.000000;0.870153
7312.000000;0.870443
7311.000000;0.870702
7310.000000;0.870997
7309.000000;0.871303
7308.000000;0.871565
7307.000000;0.871876
7306.000000;0.872466
7305.000000;0.873407
7304.000000;0.874463
7303.000000;0.875326
7302.000000;0.875911
7301.000000;0.876353
7300.000000;0.876808
7299.000000;0.877339
7298.000000;0.877964
7297.000000;0.878683
7296.000000;0.879461
7295.000000;0.880227
7294.000000;0.880948
7293.000000;0.881648
7292.000000;0.882349
7291.000000;0.883018
7290.000000;0.883617
7289.000000;0.884160
7288.000000;0.884706
7287.000000;0.885323
7286.000000;0.886067
7285.000000;0.886954
7284.000000;0.887942
7283.000000;0.888953
7282.000000;0.889918
7281.000000;0.890831
7280.000000;0.891762
7279.000000;0.892769
7278.000000;0.893795
7277.000000;0.894689
7276.000000;0.895360
7275.000000;0.895904
7274.000000;0.896538
7273.000000;0.897394
7272.000000;0.898425
7271.000000;0.899502
7270.000000;0.900535
7269.000000;0.901497
7268.000000;0.902390
7267.000000;0.903234
7266.000000;0.904087
7265.000000;0.905035
7264.000000;0.906155
7263.000000;0.907469
7262.000000;0.908897
7261.000000;0.910283
7260.000000;0.911505
7259.000000;0.912565
7258.000000;0.913553
7257.000000;0.914529
7256.000000;0.915519
7255.000000;0.916571
7254.000000;0.917721
7253.000000;0.918908
7252.000000;0.920026
7251.000000;0.921085
7250.000000;0.922258
7249.000000;0.923687
7248.000000;0.925301
7247.000000;0.926901
7246.000000;0.928380
7245.000000;0.929768
7244.000000;0.931122
7243.000000;0.932484
7242.000000;0.933934
7241.000000;0.935542
7240.000000;0.937264
7239.000000;0.939012
7238.000000;0.940798
7237.000000;0.942670
7236.000000;0.944555
7235.000000;0.946314
7234.000000;0.947933
7233.000000;0.949607
7232.000000;0.951549
7231.000000;0.953728
7230.000000;0.955892
7229.000000;0.957873
7228.000000;0.959737
7227.000000;0.961629
7226.000000;0.963583
7225.000000;0.965546
7224.000000;0.967514
7223.000000;0.969538
7222.000000;0.971634
7221.000000;0.973762
7220.000000;0.975938
7219.000000;0.978256
7218.000000;0.980741
7217.000000;0.983269
7216.000000;0.985726
7215.000000;0.988190
7214.000000;0.990807
7213.000000;0.993580
7212.000000;0.996405
7211.000000;0.999272
7210.000000;1.002245
7209.000000;1.005256
7208.000000;1.008102
7207.000000;1.010686
7206.000000;1.013123
7205.000000;1.015545
7204.000000;1.017965
7203.000000;1.020432
7202.000000;1.023147
7201.000000;1.026257
7200.000000;1.029616
7199.000000;1.032912
7198.000000;1.035997
7197.000000;1.038990
7196.000000;1.042103
7195.000000;1.045447
7194.000000;1.048974
7193.000000;1.052503
7192.000000;1.055821
7191.000000;1.058860
7190.000000;1.061784
7189.000000;1.064866
7188.000000;1.068287
7187.000000;1.072040
7186.000000;1.075946
7185.000000;1.079715
7184.000000;1.083147
7183.000000;1.086370
7182.000000;1.089813
7181.000000;1.093797
7180.000000;1.098166
7179.000000;1.102478
7178.000000;1.106516
7177.000000;1.110422
7176.000000;1.114408
7175.000000;1.118546
7174.000000;1.122835
7173.000000;1.127263
7172.000000;1.131700
7171.000000;1.135905
7170.000000;1.139774
7169.000000;1.143478
7168.000000;1.147283
7167.000000;1.151300
7166.000000;1.155469
7165.000000;1.159727
7164.000000;1.164052
7163.000000;1.168410
7162.000000;1.172765
7161.000000;1.177162
7160.000000;1.181703
7159.000000;1.186381
7158.000000;1.191053
7157.000000;1.195576
7156.000000;1.199934
7155.000000;1.204218
7154.000000;1.208535
7153.000000;1.212930
7152.000000;1.217403
7151.000000;1.221970
7150.000000;1.226635
7149.000000;1.231309
7148.000000;1.235824
7147.000000;1.240111
7146.000000;1.244335
7145.000000;1.248743
7144.000000;1.253366
7143.000000;1.257976
7142.000000;1.262370
7141.000000;1.266597
7140.000000;1.270881
7139.000000;1.275435
7138.000000;1.280376
7137.000000;1.285655
7136.000000;1.291002
7135.000000;1.296052
7134.000000;1.300678
7133.000000;1.305108
7132.000000;1.309633
7131.000000;1.314259
7130.000000;1.318790
7129.000000;1.323148
7128.000000;1.327442
7127.000000;1.331737
7126.000000;1.335982
7125.000000;1.340227
7124.000000;1.344759
7123.000000;1.349820
7122.000000;1.355193
7121.000000;1.360226
7120.000000;1.364380
7119.000000;1.367783
7118.000000;1.371176
7117.000000;1.375262
7116.000000;1.380100
7115.000000;1.385147
7114.000000;1.389817
7113.000000;1.393908
7112.000000;1.397606
7111.000000;1.401274
7110.000000;1.405248
7109.000000;1.409616
7108.000000;1.414171
7107.000000;1.418665
7106.000000;1.423088
7105.000000;1.427533
7104.000000;1.431901
7103.000000;1.436003
7102.000000;1.439925
7101.000000;1.443957
7100.000000;1.448092
7099.000000;1.451946
7098.000000;1.455332
7097.000000;1.458578
7096.000000;1.462042
7095.000000;1.465638
7094.000000;1.469138
7093.000000;1.472650
7092.000000;1.476441
7091.000000;1.480459
7090.000000;1.484432
7089.000000;1.488326
7088.000000;1.492318
7087.000000;1.496386
7086.000000;1.500283
7085.000000;1.503887
7084.000000;1.507263
7083.000000;1.510391
7082.000000;1.513167
7081.000000;1.515743
7080.000000;1.518545
7079.000000;1.521844
7078.000000;1.525524
7077.000000;1.529297
7076.000000;1.532955
7075.000000;1.536394
7074.000000;1.539569
7073.000000;1.542501
7072.000000;1.545251
7071.000000;1.547910
7070.000000;1.550670
7069.000000;1.553760
7068.000000;1.557137
7067.000000;1.560392
7066.000000;1.563187
7065.000000;1.565648
7064.000000;1.568085
7063.000000;1.570504
7062.000000;1.572737
7061.000000;1.574932
7060.000000;1.577461
7059.000000;1.580338
7058.000000;1.583124
7057.000000;1.585468
7056.000000;1.587433
7055.000000;1.589226
7054.000000;1.591002
7053.000000;1.593053
7052.000000;1.595810
7051.000000;1.599338
7050.000000;1.603022
7049.000000;1.606018
7048.000000;1.608007
7047.000000;1.609407
7046.000000;1.610917
7045.000000;1.612947
7044.000000;1.615404
7043.000000;1.617913
7042.000000;1.620216
7041.000000;1.622322
7040.000000;1.624280
7039.000000;1.625982
7038.000000;1.627375
7037.000000;1.628730
7036.000000;1.630467
7035.000000;1.632713
7034.000000;1.635200
7033.000000;1.637591
7032.000000;1.639725
7031.000000;1.641597
7030.000000;1.643247
7029.000000;1.644670
7028.000000;1.645708
7027.000000;1.646178
7026.000000;1.646269
7025.000000;1.646623
7024.000000;1.647774
7023.000000;1.649660
7022.000000;1.651895
7021.000000;1.654261
7020.000000;1.656564
7019.000000;1.658288
7018.000000;1.659006
7017.000000;1.659109
7016.000000;1.659569
7015.000000;1.660880
7014.000000;1.662633
7013.000000;1.664191
7012.000000;1.665360
7011.000000;1.666300
7010.000000;1.667173
7009.000000;1.668063
7008.000000;1.668999
7007.000000;1.669912
7006.000000;1.670844
7005.000000;1.672176
7004.000000;1.674231
7003.000000;1.676619
7002.000000;1.678403
7001.000000;1.679064
7000.000000;1.678908
6999.000000;1.678489
6998.000000;1.678168
6997.000000;1.678325
6996.000000;1.679327
6995.000000;1.680931
6994.000000;1.682220
6993.000000;1.682605
6992.000000;1.682602
6991.000000;1.683248
6990.000000;1.685011
6989.000000;1.687543
6988.000000;1.690141
6987.000000;1.692046
6986.000000;1.692631
6985.000000;1.691870
6984.000000;1.690509
6983.000000;1.689374
6982.000000;1.688586
6981.000000;1.687790
6980.000000;1.686992
6979.000000;1.686758
6978.000000;1.687515
6977.000000;1.688973
6976.000000;1.690384
6975.000000;1.691271
6974.000000;1.691842
6973.000000;1.692694
6972.000000;1.694061
6971.000000;1.695416
6970.000000;1.695954
6969.000000;1.695497
6968.000000;1.694701
6967.000000;1.694340
6966.000000;1.694644
6965.000000;1.695366
6964.000000;1.696127
6963.000000;1.696507
6962.000000;1.696201
6961.000000;1.695449
6960.000000;1.695078
6959.000000;1.695788
6958.000000;1.697504
6957.000000;1.699616
6956.000000;1.701632
6955.000000;1.703309
6954.000000;1.704305
6953.000000;1.704186
6952.000000;1.702867
6951.000000;1.700843
6950.000000;1.698881
6949.000000;1.697560
6948.000000;1.697005
6947.000000;1.696913
6946.000000;1.696934
6945.000000;1.697132
6944.000000;1.697888
6943.000000;1.699189
6942.000000;1.700289
6941.000000;1.700371
6940.000000;1.699454
6939.000000;1.698291
6938.000000;1.697450
6937.000000;1.696909
6936.000000;1.696594
6935.000000;1.696844
6934.000000;1.698059
6933.000000;1.700034
6932.000000;1.701870
6931.000000;1.702613
6930.000000;1.701981
6929.000000;1.700547
6928.000000;1.699242
6927.000000;1.698641
6926.000000;1.698687
6925.000000;1.699032
6924.000000;1.699492
6923.000000;1.700072
6922.000000;1.700640
6921.000000;1.700853
6920.000000;1.700517
6919.000000;1.699869
6918.000000;1.699339
6917.000000;1.699100
6916.000000;1.698974
6915.000000;1.698766
6914.000000;1.698530
6913.000000;1.698396
6912.000000;1.698208
6911.000000;1.697536
6910.000000;1.696183
6909.000000;1.694614
6908.000000;1.693686
6907.000000;1.693892
6906.000000;1.694933
6905.000000;1.696035
6904.000000;1.696613
6903.000000;1.696610
6902.000000;1.696264
6901.000000;1.695704
6900.000000;1.694870
6899.000000;1.693805
6898.000000;1.692890
6897.000000;1.692583
6896.000000;1.692879
6895.000000;1.693242
6894.000000;1.693210
6893.000000;1.692930
6892.000000;1.692901
6891.000000;1.693262
6890.000000;1.693582
6889.000000;1.693383
6888.000000;1.692707
6887.000000;1.692122
6886.000000;1.692224
6885.000000;1.693048
6884.000000;1.693867
6883.000000;1.693727
6882.000000;1.692444
6881.000000;1.690897
6880.000000;1.690057
6879.000000;1.689884
6878.000000;1.689543
6877.000000;1.688622
6876.000000;1.687659
6875.000000;1.687373
6874.000000;1.687845
6873.000000;1.688659
6872.000000;1.689418
6871.000000;1.689837
6870.000000;1.689695
6869.000000;1.689075
6868.000000;1.688460
6867.000000;1.688211
6866.000000;1.688081
6865.000000;1.687561
6864.000000;1.686623
6863.000000;1.685820
6862.000000;1.685621
6861.000000;1.685895
6860.000000;1.686081
6859.000000;1.685746
6858.000000;1.684945
6857.000000;1.684129
6856.000000;1.683711
6855.000000;1.683635
6854.000000;1.683402
6853.000000;1.682590
6852.000000;1.681316
6851.000000;1.680127
6850.000000;1.679532
6849.000000;1.679627
6848.000000;1.680036
6847.000000;1.680135
6846.000000;1.679509
6845.000000;1.678337
6844.000000;1.677222
6843.000000;1.676560
6842.000000;1.676198
6841.000000;1.675742
6840.000000;1.675021
6839.000000;1.674093
6838.000000;1.673036
6837.000000;1.671946
6836.000000;1.670956
6835.000000;1.670042
6834.000000;1.668980
6833.000000;1.667701
6832.000000;1.666520
6831.000000;1.665732
6830.000000;1.665169
6829.000000;1.664453
6828.000000;1.663559
6827.000000;1.662767
6826.000000;1.662101
6825.000000;1.661271
6824.000000;1.660173
6823.000000;1.659041
6822.000000;1.657979
6821.000000;1.656741
6820.000000;1.655240
6819.000000;1.653940
6818.000000;1.653362
6817.000000;1.653354
6816.000000;1.653152
6815.000000;1.652153
6814.000000;1.650389
6813.000000;1.648284
6812.000000;1.646231
6811.000000;1.644426
6810.000000;1.642871
6809.000000;1.641398
6808.000000;1.639814
6807.000000;1.638098
6806.000000;1.636351
6805.000000;1.634576
6804.000000;1.632694
6803.000000;1.630851
6802.000000;1.629467
6801.000000;1.628741
6800.000000;1.628267
6799.000000;1.627414
6798.000000;1.626064
6797.000000;1.624644
6796.000000;1.623408
6795.000000;1.622034
6794.000000;1.620159
6793.000000;1.618006
6792.000000;1.616145
6791.000000;1.614791
6790.000000;1.613641
6789.000000;1.612342
6788.000000;1.610787
6787.000000;1.608974
6786.000000;1.606928
6785.000000;1.604885
6784.000000;1.603215
6783.000000;1.601969
6782.000000;1.600712
6781.000000;1.599036
6780.000000;1.597081
6779.000000;1.595313
6778.000000;1.593903
6777.000000;1.592547
6776.000000;1.590850
6775.000000;1.588703
6774.000000;1.586288
6773.000000;1.583911
6772.000000;1.581804
6771.000000;1.579918
6770.000000;1.577877
6769.000000;1.575348
6768.000000;1.572537
6767.000000;1.570172
6766.000000;1.568837
6765.000000;1.568367
6764.000000;1.567965
6763.000000;1.566912
6762.000000;1.565097
6761.000000;1.562869
6760.000000;1.560537
6759.000000;1.558181
6758.000000;1.555871
6757.000000;1.553823
6756.000000;1.552152
6755.000000;1.550583
6754.000000;1.548642
6753.000000;1.546200
6752.000000;1.543657
6751.000000;1.541524
6750.000000;1.539927
6749.000000;1.538604
6748.000000;1.537237
6747.000000;1.535686
6746.000000;1.533980
6745.000000;1.532228
6744.000000;1.530503
6743.000000;1.528743
6742.000000;1.526800
6741.000000;1.524646
6740.000000;1.522426
6739.000000;1.520236
6738.000000;1.517953
6737.000000;1.515435
6736.000000;1.512804
6735.000000;1.510380
6734.000000;1.508388
6733.000000;1.506873
6732.000000;1.505790
6731.000000;1.504933
6730.000000;1.503822
6729.000000;1.501988
6728.000000;1.499510
6727.000000;1.497027
6726.000000;1.495031
6725.000000;1.493329
6724.000000;1.491393
6723.000000;1.489071
6722.000000;1.486711
6721.000000;1.484642
6720.000000;1.482830
6719.000000;1.481065
6718.000000;1.479270
6717.000000;1.477479
6716.000000;1.475661
6715.000000;1.473695
6714.000000;1.471519
6713.000000;1.469227
6712.000000;1.467021
6711.000000;1.465085
6710.000000;1.463488
6709.000000;1.462142
6708.000000;1.460876
6707.000000;1.459522
6706.000000;1.457917
6705.000000;1.455924
6704.000000;1.453571
6703.000000;1.451172
6702.000000;1.449157
6701.000000;1.447694
6700.000000;1.446557
6699.000000;1.445390
6698.000000;1.443987
6697.000000;1.442279
6696.000000;1.440216
6695.000000;1.437855
6694.000000;1.435483
6693.000000;1.433412
6692.000000;1.431670
6691.000000;1.430028
6690.000000;1.428320
6689.000000;1.426553
6688.000000;1.424707
6687.000000;1.422650
6686.000000;1.420376
6685.000000;1.418161
6684.000000;1.416320
6683.000000;1.414849
6682.000000;1.413422
6681.000000;1.411706
6680.000000;1.409619
6679.000000;1.407356
6678.000000;1.405222
6677.000000;1.403405
6676.000000;1.401825
6675.000000;1.400247
6674.000000;1.398546
6673.000000;1.396799
6672.000000;1.395076
6671.000000;1.393301
6670.000000;1.391433
6669.000000;1.389665
6668.000000;1.388254
6667.000000;1.387190
6666.000000;1.386191
6665.000000;1.384974
6664.000000;1.383441
6663.000000;1.381642
6662.000000;1.379715
6661.000000;1.377849
6660.000000;1.376121
6659.000000;1.374374
6658.000000;1.372395
6657.000000;1.370250
6656.000000;1.368264
6655.000000;1.366636
6654.000000;1.365210
6653.000000;1.363727
6652.000000;1.362127
6651.000000;1.360511
6650.000000;1.358918
6649.000000;1.357303
6648.000000;1.355660
6647.000000;1.354022
6646.000000;1.352384
6645.000000;1.350714
6644.000000;1.349027
6643.000000;1.347341
6642.000000;1.345621
6641.000000;1.343835
6640.000000;1.342044
6639.000000;1.340348
6638.000000;1.338782
6637.000000;1.337323
6636.000000;1.335944
6635.000000;1.334555
6634.000000;1.332965
6633.000000;1.331068
6632.000000;1.329073
6631.000000;1.327351
6630.000000;1.326019
6629.000000;1.324796
6628.000000;1.323375
6627.000000;1.321774
6626.000000;1.320233
6625.000000;1.318846
6624.000000;1.317468
6623.000000;1.315956
6622.000000;1.314364
6621.000000;1.312861
6620.000000;1.311559
6619.000000;1.310446
6618.000000;1.309419
6617.000000;1.308327
6616.000000;1.307030
6615.000000;1.305483
6614.000000;1.303761
6613.000000;1.301991
6612.000000;1.300270
6611.000000;1.298642
6610.000000;1.297128
6609.000000;1.295727
6608.000000;1.294406
6607.000000;1.293113
6606.000000;1.291808
6605.000000;1.290486
6604.000000;1.289152
6603.000000;1.287778
6602.000000;1.286314
6601.000000;1.284760
6600.000000;1.283220
6599.000000;1.281829
6598.000000;1.280597
6597.000000;1.279361
6596.000000;1.277940
6595.000000;1.276344
6594.000000;1.274764
6593.000000;1.273379
6592.000000;1.272208
6591.000000;1.271135
6590.000000;1.270010
6589.000000;1.268726
6588.000000;1.267273
6587.000000;1.265769
6586.000000;1.264359
6585.000000;1.263067
6584.000000;1.261782
6583.000000;1.260427
6582.000000;1.259059
6581.000000;1.257749
6580.000000;1.256450
6579.000000;1.255084
6578.000000;1.253703
6577.000000;1.252433
6576.000000;1.251290
6575.000000;1.250152
6574.000000;1.248941
6573.000000;1.247718
6572.000000;1.246572
6571.000000;1.245504
6570.000000;1.244437
6569.000000;1.243277
6568.000000;1.241934
6567.000000;1.240386
6566.000000;1.238770
6565.000000;1.237320
6564.000000;1.236154
6563.000000;1.235159
6562.000000;1.234146
6561.000000;1.233031
6560.000000;1.231807
6559.000000;1.230434
6558.000000;1.228912
6557.000000;1.227416
6556.000000;1.226195
6555.000000;1.225282
6554.000000;1.224407
6553.000000;1.223287
6552.000000;1.221933
6551.000000;1.220599
6550.000000;1.219482
6549.000000;1.218542
6548.000000;1.217625
6547.000000;1.216635
6546.000000;1.215555
6545.000000;1.214381
6544.000000;1.213129
6543.000000;1.211903
6542.000000;1.210853
6541.000000;1.210000
6540.000000;1.209147
6539.000000;1.208062
6538.000000;1.206696
6537.000000;1.205196
6536.000000;1.203720
6535.000000;1.202342
6534.000000;1.201123
6533.000000;1.200142
6532.000000;1.199380
6531.000000;1.198650
6530.000000;1.197739
6529.000000;1.196616
6528.000000;1.195430
6527.000000;1.194338
6526.000000;1.193373
6525.000000;1.192472
6524.000000;1.191564
6523.000000;1.190605
6522.000000;1.189578
6521.000000;1.188475
6520.000000;1.187291
6519.000000;1.186051
6518.000000;1.184829
6517.000000;1.183723
6516.000000;1.182776
6515.000000;1.181944
6514.000000;1.181155
6513.000000;1.180363
6512.000000;1.179520
6511.000000;1.178554
6510.000000;1.177429
6509.000000;1.176214
6508.000000;1.175038
6507.000000;1.173970
6506.000000;1.172974
6505.000000;1.171979
6504.000000;1.170946
6503.000000;1.169902
6502.000000;1.168907
6501.000000;1.168002
6500.000000;1.167152
6499.000000;1.166270
6498.000000;1.165313
6497.000000;1.164323
6496.000000;1.163344
6495.000000;1.162343
6494.000000;1.161260
6493.000000;1.160124
6492.000000;1.159036
6491.000000;1.158055
6490.000000;1.157178
6489.000000;1.156415
6488.000000;1.155801
6487.000000;1.155303
6486.000000;1.154767
6485.000000;1.154030
6484.000000;1.153055
6483.000000;1.151940
6482.000000;1.150832
6481.000000;1.149831
6480.000000;1.148944
6479.000000;1.148092
6478.000000;1.147193
6477.000000;1.146259
6476.000000;1.145386
6475.000000;1.144628
6474.000000;1.143923
6473.000000;1.143182
6472.000000;1.142403
6471.000000;1.141629
6470.000000;1.140830
6469.000000;1.139905
6468.000000;1.138828
6467.000000;1.137732
6466.000000;1.136761
6465.000000;1.135908
6464.000000;1.135062
6463.000000;1.134195
6462.000000;1.133416
6461.000000;1.132788
6460.000000;1.132183
6459.000000;1.131412
6458.000000;1.130453
6457.000000;1.129464
6456.000000;1.128565
6455.000000;1.127715
6454.000000;1.126840
6453.000000;1.125971
6452.000000;1.125191
6451.000000;1.124491
6450.000000;1.123769
6449.000000;1.122959
6448.000000;1.122093
6447.000000;1.121231
6446.000000;1.120399
6445.000000;1.119576
6444.000000;1.118727
6443.000000;1.117844
6442.000000;1.116987
6441.000000;1.116256
6440.000000;1.115682
6439.000000;1.115165
6438.000000;1.114573
6437.000000;1.113890
6436.000000;1.113190
6435.000000;1.112499
6434.000000;1.111766
6433.000000;1.110981
6432.000000;1.110234
6431.000000;1.109601
6430.000000;1.109049
6429.000000;1.108480
6428.000000;1.107825
6427.000000;1.107066
6426.000000;1.106218
6425.000000;1.105329
6424.000000;1.104465
6423.000000;1.103649
6422.000000;1.102837
6421.000000;1.102005
6420.000000;1.101203
6419.000000;1.100478
6418.000000;1.099787
6417.000000;1.099056
6416.000000;1.098300
6415.000000;1.097609
6414.000000;1.097018
6413.000000;1.096452
6412.000000;1.095823
6411.000000;1.095109
6410.000000;1.094339
6409.000000;1.093539
6408.000000;1.092743
6407.000000;1.092022
6406.000000;1.091437
6405.000000;1.090964
6404.000000;1.090495
6403.000000;1.089920
6402.000000;1.089206
6401.000000;1.088407
6400.000000;1.087616
6399.000000;1.086921
6398.000000;1.086366
6397.000000;1.085918
6396.000000;1.085462
6395.000000;1.084860
6394.000000;1.084066
6393.000000;1.083183
6392.000000;1.082370
6391.000000;1.081693
6390.000000;1.081084
6389.000000;1.080447
6388.000000;1.079774
6387.000000;1.079133
6386.000000;1.078564
6385.000000;1.078044
6384.000000;1.077529
6383.000000;1.077001
6382.000000;1.076474
6381.000000;1.075966
6380.000000;1.075479
6379.000000;1.074963
6378.000000;1.074324
6377.000000;1.073508
6376.000000;1.072591
6375.000000;1.071738
6374.000000;1.071048
6373.000000;1.070452
6372.000000;1.069813
6371.000000;1.069088
6370.000000;1.068369
6369.000000;1.067757
6368.000000;1.067255
6367.000000;1.066774
6366.000000;1.066209
6365.000000;1.065512
6364.000000;1.064725
6363.000000;1.063960
6362.000000;1.063328
6361.000000;1.062856
6360.000000;1.062476
6359.000000;1.062102
6358.000000;1.061708
6357.000000;1.061298
6356.000000;1.060854
6355.000000;1.060330
6354.000000;1.059721
6353.000000;1.059088
6352.000000;1.058508
6351.000000;1.058011
6350.000000;1.057570
6349.000000;1.057125
6348.000000;1.056617
6347.000000;1.056014
6346.000000;1.055339
6345.000000;1.054665
6344.000000;1.054073
6343.000000;1.053603
6342.000000;1.053226
6341.000000;1.052864
6340.000000;1.052432
6339.000000;1.051881
6338.000000;1.051214
6337.000000;1.050478
6336.000000;1.049731
6335.000000;1.049032
6334.000000;1.048430
6333.000000;1.047951
6332.000000;1.047558
6331.000000;1.047171
6330.000000;1.046717
6329.000000;1.046176
6328.000000;1.045577
6327.000000;1.044979
6326.000000;1.044452
6325.000000;1.044058
6324.000000;1.043795
6323.000000;1.043561
6322.000000;1.043207
6321.000000;1.042634
6320.000000;1.041858
6319.000000;1.040988
6318.000000;1.040162
6317.000000;1.039478
6316.000000;1.038959
6315.000000;1.038560
6314.000000;1.038220
6313.000000;1.037907
6312.000000;1.037614
6311.000000;1.037310
6310.000000;1.036941
6309.000000;1.036481
6308.000000;1.035978
6307.000000;1.035501
6306.000000;1.035065
6305.000000;1.034616
6304.000000;1.034099
6303.000000;1.033530
6302.000000;1.032986
6301.000000;1.032543
6300.000000;1.032230
6299.000000;1.032022
6298.000000;1.031848
6297.000000;1.031608
6296.000000;1.031210
6295.000000;1.030635
6294.000000;1.029974
6293.000000;1.029366
6292.000000;1.028885
6291.000000;1.028501
6290.000000;1.028148
6289.000000;1.027822
6288.000000;1.027554
6287.000000;1.027318
6286.000000;1.027011
6285.000000;1.026553
6284.000000;1.025970
6283.000000;1.025353
6282.000000;1.024740
6281.000000;1.024113
6280.000000;1.023485
6279.000000;1.022959
6278.000000;1.022640
6277.000000;1.022512
6276.000000;1.022426
6275.000000;1.022225
6274.000000;1.021855
6273.000000;1.021388
6272.000000;1.020936
6271.000000;1.020558
6270.000000;1.020225
6269.000000;1.019860
6268.000000;1.019427
6267.000000;1.018971
6266.000000;1.018571
6265.000000;1.018256
6264.000000;1.017976
6263.000000;1.017660
6262.000000;1.017284
6261.000000;1.016881
6260.000000;1.016491
6259.000000;1.016122
6258.000000;1.015764
6257.000000;1.015416
6256.000000;1.015093
6255.000000;1.014801
6254.000000;1.014498
6253.000000;1.014123
6252.000000;1.013654
6251.000000;1.013149
6250.000000;1.012699
6249.000000;1.012344
6248.000000;1.012041
6247.000000;1.011721
6246.000000;1.011368
6245.000000;1.011021
6244.000000;1.010724
6243.000000;1.010486
6242.000000;1.010285
6241.000000;1.010102
6240.000000;1.009914
6239.000000;1.009672
6238.000000;1.009313
6237.000000;1.008812
6236.000000;1.008235
6235.000000;1.007710
6234.000000;1.007323
6233.000000;1.007065
6232.000000;1.006857
6231.000000;1.006630
6230.000000;1.006351
6229.000000;1.006020
6228.000000;1.005668
6227.000000;1.005345
6226.000000;1.005080
6225.000000;1.004848
6224.000000;1.004597
6223.000000;1.004321
6222.000000;1.004051
6221.000000;1.003783
6220.000000;1.003451
6219.000000;1.003009
6218.000000;1.002523
6217.000000;1.002125
6216.000000;1.001883
6215.000000;1.001737
6214.000000;1.001562
6213.000000;1.001296
6212.000000;1.000980
6211.000000;1.000691
6210.000000;1.000459
6209.000000;1.000249
6208.000000;1.000026
6207.000000;0.999799
6206.000000;0.999588
6205.000000;0.999361
6204.000000;0.999057
6203.000000;0.998673
6202.000000;0.998292
6201.000000;0.998006
6200.000000;0.997823
6199.000000;0.997669
6198.000000;0.997451
6197.000000;0.997118
6196.000000;0.996691
6195.000000;0.996249
6194.000000;0.995881
6193.000000;0.995623
6192.000000;0.995437
6191.000000;0.995259
6190.000000;0.995049
6189.000000;0.994797
6188.000000;0.994510
6187.000000;0.994213
6186.000000;0.993927
6185.000000;0.993642
6184.000000;0.993324
6183.000000;0.992981
6182.000000;0.992677
6181.000000;0.992460
6180.000000;0.992304
6179.000000;0.992144
6178.000000;0.991948
6177.000000;0.991719
6176.000000;0.991460
6175.000000;0.991186
6174.000000;0.990947
6173.000000;0.990785
6172.000000;0.990650
6171.000000;0.990437
6170.000000;0.990102
6169.000000;0.989722
6168.000000;0.989417
6167.000000;0.989230
6166.000000;0.989096
6165.000000;0.988914
6164.000000;0.988651
6163.000000;0.988383
6162.000000;0.988220
6161.000000;0.988176
6160.000000;0.988125
6159.000000;0.987917
6158.000000;0.987539
6157.000000;0.987121
6156.000000;0.986785
6155.000000;0.986538
6154.000000;0.986305
6153.000000;0.986032
6152.000000;0.985731
6151.000000;0.985454
6150.000000;0.985255
6149.000000;0.985157
6148.000000;0.985125
6147.000000;0.985081
6146.000000;0.984959
6145.000000;0.984752
6144.000000;0.984502
6143.000000;0.984254
6142.000000;0.984017
6141.000000;0.983773
6140.000000;0.983510
6139.000000;0.983260
6138.000000;0.983075
6137.000000;0.982971
6136.000000;0.982904
6135.000000;0.982814
6134.000000;0.982685
6133.000000;0.982539
6132.000000;0.982383
6131.000000;0.982199
6130.000000;0.981980
6129.000000;0.981743
6128.000000;0.981510
6127.000000;0.981290
6126.000000;0.981081
6125.000000;0.980859
6124.000000;0.980590
6123.000000;0.980272
6122.000000;0.979967
6121.000000;0.979750
6120.000000;0.979621
6119.000000;0.979505
6118.000000;0.979354
6117.000000;0.979196
6116.000000;0.979075
6115.000000;0.978971
6114.000000;0.978824
6113.000000;0.978610
6112.000000;0.978361
6111.000000;0.978129
6110.000000;0.977944
6109.000000;0.977815
6108.000000;0.977722
6107.000000;0.977633
6106.000000;0.977531
6105.000000;0.977425
6104.000000;0.977332
6103.000000;0.977233
6102.000000;0.977082
6101.000000;0.976852
6100.000000;0.976571
6099.000000;0.976312
6098.000000;0.976149
6097.000000;0.976099
6096.000000;0.976105
6095.000000;0.976072
6094.000000;0.975938
6093.000000;0.975707
6092.000000;0.975441
6091.000000;0.975195
6090.000000;0.974986
6089.000000;0.974793
6088.000000;0.974604
6087.000000;0.974436
6086.000000;0.974313
6085.000000;0.974235
6084.000000;0.974186
6083.000000;0.974168
6082.000000;0.974194
6081.000000;0.974220
6080.000000;0.974148
6079.000000;0.973924
6078.000000;0.973634
6077.000000;0.973435
6076.000000;0.973403
6075.000000;0.973467
6074.000000;0.973502
6073.000000;0.973425
6072.000000;0.973227
6071.000000;0.972953
6070.000000;0.972694
6069.000000;0.972537
6068.000000;0.972483
6067.000000;0.972436
6066.000000;0.972300
6065.000000;0.972083
6064.000000;0.971876
6063.000000;0.971767
6062.000000;0.971779
6061.000000;0.971877
6060.000000;0.971983
6059.000000;0.971996
6058.000000;0.971850
6057.000000;0.971563
6056.000000;0.971229
6055.000000;0.970955
6054.000000;0.970806
6053.000000;0.970787
6052.000000;0.970855
6051.000000;0.970952
6050.000000;0.971042
6049.000000;0.971118
6048.000000;0.971173
6047.000000;0.971184
6046.000000;0.971129
6045.000000;0.971014
6044.000000;0.970850
6043.000000;0.970636
6042.000000;0.970376
6041.000000;0.970129
6040.000000;0.969978
6039.000000;0.969960
6038.000000;0.970028
6037.000000;0.970113
6036.000000;0.970192
6035.000000;0.970271
6034.000000;0.970320
6033.000000;0.970265
6032.000000;0.970065
6031.000000;0.969773
6030.000000;0.969507
6029.000000;0.969358
6028.000000;0.969331
6027.000000;0.969375
6026.000000;0.969436
6025.000000;0.969491
6024.000000;0.969537
6023.000000;0.969570
6022.000000;0.969568
6021.000000;0.969499
6020.000000;0.969357
6019.000000;0.969199
6018.000000;0.969111
6017.000000;0.969137
6016.000000;0.969236
6015.000000;0.969330
6014.000000;0.969377
6013.000000;0.969375
6012.000000;0.969339
6011.000000;0.969290
6010.000000;0.969260
6009.000000;0.969267
6008.000000;0.969293
6007.000000;0.969308
6006.000000;0.969339
6005.000000;0.969457
6004.000000;0.969679
6003.000000;0.969921
6002.000000;0.970062
6001.000000;0.970064
6000.000000;0.969990
5999.000000;0.969931
5998.000000;0.969935
5997.000000;0.970000
5996.000000;0.970095
5995.000000;0.970178
5994.000000;0.970231
5993.000000;0.970281
5992.000000;0.970374
5991.000000;0.970512
5990.000000;0.970642
5989.000000;0.970711
5988.000000;0.970751
5987.000000;0.970849
5986.000000;0.971036
5985.000000;0.971237
5984.000000;0.971348
5983.000000;0.971367
5982.000000;0.971389
5981.000000;0.971502
5980.000000;0.971698
5979.000000;0.971919
5978.000000;0.972131
5977.000000;0.972338
5976.000000;0.972545
5975.000000;0.972744
5974.000000;0.972914
5973.000000;0.973041
5972.000000;0.973132
5971.000000;0.973230
5970.000000;0.973392
5969.000000;0.973623
5968.000000;0.973861
5967.000000;0.974055
5966.000000;0.974232
5965.000000;0.974446
5964.000000;0.974692
5963.000000;0.974919
5962.000000;0.975114
5961.000000;0.975325
5960.000000;0.975587
5959.000000;0.975865
5958.000000;0.976109
5957.000000;0.976311
5956.000000;0.976503
5955.000000;0.976703
5954.000000;0.976920
5953.000000;0.977164
5952.000000;0.977445
5951.000000;0.977744
5950.000000;0.978024
5949.000000;0.978265
5948.000000;0.978474
5947.000000;0.978675
5946.000000;0.978895
5945.000000;0.979161
5944.000000;0.979488
5943.000000;0.979873
5942.000000;0.980288
5941.000000;0.980674
5940.000000;0.980954
5939.000000;0.981102
5938.000000;0.981198
5937.000000;0.981383
5936.000000;0.981729
5935.000000;0.982144
5934.000000;0.982459
5933.000000;0.982601
5932.000000;0.982659
5931.000000;0.982772
5930.000000;0.982978
5929.000000;0.983189
5928.000000;0.983308
5927.000000;0.983341
5926.000000;0.983391
5925.000000;0.983558
5924.000000;0.983852
5923.000000;0.984180
5922.000000;0.984417
5921.000000;0.984512
5920.000000;0.984537
5919.000000;0.984623
5918.000000;0.984827
5917.000000;0.985072
5916.000000;0.985247
5915.000000;0.985336
5914.000000;0.985423
5913.000000;0.985559
5912.000000;0.985696
5911.000000;0.985774
5910.000000;0.985815
5909.000000;0.985880
5908.000000;0.985969
5907.000000;0.986026
5906.000000;0.986020
5905.000000;0.985991
5904.000000;0.985983
5903.000000;0.985977
5902.000000;0.985913
5901.000000;0.985749
5900.000000;0.985512
5899.000000;0.985292
5898.000000;0.985202
5897.000000;0.985300
5896.000000;0.985537
5895.000000;0.985780
5894.000000;0.985906
5893.000000;0.985894
5892.000000;0.985834
5891.000000;0.985839
5890.000000;0.985935
5889.000000;0.986046
5888.000000;0.986086
5887.000000;0.986061
5886.000000;0.986043
5885.000000;0.986065
5884.000000;0.986084
5883.000000;0.986070
5882.000000;0.986066
5881.000000;0.986115
5880.000000;0.986173
5879.000000;0.986161
5878.000000;0.986098
5877.000000;0.986099
5876.000000;0.986260
5875.000000;0.986557
5874.000000;0.986886
5873.000000;0.987145
5872.000000;0.987288
5871.000000;0.987351
5870.000000;0.987439
5869.000000;0.987655
5868.000000;0.988003
5867.000000;0.988393
5866.000000;0.988724
5865.000000;0.988956
5864.000000;0.989112
5863.000000;0.989257
5862.000000;0.989464
5861.000000;0.989763
5860.000000;0.990094
5859.000000;0.990372
5858.000000;0.990595
5857.000000;0.990864
5856.000000;0.991256
5855.000000;0.991733
5854.000000;0.992198
5853.000000;0.992596
5852.000000;0.992942
5851.000000;0.993271
5850.000000;0.993608
5849.000000;0.993966
5848.000000;0.994332
5847.000000;0.994676
5846.000000;0.995000
5845.000000;0.995366
5844.000000;0.995819
5843.000000;0.996316
5842.000000;0.996769
5841.000000;0.997142
5840.000000;0.997492
5839.000000;0.997888
5838.000000;0.998335
5837.000000;0.998786
5836.000000;0.999211
5835.000000;0.999627
5834.000000;1.000074
5833.000000;1.000566
5832.000000;1.001075
5831.000000;1.001551
5830.000000;1.001953
5829.000000;1.002282
5828.000000;1.002587
5827.000000;1.002942
5826.000000;1.003398
5825.000000;1.003935
5824.000000;1.004466
5823.000000;1.004908
5822.000000;1.005266
5821.000000;1.005629
5820.000000;1.006085
5819.000000;1.006633
5818.000000;1.007189
5817.000000;1.007679
5816.000000;1.008111
5815.000000;1.008574
5814.000000;1.009131
5813.000000;1.009739
5812.000000;1.010279
5811.000000;1.010681
5810.000000;1.010989
5809.000000;1.011305
5808.000000;1.011696
5807.000000;1.012186
5806.000000;1.012779
5805.000000;1.013446
5804.000000;1.014098
5803.000000;1.014641
5802.000000;1.015070
5801.000000;1.015470
5800.000000;1.015931
5799.000000;1.016488
5798.000000;1.017143
5797.000000;1.017860
5796.000000;1.018546
5795.000000;1.019080
5794.000000;1.019425
5793.000000;1.019687
5792.000000;1.020019
5791.000000;1.020501
5790.000000;1.021115
5789.000000;1.021805
5788.000000;1.022504
5787.000000;1.023135
5786.000000;1.023653
5785.000000;1.024104
5784.000000;1.024595
5783.000000;1.025195
5782.000000;1.025866
5781.000000;1.026504
5780.000000;1.027039
5779.000000;1.027502
5778.000000;1.027978
5777.000000;1.028506
5776.000000;1.029055
5775.000000;1.029583
5774.000000;1.030116
5773.000000;1.030709
5772.000000;1.031348
5771.000000;1.031957
5770.000000;1.032491
5769.000000;1.032998
5768.000000;1.033538
5767.000000;1.034088
5766.000000;1.034575
5765.000000;1.034974
5764.000000;1.035333
5763.000000;1.035713
5762.000000;1.036133
5761.000000;1.036590
5760.000000;1.037091
5759.000000;1.037647
5758.000000;1.038245
5757.000000;1.038849
5756.000000;1.039425
5755.000000;1.039971
5754.000000;1.040499
5753.000000;1.040989
5752.000000;1.041380
5751.000000;1.041644
5750.000000;1.041860
5749.000000;1.042165
5748.000000;1.042616
5747.000000;1.043143
5746.000000;1.043663
5745.000000;1.044178
5744.000000;1.044733
5743.000000;1.045312
5742.000000;1.045836
5741.000000;1.046273
5740.000000;1.046678
5739.000000;1.047122
5738.000000;1.047617
5737.000000;1.048139
5736.000000;1.048677
5735.000000;1.049241
5734.000000;1.049823
5733.000000;1.050402
5732.000000;1.050954
5731.000000;1.051465
5730.000000;1.051927
5729.000000;1.052347
5728.000000;1.052762
5727.000000;1.053224
5726.000000;1.053763
5725.000000;1.054367
5724.000000;1.054992
5723.000000;1.055590
5722.000000;1.056134
5721.000000;1.056617
5720.000000;1.057064
5719.000000;1.057519
5718.000000;1.058032
5717.000000;1.058623
5716.000000;1.059271
5715.000000;1.059925
5714.000000;1.060542
5713.000000;1.061107
5712.000000;1.061631
5711.000000;1.062135
5710.000000;1.062627
5709.000000;1.063107
5708.000000;1.063572
5707.000000;1.064042
5706.000000;1.064560
5705.000000;1.065153
5704.000000;1.065803
5703.000000;1.066460
5702.000000;1.067087
5701.000000;1.067673
5700.000000;1.068219
5699.000000;1.068717
5698.000000;1.069167
5697.000000;1.069602
5696.000000;1.070070
5695.000000;1.070596
5694.000000;1.071165
5693.000000;1.071731
5692.000000;1.072251
5691.000000;1.072712
5690.000000;1.073133
5689.000000;1.073556
5688.000000;1.074041
5687.000000;1.074633
5686.000000;1.075319
5685.000000;1.076002
5684.000000;1.076560
5683.000000;1.076966
5682.000000;1.077316
5681.000000;1.077731
5680.000000;1.078243
5679.000000;1.078806
5678.000000;1.079385
5677.000000;1.079994
5676.000000;1.080633
5675.000000;1.081249
5674.000000;1.081774
5673.000000;1.082201
5672.000000;1.082593
5671.000000;1.083037
5670.000000;1.083573
5669.000000;1.084160
5668.000000;1.084711
5667.000000;1.085180
5666.000000;1.085620
5665.000000;1.086111
5664.000000;1.086648
5663.000000;1.087142
5662.000000;1.087530
5661.000000;1.087853
5660.000000;1.088202
5659.000000;1.088624
5658.000000;1.089095
5657.000000;1.089567
5656.000000;1.090011
5655.000000;1.090441
5654.000000;1.090901
5653.000000;1.091412
5652.000000;1.091926
5651.000000;1.092378
5650.000000;1.092775
5649.000000;1.093202
5648.000000;1.093705
5647.000000;1.094211
5646.000000;1.094613
5645.000000;1.094901
5644.000000;1.095175
5643.000000;1.095531
5642.000000;1.095973
5641.000000;1.096425
5640.000000;1.096814
5639.000000;1.097137
5638.000000;1.097465
5637.000000;1.097879
5636.000000;1.098372
5635.000000;1.098838
5634.000000;1.099183
5633.000000;1.099436
5632.000000;1.099719
5631.000000;1.100118
5630.000000;1.100611
5629.000000;1.101109
5628.000000;1.101537
5627.000000;1.101868
5626.000000;1.102115
5625.000000;1.102327
5624.000000;1.102565
5623.000000;1.102869
5622.000000;1.103221
5621.000000;1.103561
5620.000000;1.103845
5619.000000;1.104083
5618.000000;1.104339
5617.000000;1.104676
5616.000000;1.105110
5615.000000;1.105599
5614.000000;1.106077
5613.000000;1.106479
5612.000000;1.106757
5611.000000;1.106910
5610.000000;1.107004
5609.000000;1.107130
5608.000000;1.107331
5607.000000;1.107586
5606.000000;1.107876
5605.000000;1.108202
5604.000000;1.108551
5603.000000;1.108857
5602.000000;1.109072
5601.000000;1.109230
5600.000000;1.109405
5599.000000;1.109600
5598.000000;1.109753
5597.000000;1.109829
5596.000000;1.109857
5595.000000;1.109880
5594.000000;1.109922
5593.000000;1.110021
5592.000000;1.110231
5591.000000;1.110543
5590.000000;1.110850
5589.000000;1.111037
5588.000000;1.111087
5587.000000;1.111073
5586.000000;1.111052
5585.000000;1.111029
5584.000000;1.111017
5583.000000;1.111072
5582.000000;1.111224
5581.000000;1.111428
5580.000000;1.111605
5579.000000;1.111728
5578.000000;1.111828
5577.000000;1.111929
5576.000000;1.112022
5575.000000;1.112105
5574.000000;1.112206
5573.000000;1.112336
5572.000000;1.112448
5571.000000;1.112485
5570.000000;1.112449
5569.000000;1.112403
5568.000000;1.112390
5567.000000;1.112406
5566.000000;1.112439
5565.000000;1.112506
5564.000000;1.112613
5563.000000;1.112716
5562.000000;1.112756
5561.000000;1.112723
5560.000000;1.112657
5559.000000;1.112598
5558.000000;1.112556
5557.000000;1.112523
5556.000000;1.112497
5555.000000;1.112476
5554.000000;1.112473
5553.000000;1.112504
5552.000000;1.112572
5551.000000;1.112651
5550.000000;1.112704
5549.000000;1.112719
5548.000000;1.112710
5547.000000;1.112676
5546.000000;1.112581
5545.000000;1.112403
5544.000000;1.112180
5543.000000;1.111998
5542.000000;1.111917
5541.000000;1.111920
5540.000000;1.111948
5539.000000;1.111968
5538.000000;1.112001
5537.000000;1.112080
5536.000000;1.112198
5535.000000;1.112311
5534.000000;1.112376
5533.000000;1.112389
5532.000000;1.112393
5531.000000;1.112436
5530.000000;1.112514
5529.000000;1.112552
5528.000000;1.112469
5527.000000;1.112273
5526.000000;1.112071
5525.000000;1.111970
5524.000000;1.111979
5523.000000;1.112032
5522.000000;1.112066
5521.000000;1.112086
5520.000000;1.112144
5519.000000;1.112285
5518.000000;1.112489
5517.000000;1.112665
5516.000000;1.112696
5515.000000;1.112540
5514.000000;1.112271
5513.000000;1.112012
5512.000000;1.111830
5511.000000;1.111716
5510.000000;1.111641
5509.000000;1.111606
5508.000000;1.111610
5507.000000;1.111622
5506.000000;1.111594
5505.000000;1.111519
5504.000000;1.111460
5503.000000;1.111511
5502.000000;1.111707
5501.000000;1.111975
5500.000000;1.112202
5499.000000;1.112344
5498.000000;1.112421
5497.000000;1.112437
5496.000000;1.112374
5495.000000;1.112289
5494.000000;1.112323
5493.000000;1.112550
5492.000000;1.112863
5491.000000;1.113092
5490.000000;1.113210
5489.000000;1.113345
5488.000000;1.113591
5487.000000;1.113916
5486.000000;1.114249
5485.000000;1.114571
5484.000000;1.114849
5483.000000;1.114990
5482.000000;1.114948
5481.000000;1.114823
5480.000000;1.114773
5479.000000;1.114863
5478.000000;1.115033
5477.000000;1.115222
5476.000000;1.115440
5475.000000;1.115724
5474.000000;1.116071
5473.000000;1.116433
5472.000000;1.116791
5471.000000;1.117174
5470.000000;1.117593
5469.000000;1.117971
5468.000000;1.118224
5467.000000;1.118387
5466.000000;1.118616
5465.000000;1.119010
5464.000000;1.119487
5463.000000;1.119894
5462.000000;1.120191
5461.000000;1.120475
5460.000000;1.120839
5459.000000;1.121293
5458.000000;1.121775
5457.000000;1.122233
5456.000000;1.122683
5455.000000;1.123194
5454.000000;1.123766
5453.000000;1.124273
5452.000000;1.124627
5451.000000;1.124950
5450.000000;1.125449
5449.000000;1.126142
5448.000000;1.126864
5447.000000;1.127533
5446.000000;1.128253
5445.000000;1.129105
5444.000000;1.129974
5443.000000;1.130683
5442.000000;1.131233
5441.000000;1.131801
5440.000000;1.132526
5439.000000;1.133375
5438.000000;1.134200
5437.000000;1.134902
5436.000000;1.135554
5435.000000;1.136366
5434.000000;1.137458
5433.000000;1.138671
5432.000000;1.139733
5431.000000;1.140586
5430.000000;1.141436
5429.000000;1.142513
5428.000000;1.143819
5427.000000;1.145138
5426.000000;1.146302
5425.000000;1.147378
5424.000000;1.148547
5423.000000;1.149861
5422.000000;1.151188
5421.000000;1.152398
5420.000000;1.153540
5419.000000;1.154750
5418.000000;1.156064
5417.000000;1.157387
5416.000000;1.158691
5415.000000;1.160137
5414.000000;1.161907
5413.000000;1.163943
5412.000000;1.165961
5411.000000;1.167758
5410.000000;1.169399
5409.000000;1.171060
5408.000000;1.172820
5407.000000;1.174687
5406.000000;1.176690
5405.000000;1.178834
5404.000000;1.181052
5403.000000;1.183266
5402.000000;1.185434
5401.000000;1.187551
5400.000000;1.189649
5399.000000;1.191814
5398.000000;1.194154
5397.000000;1.196687
5396.000000;1.199312
5395.000000;1.201944
5394.000000;1.204626
5393.000000;1.207448
5392.000000;1.210420
5391.000000;1.213503
5390.000000;1.216718
5389.000000;1.220081
5388.000000;1.223503
5387.000000;1.226891
5386.000000;1.230254
5385.000000;1.233638
5384.000000;1.237049
5383.000000;1.240550
5382.000000;1.244303
5381.000000;1.248399
5380.000000;1.252703
5379.000000;1.257006
5378.000000;1.261304
5377.000000;1.265782
5376.000000;1.270528
5375.000000;1.275418
5374.000000;1.280325
5373.000000;1.285270
5372.000000;1.290291
5371.000000;1.295373
5370.000000;1.300584
5369.000000;1.306085
5368.000000;1.311902
5367.000000;1.317843
5366.000000;1.323744
5365.000000;1.329688
5364.000000;1.335894
5363.000000;1.342448
5362.000000;1.349234
5361.000000;1.356131
5360.000000;1.363168
5359.000000;1.370478
5358.000000;1.378132
5357.000000;1.386016
5356.000000;1.393948
5355.000000;1.401942
5354.000000;1.410256
5353.000000;1.419041
5352.000000;1.428108
5351.000000;1.437216
5350.000000;1.446467
5349.000000;1.456134
5348.000000;1.466188
5347.000000;1.476317
5346.000000;1.486465
5345.000000;1.497001
5344.000000;1.508187
5343.000000;1.519777
5342.000000;1.531391
5341.000000;1.543052
5340.000000;1.555082
5339.000000;1.567741
5338.000000;1.581123
5337.000000;1.595124
5336.000000;1.609391
5335.000000;1.623541
5334.000000;1.637572
5333.000000;1.651907
5332.000000;1.666944
5331.000000;1.682675
5330.000000;1.698844
5329.000000;1.715349
5328.000000;1.732298
5327.000000;1.749754
5326.000000;1.767632
5325.000000;1.785791
5324.000000;1.804152
5323.000000;1.822768
5322.000000;1.841836
5321.000000;1.861522
5320.000000;1.881778
5319.000000;1.902458
5318.000000;1.923587
5317.000000;1.945315
5316.000000;1.967663
5315.000000;1.990571
5314.000000;2.014155
5313.000000;2.038526
5312.000000;2.063396
5311.000000;2.088275
5310.000000;2.113110
5309.000000;2.138365
5308.000000;2.164413
5307.000000;2.191172
5306.000000;2.218232
5305.000000;2.245012
5304.000000;2.271029
5303.000000;2.296535
5302.000000;2.322691
5301.000000;2.350451
5300.000000;2.379336
5299.000000;2.407867
5298.000000;2.435095
5297.000000;2.461085
5296.000000;2.486182
5295.000000;2.510713
5294.000000;2.535158
5293.000000;2.559729
5292.000000;2.584157
5291.000000;2.608651
5290.000000;2.634249
5289.000000;2.660805
5288.000000;2.685533
5287.000000;2.705535
5286.000000;2.721225
5285.000000;2.735405
5284.000000;2.749910
5283.000000;2.765096
5282.000000;2.781203
5281.000000;2.798127
5280.000000;2.814822
5279.000000;2.830630
5278.000000;2.846421
5277.000000;2.862725
5276.000000;2.877638
5275.000000;2.888427
5274.000000;2.894566
5273.000000;2.898110
5272.000000;2.901652
5271.000000;2.907065
5270.000000;2.915173
5269.000000;2.924196
5268.000000;2.930374
5267.000000;2.932625
5266.000000;2.933491
5265.000000;2.933739
5264.000000;2.930622
5263.000000;2.923581
5262.000000;2.917396
5261.000000;2.916951
5260.000000;2.921609
5259.000000;2.927192
5258.000000;2.931191
5257.000000;2.932937
5256.000000;2.931882
5255.000000;2.929854
5254.000000;2.932051
5253.000000;2.941573
5252.000000;2.954590
5251.000000;2.963906
5250.000000;2.965940
5249.000000;2.961609
5248.000000;2.953566
5247.000000;2.946561
5246.000000;2.946524
5245.000000;2.954190
5244.000000;2.961586
5243.000000;2.960498
5242.000000;2.954296
5241.000000;2.953625
5240.000000;2.961952
5239.000000;2.971708
5238.000000;2.974385
5237.000000;2.970856
5236.000000;2.968279
5235.000000;2.970693
5234.000000;2.975912
5233.000000;2.978412
5232.000000;2.974560
5231.000000;2.966390
5230.000000;2.959287
5229.000000;2.956117
5228.000000;2.954992
5227.000000;2.952625
5226.000000;2.948845
5225.000000;2.946384
5224.000000;2.946879
5223.000000;2.949198
5222.000000;2.951485
5221.000000;2.953073
5220.000000;2.954223
5219.000000;2.955709
5218.000000;2.958174
5217.000000;2.960953
5216.000000;2.962860
5215.000000;2.964138
5214.000000;2.966545
5213.000000;2.970938
5212.000000;2.975470
5211.000000;2.977404
5210.000000;2.975404
5209.000000;2.969358
5208.000000;2.960267
5207.000000;2.950893
5206.000000;2.944449
5205.000000;2.941949
5204.000000;2.942329
5203.000000;2.945562
5202.000000;2.952808
5201.000000;2.961993
5200.000000;2.967047
5199.000000;2.964777
5198.000000;2.959214
5197.000000;2.956333
5196.000000;2.958143
5195.000000;2.963561
5194.000000;2.971219
5193.000000;2.978389
5192.000000;2.980144
5191.000000;2.973806
5190.000000;2.962745
5189.000000;2.953086
5188.000000;2.947784
5187.000000;2.946262
5186.000000;2.947987
5185.000000;2.952241
5184.000000;2.956298
5183.000000;2.958131
5182.000000;2.959551
5181.000000;2.963263
5180.000000;2.967997
5179.000000;2.969660
5178.000000;2.966758
5177.000000;2.961554
5176.000000;2.956143
5175.000000;2.950889
5174.000000;2.946697
5173.000000;2.945602
5172.000000;2.948286
5171.000000;2.952906
5170.000000;2.957221
5169.000000;2.960575
5168.000000;2.962975
5167.000000;2.963802
5166.000000;2.962454
5165.000000;2.959315
5164.000000;2.955753
5163.000000;2.953575
5162.000000;2.953866
5161.000000;2.955768
5160.000000;2.957420
5159.000000;2.958546
5158.000000;2.960669
5157.000000;2.964397
5156.000000;2.968199
5155.000000;2.970657
5154.000000;2.971974
5153.000000;2.971993
5152.000000;2.969204
5151.000000;2.963524
5150.000000;2.958106
5149.000000;2.956551
5148.000000;2.959534
5147.000000;2.965372
5146.000000;2.972134
5145.000000;2.977288
5144.000000;2.977402
5143.000000;2.970996
5142.000000;2.961108
5141.000000;2.953160
5140.000000;2.950280
5139.000000;2.951725
5138.000000;2.954757
5137.000000;2.956395
5136.000000;2.954831
5135.000000;2.951145
5134.000000;2.948853
5133.000000;2.950320
5132.000000;2.954264
5131.000000;2.957476
5130.000000;2.958092
5129.000000;2.956761
5128.000000;2.955619
5127.000000;2.956813
5126.000000;2.960900
5125.000000;2.965142
5124.000000;2.964785
5123.000000;2.958494
5122.000000;2.950851
5121.000000;2.947174
5120.000000;2.948099
5119.000000;2.950593
5118.000000;2.952041
5117.000000;2.951788
5116.000000;2.950027
5115.000000;2.947371
5114.000000;2.945536
5113.000000;2.945935
5112.000000;2.947475
5111.000000;2.948025
5110.000000;2.947641
5109.000000;2.947965
5108.000000;2.948603
5107.000000;2.947097
5106.000000;2.943458
5105.000000;2.941389
5104.000000;2.943287
5103.000000;2.946696
5102.000000;2.947530
5101.000000;2.945257
5100.000000;2.942463
5099.000000;2.940356
5098.000000;2.937650
5097.000000;2.933953
5096.000000;2.931807
5095.000000;2.934030
5094.000000;2.939914
5093.000000;2.945141
5092.000000;2.946115
5091.000000;2.944033
5090.000000;2.943057
5089.000000;2.944799
5088.000000;2.946538
5087.000000;2.945035
5086.000000;2.941098
5085.000000;2.939739
5084.000000;2.945406
5083.000000;2.956725
5082.000000;2.966366
5081.000000;2.967690
5080.000000;2.961539
5079.000000;2.954668
5078.000000;2.952323
5077.000000;2.954115
5076.000000;2.956270
5075.000000;2.955843
5074.000000;2.951911
5073.000000;2.945270
5072.000000;2.939485
5071.000000;2.939610
5070.000000;2.946754
5069.000000;2.955134
5068.000000;2.957140
5067.000000;2.951420
5066.000000;2.942909
5065.000000;2.935738
5064.000000;2.930374
5063.000000;2.926861
5062.000000;2.926456
5061.000000;2.929179
5060.000000;2.932948
5059.000000;2.936665
5058.000000;2.941550
5057.000000;2.946900
5056.000000;2.947460
5055.000000;2.939027
5054.000000;2.924545
5053.000000;2.911070
5052.000000;2.903201
5051.000000;2.901730
5050.000000;2.905776
5049.000000;2.913756
5048.000000;2.923118
5047.000000;2.931171
5046.000000;2.936713
5045.000000;2.939357
5044.000000;2.938037
5043.000000;2.932464
5042.000000;2.924876
5041.000000;2.918121
5040.000000;2.913097
5039.000000;2.909609
5038.000000;2.908134
5037.000000;2.908379
5036.000000;2.906918
5035.000000;2.899275
5034.000000;2.885699
5033.000000;2.872111
5032.000000;2.864436
5031.000000;2.864457
5030.000000;2.869664
5029.000000;2.874826
5028.000000;2.875416
5027.000000;2.871210
5026.000000;2.866010
5025.000000;2.863199
5024.000000;2.862196
5023.000000;2.860036
5022.000000;2.855743
5021.000000;2.851693
5020.000000;2.850689
5019.000000;2.852909
5018.000000;2.855691
5017.000000;2.855568
5016.000000;2.850758
5015.000000;2.842199
5014.000000;2.832563
5013.000000;2.824460
5012.000000;2.819314
5011.000000;2.817183
5010.000000;2.817042
5009.000000;2.817338
5008.000000;2.816868
5007.000000;2.815989
5006.000000;2.817256
5005.000000;2.823738
5004.000000;2.835600
5003.000000;2.847574
5002.000000;2.850459
5001.000000;2.838285
5000.000000;2.815029
4999.000000;2.792108
4998.000000;2.779187
4997.000000;2.777614
4996.000000;2.781394
4995.000000;2.784034
4994.000000;2.784223
4993.000000;2.784677
4992.000000;2.786753
4991.000000;2.787524
4990.000000;2.782603
4989.000000;2.771375
4988.000000;2.758205
4987.000000;2.748205
4986.000000;2.742656
4985.000000;2.739054
4984.000000;2.735202
4983.000000;2.731776
4982.000000;2.729830
4981.000000;2.727760
4980.000000;2.723352
4979.000000;2.717909
4978.000000;2.715119
4977.000000;2.715745
4976.000000;2.716186
4975.000000;2.713001
4974.000000;2.706680
4973.000000;2.699488
4972.000000;2.692014
4971.000000;2.683900
4970.000000;2.675881
4969.000000;2.669244
4968.000000;2.664462
4967.000000;2.661293
4966.000000;2.659216
4965.000000;2.657179
4964.000000;2.653993
4963.000000;2.649827
4962.000000;2.646372
4961.000000;2.644813
4960.000000;2.644606
4959.000000;2.644635
4958.000000;2.644310
4957.000000;2.642885
4956.000000;2.639343
4955.000000;2.634015
4954.000000;2.628822
4953.000000;2.624605
4952.000000;2.619613
4951.000000;2.612107
4950.000000;2.603249
4949.000000;2.595788
4948.000000;2.590819
4947.000000;2.587271
4946.000000;2.584037
4945.000000;2.581167
4944.000000;2.578797
4943.000000;2.576111
4942.000000;2.571867
4941.000000;2.565756
4940.000000;2.559317
4939.000000;2.555164
4938.000000;2.554501
4937.000000;2.555191
4936.000000;2.553244
4935.000000;2.546969
4934.000000;2.538629
4933.000000;2.531405
4932.000000;2.526326
4931.000000;2.522802
4930.000000;2.520466
4929.000000;2.519093
4928.000000;2.517570
4927.000000;2.514606
4926.000000;2.510355
4925.000000;2.506118
4924.000000;2.502498
4923.000000;2.498728
4922.000000;2.493659
4921.000000;2.486832
4920.000000;2.478933
4919.000000;2.471651
4918.000000;2.466539
4917.000000;2.463413
4916.000000;2.460445
4915.000000;2.456469
4914.000000;2.452429
4913.000000;2.449676
4912.000000;2.447751
4911.000000;2.445046
4910.000000;2.441003
4909.000000;2.436401
4908.000000;2.431904
4907.000000;2.427624
4906.000000;2.423863
4905.000000;2.421054
4904.000000;2.418866
4903.000000;2.416272
4902.000000;2.412667
4901.000000;2.408321
4900.000000;2.403776
4899.000000;2.399404
4898.000000;2.395370
4897.000000;2.391483
4896.000000;2.387296
4895.000000;2.382927
4894.000000;2.379352
4893.000000;2.377112
4892.000000;2.375087
4891.000000;2.371335
4890.000000;2.365140
4889.000000;2.357603
4888.000000;2.350350
4887.000000;2.344457
4886.000000;2.340400
4885.000000;2.338126
4884.000000;2.336940
4883.000000;2.335858
4882.000000;2.334262
4881.000000;2.332023
4880.000000;2.329225
4879.000000;2.326232
4878.000000;2.323702
4877.000000;2.321877
4876.000000;2.320017
4875.000000;2.317158
4874.000000;2.313260
4873.000000;2.308942
4872.000000;2.304353
4871.000000;2.299176
4870.000000;2.293691
4869.000000;2.288972
4868.000000;2.285797
4867.000000;2.283818
4866.000000;2.281912
4865.000000;2.279056
4864.000000;2.274982
4863.000000;2.270334
4862.000000;2.266151
4861.000000;2.262896
4860.000000;2.260151
4859.000000;2.257435
4858.000000;2.254821
4857.000000;2.252326
4856.000000;2.249271
4855.000000;2.245071
4854.000000;2.240324
4853.000000;2.236269
4852.000000;2.233389
4851.000000;2.231268
4850.000000;2.229499
4849.000000;2.227795
4848.000000;2.225449
4847.000000;2.221819
4846.000000;2.217377
4845.000000;2.213192
4844.000000;2.209355
4843.000000;2.205083
4842.000000;2.200505
4841.000000;2.196941
4840.000000;2.194899
4839.000000;2.192977
4838.000000;2.189664
4837.000000;2.185463
4836.000000;2.182054
4835.000000;2.179904
4834.000000;2.177859
4833.000000;2.174944
4832.000000;2.171584
4831.000000;2.168791
4830.000000;2.166868
4829.000000;2.165262
4828.000000;2.163261
4827.000000;2.160475
4826.000000;2.156876
4825.000000;2.152704
4824.000000;2.148345
4823.000000;2.144160
4822.000000;2.140281
4821.000000;2.136563
4820.000000;2.132828
4819.000000;2.129205
4818.000000;2.126123
4817.000000;2.123783
4816.000000;2.121738
4815.000000;2.119289
4814.000000;2.116270
4813.000000;2.113133
4812.000000;2.110187
4811.000000;2.107146
4810.000000;2.103615
4809.000000;2.099786
4808.000000;2.096333
4807.000000;2.093654
4806.000000;2.091502
4805.000000;2.089375
4804.000000;2.087094
4803.000000;2.084849
4802.000000;2.082673
4801.000000;2.080126
4800.000000;2.076688
4799.000000;2.072483
4798.000000;2.068278
4797.000000;2.064597
4796.000000;2.061144
4795.000000;2.057419
4794.000000;2.053700
4793.000000;2.050926
4792.000000;2.049580
4791.000000;2.049025
4790.000000;2.048000
4789.000000;2.045540
4788.000000;2.041450
4787.000000;2.036316
4786.000000;2.031263
4785.000000;2.027380
4784.000000;2.024997
4783.000000;2.023488
4782.000000;2.021869
4781.000000;2.019572
4780.000000;2.016642
4779.000000;2.013366
4778.000000;2.009888
4777.000000;2.006156
4776.000000;2.002196
4775.000000;1.998369
4774.000000;1.995227
4773.000000;1.992925
4772.000000;1.990880
4771.000000;1.988277
4770.000000;1.984955
4769.000000;1.981555
4768.000000;1.978769
4767.000000;1.976666
4766.000000;1.974823
4765.000000;1.972864
4764.000000;1.970686
4763.000000;1.968330
4762.000000;1.965835
4761.000000;1.963209
4760.000000;1.960445
4759.000000;1.957556
4758.000000;1.954639
4757.000000;1.951860
4756.000000;1.949366
4755.000000;1.947197
4754.000000;1.945202
4753.000000;1.943032
4752.000000;1.940354
4751.000000;1.937230
4750.000000;1.934158
4749.000000;1.931523
4748.000000;1.929108
4747.000000;1.926371
4746.000000;1.923135
4745.000000;1.919737
4744.000000;1.916515
4743.000000;1.913497
4742.000000;1.910630
4741.000000;1.907952
4740.000000;1.905391
4739.000000;1.902706
4738.000000;1.899849
4737.000000;1.897155
4736.000000;1.894931
4735.000000;1.893015
4734.000000;1.890964
4733.000000;1.888590
4732.000000;1.886083
4731.000000;1.883639
4730.000000;1.881159
4729.000000;1.878369
4728.000000;1.875154
4727.000000;1.871803
4726.000000;1.868924
4725.000000;1.867001
4724.000000;1.865898
4723.000000;1.864856
4722.000000;1.863090
4721.000000;1.860436
4720.000000;1.857355
4719.000000;1.854409
4718.000000;1.851818
4717.000000;1.849458
4716.000000;1.847114
4715.000000;1.844688
4714.000000;1.842254
4713.000000;1.839954
4712.000000;1.837845
4711.000000;1.835866
4710.000000;1.833941
4709.000000;1.832059
4708.000000;1.830235
4707.000000;1.828423
4706.000000;1.826505
4705.000000;1.824371
4704.000000;1.822010
4703.000000;1.819566
4702.000000;1.817253
4701.000000;1.815173
4700.000000;1.813226
4699.000000;1.811246
4698.000000;1.809204
4697.000000;1.807191
4696.000000;1.805276
4695.000000;1.803473
4694.000000;1.801801
4693.000000;1.800232
4692.000000;1.798568
4691.000000;1.796541
4690.000000;1.794073
4689.000000;1.791336
4688.000000;1.788539
4687.000000;1.785786
4686.000000;1.783152
4685.000000;1.780739
4684.000000;1.778584
4683.000000;1.776623
4682.000000;1.774792
4681.000000;1.773078
4680.000000;1.771412
4679.000000;1.769666
4678.000000;1.767806
4677.000000;1.765950
4676.000000;1.764205
4675.000000;1.762558
4674.000000;1.760983
4673.000000;1.759499
4672.000000;1.758018
4671.000000;1.756260
4670.000000;1.754021
4669.000000;1.751478
4668.000000;1.749084
4667.000000;1.747144
4666.000000;1.745566
4665.000000;1.744003
4664.000000;1.742165
4663.000000;1.740049
4662.000000;1.737918
4661.000000;1.736056
4660.000000;1.734501
4659.000000;1.733024
4658.000000;1.731388
4657.000000;1.729572
4656.000000;1.727732
4655.000000;1.726026
4654.000000;1.724523
4653.000000;1.723197
4652.000000;1.721952
4651.000000;1.720686
4650.000000;1.719405
4649.000000;1.718190
4648.000000;1.717018
4647.000000;1.715709
4646.000000;1.714138
4645.000000;1.712405
4644.000000;1.710678
4643.000000;1.708954
4642.000000;1.707102
4641.000000;1.705102
4640.000000;1.703081
4639.000000;1.701141
4638.000000;1.699299
4637.000000;1.697626
4636.000000;1.696287
4635.000000;1.695314
4634.000000;1.694395
4633.000000;1.693045
4632.000000;1.691033
4631.000000;1.688601
4630.000000;1.686240
4629.000000;1.684283
4628.000000;1.682711
4627.000000;1.681296
4626.000000;1.679831
4625.000000;1.678256
4624.000000;1.676694
4623.000000;1.675430
4622.000000;1.674736
4621.000000;1.674570
4620.000000;1.674473
4619.000000;1.673898
4618.000000;1.672672
4617.000000;1.671030
4616.000000;1.669241
4615.000000;1.667352
4614.000000;1.665333
4613.000000;1.663296
4612.000000;1.661460
4611.000000;1.659975
4610.000000;1.658865
4609.000000;1.658069
4608.000000;1.657451
4607.000000;1.656816
4606.000000;1.655987
4605.000000;1.654871
4604.000000;1.653481
4603.000000;1.651939
4602.000000;1.650450
4601.000000;1.649146
4600.000000;1.647936
4599.000000;1.646626
4598.000000;1.645217
4597.000000;1.643922
4596.000000;1.642864
4595.000000;1.641912
4594.000000;1.640917
4593.000000;1.639919
4592.000000;1.639001
4591.000000;1.638096
4590.000000;1.637130
4589.000000;1.636248
4588.000000;1.635670
4587.000000;1.635357
4586.000000;1.635018
4585.000000;1.634403
4584.000000;1.633445
4583.000000;1.632152
4582.000000;1.630607
4581.000000;1.629085
4580.000000;1.627929
4579.000000;1.627176
4578.000000;1.626471
4577.000000;1.625465
4576.000000;1.624185
4575.000000;1.622912
4574.000000;1.621795
4573.000000;1.620762
4572.000000;1.619764
4571.000000;1.618938
4570.000000;1.618448
4569.000000;1.618224
4568.000000;1.617949
4567.000000;1.617341
4566.000000;1.616428
4565.000000;1.615460
4564.000000;1.614576
4563.000000;1.613623
4562.000000;1.612383
4561.000000;1.610914
4560.000000;1.609562
4559.000000;1.608627
4558.000000;1.608117
4557.000000;1.607814
4556.000000;1.607481
4555.000000;1.606972
4554.000000;1.606231
4553.000000;1.605270
4552.000000;1.604152
4551.000000;1.602971
4550.000000;1.601841
4549.000000;1.600858
4548.000000;1.600036
4547.000000;1.599297
4546.000000;1.598600
4545.000000;1.598031
4544.000000;1.597671
4543.000000;1.597394
4542.000000;1.596916
4541.000000;1.596116
4540.000000;1.595195
4539.000000;1.594455
4538.000000;1.593968
4537.000000;1.593534
4536.000000;1.592904
4535.000000;1.591986
4534.000000;1.590862
4533.000000;1.589695
4532.000000;1.588637
4531.000000;1.587789
4530.000000;1.587199
4529.000000;1.586863
4528.000000;1.586696
4527.000000;1.586508
4526.000000;1.586087
4525.000000;1.585366
4524.000000;1.584493
4523.000000;1.583753
4522.000000;1.583382
4521.000000;1.583421
4520.000000;1.583687
4519.000000;1.583906
4518.000000;1.583955
4517.000000;1.583947
4516.000000;1.584006
4515.000000;1.583987
4514.000000;1.583580
4513.000000;1.582725
4512.000000;1.581755
4511.000000;1.581021
4510.000000;1.580494
4509.000000;1.579907
4508.000000;1.579226
4507.000000;1.578774
4506.000000;1.578820
4505.000000;1.579175
4504.000000;1.579297
4503.000000;1.578792
4502.000000;1.577749
4501.000000;1.576598
4500.000000;1.575696
4499.000000;1.575089
4498.000000;1.574635
4497.000000;1.574277
4496.000000;1.574110
4495.000000;1.574189
4494.000000;1.574361
4493.000000;1.574366
4492.000000;1.574083
4491.000000;1.573646
4490.000000;1.573355
4489.000000;1.573473
4488.000000;1.574021
4487.000000;1.574695
4486.000000;1.575043
4485.000000;1.574858
4484.000000;1.574387
4483.000000;1.574062
4482.000000;1.574021
4481.000000;1.574013
4480.000000;1.573765
4479.000000;1.573313
4478.000000;1.572935
4477.000000;1.572907
4476.000000;1.573373
4475.000000;1.574288
4474.000000;1.575337
4473.000000;1.576040
4472.000000;1.576138
4471.000000;1.575861
4470.000000;1.575657
4469.000000;1.575693
4468.000000;1.575826
4467.000000;1.576020
4466.000000;1.576511
4465.000000;1.577429
4464.000000;1.578491
4463.000000;1.579284
4462.000000;1.579736
4461.000000;1.580111
4460.000000;1.580617
4459.000000;1.581222
4458.000000;1.581849
4457.000000;1.582515
4456.000000;1.583230
4455.000000;1.583952
4454.000000;1.584719
4453.000000;1.585690
4452.000000;1.586975
4451.000000;1.588531
4450.000000;1.590293
4449.000000;1.592276
4448.000000;1.594431
4447.000000;1.596493
4446.000000;1.598108
4445.000000;1.599103
4444.000000;1.599583
4443.000000;1.599830
4442.000000;1.600181
4441.000000;1.600921
4440.000000;1.602179
4439.000000;1.603918
4438.000000;1.606055
4437.000000;1.608479
4436.000000;1.610911
4435.000000;1.612899
4434.000000;1.614192
4433.000000;1.615126
4432.000000;1.616426
4431.000000;1.618553
4430.000000;1.621282
4429.000000;1.623950
4428.000000;1.626073
4427.000000;1.627727
4426.000000;1.629386
4425.000000;1.631401
4424.000000;1.633651
4423.000000;1.635724
4422.000000;1.637486
4421.000000;1.639321
4420.000000;1.641708
4419.000000;1.644646
4418.000000;1.647712
4417.000000;1.650577
4416.000000;1.653216
4415.000000;1.655628
4414.000000;1.657705
4413.000000;1.659521
4412.000000;1.661508
4411.000000;1.664096
4410.000000;1.667293
4409.000000;1.670811
4408.000000;1.674434
4407.000000;1.678007
4406.000000;1.681160
4405.000000;1.683392
4404.000000;1.684598
4403.000000;1.685390
4402.000000;1.686779
4401.000000;1.689493
4400.000000;1.693505
4399.000000;1.698118
4398.000000;1.702525
4397.000000;1.706393
4396.000000;1.709870
4395.000000;1.713028
4394.000000;1.715543
4393.000000;1.717184
4392.000000;1.718442
4391.000000;1.720233
4390.000000;1.722933
4389.000000;1.726062
4388.000000;1.729034
4387.000000;1.731900
4386.000000;1.735102
4385.000000;1.738714
4384.000000;1.742235
4383.000000;1.745013
4382.000000;1.746748
4381.000000;1.747751
4380.000000;1.748947
4379.000000;1.751376
4378.000000;1.755266
4377.000000;1.759613
4376.000000;1.763056
4375.000000;1.765267
4374.000000;1.767153
4373.000000;1.769608
4372.000000;1.772517
4371.000000;1.775134
4370.000000;1.777079
4369.000000;1.778665
4368.000000;1.780397
4367.000000;1.782492
4366.000000;1.784770
4365.000000;1.786796
4364.000000;1.788220
4363.000000;1.789166
4362.000000;1.790197
4361.000000;1.791794
4360.000000;1.794019
4359.000000;1.796777
4358.000000;1.800097
4357.000000;1.803821
4356.000000;1.807157
4355.000000;1.809087
4354.000000;1.809442
4353.000000;1.809254
4352.000000;1.809910
4351.000000;1.812161
4350.000000;1.815877
4349.000000;1.820382
4348.000000;1.824826
4347.000000;1.828410
4346.000000;1.830642
4345.000000;1.831592
4344.000000;1.831996
4343.000000;1.833056
4342.000000;1.835748
4341.000000;1.839848
4340.000000;1.843667
4339.000000;1.845361
4338.000000;1.844848
4337.000000;1.843930
4336.000000;1.844186
4335.000000;1.845324
4334.000000;1.846101
4333.000000;1.846408
4332.000000;1.847529
4331.000000;1.850313
4330.000000;1.853999
4329.000000;1.857138
4328.000000;1.859056
4327.000000;1.859938
4326.000000;1.860113
4325.000000;1.859946
4324.000000;1.860111
4323.000000;1.861175
4322.000000;1.862917
4321.000000;1.864643
4320.000000;1.866204
4319.000000;1.868141
4318.000000;1.870686
4317.000000;1.873268
4316.000000;1.875320
4315.000000;1.877073
4314.000000;1.879125
4313.000000;1.881582
4312.000000;1.884090
4311.000000;1.886504
4310.000000;1.888863
4309.000000;1.890804
4308.000000;1.891699
4307.000000;1.891528
4306.000000;1.891152
4305.000000;1.891526
4304.000000;1.892889
4303.000000;1.894968
4302.000000;1.897641
4301.000000;1.901039
4300.000000;1.905061
4299.000000;1.909065
4298.000000;1.912209
4297.000000;1.914115
4296.000000;1.915302
4295.000000;1.916891
4294.000000;1.919670
4293.000000;1.923371
4292.000000;1.926978
4291.000000;1.929878
4290.000000;1.932580
4289.000000;1.936123
4288.000000;1.940771
4287.000000;1.945392
4286.000000;1.948241
4285.000000;1.948566
4284.000000;1.947501
4283.000000;1.947231
4282.000000;1.949391
4281.000000;1.954281
4280.000000;1.961351
4279.000000;1.969836
4278.000000;1.978477
4277.000000;1.985098
4276.000000;1.987611
4275.000000;1.985964
4274.000000;1.982609
4273.000000;1.980645
4272.000000;1.981793
4271.000000;1.986043
4270.000000;1.992424
4269.000000;1.999574
4268.000000;2.005845
4267.000000;2.009597
4266.000000;2.010052
4265.000000;2.008145
4264.000000;2.006248
4263.000000;2.006796
4262.000000;2.011042
4261.000000;2.018603
4260.000000;2.027904
4259.000000;2.037039
4258.000000;2.044393
4257.000000;2.049270
4256.000000;2.052557
4255.000000;2.056561
4254.000000;2.063481
4253.000000;2.073410
4252.000000;2.083788
4251.000000;2.090863
4250.000000;2.092232
4249.000000;2.089309
4248.000000;2.086967
4247.000000;2.089680
4246.000000;2.097259
4245.000000;2.104786
4244.000000;2.107540
4243.000000;2.105606
4242.000000;2.102642
4241.000000;2.101575
4240.000000;2.103242
4239.000000;2.107779
4238.000000;2.114793
4237.000000;2.122399
4236.000000;2.128410
4235.000000;2.133092
4234.000000;2.138901
4233.000000;2.146780
4232.000000;2.154659
4231.000000;2.160479
4230.000000;2.164883
4229.000000;2.170437
4228.000000;2.179371
4227.000000;2.191712
4226.000000;2.204556
4225.000000;2.212968
4224.000000;2.213592
4223.000000;2.208887
4222.000000;2.205072
4221.000000;2.204924
4220.000000;2.205938
4219.000000;2.205927
4218.000000;2.206937
4217.000000;2.212718
4216.000000;2.223867
4215.000000;2.237107
4214.000000;2.248925
4213.000000;2.256785
4212.000000;2.258276
4211.000000;2.254281
4210.000000;2.250182
4209.000000;2.250313
4208.000000;2.253791
4207.000000;2.255948
4206.000000;2.255725
4205.000000;2.259110
4204.000000;2.270209
4203.000000;2.284936
4202.000000;2.296265
4201.000000;2.301763
4200.000000;2.304214
4199.000000;2.307727
4198.000000;2.314878
4197.000000;2.324299
4196.000000;2.330309
4195.000000;2.329105
4194.000000;2.324803
4193.000000;2.324246
4192.000000;2.328533
4191.000000;2.332374
4190.000000;2.330095
4189.000000;2.322772
4188.000000;2.316797
4187.000000;2.317132
4186.000000;2.326198
4185.000000;2.346105
4184.000000;2.376793
4183.000000;2.409405
4182.000000;2.428645
4181.000000;2.425527
4180.000000;2.403717
4179.000000;2.376546
4178.000000;2.360041
4177.000000;2.364834
4176.000000;2.387863
4175.000000;2.408627
4174.000000;2.406529
4173.000000;2.389451
4172.000000;2.382529
4171.000000;2.394324
4170.000000;2.406845
4169.000000;2.399430
4168.000000;2.377945
4167.000000;2.363356
4166.000000;2.367204
4165.000000;2.385586
4164.000000;2.407649
4163.000000;2.426799
4162.000000;2.442346
4161.000000;2.453654
4160.000000;2.459711
4159.000000;2.465576
4158.000000;2.478828
4157.000000;2.496595
4156.000000;2.505797
4155.000000;2.494654
4154.000000;2.464082
4153.000000;2.430278
4152.000000;2.411817
4151.000000;2.416183
4150.000000;2.434419
4149.000000;2.448251
4148.000000;2.450162
4147.000000;2.450740
4146.000000;2.464024
4145.000000;2.501992
4144.000000;2.559797
4143.000000;2.581384
4142.000000;2.546820
4141.000000;2.515961
4140.000000;2.504817
4139.000000;2.492904
4138.000000;2.469630
4137.000000;2.446190
4136.000000;2.438039
4135.000000;2.452556
4134.000000;2.486295
4133.000000;2.520767
4132.000000;2.527742
4131.000000;2.501700
4130.000000;2.472537
4129.000000;2.468695
4128.000000;2.489006
4127.000000;2.510511
4126.000000;2.519951
4125.000000;2.529375
4124.000000;2.546320
4123.000000;2.555545
4122.000000;2.547800
4121.000000;2.537642
4120.000000;2.536211
4119.000000;2.535792
4118.000000;2.531081
4117.000000;2.528594
4116.000000;2.528392
4115.000000;2.516446
4114.000000;2.490161
4113.000000;2.478082
4112.000000;2.501317
4111.000000;2.536209
4110.000000;2.536103
4109.000000;2.510439
4108.000000;2.525014
4107.000000;2.624107
4106.000000;2.788300
4105.000000;2.893349
4104.000000;2.856442
4103.000000;2.774625
4102.000000;2.714995
4101.000000;2.682030
4100.000000;2.658658
4099.000000;2.624138
4098.000000;2.570095
4097.000000;2.506627
4096.000000;2.455876
4095.000000;2.425567
4094.000000;2.405778
4093.000000;2.408821
4092.000000;2.452234
4091.000000;2.518412
4090.000000;2.548614
4089.000000;2.503913
4088.000000;2.434310
4087.000000;2.402402
4086.000000;2.429811
4085.000000;2.521519
4084.000000;2.675219
4083.000000;2.832602
4082.000000;2.891208
4081.000000;2.808179
4080.000000;2.677004
4079.000000;2.575115
4078.000000;2.498139
4077.000000;2.445698
4076.000000;2.414464
4075.000000;2.402357
4074.000000;2.413727
4073.000000;2.452620
4072.000000;2.504264
4071.000000;2.528851
4070.000000;2.493175
4069.000000;2.415599
4068.000000;2.347107
4067.000000;2.315906
4066.000000;2.318423
4065.000000;2.334504
4064.000000;2.346153
4063.000000;2.354432
4062.000000;2.380184
4061.000000;2.455384
4060.000000;2.631267
4059.000000;2.969949
4058.000000;3.003217
4057.000000;2.941938
4056.000000;3.284370
4055.000000;2.912687
4054.000000;2.583468
4053.000000;2.515525
4052.000000;2.545066
4051.000000;2.589566
4050.000000;2.595518
4049.000000;2.535180
4048.000000;2.446235
4047.000000;2.409496
4046.000000;2.416730
4045.000000;2.468370
4044.000000;2.602689
4043.000000;2.827187
4042.000000;2.994160
4041.000000;2.824494
4040.000000;2.580193
4039.000000;2.453807
4038.000000;2.439166
4037.000000;2.487269
4036.000000;2.527414
4035.000000;2.497646
4034.000000;2.458718
4033.000000;2.470192
4032.000000;2.480573
4031.000000;2.421502
4030.000000;2.362687
4029.000000;2.381535
4028.000000;2.502312
4027.000000;2.652458
4026.000000;2.743475
4025.000000;2.777466
4024.000000;2.633423
4023.000000;2.543351
4022.000000;2.605285
4021.000000;2.725599
4020.000000;2.811604
4019.000000;2.802833
4018.000000;2.759107
4017.000000;2.696352
4016.000000;2.609294
4015.000000;2.568803
4014.000000;2.586226
4013.000000;2.640030
4012.000000;2.711283
4011.000000;2.733489
4010.000000;2.660968
4009.000000;2.610596
4008.000000;2.618598
4007.000000;2.573108
4006.000000;2.469129
4005.000000;2.436608
4004.000000;2.486431
4003.000000;2.550756
4002.000000;2.562329
4001.000000;2.542115
4000.000000;2.523363
3999.000000;2.486870
3998.000000;2.420733
3997.000000;2.357214
3996.000000;2.371181
3995.000000;2.472056
3994.000000;3.006516
3993.000000;3.085267
3992.000000;2.665402
3991.000000;2.744173
3990.000000;3.127638
3989.000000;3.094175
3988.000000;2.765836
3987.000000;2.659963
3986.000000;2.635040
3985.000000;2.643170
3984.000000;2.639080
3983.000000;2.608287
3982.000000;2.568174
3981.000000;2.531224
3980.000000;2.518872
3979.000000;2.546308
3978.000000;2.601755
3977.000000;2.652482
3976.000000;2.662380
3975.000000;2.648372
3974.000000;2.644569
3973.000000;2.633174
3972.000000;2.626565
3971.000000;2.663145
3970.000000;2.732046
3969.000000;2.757553
3968.000000;2.691830
3967.000000;2.612307
3966.000000;2.572151
3965.000000;2.570986
3964.000000;2.644458
3963.000000;2.860221
3962.000000;3.368022
3961.000000;3.606941
3960.000000;3.500266
3959.000000;3.558178
3958.000000;3.373941
3957.000000;3.312219
3956.000000;3.468886
3955.000000;3.200060
3954.000000;3.083324
3953.000000;2.974008
3952.000000;2.835531
3951.000000;2.926800
3950.000000;3.379551
3949.000000;2.991989
3948.000000;2.720325
3947.000000;2.710093
3946.000000;2.921045
3945.000000;3.314749
3944.000000;3.103820
3943.000000;3.023556
3942.000000;3.380405
3941.000000;3.529733
3940.000000;3.284743
3939.000000;3.336016
3938.000000;3.357214
3937.000000;3.464603
3936.000000;3.485033
3935.000000;3.166376
3934.000000;2.866951
3933.000000;2.702770
3932.000000;2.687068
3931.000000;2.804077
3930.000000;2.865078
3929.000000;2.792666
3928.000000;2.808420
3927.000000;3.061039
3926.000000;3.594292
3925.000000;3.086122
3924.000000;2.960568
3923.000000;3.032828
3922.000000;3.276211
3921.000000;3.325496
3920.000000;3.282584
3919.000000;3.378001
3918.000000;3.159336
3917.000000;3.020051
3916.000000;3.060397
3915.000000;3.191022
3914.000000;3.829340
3913.000000;3.607077
3912.000000;3.077262
3911.000000;2.961585
3910.000000;2.938032
3909.000000;3.002921
3908.000000;3.077982
3907.000000;3.041651
3906.000000;2.893011
3905.000000;2.761130
3904.000000;2.711110
3903.000000;2.748200
3902.000000;2.892277
3901.000000;3.100893
3900.000000;3.099288
3899.000000;2.994467
3898.000000;2.883927
3897.000000;2.862911
3896.000000;2.937761
3895.000000;3.041971
3894.000000;3.144998
3893.000000;3.293778
3892.000000;3.432683
3891.000000;3.368329
3890.000000;3.203397
3889.000000;3.081839
3888.000000;3.048245
3887.000000;3.124480
3886.000000;3.216560
3885.000000;3.254167
3884.000000;3.299274
3883.000000;3.302820
3882.000000;3.291073
3881.000000;3.258890
3880.000000;3.130473
3879.000000;3.094163
3878.000000;3.271769
3877.000000;4.182741
3876.000000;3.464061
3875.000000;3.276427
3874.000000;3.340426
3873.000000;3.368846
3872.000000;3.137398
3871.000000;3.006829
3870.000000;3.049335
3869.000000;3.200036
3868.000000;3.274618
3867.000000;3.192309
3866.000000;3.325898
3865.000000;3.211153
3864.000000;2.964277
3863.000000;2.939132
3862.000000;3.054794
3861.000000;3.227849
3860.000000;3.273904
3859.000000;3.406399
3858.000000;3.662512
3857.000000;3.800577
3856.000000;3.823039
3855.000000;3.786297
3854.000000;3.572233
3853.000000;3.279696
3852.000000;3.087473
3851.000000;3.075380
3850.000000;3.551831
3849.000000;3.363180
3848.000000;3.017374
3847.000000;2.900885
3846.000000;2.843277
3845.000000;2.842242
3844.000000;2.939136
3843.000000;3.018870
3842.000000;2.842700
3841.000000;2.721910
3840.000000;2.773827
3839.000000;3.002579
3838.000000;3.296523
3837.000000;3.322478
3836.000000;3.143840
3835.000000;2.963992
3834.000000;2.906582
3833.000000;2.997166
3832.000000;3.468163
3831.000000;3.422579
3830.000000;2.980770
3829.000000;2.831309
3828.000000;2.815713
3827.000000;2.935969
3826.000000;3.149740
3825.000000;3.470993
3824.000000;3.011593
3823.000000;2.606634
3822.000000;2.525376
3821.000000;2.684406
3820.000000;2.848657
3819.000000;2.797525
3818.000000;2.735653
3817.000000;2.818731
3816.000000;3.084933
3815.000000;3.496607
3814.000000;3.940125
3813.000000;4.283739
3812.000000;3.946053
3811.000000;3.744248
3810.000000;3.779885
3809.000000;3.895944
3808.000000;3.626027
3807.000000;3.215707
3806.000000;3.008967
3805.000000;2.923704
3804.000000;2.959392
3803.000000;3.161125
3802.000000;3.161105
3801.000000;3.120179
3800.000000;3.270135
3799.000000;3.590908
3798.000000;3.606836
3797.000000;3.198709
3796.000000;3.022605
3795.000000;2.964853
3794.000000;2.862267
3793.000000;2.798166
3792.000000;2.879701
3791.000000;3.085082
3790.000000;3.218153
3789.000000;3.147948
3788.000000;3.018007
3787.000000;3.000951
3786.000000;3.123811
3785.000000;3.357826
3784.000000;3.757588
3783.000000;3.426482
3782.000000;3.011506
3781.000000;2.992522
3780.000000;3.452121
3779.000000;3.236330
3778.000000;2.910975
3777.000000;2.902850
3776.000000;2.982366
3775.000000;3.133720
3774.000000;3.123271
3773.000000;2.992081
3772.000000;2.961365
3771.000000;3.052353
3770.000000;3.269920
3769.000000;3.661436
3768.000000;3.311131
3767.000000;3.003730
3766.000000;2.964951
3765.000000;3.115189
3764.000000;3.141997
3763.000000;3.005010
3762.000000;2.975467
3761.000000;2.978377
3760.000000;3.012835
3759.000000;3.043229
3758.000000;3.469686
3757.000000;3.608016
3756.000000;3.059940
3755.000000;3.006476
3754.000000;3.036242
3753.000000;3.094586
3752.000000;3.132032
3751.000000;3.259382
3750.000000;3.574175
3749.000000;3.538633
3748.000000;3.460664
3747.000000;3.483716
3746.000000;3.522698
3745.000000;3.702809
3744.000000;3.962975
3743.000000;3.764203
3742.000000;3.279721
3741.000000;3.089911
3740.000000;3.243119
3739.000000;3.828045
3738.000000;3.506817
3737.000000;3.260620
3736.000000;3.188091
3735.000000;3.209371
3734.000000;3.419683
3733.000000;3.470519
3732.000000;3.182879
3731.000000;3.040009
3730.000000;2.983689
3729.000000;2.965713
3728.000000;2.966810
3727.000000;2.947180
3726.000000;2.863799
3725.000000;2.769272
3724.000000;2.754825
3723.000000;2.866586
3722.000000;3.091721
3721.000000;3.125913
3720.000000;2.920587
3719.000000;2.771273
3718.000000;2.721652
3717.000000;2.747626
3716.000000;2.809068
3715.000000;2.876550
3714.000000;3.031832
3713.000000;3.134585
3712.000000;2.821634
3711.000000;2.733005
3710.000000;2.850966
3709.000000;3.148309
3708.000000;3.521959
3707.000000;3.483614
3706.000000;3.512215
3705.000000;3.376510
3704.000000;3.266018
3703.000000;3.361667
3702.000000;3.400314
3701.000000;3.264811
3700.000000;3.147619
3699.000000;3.018882
3698.000000;2.929172
3697.000000;2.954632
3696.000000;3.031058
3695.000000;2.976678
3694.000000;2.847168
3693.000000;2.750990
3692.000000;2.704502
3691.000000;2.730491
3690.000000;2.833853
3689.000000;2.985594
3688.000000;3.156809
3687.000000;3.310001
3686.000000;3.605182
3685.000000;3.788463
3684.000000;3.294329
3683.000000;3.107640
3682.000000;2.930482
3681.000000;2.820507
3680.000000;2.854689
3679.000000;2.872554
3678.000000;2.710092
3677.000000;2.567285
3676.000000;2.601888
3675.000000;2.773722
3674.000000;2.951784
3673.000000;3.019162
3672.000000;2.968010
3671.000000;2.946468
3670.000000;2.948360
3669.000000;2.920016
3668.000000;2.933971
3667.000000;3.021363
3666.000000;3.169641
3665.000000;3.108457
3664.000000;2.826081
3663.000000;2.677102
3662.000000;2.702845
3661.000000;2.909182
3660.000000;3.360271
3659.000000;4.402465
3658.000000;4.652233
3657.000000;3.737633
3656.000000;3.404237
3655.000000;3.214773
3654.000000;3.085406
3653.000000;2.974130
3652.000000;2.908169
3651.000000;2.910026
3650.000000;2.960565
3649.000000;3.076614
3648.000000;3.353291
3647.000000;3.845907
3646.000000;3.395697
3645.000000;3.034530
3644.000000;2.947624
3643.000000;3.045017
3642.000000;3.382760
3641.000000;3.627371
3640.000000;3.464833
3639.000000;3.064143
3638.000000;2.807033
3637.000000;2.729053
3636.000000;2.853831
3635.000000;3.188625
3634.000000;3.127242
3633.000000;3.030573
3632.000000;3.049875
3631.000000;3.046564
3630.000000;3.101489
3629.000000;3.230985
3628.000000;3.404019
3627.000000;3.508180
3626.000000;3.432130
3625.000000;3.592476
3624.000000;3.815932
3623.000000;3.388000
3622.000000;3.174318
3621.000000;3.144212
3620.000000;3.174725
3619.000000;3.001473
3618.000000;2.846588
3617.000000;2.996506
3616.000000;3.347920
3615.000000;2.980706
3614.000000;2.892688
3613.000000;3.247701
3612.000000;3.697976
3611.000000;3.299690
3610.000000;3.109877
3609.000000;3.065042
3608.000000;2.970986
3607.000000;2.900659
3606.000000;2.894819
3605.000000;2.922980
3604.000000;2.938192
3603.000000;2.962500
3602.000000;3.015216
3601.000000;3.214906
3600.000000;3.631290
3599.000000;3.286915
3598.000000;3.009549
3597.000000;2.982113
3596.000000;3.267046
3595.000000;3.430274
3594.000000;3.134714
3593.000000;3.248549
3592.000000;3.483759
3591.000000;3.248303
3590.000000;3.002117
3589.000000;2.897568
3588.000000;2.917950
3587.000000;3.025301
3586.000000;3.116361
3585.000000;3.142659
3584.000000;3.029793
3583.000000;2.901945
3582.000000;2.937088
3581.000000;3.172922
3580.000000;3.346930
3579.000000;3.135767
3578.000000;2.925030
3577.000000;2.829316
3576.000000;2.875942
3575.000000;3.027931
3574.000000;3.203186
3573.000000;3.326078
3572.000000;3.547498
3571.000000;3.758673
3570.000000;3.259178
3569.000000;2.981056
3568.000000;2.928964
3567.000000;3.034445
3566.000000;3.223530
3565.000000;3.413230
3564.000000;3.388931
3563.000000;3.191984
3562.000000;3.112309
3561.000000;3.142042
3560.000000;3.055836
3559.000000;2.882808
3558.000000;2.806687
3557.000000;2.865614
3556.000000;3.026807
3555.000000;3.281297
3554.000000;3.875160
3553.000000;3.391518
3552.000000;2.973868
3551.000000;2.833875
3550.000000;2.792661
3549.000000;2.796374
3548.000000;2.836631
3547.000000;2.947973
3546.000000;3.042110
3545.000000;3.246484
3544.000000;3.678279
3543.000000;3.302844
3542.000000;3.103485
3541.000000;3.037550
3540.000000;2.940636
3539.000000;2.848633
3538.000000;2.782403
3537.000000;2.762016
3536.000000;2.771096
3535.000000;2.790156
3534.000000;2.815815
3533.000000;2.890047
3532.000000;3.043787
3531.000000;3.154875
3530.000000;3.025199
3529.000000;2.838313
3528.000000;2.738290
3527.000000;2.722660
3526.000000;2.751241
3525.000000;2.790027
3524.000000;2.907188
3523.000000;3.128456
3522.000000;3.118964
3521.000000;3.000634
3520.000000;3.004694
3519.000000;3.115565
3518.000000;3.107926
3517.000000;2.911654
3516.000000;2.746741
3515.000000;2.666690
3514.000000;2.702930
3513.000000;2.874988
3512.000000;3.474937
3511.000000;3.558725
3510.000000;3.093387
3509.000000;3.211319
3508.000000;3.120581
3507.000000;2.843674
3506.000000;2.688235
3505.000000;2.629563
3504.000000;2.652446
3503.000000;2.712902
3502.000000;2.799198
3501.000000;2.901592
3500.000000;3.020267
3499.000000;3.102656
3498.000000;3.346001
3497.000000;3.871319
3496.000000;3.273001
3495.000000;3.158376
3494.000000;3.358606
3493.000000;3.224503
3492.000000;2.940244
3491.000000;2.864355
3490.000000;3.019368
3489.000000;3.190029
3488.000000;3.052748
3487.000000;3.035364
3486.000000;3.179700
3485.000000;3.403584
3484.000000;3.639069
3483.000000;3.682133
3482.000000;3.724534
3481.000000;3.335347
3480.000000;3.097111
3479.000000;3.080294
3478.000000;3.120668
3477.000000;3.135807
3476.000000;3.336970
3475.000000;3.499659
3474.000000;3.318997
3473.000000;3.603530
3472.000000;3.387720
3471.000000;2.928400
3470.000000;2.768033
3469.000000;2.733154
3468.000000;2.763482
3467.000000;2.809769
3466.000000;2.887531
3465.000000;3.042565
3464.000000;3.329151
3463.000000;3.887728
3462.000000;3.804743
3461.000000;3.400398
3460.000000;3.224547
3459.000000;3.095022
3458.000000;3.027481
3457.000000;2.988082
3456.000000;3.008359
3455.000000;3.104575
3454.000000;2.999282
3453.000000;2.829885
3452.000000;2.807810
3451.000000;2.912385
3450.000000;2.996796
3449.000000;2.911740
3448.000000;2.868092
3447.000000;2.930957
3446.000000;3.108073
3445.000000;3.270933
3444.000000;3.402179
3443.000000;3.604528
3442.000000;3.024608
3441.000000;2.703147
3440.000000;2.588504
3439.000000;2.610081
3438.000000;2.748452
3437.000000;2.843603
3436.000000;2.784943
3435.000000;2.695022
3434.000000;2.664436
3433.000000;2.727054
3432.000000;2.899289
3431.000000;3.137080
3430.000000;3.414163
3429.000000;3.659055
3428.000000;3.352054
3427.000000;3.106891
3426.000000;3.041251
3425.000000;3.241506
3424.000000;3.352521
3423.000000;2.861458
3422.000000;2.633708
3421.000000;2.608018
3420.000000;2.712001
3419.000000;2.970252
3418.000000;3.236171
3417.000000;3.091742
3416.000000;2.982768
3415.000000;2.977920
3414.000000;3.061149
3413.000000;3.247712
3412.000000;3.081916
3411.000000;2.846256
3410.000000;2.809599
3409.000000;2.935718
3408.000000;3.171931
3407.000000;3.660966
3406.000000;3.615946
3405.000000;3.117479
3404.000000;3.143715
3403.000000;3.599694
3402.000000;3.264790
3401.000000;2.931365
3400.000000;2.871363
3399.000000;2.807736
3398.000000;2.796675
3397.000000;3.050516
3396.000000;3.348270
3395.000000;3.086688
3394.000000;2.893881
3393.000000;2.753452
3392.000000;2.720371
3391.000000;2.834222
3390.000000;2.990445
3389.000000;3.163373
3388.000000;3.207339
3387.000000;3.322374
3386.000000;3.761933
3385.000000;3.159036
3384.000000;2.844635
3383.000000;2.756523
3382.000000;2.745633
3381.000000;2.808320
3380.000000;2.937950
3379.000000;3.223954
3378.000000;3.360212
3377.000000;3.009974
3376.000000;2.826802
3375.000000;2.800469
3374.000000;2.905446
3373.000000;3.098998
3372.000000;3.014888
3371.000000;2.841540
3370.000000;2.804441
3369.000000;2.876639
3368.000000;3.024908
3367.000000;3.139141
3366.000000;3.038798
3365.000000;2.874798
3364.000000;2.806225
3363.000000;2.858242
3362.000000;3.006055
3361.000000;2.996725
3360.000000;2.854282
3359.000000;2.848945
3358.000000;2.984678
3357.000000;3.330030
3356.000000;3.607282
3355.000000;3.254892
3354.000000;3.204695
3353.000000;3.372850
3352.000000;3.324067
3351.000000;3.084948
3350.000000;2.965418
3349.000000;2.942219
3348.000000;2.953758
3347.000000;2.879482
3346.000000;2.715543
3345.000000;2.618297
3344.000000;2.624856
3343.000000;2.719492
3342.000000;2.819635
3341.000000;2.866864
3340.000000;2.901037
3339.000000;3.080864
3338.000000;3.276274
3337.000000;2.969599
3336.000000;2.829038
3335.000000;2.877037
3334.000000;2.993213
3333.000000;3.039338
3332.000000;2.968193
3331.000000;2.981816
3330.000000;3.141367
3329.000000;3.647191
3328.000000;3.946170
3327.000000;3.255294
3326.000000;3.044968
3325.000000;3.026795
3324.000000;3.032303
3323.000000;2.975197
3322.000000;2.961908
3321.000000;3.108953
3320.000000;3.364086
3319.000000;3.297679
3318.000000;3.117311
3317.000000;3.060250
3316.000000;3.051417
3315.000000;3.067474
3314.000000;3.074421
3313.000000;3.193120
3312.000000;3.344415
3311.000000;3.214666
3310.000000;3.087717
3309.000000;3.203761
3308.000000;3.493480
3307.000000;3.142316
3306.000000;2.946810
3305.000000;2.939939
3304.000000;3.231775
3303.000000;3.710798
3302.000000;3.055520
3301.000000;2.848712
3300.000000;2.775765
3299.000000;2.757768
3298.000000;2.777895
3297.000000;2.774943
3296.000000;2.772900
3295.000000;2.827408
3294.000000;2.951530
3293.000000;3.061967
3292.000000;3.170607
3291.000000;3.343576
3290.000000;3.279594
3289.000000;3.309218
3288.000000;4.144575
3287.000000;3.437501
3286.000000;3.050616
3285.000000;2.960608
3284.000000;2.923962
3283.000000;2.949609
3282.000000;2.991253
3281.000000;3.015166
3280.000000;2.949646
3279.000000;2.864027
3278.000000;2.819376
3277.000000;2.807975
3276.000000;2.849078
3275.000000;2.979138
3274.000000;3.083597
3273.000000;3.056165
3272.000000;2.987664
3271.000000;2.896512
3270.000000;2.870771
3269.000000;2.932909
3268.000000;3.046811
3267.000000;3.082292
3266.000000;3.010131
3265.000000;2.962591
3264.000000;3.040825
3263.000000;3.361419
3262.000000;3.281687
3261.000000;2.974669
3260.000000;2.892854
3259.000000;2.979539
3258.000000;3.125023
3257.000000;3.108399
3256.000000;3.152082
3255.000000;3.225861
3254.000000;3.188547
3253.000000;3.195655
3252.000000;3.156890
3251.000000;3.097390
3250.000000;3.102645
3249.000000;2.999635
3248.000000;2.825497
3247.000000;2.751815
3246.000000;2.792930
3245.000000;2.955416
3244.000000;3.075192
3243.000000;3.018024
3242.000000;3.017812
3241.000000;3.061447
3240.000000;3.099574
3239.000000;3.188262
3238.000000;3.350580
3237.000000;3.399431
3236.000000;3.266009
3235.000000;3.270792
3234.000000;3.211474
3233.000000;3.082603
3232.000000;3.011555
3231.000000;3.121020
3230.000000;3.427231
3229.000000;3.106666
3228.000000;2.874622
3227.000000;2.942610
3226.000000;3.084911
3225.000000;2.914950
3224.000000;2.761306
3223.000000;2.738776
3222.000000;2.786301
3221.000000;2.889514
3220.000000;2.940118
3219.000000;2.908564
3218.000000;2.861694
3217.000000;2.807196
3216.000000;2.761691
3215.000000;2.750008
3214.000000;2.828818
3213.000000;2.990101
3212.000000;3.239003
3211.000000;3.373154
3210.000000;3.394639
3209.000000;4.162144
3208.000000;3.400882
3207.000000;2.988747
3206.000000;2.995719
3205.000000;3.314940
3204.000000;3.655062
3203.000000;3.421168
3202.000000;3.624590
3201.000000;3.886502
3200.000000;3.612489
3199.000000;3.380830
3198.000000;3.177658
3197.000000;3.007632
3196.000000;2.884880
3195.000000;2.830810
3194.000000;2.810508
3193.000000;2.794441
3192.000000;2.770437
3191.000000;2.760212
3190.000000;2.806198
3189.000000;2.943863
3188.000000;3.144560
3187.000000;3.301625
3186.000000;3.504002
3185.000000;3.414363
3184.000000;3.108726
3183.000000;2.964300
3182.000000;2.996910
3181.000000;3.118731
3180.000000;3.028746
3179.000000;2.865994
3178.000000;2.808082
3177.000000;2.845587
3176.000000;3.026790
3175.000000;3.384579
3174.000000;3.300111
3173.000000;3.081436
3172.000000;3.045353
3171.000000;3.291621
3170.000000;3.345808
3169.000000;2.869684
3168.000000;2.697186
3167.000000;2.676476
3166.000000;2.749689
3165.000000;2.897556
3164.000000;3.021868
3163.000000;3.038714
3162.000000;2.978900
3161.000000;2.965690
3160.000000;2.989533
3159.000000;3.146252
3158.000000;3.461375
3157.000000;3.431202
3156.000000;3.315818
3155.000000;3.368322
3154.000000;3.119651
3153.000000;2.962178
3152.000000;2.936877
3151.000000;3.156455
3150.000000;3.972727
3149.000000;3.135644
3148.000000;2.854044
3147.000000;2.845328
3146.000000;2.978542
3145.000000;3.021609
3144.000000;2.861847
3143.000000;2.840928
3142.000000;2.874578
3141.000000;2.946121
3140.000000;3.067584
3139.000000;3.087279
3138.000000;2.946290
3137.000000;2.800532
3136.000000;2.751271
3135.000000;2.792385
3134.000000;2.930707
3133.000000;3.161353
3132.000000;3.002474
3131.000000;2.735166
3130.000000;2.603342
3129.000000;2.569993
3128.000000;2.643969
3127.000000;2.919554
3126.000000;3.359670
3125.000000;3.019632
3124.000000;2.765759
3123.000000;2.660288
3122.000000;2.623450
3121.000000;2.683265
3120.000000;2.772179
3119.000000;2.760552
3118.000000;2.718413
3117.000000;2.794482
3116.000000;3.007293
3115.000000;3.180908
3114.000000;3.087858
3113.000000;2.958577
3112.000000;2.851308
3111.000000;2.771422
3110.000000;2.717018
3109.000000;2.696096
3108.000000;2.724133
3107.000000;2.764881
3106.000000;2.784917
3105.000000;2.764097
3104.000000;2.737591
3103.000000;2.756747
3102.000000;2.776780
3101.000000;2.770208
3100.000000;2.814458
3099.000000;3.037204
3098.000000;3.234826
3097.000000;3.010526
3096.000000;2.996722
3095.000000;3.083021
3094.000000;2.917580
3093.000000;2.774864
3092.000000;2.726167
3091.000000;2.757035
3090.000000;2.851025
3089.000000;2.895070
3088.000000;2.829192
3087.000000;2.737910
3086.000000;2.677057
3085.000000;2.683077
3084.000000;2.765900
3083.000000;2.899714
3082.000000;3.050368
3081.000000;3.271405
3080.000000;3.579916
3079.000000;3.570691
3078.000000;3.380652
3077.000000;3.184691
3076.000000;3.056949
3075.000000;3.053329
3074.000000;3.138475
3073.000000;3.241614
3072.000000;3.302668
3071.000000;3.275147
3070.000000;3.055078
3069.000000;2.824610
3068.000000;2.688303
3067.000000;2.637085
3066.000000;2.666955
3065.000000;2.808447
3064.000000;3.101387
3063.000000;3.711663
3062.000000;4.009066
3061.000000;3.174807
3060.000000;2.878819
3059.000000;2.796422
3058.000000;2.872837
3057.000000;3.153887
3056.000000;3.472956
3055.000000;3.291216
3054.000000;3.130328
3053.000000;3.106015
3052.000000;3.148040
3051.000000;3.175876
3050.000000;3.254858
3049.000000;3.526717
3048.000000;3.283048
3047.000000;2.957124
3046.000000;2.804946
3045.000000;2.734569
3044.000000;2.769219
3043.000000;2.919508
3042.000000;3.157230
3041.000000;3.375892
3040.000000;3.478797
3039.000000;3.507097
3038.000000;3.342334
3037.000000;3.206804
3036.000000;3.113513
3035.000000;3.422624
3034.000000;3.799623
3033.000000;3.062526
3032.000000;2.941257
3031.000000;2.970996
3030.000000;3.056953
3029.000000;3.259639
3028.000000;3.784002
3027.000000;3.933483
3026.000000;3.323369
3025.000000;3.148658
3024.000000;3.142642
3023.000000;3.374275
3022.000000;3.435285
3021.000000;3.523139
3020.000000;3.650442
3019.000000;3.138413
3018.000000;3.048632
3017.000000;3.160325
3016.000000;2.922659
3015.000000;2.733721
3014.000000;2.698942
3013.000000;2.710456
3012.000000;2.699120
3011.000000;2.684897
3010.000000;2.733687
3009.000000;2.847341
3008.000000;2.939884
3007.000000;2.953727
3006.000000;2.921674
3005.000000;2.859660
3004.000000;2.805153
3003.000000;2.755637
3002.000000;2.712849
3001.000000;2.716352
3000.000000;2.784763
2999.000000;2.890329
2998.000000;2.951121
2997.000000;2.957693
2996.000000;2.957843
2995.000000;3.002554
2994.000000;3.024463
2993.000000;3.047392
2992.000000;3.281550
2991.000000;3.181033
2990.000000;2.883746
2989.000000;2.837447
2988.000000;2.978138
2987.000000;3.083661
2986.000000;3.087382
2985.000000;3.250714
2984.000000;3.118777
2983.000000;2.842073
2982.000000;2.742091
2981.000000;2.750454
2980.000000;2.844098
2979.000000;3.003082
2978.000000;3.186661
2977.000000;3.339624
2976.000000;3.457052
2975.000000;3.474885
2974.000000;3.442484
2973.000000;3.393658
2972.000000;3.293155
2971.000000;3.202221
2970.000000;3.266617
2969.000000;3.797106
2968.000000;3.776244
2967.000000;3.137586
2966.000000;2.830189
2965.000000;2.686918
2964.000000;2.697087
2963.000000;2.811074
2962.000000;2.970961
2961.000000;2.975199
2960.000000;2.885087
2959.000000;2.810264
2958.000000;2.997930
2957.000000;3.333622
2956.000000;2.777314
2955.000000;2.594354
2954.000000;2.617680
2953.000000;2.731091
2952.000000;2.835877
2951.000000;2.799295
2950.000000;2.796894
2949.000000;2.892668
2948.000000;3.196982
2947.000000;3.601654
2946.000000;3.298473
2945.000000;2.985342
2944.000000;2.825590
2943.000000;2.784178
2942.000000;2.885615
2941.000000;3.141688
2940.000000;3.602781
2939.000000;3.891202
2938.000000;3.369640
2937.000000;3.145303
2936.000000;3.113172
2935.000000;3.184571
2934.000000;3.235513
2933.000000;3.090251
2932.000000;2.998179
2931.000000;3.059197
2930.000000;3.410609
2929.000000;3.579960
2928.000000;3.128821
2927.000000;2.990885
2926.000000;3.288117
2925.000000;3.718852
2924.000000;3.036995
2923.000000;2.877152
2922.000000;2.820731
2921.000000;2.750743
2920.000000;2.722823
2919.000000;2.755859
2918.000000;2.872461
2917.000000;2.974175
2916.000000;3.045695
2915.000000;3.094272
2914.000000;2.938413
2913.000000;2.758016
2912.000000;2.720561
2911.000000;2.755498
2910.000000;2.770514
2909.000000;2.754903
2908.000000;2.751603
2907.000000;2.792475
2906.000000;2.929324
2905.000000;3.022160
2904.000000;2.866884
2903.000000;2.751695
2902.000000;2.732457
2901.000000;2.764563
2900.000000;2.775698
2899.000000;2.767637
2898.000000;2.799633
2897.000000;2.852859
2896.000000;2.919547
2895.000000;2.897388
2894.000000;2.795086
2893.000000;2.771811
2892.000000;2.842036
2891.000000;2.892730
2890.000000;2.829889
2889.000000;2.713332
2888.000000;2.631253
2887.000000;2.629190
2886.000000;2.709579
2885.000000;2.890310
2884.000000;3.179814
2883.000000;3.382094
2882.000000;3.458316
2881.000000;3.516011
2880.000000;3.426612
2879.000000;3.634025
2878.000000;3.895364
2877.000000;3.220366
2876.000000;2.960938
2875.000000;2.872611
2874.000000;2.830761
2873.000000;2.735705
2872.000000;2.634035
2871.000000;2.644100
2870.000000;2.864058
2869.000000;3.224367
2868.000000;3.154015
2867.000000;3.216057
2866.000000;3.708251
2865.000000;3.596065
2864.000000;3.215919
2863.000000;3.011251
2862.000000;2.841005
2861.000000;2.732524
2860.000000;2.685665
2859.000000;2.698175
2858.000000;2.768122
2857.000000;2.858135
2856.000000;2.926139
2855.000000;2.922208
2854.000000;2.836109
2853.000000;2.761493
2852.000000;2.791107
2851.000000;2.922325
2850.000000;3.174204
2849.000000;3.496976
2848.000000;3.267790
2847.000000;3.107913
2846.000000;3.077864
2845.000000;3.027156
2844.000000;3.015703
2843.000000;2.999476
2842.000000;2.887234
2841.000000;2.836083
2840.000000;3.063939
2839.000000;3.392278
2838.000000;3.160999
2837.000000;3.037351
2836.000000;2.952517
2835.000000;2.928119
2834.000000;2.992189
2833.000000;2.941813
2832.000000;2.792293
2831.000000;2.716980
2830.000000;2.734235
2829.000000;2.880867
2828.000000;3.318921
2827.000000;3.247131
2826.000000;2.892920
2825.000000;2.883323
2824.000000;3.000430
2823.000000;2.830824
2822.000000;2.692801
2821.000000;2.734297
2820.000000;2.902282
2819.000000;3.238776
2818.000000;3.794341
2817.000000;3.681920
2816.000000;3.436075
2815.000000;3.294245
2814.000000;3.239615
2813.000000;3.322782
2812.000000;3.294260
2811.000000;3.115087
2810.000000;3.049519
2809.000000;3.150626
2808.000000;3.168982
2807.000000;2.959003
2806.000000;2.847675
2805.000000;2.851914
2804.000000;3.017633
2803.000000;3.353147
2802.000000;3.021610
2801.000000;2.802244
2800.000000;2.789392
2799.000000;2.854150
2798.000000;2.984488
2797.000000;3.148514
2796.000000;3.322739
2795.000000;3.376222
2794.000000;3.210887
2793.000000;3.030801
2792.000000;2.845871
2791.000000;2.699981
2790.000000;2.677825
2789.000000;2.809535
2788.000000;3.127467
2787.000000;3.235429
2786.000000;2.990438
2785.000000;2.842449
2784.000000;2.696957
2783.000000;2.611594
2782.000000;2.639913
2781.000000;2.817852
2780.000000;3.193997
2779.000000;3.310349
2778.000000;3.123444
2777.000000;3.112862
2776.000000;3.136698
2775.000000;3.317117
2774.000000;3.769176
2773.000000;3.082570
2772.000000;2.832932
2771.000000;2.803265
2770.000000;2.800017
2769.000000;2.804737
2768.000000;2.854964
2767.000000;3.113582
2766.000000;3.430483
2765.000000;3.065256
2764.000000;2.953343
2763.000000;3.038585
2762.000000;3.254764
2761.000000;3.579327
2760.000000;3.617577
2759.000000;3.321918
2758.000000;3.109730
2757.000000;3.079261
2756.000000;3.197636
2755.000000;3.470303
2754.000000;3.469113
2753.000000;3.164528
2752.000000;3.002255
2751.000000;3.005053
2750.000000;3.083881
2749.000000;3.013382
2748.000000;2.944625
2747.000000;3.037944
2746.000000;3.360943
2745.000000;3.724302
2744.000000;3.426444
2743.000000;3.193976
2742.000000;3.112202
2741.000000;3.204080
2740.000000;3.273350
2739.000000;3.105702
2738.000000;2.906943
2737.000000;2.753317
2736.000000;2.692392
2735.000000;2.732573
2734.000000;2.929261
2733.000000;3.056484
2732.000000;2.850008
2731.000000;2.772729
2730.000000;2.803100
2729.000000;2.825500
2728.000000;2.844789
2727.000000;2.911384
2726.000000;3.072975
2725.000000;3.332896
2724.000000;3.480551
2723.000000;3.281704
2722.000000;3.049112
2721.000000;2.942269
2720.000000;2.979673
2719.000000;3.180026
2718.000000;3.602375
2717.000000;3.766428
2716.000000;3.446935
2715.000000;3.586404
2714.000000;3.815311
2713.000000;3.176267
2712.000000;2.956225
2711.000000;2.883196
2710.000000;2.887191
2709.000000;2.935652
2708.000000;2.954809
2707.000000;2.938275
2706.000000;2.896571
2705.000000;2.857951
2704.000000;2.828112
2703.000000;2.759645
2702.000000;2.689374
2701.000000;2.700089
2700.000000;2.808715
2699.000000;2.957159
2698.000000;3.008175
2697.000000;2.981007
2696.000000;2.991392
2695.000000;3.079764
2694.000000;3.029779
2693.000000;2.860442
2692.000000;2.789935
2691.000000;2.921836
2690.000000;3.314208
2689.000000;3.077766
2688.000000;2.876271
2687.000000;2.890659
2686.000000;3.109675
2685.000000;3.397409
2684.000000;3.114992
2683.000000;2.982947
2682.000000;2.952076
2681.000000;2.917544
2680.000000;2.885183
2679.000000;2.910116
2678.000000;3.071872
2677.000000;3.265856
2676.000000;3.236263
2675.000000;3.429985
2674.000000;3.441082
2673.000000;3.116605
2672.000000;3.087727
2671.000000;3.158322
2670.000000;3.092275
2669.000000;2.987600
2668.000000;2.968473
2667.000000;3.074336
2666.000000;3.205843
2665.000000;3.445559
2664.000000;3.540026
2663.000000;2.989543
2662.000000;2.840319
2661.000000;2.949159
2660.000000;3.278824
2659.000000;3.310615
2658.000000;3.051658
2657.000000;2.924328
2656.000000;2.817461
2655.000000;2.711926
2654.000000;2.643115
2653.000000;2.619488
2652.000000;2.601363
2651.000000;2.580028
2650.000000;2.588646
2649.000000;2.666587
2648.000000;2.899641
2647.000000;3.049908
2646.000000;2.849932
2645.000000;2.769155
2644.000000;2.823448
2643.000000;2.986221
2642.000000;3.233271
2641.000000;3.129675
2640.000000;2.909849
2639.000000;2.817684
2638.000000;2.827377
2637.000000;3.056990
2636.000000;3.470016
2635.000000;2.982235
2634.000000;2.869640
2633.000000;2.956460
2632.000000;3.201175
2631.000000;3.628382
2630.000000;3.271516
2629.000000;2.979588
2628.000000;2.868256
2627.000000;2.873943
2626.000000;2.961922
2625.000000;3.155181
2624.000000;3.214263
2623.000000;2.912638
2622.000000;2.730251
2621.000000;2.712874
2620.000000;2.778258
2619.000000;2.780046
2618.000000;2.731903
2617.000000;2.775070
2616.000000;3.002744
2615.000000;3.223581
2614.000000;3.124778
2613.000000;3.132483
2612.000000;3.246721
2611.000000;3.379019
2610.000000;3.323044
2609.000000;3.028744
2608.000000;2.889633
2607.000000;2.859621
2606.000000;2.788082
2605.000000;2.680423
2604.000000;2.675915
2603.000000;2.866012
2602.000000;3.395988
2601.000000;3.590049
2600.000000;3.108020
2599.000000;2.913151
2598.000000;2.905365
2597.000000;3.112816
2596.000000;3.277508
2595.000000;3.262591
2594.000000;3.288828
2593.000000;3.245750
2592.000000;3.095795
2591.000000;2.908045
2590.000000;2.775516
2589.000000;2.708674
2588.000000;2.701563
2587.000000;2.751252
2586.000000;2.872669
2585.000000;3.000596
2584.000000;2.874888
2583.000000;2.753789
2582.000000;2.791663
2581.000000;2.965651
2580.000000;3.158253
2579.000000;3.384803
2578.000000;3.563553
2577.000000;3.253591
2576.000000;3.062948
2575.000000;2.961106
2574.000000;3.021663
2573.000000;3.324216
2572.000000;3.126735
2571.000000;2.829990
2570.000000;2.782716
2569.000000;2.872641
2568.000000;3.035526
2567.000000;3.106754
2566.000000;3.670498
2565.000000;3.473786
2564.000000;3.000200
2563.000000;2.860667
2562.000000;2.740907
2561.000000;2.698131
2560.000000;2.746542
2559.000000;2.802176
2558.000000;2.748089
2557.000000;2.687316
2556.000000;2.688945
2555.000000;2.745865
2554.000000;2.865406
2553.000000;3.030370
2552.000000;3.094371
2551.000000;2.986061
2550.000000;2.828444
2549.000000;2.698169
2548.000000;2.644810
2547.000000;2.676153
2546.000000;2.770584
2545.000000;2.900094
2544.000000;2.973008
2543.000000;2.970595
2542.000000;3.100893
2541.000000;3.180160
2540.000000;2.977188
2539.000000;2.885563
2538.000000;2.935519
2537.000000;3.040122
2536.000000;3.111478
2535.000000;3.149272
2534.000000;3.166620
2533.000000;3.235219
2532.000000;3.354517
2531.000000;3.099608
2530.000000;2.843347
2529.000000;2.728617
2528.000000;2.741193
2527.000000;2.824355
2526.000000;2.855841
2525.000000;2.931461
2524.000000;3.251570
2523.000000;3.403329
2522.000000;3.176290
2521.000000;3.506677
2520.000000;3.644895
2519.000000;3.124015
2518.000000;2.954288
2517.000000;2.829376
2516.000000;2.790447
2515.000000;2.941337
2514.000000;3.134272
2513.000000;2.908038
2512.000000;2.788314
2511.000000;2.833448
2510.000000;2.915953
2509.000000;2.994841
2508.000000;2.988660
2507.000000;2.880806
2506.000000;2.753874
2505.000000;2.693952
2504.000000;2.746179
2503.000000;2.962628
2502.000000;3.391593
2501.000000;3.090346
2500.000000;2.874537
2499.000000;2.869225
2498.000000;2.998465
2497.000000;3.087251
2496.000000;3.048633
2495.000000;3.046701
2494.000000;3.191742
2493.000000;3.466572
2492.000000;3.173268
2491.000000;2.926367
2490.000000;2.837007
2489.000000;2.766267
2488.000000;2.711699
2487.000000;2.707345
2486.000000;2.792121
2485.000000;2.999782
2484.000000;3.640140
2483.000000;3.468588
2482.000000;3.356388
2481.000000;3.732164
2480.000000;3.136077
2479.000000;2.927723
2478.000000;2.897449
2477.000000;2.871126
2476.000000;2.812778
2475.000000;2.772581
2474.000000;2.803059
2473.000000;2.885062
2472.000000;2.943527
2471.000000;2.933629
2470.000000;2.924694
2469.000000;2.979577
2468.000000;3.078538
2467.000000;3.142106
2466.000000;3.060065
2465.000000;3.030657
2464.000000;3.147414
2463.000000;3.032290
2462.000000;2.821276
2461.000000;2.742621
2460.000000;2.780209
2459.000000;2.915843
2458.000000;3.099520
2457.000000;3.265966
2456.000000;3.288986
2455.000000;3.231020
2454.000000;3.247038
2453.000000;3.461828
2452.000000;3.897082
2451.000000;3.364084
2450.000000;3.177171
2449.000000;3.280465
2448.000000;3.623367
2447.000000;3.388276
2446.000000;3.195635
2445.000000;3.335446
2444.000000;3.957441
2443.000000;3.171626
2442.000000;3.034478
2441.000000;3.112606
2440.000000;3.248181
2439.000000;3.236179
2438.000000;3.103912
2437.000000;3.015003
2436.000000;3.154303
2435.000000;3.337864
2434.000000;2.985588
2433.000000;2.744482
2432.000000;2.661508
2431.000000;2.690972
2430.000000;2.867923
2429.000000;3.240549
2428.000000;3.083131
2427.000000;2.939950
2426.000000;3.031459
2425.000000;3.160384
2424.000000;3.137009
2423.000000;3.087489
2422.000000;3.194045
2421.000000;3.180869
2420.000000;3.044996
2419.000000;2.973251
2418.000000;2.893129
2417.000000;2.839603
2416.000000;2.859941
2415.000000;2.877546
2414.000000;2.838447
2413.000000;2.837733
2412.000000;2.881217
2411.000000;2.904724
2410.000000;2.925813
2409.000000;2.997704
2408.000000;3.562571
2407.000000;3.623304
2406.000000;3.182554
2405.000000;3.243385
2404.000000;3.151112
2403.000000;3.106580
2402.000000;3.072732
2401.000000;3.035264
2400.000000;3.020729
2399.000000;3.055887
2398.000000;3.114479
2397.000000;3.216232
2396.000000;3.263375
2395.000000;3.152656
2394.000000;3.136483
2393.000000;3.142037
2392.000000;3.196626
2391.000000;3.347597
2390.000000;3.308819
2389.000000;3.095215
2388.000000;2.992341
2387.000000;3.053231
2386.000000;3.223116
2385.000000;3.394562
2384.000000;3.520070
2383.000000;3.564252
2382.000000;3.527240
2381.000000;3.495070
2380.000000;3.522958
2379.000000;3.617226
2378.000000;3.712074
2377.000000;3.723236
2376.000000;3.736862
2375.000000;3.889922
2374.000000;4.136579
2373.000000;4.041427
2372.000000;4.113776
2371.000000;4.206453
2370.000000;3.893103
2369.000000;3.793917
2368.000000;3.860308
2367.000000;3.983507
2366.000000;3.991869
2365.000000;3.952661
2364.000000;3.943768
2363.000000;3.922013
2362.000000;3.850138
2361.000000;3.792721
2360.000000;3.812361
2359.000000;3.936553
2358.000000;4.150317
2357.000000;4.710923
2356.000000;4.843815
2355.000000;4.203758
2354.000000;4.238543
2353.000000;4.574381
2352.000000;4.233986
2351.000000;3.908067
2350.000000;3.951567
2349.000000;4.132041
2348.000000;4.103659
2347.000000;3.971906
2346.000000;3.916254
2345.000000;3.921519
2344.000000;4.171755
2343.000000;4.160463
2342.000000;3.928855
2341.000000;3.917410
2340.000000;3.961855
2339.000000;4.193808
2338.000000;4.219375
2337.000000;4.047111
2336.000000;3.894529
2335.000000;3.985991
2334.000000;4.442975
2333.000000;3.998875
2332.000000;3.774472
2331.000000;3.689886
2330.000000;3.649279
2329.000000;3.629571
2328.000000;3.661896
2327.000000;3.807980
2326.000000;3.816835
2325.000000;3.626288
2324.000000;3.514892
2323.000000;3.471696
2322.000000;3.461248
2321.000000;3.465507
2320.000000;3.468091
2319.000000;3.465853
2318.000000;3.489139
2317.000000;3.629331
2316.000000;4.004982
2315.000000;4.370897
2314.000000;4.164178
2313.000000;4.074337
2312.000000;4.009026
2311.000000;3.886817
2310.000000;3.752519
2309.000000;3.763461
2308.000000;3.675175
2307.000000;3.505850
2306.000000;3.478313
2305.000000;3.546655
2304.000000;3.616685
2303.000000;3.613140
2302.000000;3.587637
2301.000000;4.043078
2300.000000;4.218746
2299.000000;3.738266
2298.000000;3.842571
2297.000000;3.497825
2296.000000;3.292983
2295.000000;3.283327
2294.000000;3.480512
2293.000000;3.430313
2292.000000;3.130294
2291.000000;3.019117
2290.000000;3.066158
2289.000000;3.210639
2288.000000;3.330859
2287.000000;3.451691
2286.000000;3.642741
2285.000000;3.900632
2284.000000;3.900789
2283.000000;3.318187
2282.000000;3.134368
2281.000000;3.050856
2280.000000;3.073457
2279.000000;3.114317
2278.000000;3.189394
2277.000000;3.340938
2276.000000;3.905581
2275.000000;3.830171
2274.000000;3.162366
2273.000000;3.102158
2272.000000;3.080585
2271.000000;2.904227
2270.000000;2.740806
2269.000000;2.679216
2268.000000;2.705566
2267.000000;2.784674
2266.000000;2.786130
2265.000000;2.749405
2264.000000;2.749033
2263.000000;2.722492
2262.000000;2.719273
2261.000000;2.808234
2260.000000;2.973131
2259.000000;3.120575
2258.000000;3.128953
2257.000000;3.045993
2256.000000;3.009770
2255.000000;3.014854
2254.000000;3.019909
2253.000000;3.010103
2252.000000;3.176379
2251.000000;3.607483
2250.000000;3.122145
2249.000000;2.834400
2248.000000;2.791645
2247.000000;2.894142
2246.000000;3.250212
2245.000000;3.566184
2244.000000;3.303322
2243.000000;3.238786
2242.000000;3.101624
2241.000000;3.721708
2240.000000;3.228697
2239.000000;2.800792
2238.000000;2.741318
2237.000000;2.839251
2236.000000;3.042939
2235.000000;3.118093
2234.000000;2.876876
2233.000000;2.710837
2232.000000;2.670515
2231.000000;2.724197
2230.000000;2.843446
2229.000000;3.091182
2228.000000;3.553030
2227.000000;3.071231
2226.000000;2.889240
2225.000000;2.906029
2224.000000;3.054759
2223.000000;3.273865
2222.000000;3.511217
2221.000000;3.505098
2220.000000;3.286803
2219.000000;3.081395
2218.000000;2.900253
2217.000000;2.769142
2216.000000;2.707117
2215.000000;2.726993
2214.000000;2.788530
2213.000000;2.860020
2212.000000;2.985780
2211.000000;3.533886
2210.000000;3.259123
2209.000000;2.959565
2208.000000;2.901631
2207.000000;2.964914
2206.000000;3.066816
2205.000000;2.954656
2204.000000;2.832129
2203.000000;2.832466
2202.000000;2.934869
2201.000000;3.215404
2200.000000;3.633831
2199.000000;3.184463
2198.000000;3.133717
2197.000000;3.448733
2196.000000;3.299985
2195.000000;2.884489
2194.000000;2.813186
2193.000000;2.875791
2192.000000;2.925345
2191.000000;2.822493
2190.000000;2.751801
2189.000000;2.753396
2188.000000;2.844808
2187.000000;3.067079
2186.000000;3.397541
2185.000000;3.118983
2184.000000;2.913419
2183.000000;2.906893
2182.000000;3.025614
2181.000000;3.072893
2180.000000;2.996144
2179.000000;2.912828
2178.000000;2.851972
2177.000000;2.884945
2176.000000;3.037281
2175.000000;3.295962
2174.000000;3.469622
2173.000000;3.336404
2172.000000;3.279309
2171.000000;3.252360
2170.000000;3.230419
2169.000000;3.207180
2168.000000;3.166181
2167.000000;3.165233
2166.000000;3.256514
2165.000000;3.301253
2164.000000;3.111749
2163.000000;2.926689
2162.000000;2.883396
2161.000000;2.936599
2160.000000;2.908845
2159.000000;2.884661
2158.000000;2.982513
2157.000000;3.161432
2156.000000;3.341618
2155.000000;3.266210
2154.000000;3.033885
2153.000000;2.936832
2152.000000;2.935009
2151.000000;2.934725
2150.000000;3.023005
2149.000000;3.208043
2148.000000;3.079889
2147.000000;2.880018
2146.000000;2.769555
2145.000000;2.774264
2144.000000;2.858248
2143.000000;3.162974
2142.000000;3.558722
2141.000000;3.094171
2140.000000;3.076860
2139.000000;3.592575
2138.000000;3.430647
2137.000000;3.091869
2136.000000;3.241119
2135.000000;3.250208
2134.000000;2.985623
2133.000000;2.797534
2132.000000;2.783941
2131.000000;2.932931
2130.000000;3.535721
2129.000000;3.370371
2128.000000;3.179759
2127.000000;3.084270
2126.000000;2.887821
2125.000000;2.818896
2124.000000;2.896047
2123.000000;2.956760
2122.000000;2.866378
2121.000000;2.839773
2120.000000;2.910812
2119.000000;3.058443
2118.000000;3.239778
2117.000000;3.249723
2116.000000;3.080004
2115.000000;3.027076
2114.000000;2.993572
2113.000000;2.810085
2112.000000;2.672037
2111.000000;2.669481
2110.000000;2.773359
2109.000000;2.933934
2108.000000;3.101232
2107.000000;3.499885
2106.000000;3.500290
2105.000000;3.121767
2104.000000;2.972712
2103.000000;2.984082
2102.000000;3.142211
2101.000000;3.321487
2100.000000;3.418171
2099.000000;3.075656
2098.000000;2.892871
2097.000000;2.868999
2096.000000;2.926147
2095.000000;2.970938
2094.000000;2.947132
2093.000000;2.908346
2092.000000;2.921496
2091.000000;2.990757
2090.000000;2.986712
2089.000000;2.876923
2088.000000;2.861062
2087.000000;2.948488
2086.000000;3.383860
2085.000000;3.599046
2084.000000;3.017788
2083.000000;2.848477
2082.000000;2.813408
2081.000000;2.915638
2080.000000;3.122835
2079.000000;3.375822
2078.000000;3.788289
2077.000000;3.192826
2076.000000;2.973961
2075.000000;3.023093
2074.000000;3.220101
2073.000000;3.359640
2072.000000;3.148961
2071.000000;2.879377
2070.000000;2.749634
2069.000000;2.804150
2068.000000;3.047337
2067.000000;3.285533
2066.000000;3.305808
2065.000000;3.023288
2064.000000;2.866633
2063.000000;2.859853
2062.000000;2.913921
2061.000000;3.040355
2060.000000;3.317837
2059.000000;3.193667
2058.000000;2.937304
2057.000000;2.862315
2056.000000;2.870819
2055.000000;2.988554
2054.000000;3.285165
2053.000000;3.921828
2052.000000;3.594319
2051.000000;3.486436
2050.000000;3.630130
2049.000000;3.681563
2048.000000;3.151101
2047.000000;2.874896
2046.000000;2.772576
2045.000000;2.746542
2044.000000;2.716302
2043.000000;2.656524
2042.000000;2.596476
2041.000000;2.574897
2040.000000;2.631453
2039.000000;2.786494
2038.000000;3.155194
2037.000000;3.593811
2036.000000;3.137306
2035.000000;3.080808
2034.000000;3.356608
2033.000000;3.643731
2032.000000;3.071288
2031.000000;2.813634
2030.000000;2.696867
2029.000000;2.734701
2028.000000;2.898584
2027.000000;2.951670
2026.000000;2.952585
2025.000000;3.306969
2024.000000;3.578990
2023.000000;3.305038
2022.000000;3.493072
2021.000000;3.490711
2020.000000;3.283963
2019.000000;3.192133
2018.000000;3.056532
2017.000000;2.937364
2016.000000;2.959040
2015.000000;3.300087
2014.000000;3.392200
2013.000000;2.903032
2012.000000;2.812400
2011.000000;2.841736
2010.000000;2.965621
2009.000000;3.422820
2008.000000;3.928149
2007.000000;3.212950
2006.000000;3.384269
2005.000000;3.219385
2004.000000;2.997341
2003.000000;2.966597
2002.000000;2.985481
2001.000000;2.970904
2000.000000;2.956182
1999.000000;2.993699
1998.000000;3.072886
1997.000000;3.019490
1996.000000;2.857993
1995.000000;2.742198
1994.000000;2.711492
1993.000000;2.793259
1992.000000;3.009546
1991.000000;3.275151
1990.000000;3.497400
1989.000000;3.362937
1988.000000;3.121521
1987.000000;3.002884
1986.000000;2.867725
1985.000000;2.785480
1984.000000;2.876317
1983.000000;2.924862
1982.000000;2.713124
1981.000000;2.629281
1980.000000;2.680213
1979.000000;2.859724
1978.000000;3.170091
1977.000000;3.200048
1976.000000;2.981323
1975.000000;2.877948
1974.000000;2.866339
1973.000000;2.955262
1972.000000;3.065198
1971.000000;3.140476
1970.000000;3.254900
1969.000000;3.623375
1968.000000;3.475225
1967.000000;3.371279
1966.000000;4.573061
1965.000000;3.257262
1964.000000;3.006931
1963.000000;2.986820
1962.000000;3.096143
1961.000000;3.005429
1960.000000;2.820186
1959.000000;2.809569
1958.000000;3.105454
1957.000000;3.279412
1956.000000;2.833494
1955.000000;2.803481
1954.000000;2.978760
1953.000000;2.970654
1952.000000;2.712025
1951.000000;2.661130
1950.000000;2.674233
1949.000000;2.660179
1948.000000;2.674601
1947.000000;2.782637
1946.000000;3.159544
1945.000000;3.455833
1944.000000;3.038308
1943.000000;2.964878
1942.000000;3.056349
1941.000000;2.962786
1940.000000;2.840458
1939.000000;2.829798
1938.000000;2.894385
1937.000000;2.916367
1936.000000;2.812822
1935.000000;2.699254
1934.000000;2.663048
1933.000000;2.740886
1932.000000;2.933086
1931.000000;3.084594
1930.000000;3.087713
1929.000000;3.099126
1928.000000;3.122270
1927.000000;3.109275
1926.000000;3.015632
1925.000000;2.967454
1924.000000;3.075286
1923.000000;3.459368
1922.000000;3.514325
1921.000000;3.231153
1920.000000;3.133810
1919.000000;3.085573
1918.000000;3.052548
1917.000000;3.027264
1916.000000;2.997255
1915.000000;2.969605
1914.000000;2.979992
1913.000000;3.023685
1912.000000;3.120700
1911.000000;3.388556
1910.000000;3.717892
1909.000000;3.243680
1908.000000;3.186142
1907.000000;3.279194
1906.000000;3.259691
1905.000000;3.254379
1904.000000;3.080159
1903.000000;2.932852
1902.000000;2.964907
1901.000000;3.011601
1900.000000;2.965772
1899.000000;2.954922
1898.000000;3.011821
1897.000000;3.084217
1896.000000;3.024217
1895.000000;2.895595
1894.000000;2.858312
1893.000000;3.085772
1892.000000;3.220827
1891.000000;3.040952
1890.000000;3.263986
1889.000000;2.911080
1888.000000;2.642060
1887.000000;2.597819
1886.000000;2.679692
1885.000000;2.849629
1884.000000;2.986757
1883.000000;2.972545
1882.000000;2.857641
1881.000000;2.749314
1880.000000;2.745490
1879.000000;2.990942
1878.000000;3.704543
1877.000000;3.198722
1876.000000;3.196321
1875.000000;3.187224
1874.000000;3.088088
1873.000000;3.110022
1872.000000;3.043307
1871.000000;2.986975
1870.000000;3.192587
1869.000000;3.661597
1868.000000;3.159236
1867.000000;2.796583
1866.000000;2.657915
1865.000000;2.668167
1864.000000;2.836532
1863.000000;3.342402
1862.000000;3.567160
1861.000000;3.225568
1860.000000;3.110587
1859.000000;3.016311
1858.000000;2.981844
1857.000000;3.115879
1856.000000;3.350775
1855.000000;2.990428
1854.000000;2.817808
1853.000000;2.796913
1852.000000;2.868090
1851.000000;3.008414
1850.000000;3.259557
1849.000000;3.400018
1848.000000;3.610603
1847.000000;3.747083
1846.000000;3.079808
1845.000000;2.946989
1844.000000;2.871809
1843.000000;2.726962
1842.000000;2.658838
1841.000000;2.753684
1840.000000;3.081355
1839.000000;3.144955
1838.000000;3.049984
1837.000000;3.341493
1836.000000;3.684385
1835.000000;3.339785
1834.000000;3.160051
1833.000000;3.007569
1832.000000;2.873838
1831.000000;2.857323
1830.000000;3.013234
1829.000000;3.432270
1828.000000;3.356929
1827.000000;3.008280
1826.000000;2.848246
1825.000000;2.808664
1824.000000;2.848291
1823.000000;2.894265
1822.000000;2.921928
1821.000000;2.942781
1820.000000;2.966149
1819.000000;2.940176
1818.000000;2.848359
1817.000000;2.803617
1816.000000;2.877714
1815.000000;3.047522
1814.000000;2.987504
1813.000000;2.827029
1812.000000;2.815156
1811.000000;2.936223
1810.000000;3.104094
1809.000000;3.295957
1808.000000;3.095302
1807.000000;2.930950
1806.000000;3.028206
1805.000000;3.409687
1804.000000;3.614994
1803.000000;3.188546
1802.000000;3.054078
1801.000000;3.105459
1800.000000;3.290063
1799.000000;3.562938
1798.000000;3.450385
1797.000000;3.174423
1796.000000;2.994029
1795.000000;2.870135
1794.000000;2.794714
1793.000000;2.788113
1792.000000;2.855167
1791.000000;2.840187
1790.000000;2.723682
1789.000000;2.685429
1788.000000;2.763603
1787.000000;3.113950
1786.000000;3.398233
1785.000000;3.079729
1784.000000;3.054911
1783.000000;3.120029
1782.000000;2.948449
1781.000000;2.795596
1780.000000;2.799341
1779.000000;2.989907
1778.000000;3.502818
1777.000000;3.140015
1776.000000;3.053973
1775.000000;3.105908
1774.000000;2.882120
1773.000000;2.876480
1772.000000;3.262261
1771.000000;3.294733
1770.000000;2.974564
1769.000000;2.935152
1768.000000;2.975092
1767.000000;3.257675
1766.000000;3.305423
1765.000000;3.067690
1764.000000;3.082668
1763.000000;3.422632
1762.000000;3.830106
1761.000000;3.386352
1760.000000;3.262796
1759.000000;3.126617
1758.000000;2.965415
1757.000000;2.856431
1756.000000;2.821196
1755.000000;2.864012
1754.000000;2.936445
1753.000000;2.856725
1752.000000;2.699002
1751.000000;2.625693
1750.000000;2.659786
1749.000000;2.845303
1748.000000;3.377019
1747.000000;3.324778
1746.000000;3.041573
1745.000000;2.998305
1744.000000;2.923884
1743.000000;2.849419
1742.000000;2.887690
1741.000000;2.961631
1740.000000;2.856311
1739.000000;2.731219
1738.000000;2.709501
1737.000000;2.762138
1736.000000;2.946065
1735.000000;3.338026
1734.000000;3.211223
1733.000000;3.314993
1732.000000;2.938491
1731.000000;2.584019
1730.000000;2.529074
1729.000000;2.666613
1728.000000;3.055593
1727.000000;3.057753
1726.000000;2.804622
1725.000000;2.741948
1724.000000;2.837392
1723.000000;3.135880
1722.000000;3.605118
1721.000000;3.372846
1720.000000;3.113172
1719.000000;3.041225
1718.000000;3.169807
1717.000000;3.452065
1716.000000;3.806859
1715.000000;4.150332
1714.000000;3.474765
1713.000000;3.235947
1712.000000;3.259002
1711.000000;3.414824
1710.000000;3.421826
1709.000000;3.217686
1708.000000;3.019956
1707.000000;2.992053
1706.000000;3.138517
1705.000000;3.412294
1704.000000;3.458783
1703.000000;3.193102
1702.000000;3.190148
1701.000000;3.704877
1700.000000;3.404153
1699.000000;3.385662
1698.000000;3.707176
1697.000000;3.327946
1696.000000;3.187093
1695.000000;3.248779
1694.000000;3.394226
1693.000000;3.503144
1692.000000;3.247397
1691.000000;2.936263
1690.000000;2.761852
1689.000000;2.712877
1688.000000;2.759826
1687.000000;2.851253
1686.000000;2.928587
1685.000000;2.981018
1684.000000;2.993321
1683.000000;3.039405
1682.000000;3.225402
1681.000000;3.526532
1680.000000;3.451283
1679.000000;3.153832
1678.000000;3.035121
1677.000000;3.088505
1676.000000;3.471815
1675.000000;3.905116
1674.000000;3.616387
1673.000000;3.170228
1672.000000;2.932533
1671.000000;2.915188
1670.000000;2.978870
1669.000000;2.878613
1668.000000;2.830849
1667.000000;3.085166
1666.000000;3.337306
1665.000000;2.883854
1664.000000;2.840206
1663.000000;3.071890
1662.000000;3.517685
1661.000000;3.577484
1660.000000;3.102400
1659.000000;2.795610
1658.000000;2.708237
1657.000000;2.729020
1656.000000;2.798888
1655.000000;2.942630
1654.000000;3.272822
1653.000000;3.714959
1652.000000;3.601944
1651.000000;3.419524
1650.000000;3.694489
1649.000000;3.547957
1648.000000;3.076028
1647.000000;2.964574
1646.000000;3.232310
1645.000000;3.261385
1644.000000;2.882877
1643.000000;2.804464
1642.000000;2.837719
1641.000000;2.770050
1640.000000;2.731351
1639.000000;2.802413
1638.000000;2.935372
1637.000000;3.059505
1636.000000;3.145302
1635.000000;3.086154
1634.000000;2.843068
1633.000000;2.660518
1632.000000;2.607206
1631.000000;2.686828
1630.000000;2.890733
1629.000000;3.043996
1628.000000;3.078771
1627.000000;3.094222
1626.000000;2.919924
1625.000000;2.797867
1624.000000;2.827953
1623.000000;3.072634
1622.000000;3.400530
1621.000000;3.004231
1620.000000;2.812433
1619.000000;2.974421
1618.000000;3.341561
1617.000000;2.810240
1616.000000;2.638618
1615.000000;2.696243
1614.000000;2.893857
1613.000000;3.213139
1612.000000;3.125423
1611.000000;2.901781
1610.000000;2.717383
1609.000000;2.608926
1608.000000;2.630890
1607.000000;2.749294
1606.000000;2.860797
1605.000000;2.962344
1604.000000;2.907811
1603.000000;2.741072
1602.000000;2.665533
1601.000000;2.639639
1600.000000;2.644424
1599.000000;2.707244
1598.000000;2.832589
1597.000000;3.133096
1596.000000;3.490713
1595.000000;3.010952
1594.000000;2.791854
1593.000000;2.783625
1592.000000;2.871007
1591.000000;2.929579
1590.000000;2.866903
1589.000000;2.862186
1588.000000;2.923526
1587.000000;2.923011
1586.000000;2.900881
1585.000000;2.962676
1584.000000;3.033416
1583.000000;2.949255
1582.000000;2.920314
1581.000000;2.980672
1580.000000;2.890187
1579.000000;2.789192
1578.000000;2.795937
1577.000000;2.799188
1576.000000;2.765036
1575.000000;2.777403
1574.000000;2.869749
1573.000000;3.040478
1572.000000;3.218735
1571.000000;3.222854
1570.000000;3.060092
1569.000000;2.922335
1568.000000;2.880407
1567.000000;2.947679
1566.000000;3.099275
1565.000000;3.040656
1564.000000;2.890066
1563.000000;2.853326
1562.000000;2.874596
1561.000000;2.847947
1560.000000;2.757192
1559.000000;2.686032
1558.000000;2.665297
1557.000000;2.675899
1556.000000;2.696828
1555.000000;2.683637
1554.000000;2.646030
1553.000000;2.599169
1552.000000;2.515318
1551.000000;2.466286
1550.000000;2.523957
1549.000000;2.681509
1548.000000;2.871803
1547.000000;3.127244
1546.000000;3.185460
1545.000000;2.932914
1544.000000;2.816430
1543.000000;2.816645
1542.000000;2.915363
1541.000000;2.983943
1540.000000;2.873471
1539.000000;2.827285
1538.000000;2.912105
1537.000000;2.936257
1536.000000;2.803256
1535.000000;2.701217
1534.000000;2.716794
1533.000000;2.724096
1532.000000;2.656640
1531.000000;2.709732
1530.000000;2.930031
1529.000000;3.142580
1528.000000;3.034227
1527.000000;2.796529
1526.000000;2.693665
1525.000000;2.713832
1524.000000;2.838984
1523.000000;2.851576
1522.000000;2.657622
1521.000000;2.597233
1520.000000;2.768343
1519.000000;3.382170
1518.000000;3.547338
1517.000000;3.153081
1516.000000;3.017517
1515.000000;2.892843
1514.000000;2.886631
1513.000000;2.969355
1512.000000;3.273470
1511.000000;3.151768
1510.000000;2.789464
1509.000000;2.617878
1508.000000;2.533823
1507.000000;2.515611
1506.000000;2.571710
1505.000000;2.785151
1504.000000;3.050571
1503.000000;2.716239
1502.000000;2.469206
1501.000000;2.397309
1500.000000;2.454068
1499.000000;2.822172
1498.000000;3.376257
1497.000000;2.758922
1496.000000;2.632533
1495.000000;2.658635
1494.000000;2.822200
1493.000000;3.087382
1492.000000;3.064079
1491.000000;2.983421
1490.000000;3.016954
1489.000000;3.143210
1488.000000;3.017633
1487.000000;2.862041
1486.000000;2.854047
1485.000000;2.970979
1484.000000;3.177001
1483.000000;3.490899
1482.000000;4.139483
1481.000000;4.127319
1480.000000;3.467250
1479.000000;2.769146
1478.000000;2.443125
1477.000000;2.346510
1476.000000;2.453823
1475.000000;2.831572
1474.000000;3.335729
1473.000000;3.227720
1472.000000;3.024973
1471.000000;2.816812
1470.000000;2.655981
1469.000000;2.522811
1468.000000;2.479467
1467.000000;2.554811
1466.000000;2.642907
1465.000000;2.624250
1464.000000;2.600620
1463.000000;2.769504
1462.000000;3.246176
1461.000000;2.814149
1460.000000;2.509679
1459.000000;2.474633
1458.000000;2.554495
1457.000000;2.815334
1456.000000;3.334035
1455.000000;3.363796
1454.000000;3.471295
1453.000000;3.283921
1452.000000;2.893640
1451.000000;2.792335
1450.000000;2.806542
1449.000000;2.859023
1448.000000;2.992396
1447.000000;3.171408
1446.000000;3.102078
1445.000000;3.134697
1444.000000;3.066574
1443.000000;2.842548
1442.000000;3.037322
1441.000000;3.178549
1440.000000;2.737323
1439.000000;2.544257
1438.000000;2.460119
1437.000000;2.433472
1436.000000;2.479755
1435.000000;2.636269
1434.000000;2.844148
1433.000000;2.797994
1432.000000;2.817994
1431.000000;3.028245
1430.000000;2.833158
1429.000000;2.665163
1428.000000;2.722978
1427.000000;2.940911
1426.000000;2.969916
1425.000000;2.741757
1424.000000;2.640903
1423.000000;2.658485
1422.000000;2.763167
1421.000000;2.979367
1420.000000;3.068811
1419.000000;2.845125
1418.000000;2.707403
1417.000000;2.646471
1416.000000;2.641622
1415.000000;2.718576
1414.000000;2.889119
1413.000000;3.130002
1412.000000;3.242200
1411.000000;3.126634
1410.000000;2.973710
1409.000000;2.863367
1408.000000;2.787031
1407.000000;2.780085
1406.000000;2.818901
1405.000000;2.720446
1404.000000;2.582707
1403.000000;2.540785
1402.000000;2.592666
1401.000000;2.698234
1400.000000;2.659471
1399.000000;2.531450
1398.000000;2.515152
1397.000000;2.656490
1396.000000;3.067201
1395.000000;3.285364
1394.000000;3.350905
1393.000000;3.659858
1392.000000;2.969953
1391.000000;2.802423
1390.000000;2.827388
1389.000000;3.063741
1388.000000;3.465988
1387.000000;3.216633
1386.000000;3.140853
1385.000000;3.246215
1384.000000;3.493182
1383.000000;3.812288
1382.000000;3.740745
1381.000000;3.834493
1380.000000;3.471586
1379.000000;3.263629
1378.000000;3.488472
1377.000000;3.343566
1376.000000;2.873626
1375.000000;2.593026
1374.000000;2.445683
1373.000000;2.392978
1372.000000;2.412937
1371.000000;2.476636
1370.000000;2.550766
1369.000000;2.673722
1368.000000;2.679658
1367.000000;2.534267
1366.000000;2.607506
1365.000000;2.950153
1364.000000;2.725530
1363.000000;2.415090
1362.000000;2.368363
1361.000000;2.458798
1360.000000;2.552082
1359.000000;2.575466
1358.000000;2.649461
1357.000000;2.780200
1356.000000;2.882066
1355.000000;2.935534
1354.000000;2.974730
1353.000000;2.882453
1352.000000;2.723312
1351.000000;2.630304
1350.000000;2.697843
1349.000000;2.959369
1348.000000;2.680732
1347.000000;2.379426
1346.000000;2.269225
1345.000000;2.265243
1344.000000;2.313483
1343.000000;2.371604
1342.000000;2.489651
1341.000000;2.706006
1340.000000;2.970731
1339.000000;3.084875
1338.000000;3.428255
1337.000000;3.422180
1336.000000;2.885871
1335.000000;2.965326
1334.000000;3.118746
1333.000000;2.776596
1332.000000;2.639226
1331.000000;2.635336
1330.000000;2.648434
1329.000000;2.668482
1328.000000;2.741264
1327.000000;2.925806
1326.000000;2.898329
1325.000000;2.651829
1324.000000;2.608366
1323.000000;2.718088
1322.000000;2.862568
1321.000000;3.260237
1320.000000;3.255863
1319.000000;2.919807
1318.000000;2.845218
1317.000000;2.757205
1316.000000;2.664766
1315.000000;2.697451
1314.000000;3.021941
1313.000000;3.200473
1312.000000;2.928890
1311.000000;2.855864
1310.000000;2.704458
1309.000000;2.611506
1308.000000;2.623076
1307.000000;2.696910
1306.000000;2.817009
1305.000000;2.871878
1304.000000;2.739225
1303.000000;2.551937
1302.000000;2.458176
1301.000000;2.456269
1300.000000;2.514308
1299.000000;2.612846
1298.000000;2.747388
1297.000000;2.911652
1296.000000;3.260836
1295.000000;3.257735
1294.000000;2.829452
1293.000000;2.699892
1292.000000;2.753870
1291.000000;2.901959
1290.000000;2.953978
1289.000000;2.857317
1288.000000;2.734321
1287.000000;2.603735
1286.000000;2.528847
1285.000000;2.491812
1284.000000;2.463200
1283.000000;2.407241
1282.000000;2.339496
1281.000000;2.321988
1280.000000;2.378911
1279.000000;2.601430
1278.000000;2.791389
1277.000000;2.529296
1276.000000;2.434667
1275.000000;2.693102
1274.000000;3.036079
1273.000000;2.720169
1272.000000;2.547120
1271.000000;2.449806
1270.000000;2.376582
1269.000000;2.399086
1268.000000;2.530490
1267.000000;2.789341
1266.000000;2.960417
1265.000000;2.928413
1264.000000;2.902043
1263.000000;2.723105
1262.000000;2.509415
1261.000000;2.395575
1260.000000;2.388035
1259.000000;2.451663
1258.000000;2.516250
1257.000000;2.640977
1256.000000;2.787386
1255.000000;2.654977
1254.000000;2.587733
1253.000000;2.588211
1252.000000;2.481284
1251.000000;2.374248
1250.000000;2.378382
1249.000000;2.429933
1248.000000;2.511797
1247.000000;2.936268
1246.000000;2.759696
1245.000000;2.312952
1244.000000;2.157951
1243.000000;2.124021
1242.000000;2.192926
1241.000000;2.313278
1240.000000;2.416768
1239.000000;2.532104
1238.000000;2.599178
1237.000000;2.450173
1236.000000;2.311790
1235.000000;2.309840
1234.000000;2.469074
1233.000000;2.856235
1232.000000;3.038480
1231.000000;2.812336
1230.000000;2.722076
1229.000000;2.749511
1228.000000;3.052629
1227.000000;3.371142
1226.000000;3.394766
1225.000000;2.853259
1224.000000;2.463276
1223.000000;2.351169
1222.000000;2.431848
1221.000000;2.774051
1220.000000;2.697279
1219.000000;2.430219
1218.000000;2.411327
1217.000000;2.516652
1216.000000;2.688797
1215.000000;2.626896
1214.000000;2.425474
1213.000000;2.343679
1212.000000;2.414892
1211.000000;2.766304
1210.000000;3.247548
1209.000000;3.230817
1208.000000;3.087557
1207.000000;2.527052
1206.000000;2.303787
1205.000000;2.262199
1204.000000;2.341952
1203.000000;2.579456
1202.000000;2.897655
1201.000000;2.929543
1200.000000;2.786358
