Criado como novo conjunto de dados;"e0108.spp","-4219001.2 Secs"
cm-1;Abs
10000.000000;1.974744
9999.000000;1.973904
9998.000000;1.973145
9997.000000;1.972206
9996.000000;1.972446
9995.000000;1.975431
9994.000000;1.979987
9993.000000;1.983574
9992.000000;1.986214
9991.000000;1.990179
9990.000000;1.995134
9989.000000;1.997767
9988.000000;1.996338
9987.000000;1.993681
9986.000000;1.994141
9985.000000;1.998656
9984.000000;2.003946
9983.000000;2.005869
9982.000000;2.003036
9981.000000;1.997850
9980.000000;1.995168
9979.000000;1.998945
9978.000000;2.008773
9977.000000;2.020484
9976.000000;2.030003
9975.000000;2.035657
9974.000000;2.037208
9973.000000;2.033881
9972.000000;2.025538
9971.000000;2.015036
9970.000000;2.006548
9969.000000;2.001883
9968.000000;1.999756
9967.000000;1.998347
9966.000000;1.997320
9965.000000;1.997257
9964.000000;1.998352
9963.000000;1.999791
9962.000000;1.999870
9961.000000;1.996597
9960.000000;1.989593
9959.000000;1.981922
9958.000000;1.978862
9957.000000;1.984491
9956.000000;1.998390
9955.000000;2.014141
9954.000000;2.022387
9953.000000;2.018596
9952.000000;2.007598
9951.000000;1.998767
9950.000000;1.997638
9949.000000;2.002348
9948.000000;2.006816
9947.000000;2.006344
9946.000000;2.000228
9945.000000;1.990839
9944.000000;1.981790
9943.000000;1.976266
9942.000000;1.975242
9941.000000;1.976407
9940.000000;1.976432
9939.000000;1.974864
9938.000000;1.973552
9937.000000;1.972790
9936.000000;1.971409
9935.000000;1.971381
9934.000000;1.978313
9933.000000;1.994160
9932.000000;2.010820
9931.000000;2.014971
9930.000000;2.002506
9929.000000;1.983556
9928.000000;1.970490
9927.000000;1.967066
9926.000000;1.969180
9925.000000;1.971250
9924.000000;1.970036
9923.000000;1.964716
9922.000000;1.957301
9921.000000;1.952850
9920.000000;1.956271
9919.000000;1.967979
9918.000000;1.983205
9917.000000;1.995839
9916.000000;2.002735
9915.000000;2.004928
9914.000000;2.005040
9913.000000;2.003187
9912.000000;1.996488
9911.000000;1.982763
9910.000000;1.964401
9909.000000;1.948544
9908.000000;1.942502
9907.000000;1.948017
9906.000000;1.959159
9905.000000;1.966600
9904.000000;1.965975
9903.000000;1.961033
9902.000000;1.957441
9901.000000;1.956227
9900.000000;1.954259
9899.000000;1.949824
9898.000000;1.946175
9897.000000;1.947893
9896.000000;1.954338
9895.000000;1.958779
9894.000000;1.955282
9893.000000;1.945442
9892.000000;1.936244
9891.000000;1.933098
9890.000000;1.936633
9889.000000;1.943835
9888.000000;1.950109
9887.000000;1.951652
9886.000000;1.948272
9885.000000;1.943874
9884.000000;1.943318
9883.000000;1.948640
9882.000000;1.958135
9881.000000;1.968312
9880.000000;1.975659
9879.000000;1.977109
9878.000000;1.970962
9877.000000;1.959588
9876.000000;1.950275
9875.000000;1.950176
9874.000000;1.959944
9873.000000;1.971966
9872.000000;1.975221
9871.000000;1.965000
9870.000000;1.947410
9869.000000;1.932511
9868.000000;1.925700
9867.000000;1.926013
9866.000000;1.929849
9865.000000;1.935005
9864.000000;1.941085
9863.000000;1.946918
9862.000000;1.949716
9861.000000;1.947629
9860.000000;1.941868
9859.000000;1.935883
9858.000000;1.933287
9857.000000;1.936613
9856.000000;1.945804
9855.000000;1.956012
9854.000000;1.959976
9853.000000;1.955364
9852.000000;1.947189
9851.000000;1.941775
9850.000000;1.940888
9849.000000;1.942419
9848.000000;1.943870
9847.000000;1.943375
9846.000000;1.940331
9845.000000;1.937004
9844.000000;1.937686
9843.000000;1.944785
9842.000000;1.955606
9841.000000;1.964299
9840.000000;1.967433
9839.000000;1.965973
9838.000000;1.962243
9837.000000;1.957375
9836.000000;1.951685
9835.000000;1.945311
9834.000000;1.938108
9833.000000;1.931131
9832.000000;1.927453
9831.000000;1.928989
9830.000000;1.933150
9829.000000;1.935193
9828.000000;1.934168
9827.000000;1.934071
9826.000000;1.937663
9825.000000;1.941433
9824.000000;1.940546
9823.000000;1.936380
9822.000000;1.934252
9821.000000;1.936668
9820.000000;1.941340
9819.000000;1.943941
9818.000000;1.941945
9817.000000;1.936106
9816.000000;1.929175
9815.000000;1.923851
9814.000000;1.921696
9813.000000;1.923687
9812.000000;1.930747
9811.000000;1.942197
9810.000000;1.953791
9809.000000;1.959307
9808.000000;1.956266
9807.000000;1.948929
9806.000000;1.943366
9805.000000;1.942043
9804.000000;1.943492
9803.000000;1.944246
9802.000000;1.941450
9801.000000;1.935440
9800.000000;1.929687
9799.000000;1.927255
9798.000000;1.927334
9797.000000;1.926334
9796.000000;1.922586
9795.000000;1.918098
9794.000000;1.915018
9793.000000;1.912787
9792.000000;1.909700
9791.000000;1.905353
9790.000000;1.901060
9789.000000;1.899029
9788.000000;1.901445
9787.000000;1.909396
9786.000000;1.921422
9785.000000;1.933615
9784.000000;1.942460
9783.000000;1.947354
9782.000000;1.949519
9781.000000;1.949457
9780.000000;1.946434
9779.000000;1.939911
9778.000000;1.931473
9777.000000;1.925143
9776.000000;1.924651
9775.000000;1.929541
9774.000000;1.934322
9773.000000;1.933496
9772.000000;1.927687
9771.000000;1.921978
9770.000000;1.918730
9769.000000;1.915602
9768.000000;1.910883
9767.000000;1.907048
9766.000000;1.906859
9765.000000;1.908956
9764.000000;1.910231
9763.000000;1.910715
9762.000000;1.912404
9761.000000;1.914135
9760.000000;1.911794
9759.000000;1.904475
9758.000000;1.896867
9757.000000;1.894073
9756.000000;1.896815
9755.000000;1.902410
9754.000000;1.908404
9753.000000;1.914116
9752.000000;1.919360
9751.000000;1.922926
9750.000000;1.923234
9749.000000;1.920435
9748.000000;1.917203
9747.000000;1.916525
9746.000000;1.917724
9745.000000;1.915790
9744.000000;1.906645
9743.000000;1.892484
9742.000000;1.880080
9741.000000;1.874552
9740.000000;1.875973
9739.000000;1.880977
9738.000000;1.886024
9737.000000;1.889095
9736.000000;1.889998
9735.000000;1.890146
9734.000000;1.891468
9733.000000;1.894613
9732.000000;1.898015
9731.000000;1.899530
9730.000000;1.899052
9729.000000;1.898480
9728.000000;1.899146
9727.000000;1.900315
9726.000000;1.900674
9725.000000;1.900719
9724.000000;1.902350
9723.000000;1.905649
9722.000000;1.907759
9721.000000;1.906431
9720.000000;1.903451
9719.000000;1.902399
9718.000000;1.903492
9717.000000;1.902550
9716.000000;1.895987
9715.000000;1.885578
9714.000000;1.876598
9713.000000;1.873037
9712.000000;1.875831
9711.000000;1.883104
9710.000000;1.890247
9709.000000;1.891768
9708.000000;1.886145
9707.000000;1.878350
9706.000000;1.875521
9705.000000;1.880272
9704.000000;1.888728
9703.000000;1.895149
9702.000000;1.897689
9701.000000;1.898460
9700.000000;1.899630
9699.000000;1.900964
9698.000000;1.900477
9697.000000;1.897028
9696.000000;1.892269
9695.000000;1.889395
9694.000000;1.889391
9693.000000;1.889441
9692.000000;1.885803
9691.000000;1.877911
9690.000000;1.869075
9689.000000;1.862609
9688.000000;1.859318
9687.000000;1.860081
9686.000000;1.866838
9685.000000;1.879172
9684.000000;1.892976
9683.000000;1.903609
9682.000000;1.909227
9681.000000;1.910314
9680.000000;1.907685
9679.000000;1.903164
9678.000000;1.899621
9677.000000;1.897790
9676.000000;1.894469
9675.000000;1.885820
9674.000000;1.872842
9673.000000;1.861593
9672.000000;1.857469
9671.000000;1.860797
9670.000000;1.867514
9669.000000;1.873292
9668.000000;1.877259
9667.000000;1.881451
9666.000000;1.886953
9665.000000;1.891413
9664.000000;1.890797
9663.000000;1.884077
9662.000000;1.875330
9661.000000;1.870015
9660.000000;1.869599
9659.000000;1.870524
9658.000000;1.868866
9657.000000;1.865556
9656.000000;1.865086
9655.000000;1.869467
9654.000000;1.875691
9653.000000;1.879014
9652.000000;1.878054
9651.000000;1.876205
9650.000000;1.877710
9649.000000;1.883216
9648.000000;1.888969
9647.000000;1.889912
9646.000000;1.884626
9645.000000;1.877269
9644.000000;1.874015
9643.000000;1.877127
9642.000000;1.882153
9641.000000;1.882258
9640.000000;1.875570
9639.000000;1.866278
9638.000000;1.858866
9637.000000;1.853937
9636.000000;1.850525
9635.000000;1.849870
9634.000000;1.854101
9633.000000;1.862273
9632.000000;1.870406
9631.000000;1.875961
9630.000000;1.879962
9629.000000;1.883494
9628.000000;1.884650
9627.000000;1.880886
9626.000000;1.873631
9625.000000;1.868378
9624.000000;1.869142
9623.000000;1.874072
9622.000000;1.877476
9621.000000;1.875785
9620.000000;1.870603
9619.000000;1.866101
9618.000000;1.864818
9617.000000;1.866136
9616.000000;1.867866
9615.000000;1.868545
9614.000000;1.867995
9613.000000;1.866447
9612.000000;1.864352
9611.000000;1.863289
9610.000000;1.865820
9609.000000;1.873056
9608.000000;1.882506
9607.000000;1.889730
9606.000000;1.892356
9605.000000;1.891528
9604.000000;1.889349
9603.000000;1.886109
9602.000000;1.880740
9601.000000;1.873076
9600.000000;1.864757
9599.000000;1.858372
9598.000000;1.855985
9597.000000;1.857500
9596.000000;1.859725
9595.000000;1.858183
9594.000000;1.851754
9593.000000;1.845074
9592.000000;1.844359
9591.000000;1.850890
9590.000000;1.859530
9589.000000;1.864141
9588.000000;1.863858
9587.000000;1.862392
9586.000000;1.862225
9585.000000;1.862087
9584.000000;1.859842
9583.000000;1.855322
9582.000000;1.849265
9581.000000;1.841510
9580.000000;1.832239
9579.000000;1.824335
9578.000000;1.822336
9577.000000;1.828530
9576.000000;1.840888
9575.000000;1.854534
9574.000000;1.864520
9573.000000;1.867729
9572.000000;1.863922
9571.000000;1.855872
9570.000000;1.847852
9569.000000;1.842877
9568.000000;1.840580
9567.000000;1.838865
9566.000000;1.838079
9565.000000;1.841017
9564.000000;1.847666
9563.000000;1.852802
9562.000000;1.851647
9561.000000;1.846389
9560.000000;1.843242
9559.000000;1.844320
9558.000000;1.845808
9557.000000;1.844072
9556.000000;1.841099
9555.000000;1.841853
9554.000000;1.848264
9553.000000;1.857961
9552.000000;1.866662
9551.000000;1.870341
9550.000000;1.867365
9549.000000;1.859842
9548.000000;1.851635
9547.000000;1.844605
9546.000000;1.838028
9545.000000;1.831915
9544.000000;1.828900
9543.000000;1.831508
9542.000000;1.838710
9541.000000;1.846240
9540.000000;1.849860
9539.000000;1.847887
9538.000000;1.841787
9537.000000;1.835718
9536.000000;1.834441
9535.000000;1.839589
9534.000000;1.847571
9533.000000;1.852358
9532.000000;1.850736
9531.000000;1.843940
9530.000000;1.835298
9529.000000;1.828228
9528.000000;1.825858
9527.000000;1.829926
9526.000000;1.838684
9525.000000;1.847762
9524.000000;1.854093
9523.000000;1.857218
9522.000000;1.856990
9521.000000;1.853105
9520.000000;1.847340
9519.000000;1.843123
9518.000000;1.841732
9517.000000;1.841034
9516.000000;1.838935
9515.000000;1.836144
9514.000000;1.834485
9513.000000;1.834604
9512.000000;1.836471
9511.000000;1.840088
9510.000000;1.844232
9509.000000;1.846553
9508.000000;1.847002
9507.000000;1.849010
9506.000000;1.854555
9505.000000;1.860242
9504.000000;1.861205
9503.000000;1.857612
9502.000000;1.854193
9501.000000;1.853898
9500.000000;1.854655
9499.000000;1.852482
9498.000000;1.846100
9497.000000;1.837802
9496.000000;1.831500
9495.000000;1.830726
9494.000000;1.836233
9493.000000;1.843710
9492.000000;1.845623
9491.000000;1.838629
9490.000000;1.828515
9489.000000;1.825067
9488.000000;1.832626
9487.000000;1.845742
9486.000000;1.853412
9485.000000;1.849147
9484.000000;1.836957
9483.000000;1.826434
9482.000000;1.823884
9481.000000;1.828541
9480.000000;1.834802
9479.000000;1.837139
9478.000000;1.833883
9477.000000;1.827817
9476.000000;1.823580
9475.000000;1.823682
9474.000000;1.826829
9473.000000;1.829892
9472.000000;1.830748
9471.000000;1.829101
9470.000000;1.825359
9469.000000;1.820095
9468.000000;1.814922
9467.000000;1.812317
9466.000000;1.813802
9465.000000;1.818582
9464.000000;1.824002
9463.000000;1.827696
9462.000000;1.829188
9461.000000;1.829242
9460.000000;1.828514
9459.000000;1.827418
9458.000000;1.826710
9457.000000;1.827239
9456.000000;1.828762
9455.000000;1.829122
9454.000000;1.825843
9453.000000;1.819424
9452.000000;1.813995
9451.000000;1.813646
9450.000000;1.818256
9449.000000;1.823324
9448.000000;1.824355
9447.000000;1.821201
9446.000000;1.817212
9445.000000;1.814868
9444.000000;1.813842
9443.000000;1.812953
9442.000000;1.812270
9441.000000;1.812338
9440.000000;1.812343
9439.000000;1.810594
9438.000000;1.807215
9437.000000;1.805050
9436.000000;1.806622
9435.000000;1.810905
9434.000000;1.814465
9433.000000;1.815831
9432.000000;1.817065
9431.000000;1.819958
9430.000000;1.822653
9429.000000;1.822255
9428.000000;1.819788
9427.000000;1.819306
9426.000000;1.821834
9425.000000;1.823180
9424.000000;1.819256
9423.000000;1.811709
9422.000000;1.806021
9421.000000;1.805580
9420.000000;1.809212
9419.000000;1.813009
9418.000000;1.813631
9417.000000;1.810742
9416.000000;1.806884
9415.000000;1.805108
9414.000000;1.806738
9413.000000;1.810669
9412.000000;1.814233
9411.000000;1.814952
9410.000000;1.812085
9409.000000;1.807350
9408.000000;1.804177
9407.000000;1.805008
9406.000000;1.809132
9405.000000;1.813743
9404.000000;1.816657
9403.000000;1.817143
9402.000000;1.814497
9401.000000;1.807858
9400.000000;1.798810
9399.000000;1.792242
9398.000000;1.792557
9397.000000;1.799738
9396.000000;1.809424
9395.000000;1.816503
9394.000000;1.818743
9393.000000;1.817354
9392.000000;1.815106
9391.000000;1.814333
9390.000000;1.815491
9389.000000;1.817014
9388.000000;1.817165
9387.000000;1.815749
9386.000000;1.813315
9385.000000;1.809884
9384.000000;1.805654
9383.000000;1.801922
9382.000000;1.800242
9381.000000;1.800577
9380.000000;1.801440
9379.000000;1.801931
9378.000000;1.802195
9377.000000;1.801859
9376.000000;1.799416
9375.000000;1.794319
9374.000000;1.788690
9373.000000;1.785623
9372.000000;1.786414
9371.000000;1.790092
9370.000000;1.794889
9369.000000;1.799505
9368.000000;1.803445
9367.000000;1.806681
9366.000000;1.809056
9365.000000;1.810227
9364.000000;1.810203
9363.000000;1.809399
9362.000000;1.807657
9361.000000;1.803949
9360.000000;1.798238
9359.000000;1.792988
9358.000000;1.791155
9357.000000;1.792723
9356.000000;1.794556
9355.000000;1.794171
9354.000000;1.792645
9353.000000;1.792962
9352.000000;1.796323
9351.000000;1.800760
9350.000000;1.802932
9349.000000;1.801008
9348.000000;1.796372
9347.000000;1.792861
9346.000000;1.793726
9345.000000;1.798493
9344.000000;1.802972
9343.000000;1.803345
9342.000000;1.800060
9341.000000;1.796552
9340.000000;1.795048
9339.000000;1.795069
9338.000000;1.795290
9337.000000;1.795255
9336.000000;1.795160
9335.000000;1.795021
9334.000000;1.794646
9333.000000;1.794328
9332.000000;1.795155
9331.000000;1.798332
9330.000000;1.803762
9329.000000;1.809061
9328.000000;1.810670
9327.000000;1.806717
9326.000000;1.799151
9325.000000;1.792396
9324.000000;1.789271
9323.000000;1.789044
9322.000000;1.789554
9321.000000;1.790221
9320.000000;1.792233
9319.000000;1.796182
9318.000000;1.800648
9317.000000;1.803504
9316.000000;1.804002
9315.000000;1.802997
9314.000000;1.801399
9313.000000;1.799030
9312.000000;1.795235
9311.000000;1.790493
9310.000000;1.786851
9309.000000;1.786224
9308.000000;1.788317
9307.000000;1.790600
9306.000000;1.790454
9305.000000;1.787181
9304.000000;1.781889
9303.000000;1.776028
9302.000000;1.770718
9301.000000;1.767074
9300.000000;1.766036
9299.000000;1.767992
9298.000000;1.772878
9297.000000;1.779584
9296.000000;1.785493
9295.000000;1.788038
9294.000000;1.786776
9293.000000;1.783735
9292.000000;1.781750
9291.000000;1.782560
9290.000000;1.786156
9289.000000;1.790974
9288.000000;1.794436
9287.000000;1.794183
9286.000000;1.789913
9285.000000;1.784084
9284.000000;1.780184
9283.000000;1.780070
9282.000000;1.782939
9281.000000;1.786447
9280.000000;1.788498
9279.000000;1.788333
9278.000000;1.786766
9277.000000;1.785569
9276.000000;1.785847
9275.000000;1.786485
9274.000000;1.784877
9273.000000;1.780017
9272.000000;1.774351
9271.000000;1.771560
9270.000000;1.772831
9269.000000;1.776006
9268.000000;1.778091
9267.000000;1.777820
9266.000000;1.775783
9265.000000;1.773283
9264.000000;1.771984
9263.000000;1.773730
9262.000000;1.779157
9261.000000;1.786231
9260.000000;1.791306
9259.000000;1.792571
9258.000000;1.791493
9257.000000;1.790100
9256.000000;1.788618
9255.000000;1.786712
9254.000000;1.785235
9253.000000;1.784805
9252.000000;1.783312
9251.000000;1.777378
9250.000000;1.767371
9249.000000;1.758828
9248.000000;1.757316
9247.000000;1.763076
9246.000000;1.771082
9245.000000;1.775561
9244.000000;1.774217
9243.000000;1.768732
9242.000000;1.762898
9241.000000;1.760768
9240.000000;1.764525
9239.000000;1.772407
9238.000000;1.779509
9237.000000;1.782230
9236.000000;1.781713
9235.000000;1.781846
9234.000000;1.784823
9233.000000;1.789486
9232.000000;1.792773
9231.000000;1.792027
9230.000000;1.786913
9229.000000;1.780126
9228.000000;1.775584
9227.000000;1.774942
9226.000000;1.775950
9225.000000;1.774901
9224.000000;1.770638
9223.000000;1.765372
9222.000000;1.762092
9221.000000;1.762286
9220.000000;1.765475
9219.000000;1.769626
9218.000000;1.772332
9217.000000;1.772796
9216.000000;1.772468
9215.000000;1.772701
9214.000000;1.772562
9213.000000;1.770359
9212.000000;1.766774
9211.000000;1.764602
9210.000000;1.765372
9209.000000;1.767864
9208.000000;1.770108
9207.000000;1.771408
9206.000000;1.771809
9205.000000;1.771121
9204.000000;1.769673
9203.000000;1.768806
9202.000000;1.769260
9201.000000;1.769780
9200.000000;1.768465
9199.000000;1.765235
9198.000000;1.762054
9197.000000;1.760884
9196.000000;1.762051
9195.000000;1.764366
9194.000000;1.766421
9193.000000;1.767900
9192.000000;1.769953
9191.000000;1.773800
9190.000000;1.778464
9189.000000;1.780874
9188.000000;1.779287
9187.000000;1.775669
9186.000000;1.773327
9185.000000;1.773079
9184.000000;1.773048
9183.000000;1.771634
9182.000000;1.769327
9181.000000;1.767477
9180.000000;1.766649
9179.000000;1.766749
9178.000000;1.767776
9177.000000;1.769749
9176.000000;1.772245
9175.000000;1.774197
9174.000000;1.773860
9173.000000;1.769469
9172.000000;1.761189
9171.000000;1.752539
9170.000000;1.748581
9169.000000;1.752037
9168.000000;1.761169
9167.000000;1.771019
9166.000000;1.776860
9165.000000;1.777224
9164.000000;1.773986
9163.000000;1.770140
9162.000000;1.767917
9161.000000;1.767965
9160.000000;1.769361
9159.000000;1.770756
9158.000000;1.771743
9157.000000;1.772693
9156.000000;1.773436
9155.000000;1.773017
9154.000000;1.770974
9153.000000;1.768110
9152.000000;1.765428
9151.000000;1.762992
9150.000000;1.760448
9149.000000;1.758027
9148.000000;1.756234
9147.000000;1.754998
9146.000000;1.754034
9145.000000;1.753630
9144.000000;1.754293
9143.000000;1.755914
9142.000000;1.757656
9141.000000;1.758878
9140.000000;1.759918
9139.000000;1.761425
9138.000000;1.763298
9137.000000;1.764670
9136.000000;1.764669
9135.000000;1.763175
9134.000000;1.761245
9133.000000;1.760561
9132.000000;1.761557
9131.000000;1.762095
9130.000000;1.759334
9129.000000;1.753626
9128.000000;1.749223
9127.000000;1.750119
9126.000000;1.756049
9125.000000;1.762986
9124.000000;1.766890
9123.000000;1.766483
9122.000000;1.763240
9121.000000;1.760097
9120.000000;1.759699
9119.000000;1.762108
9118.000000;1.764051
9117.000000;1.762000
9116.000000;1.756542
9115.000000;1.752175
9114.000000;1.752325
9113.000000;1.755790
9112.000000;1.758332
9111.000000;1.757090
9110.000000;1.753217
9109.000000;1.750649
9108.000000;1.752562
9107.000000;1.758468
9106.000000;1.764195
9105.000000;1.765449
9104.000000;1.761868
9103.000000;1.756611
9102.000000;1.752547
9101.000000;1.750306
9100.000000;1.749623
9099.000000;1.750919
9098.000000;1.754088
9097.000000;1.756943
9096.000000;1.756986
9095.000000;1.754423
9094.000000;1.751994
9093.000000;1.751612
9092.000000;1.752623
9091.000000;1.753566
9090.000000;1.754117
9089.000000;1.754592
9088.000000;1.754318
9087.000000;1.751707
9086.000000;1.746544
9085.000000;1.741440
9084.000000;1.739767
9083.000000;1.742286
9082.000000;1.746418
9081.000000;1.749010
9080.000000;1.749617
9079.000000;1.750256
9078.000000;1.752218
9077.000000;1.754541
9076.000000;1.755735
9075.000000;1.755722
9074.000000;1.755295
9073.000000;1.754850
9072.000000;1.754600
9071.000000;1.754810
9070.000000;1.755309
9069.000000;1.755442
9068.000000;1.754668
9067.000000;1.753101
9066.000000;1.751158
9065.000000;1.749045
9064.000000;1.747221
9063.000000;1.746581
9062.000000;1.747282
9061.000000;1.747860
9060.000000;1.746385
9059.000000;1.742474
9058.000000;1.737829
9057.000000;1.735207
9056.000000;1.736672
9055.000000;1.741855
9054.000000;1.747731
9053.000000;1.751088
9052.000000;1.751691
9051.000000;1.751697
9050.000000;1.751773
9049.000000;1.750055
9048.000000;1.745808
9047.000000;1.741601
9046.000000;1.740265
9045.000000;1.741541
9044.000000;1.743179
9043.000000;1.743993
9042.000000;1.744019
9041.000000;1.742477
9040.000000;1.738193
9039.000000;1.732386
9038.000000;1.728512
9037.000000;1.728729
9036.000000;1.731815
9035.000000;1.734745
9034.000000;1.735624
9033.000000;1.734941
9032.000000;1.734851
9031.000000;1.737454
9030.000000;1.742625
9029.000000;1.747223
9028.000000;1.747585
9027.000000;1.743151
9026.000000;1.736931
9025.000000;1.732901
9024.000000;1.733809
9023.000000;1.740506
9022.000000;1.751176
9021.000000;1.760668
9020.000000;1.762997
9019.000000;1.756519
9018.000000;1.745750
9017.000000;1.737070
9016.000000;1.733834
9015.000000;1.735742
9014.000000;1.740689
9013.000000;1.746021
9012.000000;1.749088
9011.000000;1.748403
9010.000000;1.744884
9009.000000;1.741319
9008.000000;1.740200
9007.000000;1.742017
9006.000000;1.745105
9005.000000;1.746849
9004.000000;1.745911
9003.000000;1.743703
9002.000000;1.742752
9001.000000;1.743670
9000.000000;1.744440
8999.000000;1.742819
8998.000000;1.738806
8997.000000;1.734100
8996.000000;1.730085
8995.000000;1.727222
8994.000000;1.725518
8993.000000;1.724697
8992.000000;1.724323
8991.000000;1.724545
8990.000000;1.726184
8989.000000;1.728989
8988.000000;1.730557
8987.000000;1.728747
8986.000000;1.725265
8985.000000;1.724590
8984.000000;1.728810
8983.000000;1.735315
8982.000000;1.740017
8981.000000;1.741784
8980.000000;1.742407
8979.000000;1.743200
8978.000000;1.743788
8977.000000;1.743894
8976.000000;1.744425
8975.000000;1.746221
8974.000000;1.748674
8973.000000;1.749899
8972.000000;1.748121
8971.000000;1.743286
8970.000000;1.737488
8969.000000;1.733663
8968.000000;1.733384
8967.000000;1.735301
8966.000000;1.736187
8965.000000;1.734455
8964.000000;1.732033
8963.000000;1.731833
8962.000000;1.734326
8961.000000;1.737269
8960.000000;1.738139
8959.000000;1.736471
8958.000000;1.733985
8957.000000;1.732759
8956.000000;1.733451
8955.000000;1.734857
8954.000000;1.735124
8953.000000;1.733666
8952.000000;1.731555
8951.000000;1.729806
8950.000000;1.728024
8949.000000;1.725515
8948.000000;1.723142
8947.000000;1.722902
8946.000000;1.725791
8945.000000;1.730844
8944.000000;1.736062
8943.000000;1.739533
8942.000000;1.740029
8941.000000;1.737891
8940.000000;1.735322
8939.000000;1.734559
8938.000000;1.735394
8937.000000;1.735238
8936.000000;1.732385
8935.000000;1.728306
8934.000000;1.725701
8933.000000;1.725397
8932.000000;1.726088
8931.000000;1.726509
8930.000000;1.726884
8929.000000;1.728290
8928.000000;1.731340
8927.000000;1.735436
8926.000000;1.738772
8925.000000;1.739361
8924.000000;1.736915
8923.000000;1.733710
8922.000000;1.732842
8921.000000;1.735370
8920.000000;1.739223
8919.000000;1.740936
8918.000000;1.738814
8917.000000;1.734467
8916.000000;1.731134
8915.000000;1.730671
8914.000000;1.732095
8913.000000;1.733041
8912.000000;1.732646
8911.000000;1.732513
8910.000000;1.734516
8909.000000;1.738356
8908.000000;1.741814
8907.000000;1.743158
8906.000000;1.742717
8905.000000;1.741960
8904.000000;1.741890
8903.000000;1.742426
8902.000000;1.742690
8901.000000;1.741953
8900.000000;1.740224
8899.000000;1.737981
8898.000000;1.735574
8897.000000;1.732972
8896.000000;1.730190
8895.000000;1.727901
8894.000000;1.727203
8893.000000;1.728389
8892.000000;1.729968
8891.000000;1.729482
8890.000000;1.725818
8889.000000;1.720413
8888.000000;1.715770
8887.000000;1.713312
8886.000000;1.713080
8885.000000;1.714838
8884.000000;1.718348
8883.000000;1.722364
8882.000000;1.724647
8881.000000;1.724149
8880.000000;1.722564
8879.000000;1.722604
8878.000000;1.725102
8877.000000;1.728491
8876.000000;1.730684
8875.000000;1.730785
8874.000000;1.729356
8873.000000;1.727918
8872.000000;1.728009
8871.000000;1.729802
8870.000000;1.731635
8869.000000;1.731762
8868.000000;1.730687
8867.000000;1.730695
8866.000000;1.732956
8865.000000;1.735984
8864.000000;1.737216
8863.000000;1.735704
8862.000000;1.732753
8861.000000;1.730256
8860.000000;1.729028
8859.000000;1.728478
8858.000000;1.727540
8857.000000;1.726148
8856.000000;1.725495
8855.000000;1.726475
8854.000000;1.728671
8853.000000;1.731382
8852.000000;1.734526
8851.000000;1.737417
8850.000000;1.737747
8849.000000;1.733949
8848.000000;1.728307
8847.000000;1.725227
8846.000000;1.726255
8845.000000;1.728843
8844.000000;1.730350
8843.000000;1.731017
8842.000000;1.731709
8841.000000;1.731160
8840.000000;1.727897
8839.000000;1.723357
8838.000000;1.720663
8837.000000;1.721067
8836.000000;1.723240
8835.000000;1.725408
8834.000000;1.726813
8833.000000;1.727399
8832.000000;1.727491
8831.000000;1.727829
8830.000000;1.728873
8829.000000;1.730063
8828.000000;1.730628
8827.000000;1.730802
8826.000000;1.731196
8825.000000;1.731324
8824.000000;1.730080
8823.000000;1.727564
8822.000000;1.725408
8821.000000;1.725488
8820.000000;1.728609
8819.000000;1.733723
8818.000000;1.738032
8817.000000;1.738807
8816.000000;1.736255
8815.000000;1.733550
8814.000000;1.732886
8813.000000;1.732854
8812.000000;1.731049
8811.000000;1.727903
8810.000000;1.725813
8809.000000;1.725665
8808.000000;1.726713
8807.000000;1.728965
8806.000000;1.732878
8805.000000;1.736648
8804.000000;1.736835
8803.000000;1.732821
8802.000000;1.727990
8801.000000;1.725374
8800.000000;1.724486
8799.000000;1.723579
8798.000000;1.723016
8797.000000;1.724430
8796.000000;1.727759
8795.000000;1.731007
8794.000000;1.732677
8793.000000;1.732943
8792.000000;1.732533
8791.000000;1.731759
8790.000000;1.730860
8789.000000;1.730528
8788.000000;1.731544
8787.000000;1.733954
8786.000000;1.736524
8785.000000;1.737194
8784.000000;1.734962
8783.000000;1.731379
8782.000000;1.729261
8781.000000;1.729807
8780.000000;1.731632
8779.000000;1.732655
8778.000000;1.732151
8777.000000;1.730695
8776.000000;1.728993
8775.000000;1.727347
8774.000000;1.725681
8773.000000;1.723686
8772.000000;1.721436
8771.000000;1.720112
8770.000000;1.721213
8769.000000;1.724489
8768.000000;1.727603
8767.000000;1.728472
8766.000000;1.727101
8765.000000;1.724739
8764.000000;1.722542
8763.000000;1.721641
8762.000000;1.722977
8761.000000;1.726023
8760.000000;1.728642
8759.000000;1.729220
8758.000000;1.728325
8757.000000;1.727301
8756.000000;1.726414
8755.000000;1.725947
8754.000000;1.727797
8753.000000;1.733649
8752.000000;1.741799
8751.000000;1.747642
8750.000000;1.748231
8749.000000;1.745089
8748.000000;1.741432
8747.000000;1.738461
8746.000000;1.735617
8745.000000;1.732790
8744.000000;1.730840
8743.000000;1.730462
8742.000000;1.731361
8741.000000;1.732549
8740.000000;1.732918
8739.000000;1.731747
8738.000000;1.729407
8737.000000;1.727378
8736.000000;1.726874
8735.000000;1.727617
8734.000000;1.728526
8733.000000;1.729574
8732.000000;1.732219
8731.000000;1.737490
8730.000000;1.744101
8729.000000;1.748825
8728.000000;1.748785
8727.000000;1.743597
8726.000000;1.735662
8725.000000;1.728767
8724.000000;1.726001
8723.000000;1.727885
8722.000000;1.732079
8721.000000;1.735448
8720.000000;1.736720
8719.000000;1.736700
8718.000000;1.736233
8717.000000;1.735319
8716.000000;1.734323
8715.000000;1.734544
8714.000000;1.736500
8713.000000;1.738552
8712.000000;1.738530
8711.000000;1.736464
8710.000000;1.734476
8709.000000;1.734142
8708.000000;1.735095
8707.000000;1.736069
8706.000000;1.736246
8705.000000;1.735418
8704.000000;1.733828
8703.000000;1.732315
8702.000000;1.731919
8701.000000;1.732917
8700.000000;1.734703
8699.000000;1.736647
8698.000000;1.738464
8697.000000;1.739753
8696.000000;1.740094
8695.000000;1.739765
8694.000000;1.739512
8693.000000;1.739478
8692.000000;1.739214
8691.000000;1.738861
8690.000000;1.739351
8689.000000;1.740914
8688.000000;1.742199
8687.000000;1.741500
8686.000000;1.738517
8685.000000;1.734553
8684.000000;1.731493
8683.000000;1.730869
8682.000000;1.733065
8681.000000;1.736842
8680.000000;1.740165
8679.000000;1.741875
8678.000000;1.742175
8677.000000;1.741756
8676.000000;1.741188
8675.000000;1.741078
8674.000000;1.741609
8673.000000;1.741444
8672.000000;1.738619
8671.000000;1.733549
8670.000000;1.729612
8669.000000;1.729539
8668.000000;1.732490
8667.000000;1.735865
8666.000000;1.738884
8665.000000;1.742454
8664.000000;1.746318
8663.000000;1.748697
8662.000000;1.748746
8661.000000;1.747448
8660.000000;1.745859
8659.000000;1.744165
8658.000000;1.742814
8657.000000;1.742831
8656.000000;1.744142
8655.000000;1.744873
8654.000000;1.743472
8653.000000;1.740609
8652.000000;1.737965
8651.000000;1.736167
8650.000000;1.734907
8649.000000;1.734391
8648.000000;1.735626
8647.000000;1.739121
8646.000000;1.743713
8645.000000;1.746961
8644.000000;1.746999
8643.000000;1.744442
8642.000000;1.742298
8641.000000;1.743248
8640.000000;1.746854
8639.000000;1.749961
8638.000000;1.750206
8637.000000;1.748338
8636.000000;1.746490
8635.000000;1.745406
8634.000000;1.744472
8633.000000;1.743498
8632.000000;1.743073
8631.000000;1.743365
8630.000000;1.743752
8629.000000;1.743824
8628.000000;1.743814
8627.000000;1.743711
8626.000000;1.742850
8625.000000;1.740968
8624.000000;1.738974
8623.000000;1.738046
8622.000000;1.738449
8621.000000;1.739634
8620.000000;1.741248
8619.000000;1.743393
8618.000000;1.745785
8617.000000;1.747431
8616.000000;1.747676
8615.000000;1.747221
8614.000000;1.747616
8613.000000;1.749508
8612.000000;1.751404
8611.000000;1.750718
8610.000000;1.746667
8609.000000;1.741626
8608.000000;1.738857
8607.000000;1.739264
8606.000000;1.740925
8605.000000;1.741732
8604.000000;1.741817
8603.000000;1.742741
8602.000000;1.745018
8601.000000;1.747644
8600.000000;1.749865
8599.000000;1.752121
8598.000000;1.754749
8597.000000;1.756623
8596.000000;1.756014
8595.000000;1.752458
8594.000000;1.747020
8593.000000;1.741222
8592.000000;1.736523
8591.000000;1.734190
8590.000000;1.734451
8589.000000;1.735832
8588.000000;1.736425
8587.000000;1.736020
8586.000000;1.736073
8585.000000;1.737354
8584.000000;1.738757
8583.000000;1.739041
8582.000000;1.738842
8581.000000;1.739833
8580.000000;1.742247
8579.000000;1.744286
8578.000000;1.744173
8577.000000;1.742094
8576.000000;1.739781
8575.000000;1.738775
8574.000000;1.739336
8573.000000;1.740421
8572.000000;1.740312
8571.000000;1.737766
8570.000000;1.733149
8569.000000;1.728571
8568.000000;1.726630
8567.000000;1.728568
8566.000000;1.733406
8565.000000;1.738732
8564.000000;1.742423
8563.000000;1.743760
8562.000000;1.743131
8561.000000;1.741189
8560.000000;1.738598
8559.000000;1.736175
8558.000000;1.734602
8557.000000;1.733788
8556.000000;1.732927
8555.000000;1.731532
8554.000000;1.730251
8553.000000;1.730420
8552.000000;1.732845
8551.000000;1.737037
8550.000000;1.741482
8549.000000;1.744517
8548.000000;1.745409
8547.000000;1.744901
8546.000000;1.744429
8545.000000;1.744823
8544.000000;1.745803
8543.000000;1.746397
8542.000000;1.745738
8541.000000;1.743707
8540.000000;1.741176
8539.000000;1.739475
8538.000000;1.739355
8537.000000;1.740500
8536.000000;1.742024
8535.000000;1.743139
8534.000000;1.743152
8533.000000;1.741523
8532.000000;1.738641
8531.000000;1.736309
8530.000000;1.736522
8529.000000;1.739337
8528.000000;1.742642
8527.000000;1.744491
8526.000000;1.745026
8525.000000;1.745423
8524.000000;1.745757
8523.000000;1.744987
8522.000000;1.742697
8521.000000;1.739859
8520.000000;1.737784
8519.000000;1.737062
8518.000000;1.737556
8517.000000;1.738746
8516.000000;1.740049
8515.000000;1.741117
8514.000000;1.741891
8513.000000;1.742513
8512.000000;1.743343
8511.000000;1.744691
8510.000000;1.746059
8509.000000;1.745984
8508.000000;1.743631
8507.000000;1.740565
8506.000000;1.739730
8505.000000;1.742177
8504.000000;1.745691
8503.000000;1.747302
8502.000000;1.746463
8501.000000;1.744616
8500.000000;1.742567
8499.000000;1.740117
8498.000000;1.737762
8497.000000;1.736864
8496.000000;1.738040
8495.000000;1.740770
8494.000000;1.744623
8493.000000;1.749513
8492.000000;1.754302
8491.000000;1.756557
8490.000000;1.754969
8489.000000;1.751106
8488.000000;1.747504
8487.000000;1.744900
8486.000000;1.742464
8485.000000;1.739961
8484.000000;1.738295
8483.000000;1.738130
8482.000000;1.739241
8481.000000;1.741252
8480.000000;1.743952
8479.000000;1.746643
8478.000000;1.747993
8477.000000;1.747069
8476.000000;1.744155
8475.000000;1.740310
8474.000000;1.736598
8473.000000;1.733956
8472.000000;1.733219
8471.000000;1.734694
8470.000000;1.737766
8469.000000;1.741241
8468.000000;1.744050
8467.000000;1.745470
8466.000000;1.744900
8465.000000;1.742181
8464.000000;1.738536
8463.000000;1.736506
8462.000000;1.737862
8461.000000;1.741382
8460.000000;1.743438
8459.000000;1.741525
8458.000000;1.736900
8457.000000;1.732927
8456.000000;1.731445
8455.000000;1.731802
8454.000000;1.732912
8453.000000;1.734727
8452.000000;1.737256
8451.000000;1.739458
8450.000000;1.740194
8449.000000;1.739654
8448.000000;1.738917
8447.000000;1.738563
8446.000000;1.738541
8445.000000;1.738875
8444.000000;1.739431
8443.000000;1.739363
8442.000000;1.738023
8441.000000;1.736367
8440.000000;1.736291
8439.000000;1.738397
8438.000000;1.741244
8437.000000;1.743034
8436.000000;1.743276
8435.000000;1.742448
8434.000000;1.741180
8433.000000;1.740281
8432.000000;1.740413
8431.000000;1.741069
8430.000000;1.740803
8429.000000;1.739116
8428.000000;1.737327
8427.000000;1.736970
8426.000000;1.737995
8425.000000;1.739226
8424.000000;1.739884
8423.000000;1.739788
8422.000000;1.738701
8421.000000;1.736720
8420.000000;1.735007
8419.000000;1.734904
8418.000000;1.736301
8417.000000;1.737825
8416.000000;1.738686
8415.000000;1.739366
8414.000000;1.740260
8413.000000;1.740744
8412.000000;1.740158
8411.000000;1.738895
8410.000000;1.737921
8409.000000;1.737633
8408.000000;1.737586
8407.000000;1.737143
8406.000000;1.736062
8405.000000;1.734686
8404.000000;1.733879
8403.000000;1.734497
8402.000000;1.736678
8401.000000;1.739695
8400.000000;1.742547
8399.000000;1.744505
8398.000000;1.745268
8397.000000;1.745015
8396.000000;1.744234
8395.000000;1.743102
8394.000000;1.741143
8393.000000;1.738103
8392.000000;1.735129
8391.000000;1.734228
8390.000000;1.736221
8389.000000;1.739739
8388.000000;1.742640
8387.000000;1.743975
8386.000000;1.744185
8385.000000;1.743933
8384.000000;1.743388
8383.000000;1.742572
8382.000000;1.741825
8381.000000;1.741635
8380.000000;1.741981
8379.000000;1.741974
8378.000000;1.740544
8377.000000;1.737791
8376.000000;1.735343
8375.000000;1.734915
8374.000000;1.736717
8373.000000;1.739614
8372.000000;1.742342
8371.000000;1.743775
8370.000000;1.742604
8369.000000;1.738340
8368.000000;1.732901
8367.000000;1.729692
8366.000000;1.730338
8365.000000;1.733117
8364.000000;1.735138
8363.000000;1.735435
8362.000000;1.735139
8361.000000;1.735581
8360.000000;1.737447
8359.000000;1.740908
8358.000000;1.745190
8357.000000;1.748341
8356.000000;1.748758
8355.000000;1.746997
8354.000000;1.745089
8353.000000;1.744231
8352.000000;1.744087
8351.000000;1.743989
8350.000000;1.743685
8349.000000;1.742973
8348.000000;1.741829
8347.000000;1.741062
8346.000000;1.741598
8345.000000;1.742761
8344.000000;1.742324
8343.000000;1.738998
8342.000000;1.734161
8341.000000;1.730459
8340.000000;1.729455
8339.000000;1.730882
8338.000000;1.733403
8337.000000;1.735652
8336.000000;1.736989
8335.000000;1.737774
8334.000000;1.738834
8333.000000;1.740456
8332.000000;1.742030
8331.000000;1.742778
8330.000000;1.742597
8329.000000;1.741953
8328.000000;1.741208
8327.000000;1.740523
8326.000000;1.740165
8325.000000;1.740375
8324.000000;1.740990
8323.000000;1.741503
8322.000000;1.741502
8321.000000;1.740958
8320.000000;1.740201
8319.000000;1.739696
8318.000000;1.739743
8317.000000;1.740321
8316.000000;1.741217
8315.000000;1.742132
8314.000000;1.742646
8313.000000;1.742293
8312.000000;1.740839
8311.000000;1.738598
8310.000000;1.736258
8309.000000;1.734200
8308.000000;1.732332
8307.000000;1.730784
8306.000000;1.730260
8305.000000;1.731284
8304.000000;1.733306
8303.000000;1.734983
8302.000000;1.735550
8301.000000;1.735561
8300.000000;1.736057
8299.000000;1.737217
8298.000000;1.738146
8297.000000;1.738088
8296.000000;1.737407
8295.000000;1.736862
8294.000000;1.736261
8293.000000;1.734698
8292.000000;1.732275
8291.000000;1.730668
8290.000000;1.731412
8289.000000;1.734212
8288.000000;1.737506
8287.000000;1.740205
8286.000000;1.741968
8285.000000;1.742385
8284.000000;1.741059
8283.000000;1.738464
8282.000000;1.735896
8281.000000;1.734353
8280.000000;1.733973
8279.000000;1.734511
8278.000000;1.735639
8277.000000;1.736785
8276.000000;1.737518
8275.000000;1.738133
8274.000000;1.739187
8273.000000;1.740443
8272.000000;1.740897
8271.000000;1.740091
8270.000000;1.738761
8269.000000;1.737995
8268.000000;1.738425
8267.000000;1.740236
8266.000000;1.743002
8265.000000;1.745189
8264.000000;1.744841
8263.000000;1.741602
8262.000000;1.737541
8261.000000;1.735359
8260.000000;1.736089
8259.000000;1.738661
8258.000000;1.740980
8257.000000;1.741114
8256.000000;1.738318
8255.000000;1.733714
8254.000000;1.729655
8253.000000;1.727950
8252.000000;1.728852
8251.000000;1.731735
8250.000000;1.735996
8249.000000;1.740742
8248.000000;1.744281
8247.000000;1.745171
8246.000000;1.743943
8245.000000;1.742836
8244.000000;1.743421
8243.000000;1.744949
8242.000000;1.745297
8241.000000;1.743386
8240.000000;1.740409
8239.000000;1.738513
8238.000000;1.738307
8237.000000;1.738131
8236.000000;1.736264
8235.000000;1.733538
8234.000000;1.732656
8233.000000;1.734835
8232.000000;1.738062
8231.000000;1.739191
8230.000000;1.737327
8229.000000;1.734398
8228.000000;1.732776
8227.000000;1.733338
8226.000000;1.735600
8225.000000;1.738595
8224.000000;1.741393
8223.000000;1.743448
8222.000000;1.744828
8221.000000;1.745792
8220.000000;1.745975
8219.000000;1.744411
8218.000000;1.740740
8217.000000;1.736208
8216.000000;1.733109
8215.000000;1.733003
8214.000000;1.735314
8213.000000;1.737709
8212.000000;1.738190
8211.000000;1.736942
8210.000000;1.735842
8209.000000;1.736245
8208.000000;1.737620
8207.000000;1.738342
8206.000000;1.737519
8205.000000;1.735780
8204.000000;1.734438
8203.000000;1.734138
8202.000000;1.734244
8201.000000;1.733544
8200.000000;1.731801
8199.000000;1.730404
8198.000000;1.731044
8197.000000;1.733838
8196.000000;1.737209
8195.000000;1.739628
8194.000000;1.740829
8193.000000;1.741103
8192.000000;1.740247
8191.000000;1.737867
8190.000000;1.734282
8189.000000;1.730608
8188.000000;1.728175
8187.000000;1.728027
8186.000000;1.730374
8185.000000;1.733985
8184.000000;1.736665
8183.000000;1.737196
8182.000000;1.736628
8181.000000;1.736954
8180.000000;1.738778
8179.000000;1.740923
8178.000000;1.742105
8177.000000;1.742164
8176.000000;1.741576
8175.000000;1.740634
8174.000000;1.739469
8173.000000;1.738372
8172.000000;1.737692
8171.000000;1.737538
8170.000000;1.737774
8169.000000;1.738295
8168.000000;1.739154
8167.000000;1.740241
8166.000000;1.740849
8165.000000;1.740005
8164.000000;1.737737
8163.000000;1.735775
8162.000000;1.736144
8161.000000;1.738857
8160.000000;1.741587
8159.000000;1.742155
8158.000000;1.740846
8157.000000;1.739533
8156.000000;1.739063
8155.000000;1.738478
8154.000000;1.736647
8153.000000;1.733801
8152.000000;1.731324
8151.000000;1.730550
8150.000000;1.731920
8149.000000;1.734819
8148.000000;1.737957
8147.000000;1.740099
8146.000000;1.740588
8145.000000;1.739363
8144.000000;1.736911
8143.000000;1.734392
8142.000000;1.733246
8141.000000;1.734043
8140.000000;1.735900
8139.000000;1.737468
8138.000000;1.738176
8137.000000;1.738087
8136.000000;1.737244
8135.000000;1.736091
8134.000000;1.736069
8133.000000;1.738393
8132.000000;1.742029
8131.000000;1.744041
8130.000000;1.742620
8129.000000;1.738921
8128.000000;1.735413
8127.000000;1.733426
8126.000000;1.732868
8125.000000;1.733382
8124.000000;1.734754
8123.000000;1.736404
8122.000000;1.737352
8121.000000;1.736995
8120.000000;1.735686
8119.000000;1.734485
8118.000000;1.734514
8117.000000;1.736381
8116.000000;1.739720
8115.000000;1.743138
8114.000000;1.744924
8113.000000;1.744174
8112.000000;1.741522
8111.000000;1.738887
8110.000000;1.738264
8109.000000;1.740206
8108.000000;1.743142
8107.000000;1.744565
8106.000000;1.743364
8105.000000;1.740792
8104.000000;1.738932
8103.000000;1.738641
8102.000000;1.739183
8101.000000;1.739403
8100.000000;1.738885
8099.000000;1.738087
8098.000000;1.737746
8097.000000;1.738148
8096.000000;1.738826
8095.000000;1.739098
8094.000000;1.738924
8093.000000;1.738909
8092.000000;1.739307
8091.000000;1.739430
8090.000000;1.738499
8089.000000;1.736896
8088.000000;1.735989
8087.000000;1.736675
8086.000000;1.738550
8085.000000;1.740553
8084.000000;1.741936
8083.000000;1.742371
8082.000000;1.741647
8081.000000;1.739971
8080.000000;1.738411
8079.000000;1.738265
8078.000000;1.739737
8077.000000;1.741564
8076.000000;1.742204
8075.000000;1.741126
8074.000000;1.738784
8073.000000;1.735886
8072.000000;1.733255
8071.000000;1.731910
8070.000000;1.732503
8069.000000;1.734624
8068.000000;1.737070
8067.000000;1.738861
8066.000000;1.739695
8065.000000;1.739596
8064.000000;1.738847
8063.000000;1.738306
8062.000000;1.738800
8061.000000;1.739830
8060.000000;1.739692
8059.000000;1.737455
8058.000000;1.734126
8057.000000;1.731358
8056.000000;1.729883
8055.000000;1.729808
8054.000000;1.731416
8053.000000;1.734539
8052.000000;1.737671
8051.000000;1.739130
8050.000000;1.739040
8049.000000;1.738892
8048.000000;1.739187
8047.000000;1.738936
8046.000000;1.737742
8045.000000;1.736900
8044.000000;1.737654
8043.000000;1.739377
8042.000000;1.740376
8041.000000;1.739941
8040.000000;1.738923
8039.000000;1.738670
8038.000000;1.739970
8037.000000;1.742503
8036.000000;1.744702
8035.000000;1.744632
8034.000000;1.741857
8033.000000;1.738169
8032.000000;1.735802
8031.000000;1.735279
8030.000000;1.735490
8029.000000;1.735427
8028.000000;1.735073
8027.000000;1.734696
8026.000000;1.734120
8025.000000;1.733062
8024.000000;1.731789
8023.000000;1.731144
8022.000000;1.731915
8021.000000;1.734039
8020.000000;1.736283
8019.000000;1.737044
8018.000000;1.735888
8017.000000;1.733983
8016.000000;1.732604
8015.000000;1.731691
8014.000000;1.730541
8013.000000;1.729523
8012.000000;1.730017
8011.000000;1.732579
8010.000000;1.736104
8009.000000;1.739091
8008.000000;1.740891
8007.000000;1.741262
8006.000000;1.739709
8005.000000;1.736368
8004.000000;1.732891
8003.000000;1.731221
8002.000000;1.731567
8001.000000;1.732418
8000.000000;1.732568
7999.000000;1.732353
7998.000000;1.732677
7997.000000;1.733758
7996.000000;1.735339
7995.000000;1.737332
7994.000000;1.739480
7993.000000;1.740776
7992.000000;1.740085
7991.000000;1.737517
7990.000000;1.734610
7989.000000;1.733027
7988.000000;1.733422
7987.000000;1.735344
7986.000000;1.737632
7985.000000;1.738896
7984.000000;1.738262
7983.000000;1.736195
7982.000000;1.734381
7981.000000;1.734444
7980.000000;1.736662
7979.000000;1.739856
7978.000000;1.742382
7977.000000;1.743266
7976.000000;1.742720
7975.000000;1.741822
7974.000000;1.741591
7973.000000;1.742136
7972.000000;1.742635
7971.000000;1.742199
7970.000000;1.740704
7969.000000;1.738730
7968.000000;1.736863
7967.000000;1.735247
7966.000000;1.733796
7965.000000;1.732705
7964.000000;1.732710
7963.000000;1.734685
7962.000000;1.738660
7961.000000;1.743089
7960.000000;1.745516
7959.000000;1.744577
7958.000000;1.741320
7957.000000;1.738173
7956.000000;1.736731
7955.000000;1.736826
7954.000000;1.737409
7953.000000;1.737819
7952.000000;1.738071
7951.000000;1.738322
7950.000000;1.738531
7949.000000;1.738652
7948.000000;1.738881
7947.000000;1.739515
7946.000000;1.740475
7945.000000;1.741070
7944.000000;1.740513
7943.000000;1.738733
7942.000000;1.736481
7941.000000;1.734629
7940.000000;1.733574
7939.000000;1.733357
7938.000000;1.734063
7937.000000;1.735752
7936.000000;1.738111
7935.000000;1.740507
7934.000000;1.742518
7933.000000;1.744180
7932.000000;1.745550
7931.000000;1.746301
7930.000000;1.746093
7929.000000;1.745266
7928.000000;1.744807
7927.000000;1.745425
7926.000000;1.746680
7925.000000;1.747178
7924.000000;1.745847
7923.000000;1.743027
7922.000000;1.740174
7921.000000;1.738472
7920.000000;1.737944
7919.000000;1.737883
7918.000000;1.737855
7917.000000;1.737988
7916.000000;1.738481
7915.000000;1.739222
7914.000000;1.739931
7913.000000;1.740344
7912.000000;1.740152
7911.000000;1.739134
7910.000000;1.737653
7909.000000;1.736827
7908.000000;1.737692
7907.000000;1.740047
7906.000000;1.742329
7905.000000;1.742970
7904.000000;1.741905
7903.000000;1.740532
7902.000000;1.740198
7901.000000;1.740930
7900.000000;1.741680
7899.000000;1.741569
7898.000000;1.740679
7897.000000;1.739801
7896.000000;1.739623
7895.000000;1.740111
7894.000000;1.740547
7893.000000;1.740219
7892.000000;1.739258
7891.000000;1.738685
7890.000000;1.739343
7889.000000;1.740857
7888.000000;1.742001
7887.000000;1.742066
7886.000000;1.741392
7885.000000;1.740541
7884.000000;1.739575
7883.000000;1.738427
7882.000000;1.737432
7881.000000;1.736961
7880.000000;1.736825
7879.000000;1.736573
7878.000000;1.736294
7877.000000;1.736587
7876.000000;1.737641
7875.000000;1.738773
7874.000000;1.739126
7873.000000;1.738599
7872.000000;1.737895
7871.000000;1.737726
7870.000000;1.738138
7869.000000;1.738643
7868.000000;1.738929
7867.000000;1.739255
7866.000000;1.740027
7865.000000;1.741160
7864.000000;1.742209
7863.000000;1.743056
7862.000000;1.743939
7861.000000;1.744664
7860.000000;1.744414
7859.000000;1.742825
7858.000000;1.740773
7857.000000;1.739506
7856.000000;1.739358
7855.000000;1.739901
7854.000000;1.741003
7853.000000;1.742896
7852.000000;1.745105
7851.000000;1.746184
7850.000000;1.745041
7849.000000;1.742080
7848.000000;1.738623
7847.000000;1.735726
7846.000000;1.733936
7845.000000;1.733663
7844.000000;1.735053
7843.000000;1.737547
7842.000000;1.740034
7841.000000;1.741628
7840.000000;1.742119
7839.000000;1.741728
7838.000000;1.740766
7837.000000;1.739695
7836.000000;1.739265
7835.000000;1.740195
7834.000000;1.742513
7833.000000;1.745221
7832.000000;1.746835
7831.000000;1.746482
7830.000000;1.744487
7829.000000;1.741883
7828.000000;1.739561
7827.000000;1.738067
7826.000000;1.737815
7825.000000;1.738931
7824.000000;1.740803
7823.000000;1.742257
7822.000000;1.742491
7821.000000;1.741676
7820.000000;1.740486
7819.000000;1.739336
7818.000000;1.738291
7817.000000;1.737387
7816.000000;1.736647
7815.000000;1.735982
7814.000000;1.735508
7813.000000;1.735874
7812.000000;1.737731
7811.000000;1.740630
7810.000000;1.742888
7809.000000;1.743082
7808.000000;1.741530
7807.000000;1.739832
7806.000000;1.739057
7805.000000;1.738883
7804.000000;1.738584
7803.000000;1.738269
7802.000000;1.738642
7801.000000;1.739847
7800.000000;1.741237
7799.000000;1.742254
7798.000000;1.742925
7797.000000;1.743294
7796.000000;1.742950
7795.000000;1.741590
7794.000000;1.739715
7793.000000;1.738284
7792.000000;1.737803
7791.000000;1.738122
7790.000000;1.738948
7789.000000;1.740079
7788.000000;1.741173
7787.000000;1.741734
7786.000000;1.741467
7785.000000;1.740530
7784.000000;1.739477
7783.000000;1.739070
7782.000000;1.739935
7781.000000;1.742036
7780.000000;1.744493
7779.000000;1.746267
7778.000000;1.747134
7777.000000;1.747697
7776.000000;1.748379
7775.000000;1.748799
7774.000000;1.748330
7773.000000;1.747000
7772.000000;1.745515
7771.000000;1.744449
7770.000000;1.743730
7769.000000;1.743019
7768.000000;1.742455
7767.000000;1.742763
7766.000000;1.744464
7765.000000;1.746980
7764.000000;1.748868
7763.000000;1.749141
7762.000000;1.748142
7761.000000;1.746900
7760.000000;1.746034
7759.000000;1.745702
7758.000000;1.746153
7757.000000;1.747505
7756.000000;1.749108
7755.000000;1.749926
7754.000000;1.749689
7753.000000;1.749025
7752.000000;1.748297
7751.000000;1.747012
7750.000000;1.744745
7749.000000;1.742060
7748.000000;1.740034
7747.000000;1.739236
7746.000000;1.739608
7745.000000;1.741008
7744.000000;1.743268
7743.000000;1.745717
7742.000000;1.747189
7741.000000;1.746948
7740.000000;1.745593
7739.000000;1.744762
7738.000000;1.745687
7737.000000;1.747910
7736.000000;1.749565
7735.000000;1.749206
7734.000000;1.747282
7733.000000;1.745469
7732.000000;1.744801
7731.000000;1.744969
7730.000000;1.745225
7729.000000;1.745259
7728.000000;1.745051
7727.000000;1.744562
7726.000000;1.743959
7725.000000;1.743695
7724.000000;1.743999
7723.000000;1.744578
7722.000000;1.745047
7721.000000;1.745316
7720.000000;1.745371
7719.000000;1.745236
7718.000000;1.745381
7717.000000;1.746466
7716.000000;1.748136
7715.000000;1.748798
7714.000000;1.747469
7713.000000;1.745384
7712.000000;1.744786
7711.000000;1.746372
7710.000000;1.748774
7709.000000;1.750416
7708.000000;1.750969
7707.000000;1.750849
7706.000000;1.750282
7705.000000;1.749443
7704.000000;1.748795
7703.000000;1.748683
7702.000000;1.748962
7701.000000;1.749466
7700.000000;1.750425
7699.000000;1.751942
7698.000000;1.753355
7697.000000;1.753613
7696.000000;1.752311
7695.000000;1.750044
7694.000000;1.747849
7693.000000;1.746596
7692.000000;1.746703
7691.000000;1.747929
7690.000000;1.749344
7689.000000;1.749900
7688.000000;1.749322
7687.000000;1.748306
7686.000000;1.747713
7685.000000;1.747679
7684.000000;1.747709
7683.000000;1.747618
7682.000000;1.748009
7681.000000;1.749548
7680.000000;1.751979
7679.000000;1.754231
7678.000000;1.755485
7677.000000;1.755718
7676.000000;1.755092
7675.000000;1.753442
7674.000000;1.750879
7673.000000;1.748527
7672.000000;1.747913
7671.000000;1.749554
7670.000000;1.752491
7669.000000;1.755154
7668.000000;1.756385
7667.000000;1.755802
7666.000000;1.753859
7665.000000;1.751793
7664.000000;1.750916
7663.000000;1.751457
7662.000000;1.752354
7661.000000;1.752501
7660.000000;1.751957
7659.000000;1.751578
7658.000000;1.751793
7657.000000;1.752348
7656.000000;1.753133
7655.000000;1.754532
7654.000000;1.756668
7653.000000;1.758796
7652.000000;1.759875
7651.000000;1.759625
7650.000000;1.758623
7649.000000;1.757471
7648.000000;1.756361
7647.000000;1.755521
7646.000000;1.755534
7645.000000;1.756703
7644.000000;1.758284
7643.000000;1.758881
7642.000000;1.757865
7641.000000;1.756051
7640.000000;1.754744
7639.000000;1.754435
7638.000000;1.754702
7637.000000;1.755152
7636.000000;1.755920
7635.000000;1.757016
7634.000000;1.757705
7633.000000;1.757097
7632.000000;1.755300
7631.000000;1.753601
7630.000000;1.753331
7629.000000;1.754645
7628.000000;1.756400
7627.000000;1.757198
7626.000000;1.756655
7625.000000;1.755675
7624.000000;1.755462
7623.000000;1.756346
7622.000000;1.757614
7621.000000;1.758373
7620.000000;1.758347
7619.000000;1.757878
7618.000000;1.757461
7617.000000;1.757433
7616.000000;1.757822
7615.000000;1.758193
7614.000000;1.757910
7613.000000;1.756970
7612.000000;1.756440
7611.000000;1.757573
7610.000000;1.760360
7609.000000;1.763280
7608.000000;1.764666
7607.000000;1.764191
7606.000000;1.762843
7605.000000;1.761779
7604.000000;1.761499
7603.000000;1.761901
7602.000000;1.762709
7601.000000;1.763762
7600.000000;1.765078
7599.000000;1.766660
7598.000000;1.768180
7597.000000;1.769018
7596.000000;1.768824
7595.000000;1.767955
7594.000000;1.767147
7593.000000;1.766853
7592.000000;1.767088
7591.000000;1.767727
7590.000000;1.768520
7589.000000;1.768894
7588.000000;1.768344
7587.000000;1.767211
7586.000000;1.766549
7585.000000;1.766816
7584.000000;1.767171
7583.000000;1.766596
7582.000000;1.765460
7581.000000;1.765247
7580.000000;1.766692
7579.000000;1.768845
7578.000000;1.770199
7577.000000;1.770260
7576.000000;1.769612
7575.000000;1.768838
7574.000000;1.767993
7573.000000;1.767032
7572.000000;1.766281
7571.000000;1.766322
7570.000000;1.767585
7569.000000;1.770022
7568.000000;1.772950
7567.000000;1.775257
7566.000000;1.776030
7565.000000;1.775164
7564.000000;1.773368
7563.000000;1.771657
7562.000000;1.770874
7561.000000;1.771371
7560.000000;1.772753
7559.000000;1.773987
7558.000000;1.774226
7557.000000;1.773666
7556.000000;1.773288
7555.000000;1.773680
7554.000000;1.774428
7553.000000;1.774816
7552.000000;1.774790
7551.000000;1.774869
7550.000000;1.775274
7549.000000;1.775604
7548.000000;1.775504
7547.000000;1.775279
7546.000000;1.775538
7545.000000;1.776327
7544.000000;1.776920
7543.000000;1.776606
7542.000000;1.775592
7541.000000;1.774891
7540.000000;1.775339
7539.000000;1.776821
7538.000000;1.778471
7537.000000;1.779489
7536.000000;1.779697
7535.000000;1.779475
7534.000000;1.779309
7533.000000;1.779336
7532.000000;1.779218
7531.000000;1.778592
7530.000000;1.777700
7529.000000;1.777336
7528.000000;1.777987
7527.000000;1.779252
7526.000000;1.780390
7525.000000;1.781226
7524.000000;1.782040
7523.000000;1.782675
7522.000000;1.782513
7521.000000;1.781562
7520.000000;1.780859
7519.000000;1.781240
7518.000000;1.782200
7517.000000;1.782630
7516.000000;1.782441
7515.000000;1.782648
7514.000000;1.783789
7513.000000;1.785039
7512.000000;1.785248
7511.000000;1.784368
7510.000000;1.783345
7509.000000;1.782912
7508.000000;1.783011
7507.000000;1.783288
7506.000000;1.783636
7505.000000;1.784125
7504.000000;1.784754
7503.000000;1.785492
7502.000000;1.786434
7501.000000;1.787727
7500.000000;1.789330
7499.000000;1.790950
7498.000000;1.792209
7497.000000;1.792874
7496.000000;1.792880
7495.000000;1.792291
7494.000000;1.791319
7493.000000;1.790296
7492.000000;1.789738
7491.000000;1.789945
7490.000000;1.790574
7489.000000;1.790818
7488.000000;1.790261
7487.000000;1.789499
7486.000000;1.789627
7485.000000;1.791067
7484.000000;1.793033
7483.000000;1.794284
7482.000000;1.794343
7481.000000;1.793807
7480.000000;1.793499
7479.000000;1.793620
7478.000000;1.793815
7477.000000;1.793848
7476.000000;1.793867
7475.000000;1.793999
7474.000000;1.794023
7473.000000;1.793706
7472.000000;1.793285
7471.000000;1.793310
7470.000000;1.793975
7469.000000;1.794896
7468.000000;1.795706
7467.000000;1.796657
7466.000000;1.798335
7465.000000;1.800833
7464.000000;1.803388
7463.000000;1.804921
7462.000000;1.804901
7461.000000;1.803691
7460.000000;1.802259
7459.000000;1.801613
7458.000000;1.802223
7457.000000;1.803638
7456.000000;1.804709
7455.000000;1.804535
7454.000000;1.803322
7453.000000;1.802150
7452.000000;1.801808
7451.000000;1.802131
7450.000000;1.802628
7449.000000;1.803365
7448.000000;1.804684
7447.000000;1.806180
7446.000000;1.806705
7445.000000;1.805736
7444.000000;1.804165
7443.000000;1.803276
7442.000000;1.803347
7441.000000;1.803782
7440.000000;1.804210
7439.000000;1.804736
7438.000000;1.805264
7437.000000;1.805447
7436.000000;1.805487
7435.000000;1.806202
7434.000000;1.807862
7433.000000;1.809513
7432.000000;1.809968
7431.000000;1.809182
7430.000000;1.808136
7429.000000;1.807666
7428.000000;1.807958
7427.000000;1.808919
7426.000000;1.810365
7425.000000;1.811805
7424.000000;1.812621
7423.000000;1.812693
7422.000000;1.812501
7421.000000;1.812466
7420.000000;1.812504
7419.000000;1.812360
7418.000000;1.812024
7417.000000;1.811583
7416.000000;1.810945
7415.000000;1.810050
7414.000000;1.809215
7413.000000;1.808956
7412.000000;1.809487
7411.000000;1.810557
7410.000000;1.811781
7409.000000;1.812955
7408.000000;1.813942
7407.000000;1.814464
7406.000000;1.814325
7405.000000;1.813886
7404.000000;1.814066
7403.000000;1.815452
7402.000000;1.817398
7401.000000;1.818474
7400.000000;1.818020
7399.000000;1.816864
7398.000000;1.816235
7397.000000;1.816355
7396.000000;1.816565
7395.000000;1.816571
7394.000000;1.816860
7393.000000;1.817783
7392.000000;1.818862
7391.000000;1.819329
7390.000000;1.818979
7389.000000;1.818246
7388.000000;1.817760
7387.000000;1.818004
7386.000000;1.819042
7385.000000;1.820295
7384.000000;1.820843
7383.000000;1.820252
7382.000000;1.819018
7381.000000;1.818072
7380.000000;1.818024
7379.000000;1.818905
7378.000000;1.820310
7377.000000;1.821540
7376.000000;1.821901
7375.000000;1.821270
7374.000000;1.820320
7373.000000;1.819981
7372.000000;1.820708
7371.000000;1.822306
7370.000000;1.824193
7369.000000;1.825624
7368.000000;1.825995
7367.000000;1.825428
7366.000000;1.824870
7365.000000;1.825144
7364.000000;1.826029
7363.000000;1.826699
7362.000000;1.826975
7361.000000;1.827607
7360.000000;1.829166
7359.000000;1.831144
7358.000000;1.832561
7357.000000;1.833122
7356.000000;1.833343
7355.000000;1.833710
7354.000000;1.834124
7353.000000;1.834291
7352.000000;1.834249
7351.000000;1.834216
7350.000000;1.834135
7349.000000;1.833647
7348.000000;1.832558
7347.000000;1.831284
7346.000000;1.830807
7345.000000;1.831981
7344.000000;1.834709
7343.000000;1.837740
7342.000000;1.839480
7341.000000;1.839290
7340.000000;1.838013
7339.000000;1.837166
7338.000000;1.837551
7337.000000;1.838651
7336.000000;1.839318
7335.000000;1.838846
7334.000000;1.837498
7333.000000;1.836314
7332.000000;1.836372
7331.000000;1.837904
7330.000000;1.839982
7329.000000;1.841254
7328.000000;1.841200
7327.000000;1.840650
7326.000000;1.840902
7325.000000;1.842330
7324.000000;1.844006
7323.000000;1.844640
7322.000000;1.843812
7321.000000;1.842401
7320.000000;1.841838
7319.000000;1.842945
7318.000000;1.845322
7317.000000;1.847700
7316.000000;1.848969
7315.000000;1.848936
7314.000000;1.848206
7313.000000;1.847583
7312.000000;1.847747
7311.000000;1.849053
7310.000000;1.851117
7309.000000;1.852780
7308.000000;1.852984
7307.000000;1.851790
7306.000000;1.850383
7305.000000;1.850002
7304.000000;1.850951
7303.000000;1.852676
7302.000000;1.854441
7301.000000;1.855712
7300.000000;1.856230
7299.000000;1.856152
7298.000000;1.856061
7297.000000;1.856438
7296.000000;1.857073
7295.000000;1.857344
7294.000000;1.857162
7293.000000;1.857355
7292.000000;1.858779
7291.000000;1.861150
7290.000000;1.863067
7289.000000;1.863317
7288.000000;1.862050
7287.000000;1.860512
7286.000000;1.859856
7285.000000;1.860499
7284.000000;1.862367
7283.000000;1.865141
7282.000000;1.868080
7281.000000;1.870050
7280.000000;1.870330
7279.000000;1.869452
7278.000000;1.868807
7277.000000;1.869379
7276.000000;1.871062
7275.000000;1.873072
7274.000000;1.874597
7273.000000;1.875123
7272.000000;1.874619
7271.000000;1.873549
7270.000000;1.872563
7269.000000;1.872127
7268.000000;1.872520
7267.000000;1.873979
7266.000000;1.876413
7265.000000;1.878952
7264.000000;1.880375
7263.000000;1.880281
7262.000000;1.879532
7261.000000;1.879388
7260.000000;1.880595
7259.000000;1.883362
7258.000000;1.887488
7257.000000;1.891986
7256.000000;1.895134
7255.000000;1.895746
7254.000000;1.894366
7253.000000;1.892698
7252.000000;1.892010
7251.000000;1.892469
7250.000000;1.893665
7249.000000;1.895135
7248.000000;1.896525
7247.000000;1.897789
7246.000000;1.899239
7245.000000;1.901029
7244.000000;1.902694
7243.000000;1.903699
7242.000000;1.904434
7241.000000;1.905975
7240.000000;1.908753
7239.000000;1.912084
7238.000000;1.915139
7237.000000;1.917760
7236.000000;1.920084
7235.000000;1.921920
7234.000000;1.922952
7233.000000;1.923312
7232.000000;1.923744
7231.000000;1.925143
7230.000000;1.927754
7229.000000;1.930863
7228.000000;1.933384
7227.000000;1.934855
7226.000000;1.935843
7225.000000;1.937319
7224.000000;1.939681
7223.000000;1.942566
7222.000000;1.945394
7221.000000;1.947661
7220.000000;1.948886
7219.000000;1.949027
7218.000000;1.949083
7217.000000;1.950538
7216.000000;1.953777
7215.000000;1.957469
7214.000000;1.959801
7213.000000;1.960199
7212.000000;1.959804
7211.000000;1.960526
7210.000000;1.963674
7209.000000;1.968964
7208.000000;1.974570
7207.000000;1.978569
7206.000000;1.980576
7205.000000;1.981668
7204.000000;1.982797
7203.000000;1.984050
7202.000000;1.985571
7201.000000;1.988114
7200.000000;1.992016
7199.000000;1.996409
7198.000000;2.000184
7197.000000;2.003302
7196.000000;2.006493
7195.000000;2.010056
7194.000000;2.013629
7193.000000;2.016818
7192.000000;2.019418
7191.000000;2.021280
7190.000000;2.022708
7189.000000;2.024734
7188.000000;2.028135
7187.000000;2.032356
7186.000000;2.036160
7185.000000;2.039259
7184.000000;2.042446
7183.000000;2.046125
7182.000000;2.049520
7181.000000;2.051692
7180.000000;2.052952
7179.000000;2.054858
7178.000000;2.058922
7177.000000;2.065452
7176.000000;2.073189
7175.000000;2.079941
7174.000000;2.084132
7173.000000;2.086088
7172.000000;2.087576
7171.000000;2.090098
7170.000000;2.093957
7169.000000;2.098600
7168.000000;2.103233
7167.000000;2.107305
7166.000000;2.110948
7165.000000;2.114846
7164.000000;2.119227
7163.000000;2.123317
7162.000000;2.126420
7161.000000;2.129216
7160.000000;2.133002
7159.000000;2.137754
7158.000000;2.142120
7157.000000;2.145402
7156.000000;2.148307
7155.000000;2.151383
7154.000000;2.154016
7153.000000;2.155837
7152.000000;2.158307
7151.000000;2.163548
7150.000000;2.171752
7149.000000;2.180568
7148.000000;2.187053
7147.000000;2.189887
7146.000000;2.189918
7145.000000;2.189274
7144.000000;2.190094
7143.000000;2.193487
7142.000000;2.199128
7141.000000;2.205688
7140.000000;2.211686
7139.000000;2.216230
7138.000000;2.219506
7137.000000;2.222616
7136.000000;2.226411
7135.000000;2.230317
7134.000000;2.232771
7133.000000;2.233191
7132.000000;2.233072
7131.000000;2.234675
7130.000000;2.238988
7129.000000;2.245309
7128.000000;2.252471
7127.000000;2.259795
7126.000000;2.266795
7125.000000;2.272917
7124.000000;2.277933
7123.000000;2.282116
7122.000000;2.285944
7121.000000;2.289685
7120.000000;2.293065
7119.000000;2.295286
7118.000000;2.295821
7117.000000;2.295533
7116.000000;2.296581
7115.000000;2.300589
7114.000000;2.306923
7113.000000;2.313102
7112.000000;2.317004
7111.000000;2.318597
7110.000000;2.319530
7109.000000;2.321322
7108.000000;2.324124
7107.000000;2.327045
7106.000000;2.329447
7105.000000;2.331758
7104.000000;2.334846
7103.000000;2.338740
7102.000000;2.342446
7101.000000;2.345198
7100.000000;2.347563
7099.000000;2.350969
7098.000000;2.356075
7097.000000;2.361854
7096.000000;2.366372
7095.000000;2.368405
7094.000000;2.368244
7093.000000;2.367013
7092.000000;2.365411
7091.000000;2.363467
7090.000000;2.361918
7089.000000;2.363205
7088.000000;2.369818
7087.000000;2.381276
7086.000000;2.393553
7085.000000;2.402574
7084.000000;2.408127
7083.000000;2.412883
7082.000000;2.417804
7081.000000;2.420570
7080.000000;2.419258
7079.000000;2.415964
7078.000000;2.414942
7077.000000;2.417788
7076.000000;2.421835
7075.000000;2.423170
7074.000000;2.420552
7073.000000;2.416039
7072.000000;2.412506
7071.000000;2.411468
7070.000000;2.413054
7069.000000;2.416973
7068.000000;2.422898
7067.000000;2.430099
7066.000000;2.437067
7065.000000;2.441881
7064.000000;2.443292
7063.000000;2.441525
7062.000000;2.438056
7061.000000;2.434908
7060.000000;2.434194
7059.000000;2.437291
7058.000000;2.443680
7057.000000;2.450708
7056.000000;2.455202
7055.000000;2.456027
7054.000000;2.455067
7053.000000;2.455300
7052.000000;2.457943
7051.000000;2.461491
7050.000000;2.463323
7049.000000;2.462255
7048.000000;2.459531
7047.000000;2.457376
7046.000000;2.457129
7045.000000;2.458651
7044.000000;2.460978
7043.000000;2.463433
7042.000000;2.465829
7041.000000;2.467855
7040.000000;2.469223
7039.000000;2.470668
7038.000000;2.473830
7037.000000;2.479079
7036.000000;2.483989
7035.000000;2.485568
7034.000000;2.484078
7033.000000;2.482968
7032.000000;2.484820
7031.000000;2.488936
7030.000000;2.493270
7029.000000;2.497062
7028.000000;2.500223
7027.000000;2.501506
7026.000000;2.499640
7025.000000;2.496015
7024.000000;2.493758
7023.000000;2.493813
7022.000000;2.494217
7021.000000;2.493622
7020.000000;2.493404
7019.000000;2.495575
7018.000000;2.499994
7017.000000;2.504552
7016.000000;2.507365
7015.000000;2.507898
7014.000000;2.506756
7013.000000;2.505475
7012.000000;2.505900
7011.000000;2.508743
7010.000000;2.512687
7009.000000;2.515426
7008.000000;2.515740
7007.000000;2.514180
7006.000000;2.512184
7005.000000;2.511292
7004.000000;2.512323
7003.000000;2.514554
7002.000000;2.516471
7001.000000;2.517683
7000.000000;2.519330
6999.000000;2.521722
6998.000000;2.522678
6997.000000;2.519947
6996.000000;2.514377
6995.000000;2.509823
6994.000000;2.510147
6993.000000;2.516217
6992.000000;2.525445
6991.000000;2.533104
6990.000000;2.535094
6989.000000;2.531624
6988.000000;2.527238
6987.000000;2.526028
6986.000000;2.527466
6985.000000;2.527532
6984.000000;2.524006
6983.000000;2.519476
6982.000000;2.518227
6981.000000;2.521285
6980.000000;2.525294
6979.000000;2.525810
6978.000000;2.521541
6977.000000;2.515846
6976.000000;2.514081
6975.000000;2.519026
6974.000000;2.528669
6973.000000;2.538001
6972.000000;2.543161
6971.000000;2.543897
6970.000000;2.541942
6969.000000;2.538705
6968.000000;2.535359
6967.000000;2.533235
6966.000000;2.532580
6965.000000;2.532015
6964.000000;2.530360
6963.000000;2.528278
6962.000000;2.527534
6961.000000;2.528971
6960.000000;2.531728
6959.000000;2.534325
6958.000000;2.535746
6957.000000;2.535481
6956.000000;2.533478
6955.000000;2.530451
6954.000000;2.527714
6953.000000;2.526391
6952.000000;2.526928
6951.000000;2.529215
6950.000000;2.532677
6949.000000;2.536102
6948.000000;2.537980
6947.000000;2.537718
6946.000000;2.536483
6945.000000;2.536392
6944.000000;2.538218
6943.000000;2.540002
6942.000000;2.539230
6941.000000;2.536386
6940.000000;2.535098
6939.000000;2.538565
6938.000000;2.546007
6937.000000;2.553024
6936.000000;2.555677
6935.000000;2.553494
6934.000000;2.548385
6933.000000;2.542309
6932.000000;2.536921
6931.000000;2.533826
6930.000000;2.533577
6929.000000;2.534984
6928.000000;2.536472
6927.000000;2.537712
6926.000000;2.538998
6925.000000;2.539799
6924.000000;2.539397
6923.000000;2.538572
6922.000000;2.539312
6921.000000;2.542526
6920.000000;2.546801
6919.000000;2.549472
6918.000000;2.548320
6917.000000;2.542820
6916.000000;2.534991
6915.000000;2.529119
6914.000000;2.528923
6913.000000;2.533610
6912.000000;2.537741
6911.000000;2.536629
6910.000000;2.531485
6909.000000;2.527611
6908.000000;2.528303
6907.000000;2.532050
6906.000000;2.535006
6905.000000;2.534979
6904.000000;2.532634
6903.000000;2.529687
6902.000000;2.527267
6901.000000;2.525915
6900.000000;2.525992
6899.000000;2.527576
6898.000000;2.529925
6897.000000;2.531492
6896.000000;2.531533
6895.000000;2.531327
6894.000000;2.532622
6893.000000;2.535111
6892.000000;2.536389
6891.000000;2.534838
6890.000000;2.531672
6889.000000;2.529078
6888.000000;2.527287
6887.000000;2.524952
6886.000000;2.521909
6885.000000;2.519871
6884.000000;2.519843
6883.000000;2.520508
6882.000000;2.520271
6881.000000;2.519470
6880.000000;2.519451
6879.000000;2.520347
6878.000000;2.520741
6877.000000;2.519766
6876.000000;2.518544
6875.000000;2.518433
6874.000000;2.518678
6873.000000;2.517209
6872.000000;2.513912
6871.000000;2.511756
6870.000000;2.513726
6869.000000;2.519378
6868.000000;2.525240
6867.000000;2.528397
6866.000000;2.528856
6865.000000;2.528269
6864.000000;2.527699
6863.000000;2.527273
6862.000000;2.526800
6861.000000;2.525767
6860.000000;2.523347
6859.000000;2.519333
6858.000000;2.514878
6857.000000;2.511608
6856.000000;2.510093
6855.000000;2.509724
6854.000000;2.509904
6853.000000;2.510646
6852.000000;2.511945
6851.000000;2.513307
6850.000000;2.514252
6849.000000;2.514829
6848.000000;2.515265
6847.000000;2.515650
6846.000000;2.516397
6845.000000;2.518429
6844.000000;2.522013
6843.000000;2.525516
6842.000000;2.526423
6841.000000;2.523989
6840.000000;2.520309
6839.000000;2.518749
6838.000000;2.521399
6837.000000;2.527372
6836.000000;2.533073
6835.000000;2.534655
6834.000000;2.531083
6833.000000;2.524855
6832.000000;2.519467
6831.000000;2.516821
6830.000000;2.516901
6829.000000;2.518511
6828.000000;2.519750
6827.000000;2.518843
6826.000000;2.515779
6825.000000;2.512824
6824.000000;2.512252
6823.000000;2.513653
6822.000000;2.514210
6821.000000;2.511987
6820.000000;2.508376
6819.000000;2.506376
6818.000000;2.507046
6817.000000;2.508713
6816.000000;2.509383
6815.000000;2.508701
6814.000000;2.506861
6813.000000;2.502814
6812.000000;2.495265
6811.000000;2.485367
6810.000000;2.476785
6809.000000;2.472363
6808.000000;2.471737
6807.000000;2.472763
6806.000000;2.474397
6805.000000;2.476885
6804.000000;2.479658
6803.000000;2.481178
6802.000000;2.481241
6801.000000;2.481565
6800.000000;2.482974
6799.000000;2.483469
6798.000000;2.481074
6797.000000;2.477481
6796.000000;2.476458
6795.000000;2.479234
6794.000000;2.483564
6793.000000;2.486837
6792.000000;2.487924
6791.000000;2.486030
6790.000000;2.480623
6789.000000;2.473610
6788.000000;2.468776
6787.000000;2.467410
6786.000000;2.466614
6785.000000;2.463735
6784.000000;2.460667
6783.000000;2.460951
6782.000000;2.463947
6781.000000;2.465057
6780.000000;2.461898
6779.000000;2.457186
6778.000000;2.454488
6777.000000;2.454129
6776.000000;2.454350
6775.000000;2.454100
6774.000000;2.453126
6773.000000;2.450888
6772.000000;2.447284
6771.000000;2.443794
6770.000000;2.442427
6769.000000;2.443736
6768.000000;2.446580
6767.000000;2.449215
6766.000000;2.449969
6765.000000;2.447886
6764.000000;2.443878
6763.000000;2.440525
6762.000000;2.439553
6761.000000;2.439771
6760.000000;2.438604
6759.000000;2.435460
6758.000000;2.432149
6757.000000;2.430155
6756.000000;2.428895
6755.000000;2.426706
6754.000000;2.422876
6753.000000;2.418627
6752.000000;2.416280
6751.000000;2.417155
6750.000000;2.419855
6749.000000;2.421056
6748.000000;2.418811
6747.000000;2.414557
6746.000000;2.410957
6745.000000;2.408826
6744.000000;2.407331
6743.000000;2.406270
6742.000000;2.406445
6741.000000;2.407749
6740.000000;2.408555
6739.000000;2.407594
6738.000000;2.405243
6737.000000;2.402587
6736.000000;2.400264
6735.000000;2.398492
6734.000000;2.397347
6733.000000;2.396497
6732.000000;2.395332
6731.000000;2.393918
6730.000000;2.393159
6729.000000;2.393374
6728.000000;2.393299
6727.000000;2.391312
6726.000000;2.387326
6725.000000;2.382774
6724.000000;2.378998
6723.000000;2.376272
6722.000000;2.374150
6721.000000;2.372257
6720.000000;2.370734
6719.000000;2.370067
6718.000000;2.370334
6717.000000;2.370663
6716.000000;2.369926
6715.000000;2.368160
6714.000000;2.366716
6713.000000;2.366697
6712.000000;2.367769
6711.000000;2.368698
6710.000000;2.368596
6709.000000;2.367195
6708.000000;2.364309
6707.000000;2.360064
6706.000000;2.355641
6705.000000;2.352705
6704.000000;2.351820
6703.000000;2.351598
6702.000000;2.350117
6701.000000;2.346603
6700.000000;2.342618
6699.000000;2.341125
6698.000000;2.343377
6697.000000;2.347696
6696.000000;2.350523
6695.000000;2.349477
6694.000000;2.345088
6693.000000;2.339635
6692.000000;2.334958
6691.000000;2.331782
6690.000000;2.330256
6689.000000;2.330149
6688.000000;2.330665
6687.000000;2.330887
6686.000000;2.330606
6685.000000;2.330282
6684.000000;2.330053
6683.000000;2.329195
6682.000000;2.326823
6681.000000;2.323103
6680.000000;2.319525
6679.000000;2.317709
6678.000000;2.317985
6677.000000;2.319303
6676.000000;2.320394
6675.000000;2.320558
6674.000000;2.319179
6673.000000;2.315339
6672.000000;2.309039
6671.000000;2.302498
6670.000000;2.298949
6669.000000;2.299681
6668.000000;2.302811
6667.000000;2.305240
6666.000000;2.305422
6665.000000;2.303812
6664.000000;2.301347
6663.000000;2.298524
6662.000000;2.295640
6661.000000;2.292893
6660.000000;2.290282
6659.000000;2.287936
6658.000000;2.286304
6657.000000;2.285462
6656.000000;2.284539
6655.000000;2.282504
6654.000000;2.279448
6653.000000;2.276501
6652.000000;2.274529
6651.000000;2.273517
6650.000000;2.273166
6649.000000;2.273318
6648.000000;2.273599
6647.000000;2.273294
6646.000000;2.272064
6645.000000;2.270513
6644.000000;2.269719
6643.000000;2.270332
6642.000000;2.272156
6641.000000;2.274281
6640.000000;2.275429
6639.000000;2.274488
6638.000000;2.271161
6637.000000;2.266212
6636.000000;2.260992
6635.000000;2.256701
6634.000000;2.253948
6633.000000;2.252761
6632.000000;2.252824
6631.000000;2.253627
6630.000000;2.254456
6629.000000;2.254440
6628.000000;2.252864
6627.000000;2.249628
6626.000000;2.245282
6625.000000;2.240666
6624.000000;2.236705
6623.000000;2.234359
6622.000000;2.234139
6621.000000;2.235430
6620.000000;2.236770
6619.000000;2.237225
6618.000000;2.237205
6617.000000;2.237578
6616.000000;2.238382
6615.000000;2.238829
6614.000000;2.238198
6613.000000;2.236176
6612.000000;2.232734
6611.000000;2.228514
6610.000000;2.225114
6609.000000;2.224004
6608.000000;2.224900
6607.000000;2.225835
6606.000000;2.225236
6605.000000;2.223584
6604.000000;2.222519
6603.000000;2.222649
6602.000000;2.222785
6601.000000;2.221205
6600.000000;2.217527
6599.000000;2.213310
6598.000000;2.210777
6597.000000;2.210872
6596.000000;2.212454
6595.000000;2.213498
6594.000000;2.213101
6593.000000;2.212033
6592.000000;2.211323
6591.000000;2.210924
6590.000000;2.209997
6589.000000;2.208076
6588.000000;2.205454
6587.000000;2.202620
6586.000000;2.199857
6585.000000;2.197434
6584.000000;2.195752
6583.000000;2.195011
6582.000000;2.194883
6581.000000;2.194680
6580.000000;2.193860
6579.000000;2.192357
6578.000000;2.190523
6577.000000;2.188801
6576.000000;2.187400
6575.000000;2.186160
6574.000000;2.184675
6573.000000;2.182651
6572.000000;2.180287
6571.000000;2.178271
6570.000000;2.177216
6569.000000;2.177065
6568.000000;2.177177
6567.000000;2.176946
6566.000000;2.176216
6565.000000;2.175199
6564.000000;2.174294
6563.000000;2.173929
6562.000000;2.174174
6561.000000;2.174345
6560.000000;2.173425
6559.000000;2.171186
6558.000000;2.168542
6557.000000;2.166515
6556.000000;2.165199
6555.000000;2.164047
6554.000000;2.162876
6553.000000;2.162019
6552.000000;2.161553
6551.000000;2.160958
6550.000000;2.159756
6549.000000;2.158166
6548.000000;2.156900
6547.000000;2.156484
6546.000000;2.156779
6545.000000;2.157004
6544.000000;2.156193
6543.000000;2.153908
6542.000000;2.150704
6541.000000;2.147819
6540.000000;2.146330
6539.000000;2.146601
6538.000000;2.148299
6537.000000;2.150569
6536.000000;2.152225
6535.000000;2.152242
6534.000000;2.150413
6533.000000;2.147525
6532.000000;2.144733
6531.000000;2.142743
6530.000000;2.141525
6529.000000;2.140600
6528.000000;2.139553
6527.000000;2.138392
6526.000000;2.137458
6525.000000;2.136950
6524.000000;2.136561
6523.000000;2.135689
6522.000000;2.133976
6521.000000;2.131631
6520.000000;2.129316
6519.000000;2.127791
6518.000000;2.127450
6517.000000;2.127890
6516.000000;2.128020
6515.000000;2.126882
6514.000000;2.124508
6513.000000;2.121874
6512.000000;2.120075
6511.000000;2.119655
6510.000000;2.120482
6509.000000;2.121847
6508.000000;2.122716
6507.000000;2.122294
6506.000000;2.120574
6505.000000;2.118227
6504.000000;2.115963
6503.000000;2.114173
6502.000000;2.113015
6501.000000;2.112456
6500.000000;2.112128
6499.000000;2.111496
6498.000000;2.110412
6497.000000;2.109364
6496.000000;2.109012
6495.000000;2.109528
6494.000000;2.110414
6493.000000;2.110822
6492.000000;2.110050
6491.000000;2.107991
6490.000000;2.105340
6489.000000;2.103256
6488.000000;2.102592
6487.000000;2.103312
6486.000000;2.104573
6485.000000;2.105365
6484.000000;2.105142
6483.000000;2.103957
6482.000000;2.102098
6481.000000;2.099747
6480.000000;2.097129
6479.000000;2.094846
6478.000000;2.093656
6477.000000;2.093783
6476.000000;2.094714
6475.000000;2.095831
6474.000000;2.096872
6473.000000;2.097497
6472.000000;2.096888
6471.000000;2.094482
6470.000000;2.091013
6469.000000;2.088105
6468.000000;2.086686
6467.000000;2.086289
6466.000000;2.086014
6465.000000;2.085593
6464.000000;2.085211
6463.000000;2.084750
6462.000000;2.083815
6461.000000;2.082416
6460.000000;2.081172
6459.000000;2.080705
6458.000000;2.080996
6457.000000;2.081417
6456.000000;2.081323
6455.000000;2.080600
6454.000000;2.079660
6453.000000;2.078894
6452.000000;2.078249
6451.000000;2.077444
6450.000000;2.076463
6449.000000;2.075546
6448.000000;2.074793
6447.000000;2.074134
6446.000000;2.073645
6445.000000;2.073426
6444.000000;2.073068
6443.000000;2.071806
6442.000000;2.069527
6441.000000;2.067177
6440.000000;2.065774
6439.000000;2.065297
6438.000000;2.064878
6437.000000;2.063933
6436.000000;2.062649
6435.000000;2.061438
6434.000000;2.060444
6433.000000;2.059682
6432.000000;2.059240
6431.000000;2.059115
6430.000000;2.059066
6429.000000;2.058833
6428.000000;2.058402
6427.000000;2.057889
6426.000000;2.057197
6425.000000;2.056022
6424.000000;2.054283
6423.000000;2.052453
6422.000000;2.051317
6421.000000;2.051316
6420.000000;2.052147
6419.000000;2.052994
6418.000000;2.053137
6417.000000;2.052365
6416.000000;2.050960
6415.000000;2.049435
6414.000000;2.048253
6413.000000;2.047618
6412.000000;2.047405
6411.000000;2.047350
6410.000000;2.047324
6409.000000;2.047356
6408.000000;2.047388
6407.000000;2.047176
6406.000000;2.046529
6405.000000;2.045600
6404.000000;2.044813
6403.000000;2.044429
6402.000000;2.044167
6401.000000;2.043323
6400.000000;2.041471
6399.000000;2.039093
6398.000000;2.037327
6397.000000;2.036969
6396.000000;2.037835
6395.000000;2.039125
6394.000000;2.040155
6393.000000;2.040574
6392.000000;2.040260
6391.000000;2.039458
6390.000000;2.038874
6389.000000;2.039058
6388.000000;2.039637
6387.000000;2.039601
6386.000000;2.038500
6385.000000;2.036943
6384.000000;2.035707
6383.000000;2.034837
6382.000000;2.033924
6381.000000;2.032899
6380.000000;2.032069
6379.000000;2.031504
6378.000000;2.030769
6377.000000;2.029401
6376.000000;2.027527
6375.000000;2.025932
6374.000000;2.025474
6373.000000;2.026338
6372.000000;2.027792
6371.000000;2.028783
6370.000000;2.028815
6369.000000;2.028131
6368.000000;2.027135
6367.000000;2.025971
6366.000000;2.024703
6365.000000;2.023549
6364.000000;2.022678
6363.000000;2.021992
6362.000000;2.021315
6361.000000;2.020595
6360.000000;2.019794
6359.000000;2.018851
6358.000000;2.017949
6357.000000;2.017522
6356.000000;2.017700
6355.000000;2.017982
6354.000000;2.017746
6353.000000;2.016893
6352.000000;2.015702
6351.000000;2.014277
6350.000000;2.012571
6349.000000;2.010873
6348.000000;2.009833
6347.000000;2.009883
6346.000000;2.010835
6345.000000;2.012072
6344.000000;2.012964
6343.000000;2.013153
6342.000000;2.012681
6341.000000;2.011917
6340.000000;2.011206
6339.000000;2.010566
6338.000000;2.009814
6337.000000;2.008899
6336.000000;2.007963
6335.000000;2.007173
6334.000000;2.006654
6333.000000;2.006515
6332.000000;2.006682
6331.000000;2.006786
6330.000000;2.006435
6329.000000;2.005642
6328.000000;2.004796
6327.000000;2.004245
6326.000000;2.004085
6325.000000;2.004256
6324.000000;2.004598
6323.000000;2.004809
6322.000000;2.004597
6321.000000;2.003941
6320.000000;2.003039
6319.000000;2.001970
6318.000000;2.000612
6317.000000;1.998936
6316.000000;1.997171
6315.000000;1.995664
6314.000000;1.994720
6313.000000;1.994542
6312.000000;1.995081
6311.000000;1.995901
6310.000000;1.996450
6309.000000;1.996545
6308.000000;1.996397
6307.000000;1.996124
6306.000000;1.995482
6305.000000;1.994241
6304.000000;1.992648
6303.000000;1.991317
6302.000000;1.990743
6301.000000;1.990988
6300.000000;1.991709
6299.000000;1.992394
6298.000000;1.992675
6297.000000;1.992536
6296.000000;1.992197
6295.000000;1.991799
6294.000000;1.991312
6293.000000;1.990738
6292.000000;1.990181
6291.000000;1.989642
6290.000000;1.988954
6289.000000;1.988106
6288.000000;1.987433
6287.000000;1.987243
6286.000000;1.987350
6285.000000;1.987205
6284.000000;1.986486
6283.000000;1.985416
6282.000000;1.984536
6281.000000;1.984286
6280.000000;1.984741
6279.000000;1.985499
6278.000000;1.985839
6277.000000;1.985251
6276.000000;1.983871
6275.000000;1.982256
6274.000000;1.980771
6273.000000;1.979403
6272.000000;1.978194
6271.000000;1.977515
6270.000000;1.977677
6269.000000;1.978445
6268.000000;1.979205
6267.000000;1.979580
6266.000000;1.979680
6265.000000;1.979740
6264.000000;1.979726
6263.000000;1.979413
6262.000000;1.978720
6261.000000;1.977792
6260.000000;1.976805
6259.000000;1.975846
6258.000000;1.974982
6257.000000;1.974331
6256.000000;1.973952
6255.000000;1.973728
6254.000000;1.973460
6253.000000;1.973085
6252.000000;1.972686
6251.000000;1.972272
6250.000000;1.971681
6249.000000;1.970858
6248.000000;1.970135
6247.000000;1.970013
6246.000000;1.970588
6245.000000;1.971358
6244.000000;1.971717
6243.000000;1.971560
6242.000000;1.971250
6241.000000;1.971088
6240.000000;1.971008
6239.000000;1.970772
6238.000000;1.970297
6237.000000;1.969710
6236.000000;1.969173
6235.000000;1.968747
6234.000000;1.968418
6233.000000;1.968184
6232.000000;1.968028
6231.000000;1.967782
6230.000000;1.967110
6229.000000;1.965833
6228.000000;1.964323
6227.000000;1.963348
6226.000000;1.963324
6225.000000;1.963863
6224.000000;1.964195
6223.000000;1.963944
6222.000000;1.963282
6221.000000;1.962547
6220.000000;1.962067
6219.000000;1.962219
6218.000000;1.963114
6217.000000;1.964154
6216.000000;1.964388
6215.000000;1.963620
6214.000000;1.962756
6213.000000;1.962765
6212.000000;1.963582
6211.000000;1.964291
6210.000000;1.964116
6209.000000;1.962946
6208.000000;1.961199
6207.000000;1.959579
6206.000000;1.958767
6205.000000;1.958898
6204.000000;1.959358
6203.000000;1.959436
6202.000000;1.959106
6201.000000;1.958908
6200.000000;1.959196
6199.000000;1.959866
6198.000000;1.960615
6197.000000;1.961075
6196.000000;1.960794
6195.000000;1.959607
6194.000000;1.958048
6193.000000;1.956925
6192.000000;1.956416
6191.000000;1.956013
6190.000000;1.955394
6189.000000;1.954820
6188.000000;1.954530
6187.000000;1.954255
6186.000000;1.953673
6185.000000;1.952920
6184.000000;1.952330
6183.000000;1.951977
6182.000000;1.951860
6181.000000;1.952224
6180.000000;1.953235
6179.000000;1.954481
6178.000000;1.955172
6177.000000;1.954882
6176.000000;1.953835
6175.000000;1.952532
6174.000000;1.951354
6173.000000;1.950501
6172.000000;1.950061
6171.000000;1.950050
6170.000000;1.950483
6169.000000;1.951322
6168.000000;1.952265
6167.000000;1.952747
6166.000000;1.952386
6165.000000;1.951401
6164.000000;1.950438
6163.000000;1.950013
6162.000000;1.950145
6161.000000;1.950392
6160.000000;1.950144
6159.000000;1.949094
6158.000000;1.947602
6157.000000;1.946468
6156.000000;1.946143
6155.000000;1.946279
6154.000000;1.946199
6153.000000;1.945663
6152.000000;1.944979
6151.000000;1.944494
6150.000000;1.944257
6149.000000;1.944118
6148.000000;1.943894
6147.000000;1.943484
6146.000000;1.942994
6145.000000;1.942739
6144.000000;1.942906
6143.000000;1.943263
6142.000000;1.943399
6141.000000;1.943197
6140.000000;1.942885
6139.000000;1.942702
6138.000000;1.942746
6137.000000;1.943105
6136.000000;1.943815
6135.000000;1.944641
6134.000000;1.945194
6133.000000;1.945332
6132.000000;1.945231
6131.000000;1.944951
6130.000000;1.944218
6129.000000;1.942867
6128.000000;1.941312
6127.000000;1.940324
6126.000000;1.940348
6125.000000;1.941138
6124.000000;1.942006
6123.000000;1.942330
6122.000000;1.941880
6121.000000;1.940847
6120.000000;1.939657
6119.000000;1.938705
6118.000000;1.938185
6117.000000;1.938051
6116.000000;1.938098
6115.000000;1.938108
6114.000000;1.938006
6113.000000;1.937906
6112.000000;1.937959
6111.000000;1.938113
6110.000000;1.938064
6109.000000;1.937564
6108.000000;1.936842
6107.000000;1.936591
6106.000000;1.937316
6105.000000;1.938644
6104.000000;1.939463
6103.000000;1.939003
6102.000000;1.937715
6101.000000;1.936806
6100.000000;1.936919
6099.000000;1.937513
6098.000000;1.937601
6097.000000;1.936833
6096.000000;1.935736
6095.000000;1.935096
6094.000000;1.935338
6093.000000;1.936317
6092.000000;1.937444
6091.000000;1.938050
6090.000000;1.937879
6089.000000;1.937206
6088.000000;1.936415
6087.000000;1.935576
6086.000000;1.934613
6085.000000;1.933717
6084.000000;1.933298
6083.000000;1.933528
6082.000000;1.934157
6081.000000;1.934802
6080.000000;1.935228
6079.000000;1.935323
6078.000000;1.935047
6077.000000;1.934482
6076.000000;1.933846
6075.000000;1.933358
6074.000000;1.933152
6073.000000;1.933260
6072.000000;1.933586
6071.000000;1.933906
6070.000000;1.934013
6069.000000;1.933859
6068.000000;1.933470
6067.000000;1.932837
6066.000000;1.932082
6065.000000;1.931617
6064.000000;1.931813
6063.000000;1.932469
6062.000000;1.932866
6061.000000;1.932502
6060.000000;1.931629
6059.000000;1.930933
6058.000000;1.930830
6057.000000;1.931196
6056.000000;1.931624
6055.000000;1.931805
6054.000000;1.931688
6053.000000;1.931429
6052.000000;1.931240
6051.000000;1.931262
6050.000000;1.931520
6049.000000;1.931910
6048.000000;1.932160
6047.000000;1.931952
6046.000000;1.931244
6045.000000;1.930444
6044.000000;1.930074
6043.000000;1.930237
6042.000000;1.930563
6041.000000;1.930692
6040.000000;1.930611
6039.000000;1.930437
6038.000000;1.930136
6037.000000;1.929659
6036.000000;1.929226
6035.000000;1.929213
6034.000000;1.929723
6033.000000;1.930373
6032.000000;1.930603
6031.000000;1.930180
6030.000000;1.929398
6029.000000;1.928779
6028.000000;1.928603
6027.000000;1.928722
6026.000000;1.928799
6025.000000;1.928620
6024.000000;1.928184
6023.000000;1.927644
6022.000000;1.927295
6021.000000;1.927472
6020.000000;1.928221
6019.000000;1.929111
6018.000000;1.929608
6017.000000;1.929652
6016.000000;1.929617
6015.000000;1.929686
6014.000000;1.929597
6013.000000;1.929146
6012.000000;1.928647
6011.000000;1.928589
6010.000000;1.928998
6009.000000;1.929445
6008.000000;1.929644
6007.000000;1.929758
6006.000000;1.930026
6005.000000;1.930322
6004.000000;1.930224
6003.000000;1.929438
6002.000000;1.928116
6001.000000;1.926818
6000.000000;1.926205
5999.000000;1.926612
5998.000000;1.927798
5997.000000;1.929118
5996.000000;1.930047
5995.000000;1.930519
5994.000000;1.930772
5993.000000;1.930947
5992.000000;1.930981
5991.000000;1.930831
5990.000000;1.930642
5989.000000;1.930580
5988.000000;1.930591
5987.000000;1.930475
5986.000000;1.930181
5985.000000;1.929897
5984.000000;1.929831
5983.000000;1.929990
5982.000000;1.930223
5981.000000;1.930392
5980.000000;1.930462
5979.000000;1.930494
5978.000000;1.930635
5977.000000;1.931032
5976.000000;1.931641
5975.000000;1.932171
5974.000000;1.932331
5973.000000;1.932123
5972.000000;1.931829
5971.000000;1.931727
5970.000000;1.931911
5969.000000;1.932339
5968.000000;1.932894
5967.000000;1.933365
5966.000000;1.933554
5965.000000;1.933529
5964.000000;1.933684
5963.000000;1.934353
5962.000000;1.935348
5961.000000;1.936014
5960.000000;1.935842
5959.000000;1.935014
5958.000000;1.934260
5957.000000;1.934190
5956.000000;1.934827
5955.000000;1.935765
5954.000000;1.936646
5953.000000;1.937351
5952.000000;1.937814
5951.000000;1.937871
5950.000000;1.937426
5949.000000;1.936661
5948.000000;1.935967
5947.000000;1.935636
5946.000000;1.935697
5945.000000;1.935974
5944.000000;1.936263
5943.000000;1.936478
5942.000000;1.936712
5941.000000;1.937141
5940.000000;1.937836
5939.000000;1.938710
5938.000000;1.939621
5937.000000;1.940435
5936.000000;1.940970
5935.000000;1.941024
5934.000000;1.940598
5933.000000;1.940006
5932.000000;1.939661
5931.000000;1.939767
5930.000000;1.940244
5929.000000;1.940833
5928.000000;1.941200
5927.000000;1.941096
5926.000000;1.940623
5925.000000;1.940217
5924.000000;1.940215
5923.000000;1.940521
5922.000000;1.940854
5921.000000;1.941182
5920.000000;1.941663
5919.000000;1.942253
5918.000000;1.942694
5917.000000;1.942909
5916.000000;1.943092
5915.000000;1.943299
5914.000000;1.943247
5913.000000;1.942692
5912.000000;1.941796
5911.000000;1.940975
5910.000000;1.940518
5909.000000;1.940497
5908.000000;1.940864
5907.000000;1.941443
5906.000000;1.941903
5905.000000;1.941965
5904.000000;1.941622
5903.000000;1.941073
5902.000000;1.940496
5901.000000;1.939978
5900.000000;1.939609
5899.000000;1.939520
5898.000000;1.939792
5897.000000;1.940383
5896.000000;1.941113
5895.000000;1.941737
5894.000000;1.942145
5893.000000;1.942488
5892.000000;1.942994
5891.000000;1.943588
5890.000000;1.943835
5889.000000;1.943427
5888.000000;1.942639
5887.000000;1.942138
5886.000000;1.942324
5885.000000;1.942961
5884.000000;1.943474
5883.000000;1.943540
5882.000000;1.943357
5881.000000;1.943328
5880.000000;1.943535
5879.000000;1.943605
5878.000000;1.943186
5877.000000;1.942463
5876.000000;1.942046
5875.000000;1.942324
5874.000000;1.943112
5873.000000;1.943939
5872.000000;1.944498
5871.000000;1.944747
5870.000000;1.944751
5869.000000;1.944646
5868.000000;1.944626
5867.000000;1.944767
5866.000000;1.944926
5865.000000;1.944959
5864.000000;1.944988
5863.000000;1.945296
5862.000000;1.945991
5861.000000;1.946882
5860.000000;1.947642
5859.000000;1.948014
5858.000000;1.947934
5857.000000;1.947621
5856.000000;1.947482
5855.000000;1.947770
5854.000000;1.948317
5853.000000;1.948745
5852.000000;1.948918
5851.000000;1.949048
5850.000000;1.949353
5849.000000;1.949828
5848.000000;1.950400
5847.000000;1.951099
5846.000000;1.951903
5845.000000;1.952578
5844.000000;1.952864
5843.000000;1.952805
5842.000000;1.952703
5841.000000;1.952738
5840.000000;1.952795
5839.000000;1.952742
5838.000000;1.952747
5837.000000;1.953121
5836.000000;1.953900
5835.000000;1.954721
5834.000000;1.955177
5833.000000;1.955182
5832.000000;1.954912
5831.000000;1.954513
5830.000000;1.954047
5829.000000;1.953653
5828.000000;1.953543
5827.000000;1.953776
5826.000000;1.954218
5825.000000;1.954792
5824.000000;1.955604
5823.000000;1.956731
5822.000000;1.958022
5821.000000;1.959240
5820.000000;1.960276
5819.000000;1.961110
5818.000000;1.961682
5817.000000;1.962008
5816.000000;1.962323
5815.000000;1.962877
5814.000000;1.963562
5813.000000;1.963989
5812.000000;1.963980
5811.000000;1.963823
5810.000000;1.963927
5809.000000;1.964350
5808.000000;1.964815
5807.000000;1.965154
5806.000000;1.965562
5805.000000;1.966324
5804.000000;1.967351
5803.000000;1.968144
5802.000000;1.968321
5801.000000;1.968094
5800.000000;1.968065
5799.000000;1.968566
5798.000000;1.969413
5797.000000;1.970331
5796.000000;1.971348
5795.000000;1.972606
5794.000000;1.973934
5793.000000;1.974894
5792.000000;1.975174
5791.000000;1.974798
5790.000000;1.974028
5789.000000;1.973277
5788.000000;1.973012
5787.000000;1.973463
5786.000000;1.974374
5785.000000;1.975260
5784.000000;1.975938
5783.000000;1.976607
5782.000000;1.977407
5781.000000;1.978144
5780.000000;1.978556
5779.000000;1.978620
5778.000000;1.978467
5777.000000;1.978202
5776.000000;1.977979
5775.000000;1.978092
5774.000000;1.978776
5773.000000;1.979935
5772.000000;1.981190
5771.000000;1.982164
5770.000000;1.982665
5769.000000;1.982690
5768.000000;1.982346
5767.000000;1.981800
5766.000000;1.981290
5765.000000;1.981159
5764.000000;1.981729
5763.000000;1.982975
5762.000000;1.984347
5761.000000;1.985187
5760.000000;1.985441
5759.000000;1.985744
5758.000000;1.986654
5757.000000;1.987984
5756.000000;1.989063
5755.000000;1.989495
5754.000000;1.989432
5753.000000;1.989219
5752.000000;1.989067
5751.000000;1.989119
5750.000000;1.989580
5749.000000;1.990554
5748.000000;1.991792
5747.000000;1.992721
5746.000000;1.992859
5745.000000;1.992259
5744.000000;1.991507
5743.000000;1.991208
5742.000000;1.991479
5741.000000;1.992018
5740.000000;1.992598
5739.000000;1.993312
5738.000000;1.994286
5737.000000;1.995394
5736.000000;1.996430
5735.000000;1.997391
5734.000000;1.998383
5733.000000;1.999304
5732.000000;1.999851
5731.000000;1.999872
5730.000000;1.999592
5729.000000;1.999403
5728.000000;1.999518
5727.000000;1.999830
5726.000000;2.000099
5725.000000;2.000300
5724.000000;2.000737
5723.000000;2.001712
5722.000000;2.003096
5721.000000;2.004383
5720.000000;2.005213
5719.000000;2.005633
5718.000000;2.005776
5717.000000;2.005590
5716.000000;2.005114
5715.000000;2.004754
5714.000000;2.004917
5713.000000;2.005477
5712.000000;2.005940
5711.000000;2.006112
5710.000000;2.006309
5709.000000;2.006863
5708.000000;2.007750
5707.000000;2.008741
5706.000000;2.009661
5705.000000;2.010348
5704.000000;2.010593
5703.000000;2.010329
5702.000000;2.009821
5701.000000;2.009572
5700.000000;2.010059
5699.000000;2.011409
5698.000000;2.013236
5697.000000;2.014705
5696.000000;2.015343
5695.000000;2.015437
5694.000000;2.015701
5693.000000;2.016537
5692.000000;2.017655
5691.000000;2.018601
5690.000000;2.019214
5689.000000;2.019597
5688.000000;2.019927
5687.000000;2.020451
5686.000000;2.021290
5685.000000;2.022098
5684.000000;2.022246
5683.000000;2.021650
5682.000000;2.021085
5681.000000;2.021350
5680.000000;2.022313
5679.000000;2.023139
5678.000000;2.023325
5677.000000;2.023138
5676.000000;2.023092
5675.000000;2.023389
5674.000000;2.023979
5673.000000;2.024822
5672.000000;2.025878
5671.000000;2.026951
5670.000000;2.027695
5669.000000;2.027808
5668.000000;2.027294
5667.000000;2.026566
5666.000000;2.026204
5665.000000;2.026476
5664.000000;2.027204
5663.000000;2.028141
5662.000000;2.029276
5661.000000;2.030593
5660.000000;2.031768
5659.000000;2.032465
5658.000000;2.032850
5657.000000;2.033443
5656.000000;2.034412
5655.000000;2.035332
5654.000000;2.035703
5653.000000;2.035432
5652.000000;2.034759
5651.000000;2.033987
5650.000000;2.033436
5649.000000;2.033385
5648.000000;2.033849
5647.000000;2.034534
5646.000000;2.035182
5645.000000;2.035831
5644.000000;2.036609
5643.000000;2.037441
5642.000000;2.038145
5641.000000;2.038697
5640.000000;2.039210
5639.000000;2.039660
5638.000000;2.039842
5637.000000;2.039649
5636.000000;2.039271
5635.000000;2.039080
5634.000000;2.039323
5633.000000;2.039922
5632.000000;2.040551
5631.000000;2.040951
5630.000000;2.041213
5629.000000;2.041694
5628.000000;2.042592
5627.000000;2.043651
5626.000000;2.044384
5625.000000;2.044585
5624.000000;2.044530
5623.000000;2.044614
5622.000000;2.044879
5621.000000;2.045024
5620.000000;2.044877
5619.000000;2.044705
5618.000000;2.044881
5617.000000;2.045363
5616.000000;2.045725
5615.000000;2.045744
5614.000000;2.045691
5613.000000;2.045905
5612.000000;2.046310
5611.000000;2.046575
5610.000000;2.046591
5609.000000;2.046488
5608.000000;2.046324
5607.000000;2.046064
5606.000000;2.045862
5605.000000;2.045985
5604.000000;2.046409
5603.000000;2.046802
5602.000000;2.047029
5601.000000;2.047365
5600.000000;2.047993
5599.000000;2.048573
5598.000000;2.048609
5597.000000;2.048118
5596.000000;2.047640
5595.000000;2.047630
5594.000000;2.048048
5593.000000;2.048558
5592.000000;2.048948
5591.000000;2.049280
5590.000000;2.049719
5589.000000;2.050240
5588.000000;2.050567
5587.000000;2.050465
5586.000000;2.050091
5585.000000;2.049888
5584.000000;2.050074
5583.000000;2.050414
5582.000000;2.050575
5581.000000;2.050517
5580.000000;2.050379
5579.000000;2.050186
5578.000000;2.049915
5577.000000;2.049753
5576.000000;2.049995
5575.000000;2.050679
5574.000000;2.051503
5573.000000;2.052130
5572.000000;2.052423
5571.000000;2.052385
5570.000000;2.052060
5569.000000;2.051566
5568.000000;2.051060
5567.000000;2.050604
5566.000000;2.050165
5565.000000;2.049791
5564.000000;2.049642
5563.000000;2.049762
5562.000000;2.049932
5561.000000;2.049868
5560.000000;2.049509
5559.000000;2.049054
5558.000000;2.048751
5557.000000;2.048730
5556.000000;2.048963
5555.000000;2.049310
5554.000000;2.049599
5553.000000;2.049729
5552.000000;2.049772
5551.000000;2.049930
5550.000000;2.050327
5549.000000;2.050798
5548.000000;2.050974
5547.000000;2.050679
5546.000000;2.050202
5545.000000;2.049991
5544.000000;2.050073
5543.000000;2.049969
5542.000000;2.049287
5541.000000;2.048229
5540.000000;2.047326
5539.000000;2.046854
5538.000000;2.046741
5537.000000;2.046922
5536.000000;2.047466
5535.000000;2.048276
5534.000000;2.048971
5533.000000;2.049252
5532.000000;2.049256
5531.000000;2.049365
5530.000000;2.049700
5529.000000;2.049987
5528.000000;2.049939
5527.000000;2.049669
5526.000000;2.049579
5525.000000;2.049908
5524.000000;2.050495
5523.000000;2.050957
5522.000000;2.051007
5521.000000;2.050572
5520.000000;2.049776
5519.000000;2.048932
5518.000000;2.048432
5517.000000;2.048427
5516.000000;2.048645
5515.000000;2.048672
5514.000000;2.048428
5513.000000;2.048173
5512.000000;2.048065
5511.000000;2.047946
5510.000000;2.047599
5509.000000;2.046997
5508.000000;2.046236
5507.000000;2.045461
5506.000000;2.044938
5505.000000;2.044990
5504.000000;2.045694
5503.000000;2.046796
5502.000000;2.048031
5501.000000;2.049331
5500.000000;2.050515
5499.000000;2.051155
5498.000000;2.051067
5497.000000;2.050674
5496.000000;2.050506
5495.000000;2.050483
5494.000000;2.050121
5493.000000;2.049370
5492.000000;2.048762
5491.000000;2.048670
5490.000000;2.048899
5489.000000;2.049124
5488.000000;2.049324
5487.000000;2.049613
5486.000000;2.049988
5485.000000;2.050486
5484.000000;2.051336
5483.000000;2.052601
5482.000000;2.053846
5481.000000;2.054484
5480.000000;2.054385
5479.000000;2.053943
5478.000000;2.053602
5477.000000;2.053455
5476.000000;2.053303
5475.000000;2.052941
5474.000000;2.052377
5473.000000;2.051893
5472.000000;2.051844
5471.000000;2.052317
5470.000000;2.053032
5469.000000;2.053622
5468.000000;2.054022
5467.000000;2.054493
5466.000000;2.055258
5465.000000;2.056257
5464.000000;2.057252
5463.000000;2.057966
5462.000000;2.058165
5461.000000;2.057941
5460.000000;2.057902
5459.000000;2.058660
5458.000000;2.060062
5457.000000;2.061202
5456.000000;2.061364
5455.000000;2.060778
5454.000000;2.060298
5453.000000;2.060487
5452.000000;2.061209
5451.000000;2.061988
5450.000000;2.062559
5449.000000;2.063055
5448.000000;2.063696
5447.000000;2.064462
5446.000000;2.065238
5445.000000;2.066151
5444.000000;2.067481
5443.000000;2.069133
5442.000000;2.070496
5441.000000;2.071135
5440.000000;2.071386
5439.000000;2.071911
5438.000000;2.072798
5437.000000;2.073476
5436.000000;2.073459
5435.000000;2.072900
5434.000000;2.072351
5433.000000;2.072296
5432.000000;2.072954
5431.000000;2.074195
5430.000000;2.075596
5429.000000;2.076803
5428.000000;2.077877
5427.000000;2.079163
5426.000000;2.080704
5425.000000;2.082062
5424.000000;2.082900
5423.000000;2.083477
5422.000000;2.084335
5421.000000;2.085626
5420.000000;2.086992
5419.000000;2.088133
5418.000000;2.089197
5417.000000;2.090498
5416.000000;2.092103
5415.000000;2.093904
5414.000000;2.095886
5413.000000;2.098062
5412.000000;2.100247
5411.000000;2.102114
5410.000000;2.103549
5409.000000;2.104799
5408.000000;2.106143
5407.000000;2.107500
5406.000000;2.108468
5405.000000;2.108787
5404.000000;2.108770
5403.000000;2.109227
5402.000000;2.110912
5401.000000;2.113924
5400.000000;2.117667
5399.000000;2.121439
5398.000000;2.124849
5397.000000;2.127780
5396.000000;2.130254
5395.000000;2.132459
5394.000000;2.134765
5393.000000;2.137359
5392.000000;2.139966
5391.000000;2.142213
5390.000000;2.144238
5389.000000;2.146529
5388.000000;2.149173
5387.000000;2.151802
5386.000000;2.154326
5385.000000;2.157162
5384.000000;2.160537
5383.000000;2.163987
5382.000000;2.167032
5381.000000;2.169980
5380.000000;2.173512
5379.000000;2.177670
5378.000000;2.181781
5377.000000;2.185325
5376.000000;2.188493
5375.000000;2.191831
5374.000000;2.195638
5373.000000;2.199819
5372.000000;2.204087
5371.000000;2.208132
5370.000000;2.211885
5369.000000;2.215744
5368.000000;2.220244
5367.000000;2.225417
5366.000000;2.230746
5365.000000;2.235837
5364.000000;2.240846
5363.000000;2.246144
5362.000000;2.251808
5361.000000;2.257597
5360.000000;2.263303
5359.000000;2.268974
5358.000000;2.274854
5357.000000;2.281197
5356.000000;2.287978
5355.000000;2.294792
5354.000000;2.301204
5353.000000;2.307336
5352.000000;2.313837
5351.000000;2.321192
5350.000000;2.329449
5349.000000;2.338603
5348.000000;2.348577
5347.000000;2.358667
5346.000000;2.367652
5345.000000;2.374921
5344.000000;2.381384
5343.000000;2.388753
5342.000000;2.397803
5341.000000;2.407858
5340.000000;2.418021
5339.000000;2.428248
5338.000000;2.438939
5337.000000;2.449935
5336.000000;2.460455
5335.000000;2.469902
5334.000000;2.478437
5333.000000;2.486951
5332.000000;2.496538
5331.000000;2.507753
5330.000000;2.520139
5329.000000;2.532530
5328.000000;2.543986
5327.000000;2.554567
5326.000000;2.565172
5325.000000;2.576594
5324.000000;2.588794
5323.000000;2.601083
5322.000000;2.612944
5321.000000;2.624535
5320.000000;2.636255
5319.000000;2.647866
5318.000000;2.658523
5317.000000;2.668056
5316.000000;2.677749
5315.000000;2.689021
5314.000000;2.701420
5313.000000;2.713064
5312.000000;2.723342
5311.000000;2.734011
5310.000000;2.746940
5309.000000;2.761659
5308.000000;2.776145
5307.000000;2.789440
5306.000000;2.801978
5305.000000;2.813469
5304.000000;2.822286
5303.000000;2.827656
5302.000000;2.831374
5301.000000;2.836555
5300.000000;2.844827
5299.000000;2.855063
5298.000000;2.864940
5297.000000;2.873548
5296.000000;2.882161
5295.000000;2.892162
5294.000000;2.902450
5293.000000;2.909840
5292.000000;2.912531
5291.000000;2.912212
5290.000000;2.912042
5289.000000;2.913834
5288.000000;2.918003
5287.000000;2.924790
5286.000000;2.933602
5285.000000;2.941656
5284.000000;2.945675
5283.000000;2.945593
5282.000000;2.944414
5281.000000;2.944185
5280.000000;2.944401
5279.000000;2.944620
5278.000000;2.946267
5277.000000;2.950447
5276.000000;2.955680
5275.000000;2.959438
5274.000000;2.960928
5273.000000;2.961010
5272.000000;2.960284
5271.000000;2.958677
5270.000000;2.956358
5269.000000;2.953779
5268.000000;2.951294
5267.000000;2.949846
5266.000000;2.951251
5265.000000;2.956579
5264.000000;2.964614
5263.000000;2.972476
5262.000000;2.977623
5261.000000;2.979092
5260.000000;2.977328
5259.000000;2.974025
5258.000000;2.971812
5257.000000;2.972162
5256.000000;2.973090
5255.000000;2.970538
5254.000000;2.963597
5253.000000;2.956813
5252.000000;2.955251
5251.000000;2.958748
5250.000000;2.962333
5249.000000;2.961777
5248.000000;2.958087
5247.000000;2.956037
5246.000000;2.959066
5245.000000;2.966679
5244.000000;2.975754
5243.000000;2.983045
5242.000000;2.986625
5241.000000;2.986081
5240.000000;2.982438
5239.000000;2.977960
5238.000000;2.974807
5237.000000;2.973385
5236.000000;2.972259
5235.000000;2.969748
5234.000000;2.965851
5233.000000;2.962128
5232.000000;2.959482
5231.000000;2.957193
5230.000000;2.954696
5229.000000;2.953069
5228.000000;2.953268
5227.000000;2.953886
5226.000000;2.952822
5225.000000;2.951163
5224.000000;2.952874
5223.000000;2.959626
5222.000000;2.968142
5221.000000;2.974044
5220.000000;2.976774
5219.000000;2.978146
5218.000000;2.977515
5217.000000;2.972442
5216.000000;2.964135
5215.000000;2.957960
5214.000000;2.957575
5213.000000;2.961592
5212.000000;2.966408
5211.000000;2.970195
5210.000000;2.972612
5209.000000;2.972643
5208.000000;2.969294
5207.000000;2.963433
5206.000000;2.957418
5205.000000;2.953426
5204.000000;2.952863
5203.000000;2.956302
5202.000000;2.962533
5201.000000;2.968493
5200.000000;2.971769
5199.000000;2.972713
5198.000000;2.972960
5197.000000;2.973342
5196.000000;2.974425
5195.000000;2.976917
5194.000000;2.979625
5193.000000;2.979099
5192.000000;2.973760
5191.000000;2.966718
5190.000000;2.962237
5189.000000;2.961045
5188.000000;2.961687
5187.000000;2.964538
5186.000000;2.970424
5185.000000;2.976047
5184.000000;2.975739
5183.000000;2.969464
5182.000000;2.963916
5181.000000;2.963611
5180.000000;2.965653
5179.000000;2.964969
5178.000000;2.961540
5177.000000;2.959248
5176.000000;2.959874
5175.000000;2.962054
5174.000000;2.964854
5173.000000;2.968918
5172.000000;2.973934
5171.000000;2.977592
5170.000000;2.978118
5169.000000;2.976488
5168.000000;2.975308
5167.000000;2.975993
5166.000000;2.977560
5165.000000;2.977993
5164.000000;2.976208
5163.000000;2.972796
5162.000000;2.969398
5161.000000;2.967740
5160.000000;2.968924
5159.000000;2.972637
5158.000000;2.976564
5157.000000;2.977608
5156.000000;2.975051
5155.000000;2.971705
5154.000000;2.970164
5153.000000;2.969173
5152.000000;2.966063
5151.000000;2.961888
5150.000000;2.960791
5149.000000;2.964113
5148.000000;2.968016
5147.000000;2.968423
5146.000000;2.966278
5145.000000;2.964976
5144.000000;2.964955
5143.000000;2.964229
5142.000000;2.962662
5141.000000;2.962443
5140.000000;2.964245
5139.000000;2.965761
5138.000000;2.964890
5137.000000;2.962309
5136.000000;2.960040
5135.000000;2.959091
5134.000000;2.959392
5133.000000;2.960682
5132.000000;2.962374
5131.000000;2.963410
5130.000000;2.963113
5129.000000;2.962189
5128.000000;2.962542
5127.000000;2.965720
5126.000000;2.971460
5125.000000;2.977438
5124.000000;2.980531
5123.000000;2.979068
5122.000000;2.974033
5121.000000;2.967982
5120.000000;2.963004
5119.000000;2.959405
5118.000000;2.956180
5117.000000;2.952879
5116.000000;2.950612
5115.000000;2.951459
5114.000000;2.956592
5113.000000;2.963881
5112.000000;2.968426
5111.000000;2.967140
5110.000000;2.961707
5109.000000;2.956362
5108.000000;2.954142
5107.000000;2.955139
5106.000000;2.957183
5105.000000;2.957873
5104.000000;2.956478
5103.000000;2.954223
5102.000000;2.952672
5101.000000;2.952243
5100.000000;2.952795
5099.000000;2.955162
5098.000000;2.960395
5097.000000;2.966692
5096.000000;2.969152
5095.000000;2.964926
5094.000000;2.957402
5093.000000;2.952947
5092.000000;2.954621
5091.000000;2.960188
5090.000000;2.965114
5089.000000;2.966463
5088.000000;2.964156
5087.000000;2.960191
5086.000000;2.957053
5085.000000;2.955842
5084.000000;2.956188
5083.000000;2.958055
5082.000000;2.962037
5081.000000;2.967057
5080.000000;2.969641
5079.000000;2.967614
5078.000000;2.963170
5077.000000;2.959839
5076.000000;2.958086
5075.000000;2.956484
5074.000000;2.955635
5073.000000;2.957391
5072.000000;2.960702
5071.000000;2.962035
5070.000000;2.960687
5069.000000;2.960208
5068.000000;2.962760
5067.000000;2.964815
5066.000000;2.961315
5065.000000;2.952836
5064.000000;2.945102
5063.000000;2.942780
5062.000000;2.946349
5061.000000;2.953198
5060.000000;2.959773
5059.000000;2.963352
5058.000000;2.963673
5057.000000;2.963046
5056.000000;2.963779
5055.000000;2.965503
5054.000000;2.965834
5053.000000;2.963535
5052.000000;2.959926
5051.000000;2.957211
5050.000000;2.956277
5049.000000;2.956047
5048.000000;2.954540
5047.000000;2.950734
5046.000000;2.945758
5045.000000;2.942119
5044.000000;2.941539
5043.000000;2.943608
5042.000000;2.946477
5041.000000;2.948413
5040.000000;2.948509
5039.000000;2.946839
5038.000000;2.944582
5037.000000;2.943230
5036.000000;2.943009
5035.000000;2.942601
5034.000000;2.940954
5033.000000;2.938753
5032.000000;2.937551
5031.000000;2.938191
5030.000000;2.940459
5029.000000;2.943592
5028.000000;2.946324
5027.000000;2.946956
5026.000000;2.944959
5025.000000;2.942372
5024.000000;2.941818
5023.000000;2.943077
5022.000000;2.943178
5021.000000;2.940458
5020.000000;2.936954
5019.000000;2.935383
5018.000000;2.935471
5017.000000;2.935088
5016.000000;2.933912
5015.000000;2.933704
5014.000000;2.935124
5013.000000;2.936760
5012.000000;2.937919
5011.000000;2.940073
5010.000000;2.944154
5009.000000;2.948361
5008.000000;2.950337
5007.000000;2.949921
5006.000000;2.947795
5005.000000;2.943106
5004.000000;2.935201
5003.000000;2.926667
5002.000000;2.921336
5001.000000;2.919875
5000.000000;2.919689
4999.000000;2.919446
4998.000000;2.920883
4997.000000;2.925084
4996.000000;2.929156
4995.000000;2.928764
4994.000000;2.923368
4993.000000;2.916998
4992.000000;2.913796
4991.000000;2.914191
4990.000000;2.915288
4989.000000;2.914256
4988.000000;2.911516
4987.000000;2.910536
4986.000000;2.914013
4985.000000;2.920696
4984.000000;2.926855
4983.000000;2.930587
4982.000000;2.932829
4981.000000;2.933829
4980.000000;2.931550
4979.000000;2.925413
4978.000000;2.919079
4977.000000;2.916863
4976.000000;2.918891
4975.000000;2.921653
4974.000000;2.922317
4973.000000;2.920549
4972.000000;2.916662
4971.000000;2.910679
4970.000000;2.903790
4969.000000;2.898817
4968.000000;2.898174
4967.000000;2.901691
4966.000000;2.906710
4965.000000;2.909946
4964.000000;2.909631
4963.000000;2.907003
4962.000000;2.905079
4961.000000;2.905168
4960.000000;2.905418
4959.000000;2.903674
4958.000000;2.900701
4957.000000;2.898800
4956.000000;2.898188
4955.000000;2.896998
4954.000000;2.894621
4953.000000;2.892824
4952.000000;2.893088
4951.000000;2.894560
4950.000000;2.895199
4949.000000;2.893960
4948.000000;2.891362
4947.000000;2.888945
4946.000000;2.888253
4945.000000;2.889265
4944.000000;2.889797
4943.000000;2.887683
4942.000000;2.883553
4941.000000;2.880209
4940.000000;2.879737
4939.000000;2.882597
4938.000000;2.888284
4937.000000;2.894744
4936.000000;2.897945
4935.000000;2.894809
4934.000000;2.886982
4933.000000;2.879474
4932.000000;2.875178
4931.000000;2.872512
4930.000000;2.868767
4929.000000;2.863805
4928.000000;2.859418
4927.000000;2.857209
4926.000000;2.858195
4925.000000;2.862301
4924.000000;2.866796
4923.000000;2.867170
4922.000000;2.861802
4921.000000;2.854198
4920.000000;2.848671
4919.000000;2.845790
4918.000000;2.843608
4917.000000;2.841786
4916.000000;2.842081
4915.000000;2.844854
4914.000000;2.847492
4913.000000;2.847349
4912.000000;2.845151
4911.000000;2.844169
4910.000000;2.846414
4909.000000;2.850397
4908.000000;2.852484
4907.000000;2.850661
4906.000000;2.847227
4905.000000;2.846510
4904.000000;2.849934
4903.000000;2.854535
4902.000000;2.856137
4901.000000;2.853260
4900.000000;2.847536
4899.000000;2.841515
4898.000000;2.837352
4897.000000;2.836431
4896.000000;2.838254
4895.000000;2.839800
4894.000000;2.837755
4893.000000;2.832185
4892.000000;2.826840
4891.000000;2.825307
4890.000000;2.827476
4889.000000;2.829669
4888.000000;2.828220
4887.000000;2.823096
4886.000000;2.817659
4885.000000;2.815195
4884.000000;2.816187
4883.000000;2.818739
4882.000000;2.821004
4881.000000;2.822482
4880.000000;2.823076
4879.000000;2.822225
4878.000000;2.819688
4877.000000;2.816311
4876.000000;2.813191
4875.000000;2.810480
4874.000000;2.807640
4873.000000;2.804454
4872.000000;2.801216
4871.000000;2.798292
4870.000000;2.796099
4869.000000;2.795378
4868.000000;2.796466
4867.000000;2.798212
4866.000000;2.798537
4865.000000;2.796142
4864.000000;2.791454
4863.000000;2.786144
4862.000000;2.781949
4861.000000;2.779706
4860.000000;2.779024
4859.000000;2.779001
4858.000000;2.779570
4857.000000;2.781619
4856.000000;2.785365
4855.000000;2.789313
4854.000000;2.791481
4853.000000;2.791314
4852.000000;2.789626
4851.000000;2.787139
4850.000000;2.784067
4849.000000;2.780715
4848.000000;2.777465
4847.000000;2.774323
4846.000000;2.771228
4845.000000;2.768578
4844.000000;2.766780
4843.000000;2.765631
4842.000000;2.764754
4841.000000;2.764240
4840.000000;2.764226
4839.000000;2.764254
4838.000000;2.763821
4837.000000;2.763137
4836.000000;2.762610
4835.000000;2.762251
4834.000000;2.762174
4833.000000;2.762882
4832.000000;2.764220
4831.000000;2.764700
4830.000000;2.762983
4829.000000;2.759504
4828.000000;2.755509
4827.000000;2.751323
4826.000000;2.746906
4825.000000;2.743375
4824.000000;2.742090
4823.000000;2.742330
4822.000000;2.741579
4821.000000;2.738606
4820.000000;2.734865
4819.000000;2.732329
4818.000000;2.731329
4817.000000;2.731089
4816.000000;2.731112
4815.000000;2.731082
4814.000000;2.730312
4813.000000;2.728232
4812.000000;2.725162
4811.000000;2.722199
4810.000000;2.720399
4809.000000;2.720047
4808.000000;2.720230
4807.000000;2.719270
4806.000000;2.716284
4805.000000;2.712435
4804.000000;2.709834
4803.000000;2.709307
4802.000000;2.710147
4801.000000;2.711825
4800.000000;2.714481
4799.000000;2.717164
4798.000000;2.717172
4797.000000;2.712823
4796.000000;2.706015
4795.000000;2.700430
4794.000000;2.697855
4793.000000;2.697094
4792.000000;2.696084
4791.000000;2.694286
4790.000000;2.692671
4789.000000;2.691979
4788.000000;2.691840
4787.000000;2.691574
4786.000000;2.691258
4785.000000;2.691528
4784.000000;2.692344
4783.000000;2.692348
4782.000000;2.689810
4781.000000;2.684566
4780.000000;2.678703
4779.000000;2.674753
4778.000000;2.673261
4777.000000;2.672281
4776.000000;2.669377
4775.000000;2.664326
4774.000000;2.659564
4773.000000;2.657664
4772.000000;2.658706
4771.000000;2.660587
4770.000000;2.661762
4769.000000;2.662694
4768.000000;2.664180
4767.000000;2.665531
4766.000000;2.665514
4765.000000;2.664312
4764.000000;2.663097
4763.000000;2.662034
4762.000000;2.660126
4761.000000;2.656994
4760.000000;2.653511
4759.000000;2.650472
4758.000000;2.647824
4757.000000;2.645597
4756.000000;2.644487
4755.000000;2.644868
4754.000000;2.645869
4753.000000;2.645958
4752.000000;2.644153
4751.000000;2.640542
4750.000000;2.636157
4749.000000;2.632428
4748.000000;2.630160
4747.000000;2.628835
4746.000000;2.627338
4745.000000;2.625354
4744.000000;2.623602
4743.000000;2.622858
4742.000000;2.623457
4741.000000;2.625544
4740.000000;2.628347
4739.000000;2.629081
4738.000000;2.624835
4737.000000;2.616651
4736.000000;2.609547
4735.000000;2.607295
4734.000000;2.608734
4733.000000;2.610065
4732.000000;2.609606
4731.000000;2.608653
4730.000000;2.608273
4729.000000;2.607524
4728.000000;2.605118
4727.000000;2.601403
4726.000000;2.597924
4725.000000;2.595818
4724.000000;2.595154
4723.000000;2.595076
4722.000000;2.594314
4721.000000;2.592348
4720.000000;2.590180
4719.000000;2.589242
4718.000000;2.589430
4717.000000;2.588894
4716.000000;2.586098
4715.000000;2.581540
4714.000000;2.577169
4713.000000;2.574673
4712.000000;2.574403
4711.000000;2.575247
4710.000000;2.575394
4709.000000;2.573958
4708.000000;2.572095
4707.000000;2.571767
4706.000000;2.573285
4705.000000;2.574870
4704.000000;2.574992
4703.000000;2.574281
4702.000000;2.574262
4701.000000;2.574850
4700.000000;2.574195
4699.000000;2.571027
4698.000000;2.566377
4697.000000;2.562617
4696.000000;2.561277
4695.000000;2.561997
4694.000000;2.563032
4693.000000;2.562531
4692.000000;2.559712
4691.000000;2.555321
4690.000000;2.551052
4689.000000;2.548179
4688.000000;2.546578
4687.000000;2.545271
4686.000000;2.543949
4685.000000;2.543350
4684.000000;2.543818
4683.000000;2.544027
4682.000000;2.541856
4681.000000;2.536820
4680.000000;2.530959
4679.000000;2.526955
4678.000000;2.526031
4677.000000;2.527529
4676.000000;2.529597
4675.000000;2.530201
4674.000000;2.528415
4673.000000;2.525255
4672.000000;2.522681
4671.000000;2.521441
4670.000000;2.520540
4669.000000;2.519231
4668.000000;2.518576
4667.000000;2.519999
4666.000000;2.522807
4665.000000;2.524196
4664.000000;2.521782
4663.000000;2.515628
4662.000000;2.508006
4661.000000;2.502025
4660.000000;2.500206
4659.000000;2.502995
4658.000000;2.508004
4657.000000;2.511494
4656.000000;2.511430
4655.000000;2.508828
4654.000000;2.506022
4653.000000;2.504480
4652.000000;2.504321
4651.000000;2.504765
4650.000000;2.504583
4649.000000;2.502932
4648.000000;2.500251
4647.000000;2.497754
4646.000000;2.495808
4645.000000;2.493449
4644.000000;2.489914
4643.000000;2.486031
4642.000000;2.483446
4641.000000;2.482899
4640.000000;2.483819
4639.000000;2.485274
4638.000000;2.486814
4637.000000;2.488432
4636.000000;2.489981
4635.000000;2.490673
4634.000000;2.489441
4633.000000;2.486334
4632.000000;2.483361
4631.000000;2.482884
4630.000000;2.484773
4629.000000;2.485893
4628.000000;2.483251
4627.000000;2.477315
4626.000000;2.471407
4625.000000;2.468412
4624.000000;2.468876
4623.000000;2.471428
4622.000000;2.473860
4621.000000;2.474057
4620.000000;2.471117
4619.000000;2.466078
4618.000000;2.461197
4617.000000;2.458395
4616.000000;2.458452
4615.000000;2.461036
4614.000000;2.464719
4613.000000;2.467229
4612.000000;2.466823
4611.000000;2.463778
4610.000000;2.459985
4609.000000;2.457048
4608.000000;2.455319
4607.000000;2.454599
4606.000000;2.454712
4605.000000;2.455069
4604.000000;2.454627
4603.000000;2.453090
4602.000000;2.451606
4601.000000;2.451461
4600.000000;2.452471
4599.000000;2.453294
4598.000000;2.453038
4597.000000;2.452004
4596.000000;2.450863
4595.000000;2.449661
4594.000000;2.447952
4593.000000;2.445658
4592.000000;2.443400
4591.000000;2.441957
4590.000000;2.441517
4589.000000;2.441434
4588.000000;2.440709
4587.000000;2.438748
4586.000000;2.435761
4585.000000;2.432545
4584.000000;2.429999
4583.000000;2.428791
4582.000000;2.429261
4581.000000;2.431319
4580.000000;2.434244
4579.000000;2.436606
4578.000000;2.436957
4577.000000;2.435165
4576.000000;2.432913
4575.000000;2.432127
4574.000000;2.432794
4573.000000;2.432885
4572.000000;2.430864
4571.000000;2.427775
4570.000000;2.426092
4569.000000;2.426895
4568.000000;2.428994
4567.000000;2.430560
4566.000000;2.430779
4565.000000;2.429829
4564.000000;2.428167
4563.000000;2.426403
4562.000000;2.425336
4561.000000;2.425448
4560.000000;2.426348
4559.000000;2.426909
4558.000000;2.426024
4557.000000;2.423443
4556.000000;2.420172
4555.000000;2.417919
4554.000000;2.417689
4553.000000;2.418835
4552.000000;2.419897
4551.000000;2.420330
4550.000000;2.420700
4549.000000;2.421124
4548.000000;2.420658
4547.000000;2.418785
4546.000000;2.416439
4545.000000;2.414693
4544.000000;2.413275
4543.000000;2.411355
4542.000000;2.409244
4541.000000;2.408129
4540.000000;2.408331
4539.000000;2.408920
4538.000000;2.409059
4537.000000;2.408803
4536.000000;2.408422
4535.000000;2.407874
4534.000000;2.407222
4533.000000;2.406739
4532.000000;2.406393
4531.000000;2.405955
4530.000000;2.405698
4529.000000;2.406146
4528.000000;2.406900
4527.000000;2.406684
4526.000000;2.405087
4525.000000;2.403238
4524.000000;2.402067
4523.000000;2.401038
4522.000000;2.399498
4521.000000;2.398269
4520.000000;2.398670
4519.000000;2.400400
4518.000000;2.401610
4517.000000;2.401160
4516.000000;2.399772
4515.000000;2.398711
4514.000000;2.398492
4513.000000;2.399306
4512.000000;2.401540
4511.000000;2.404866
4510.000000;2.407401
4509.000000;2.407052
4508.000000;2.403921
4507.000000;2.400532
4506.000000;2.399428
4505.000000;2.401010
4504.000000;2.403687
4503.000000;2.405589
4502.000000;2.405894
4501.000000;2.404818
4500.000000;2.403019
4499.000000;2.401370
4498.000000;2.400901
4497.000000;2.402202
4496.000000;2.404507
4495.000000;2.405733
4494.000000;2.404168
4493.000000;2.400152
4492.000000;2.395728
4491.000000;2.392632
4490.000000;2.391059
4489.000000;2.390397
4488.000000;2.390479
4487.000000;2.391607
4486.000000;2.393562
4485.000000;2.395264
4484.000000;2.395774
4483.000000;2.395381
4482.000000;2.395245
4481.000000;2.396037
4480.000000;2.397255
4479.000000;2.397846
4478.000000;2.397260
4477.000000;2.395771
4476.000000;2.393989
4475.000000;2.392476
4474.000000;2.391802
4473.000000;2.392414
4472.000000;2.394253
4471.000000;2.396862
4470.000000;2.399990
4469.000000;2.403637
4468.000000;2.407106
4467.000000;2.408468
4466.000000;2.405994
4465.000000;2.400514
4464.000000;2.395402
4463.000000;2.393578
4462.000000;2.394851
4461.000000;2.396479
4460.000000;2.396291
4459.000000;2.394853
4458.000000;2.394313
4457.000000;2.395721
4456.000000;2.398055
4455.000000;2.399592
4454.000000;2.399663
4453.000000;2.398898
4452.000000;2.398362
4451.000000;2.398957
4450.000000;2.401138
4449.000000;2.404538
4448.000000;2.407935
4447.000000;2.410185
4446.000000;2.411393
4445.000000;2.412634
4444.000000;2.414341
4443.000000;2.415643
4442.000000;2.415689
4441.000000;2.415028
4440.000000;2.414999
4439.000000;2.416105
4438.000000;2.417632
4437.000000;2.418660
4436.000000;2.418924
4435.000000;2.418872
4434.000000;2.419549
4433.000000;2.422161
4432.000000;2.426705
4431.000000;2.431034
4430.000000;2.432465
4429.000000;2.430889
4428.000000;2.429200
4427.000000;2.429971
4426.000000;2.432653
4425.000000;2.434736
4424.000000;2.434939
4423.000000;2.434310
4422.000000;2.434627
4421.000000;2.436818
4420.000000;2.440623
4419.000000;2.444658
4418.000000;2.447011
4417.000000;2.446890
4416.000000;2.445645
4415.000000;2.445304
4414.000000;2.446342
4413.000000;2.447821
4412.000000;2.449516
4411.000000;2.452313
4410.000000;2.455984
4409.000000;2.458136
4408.000000;2.457000
4407.000000;2.454567
4406.000000;2.455014
4405.000000;2.460029
4404.000000;2.466761
4403.000000;2.470434
4402.000000;2.468960
4401.000000;2.464849
4400.000000;2.462692
4399.000000;2.465314
4398.000000;2.471752
4397.000000;2.478025
4396.000000;2.480441
4395.000000;2.479059
4394.000000;2.477324
4393.000000;2.478290
4392.000000;2.481991
4391.000000;2.486165
4390.000000;2.488600
4389.000000;2.488453
4388.000000;2.486152
4387.000000;2.483100
4386.000000;2.481267
4385.000000;2.482082
4384.000000;2.485462
4383.000000;2.490230
4382.000000;2.495576
4381.000000;2.501841
4380.000000;2.509129
4379.000000;2.515645
4378.000000;2.518672
4377.000000;2.517450
4376.000000;2.514291
4375.000000;2.512586
4374.000000;2.513886
4373.000000;2.516558
4372.000000;2.517704
4371.000000;2.516686
4370.000000;2.515934
4369.000000;2.517946
4368.000000;2.522059
4367.000000;2.525090
4366.000000;2.525498
4365.000000;2.525771
4364.000000;2.529516
4363.000000;2.536974
4362.000000;2.544400
4361.000000;2.547837
4360.000000;2.546691
4359.000000;2.543242
4358.000000;2.539749
4357.000000;2.536983
4356.000000;2.534767
4355.000000;2.532821
4354.000000;2.531337
4353.000000;2.531196
4352.000000;2.533343
4351.000000;2.537441
4350.000000;2.541694
4349.000000;2.544811
4348.000000;2.547308
4347.000000;2.550065
4346.000000;2.552445
4345.000000;2.552714
4344.000000;2.550846
4343.000000;2.549667
4342.000000;2.551771
4341.000000;2.556485
4340.000000;2.560528
4339.000000;2.560919
4338.000000;2.556941
4337.000000;2.549782
4336.000000;2.541833
4335.000000;2.536612
4334.000000;2.537369
4333.000000;2.543993
4332.000000;2.551727
4331.000000;2.555290
4330.000000;2.555356
4329.000000;2.558250
4328.000000;2.567856
4327.000000;2.579672
4326.000000;2.584694
4325.000000;2.580305
4324.000000;2.573507
4323.000000;2.571927
4322.000000;2.576019
4321.000000;2.580473
4320.000000;2.581696
4319.000000;2.581735
4318.000000;2.583998
4317.000000;2.587917
4316.000000;2.589013
4315.000000;2.583355
4314.000000;2.571664
4313.000000;2.559285
4312.000000;2.552325
4311.000000;2.553252
4310.000000;2.559257
4309.000000;2.565262
4308.000000;2.569228
4307.000000;2.573301
4306.000000;2.579188
4305.000000;2.584753
4304.000000;2.586970
4303.000000;2.586294
4302.000000;2.585105
4301.000000;2.583953
4300.000000;2.582745
4299.000000;2.583983
4298.000000;2.590764
4297.000000;2.600597
4296.000000;2.604826
4295.000000;2.598350
4294.000000;2.588188
4293.000000;2.587004
4292.000000;2.599833
4291.000000;2.619030
4290.000000;2.630762
4289.000000;2.627732
4288.000000;2.614557
4287.000000;2.600637
4286.000000;2.592658
4285.000000;2.592308
4284.000000;2.596707
4283.000000;2.601959
4282.000000;2.606617
4281.000000;2.611473
4280.000000;2.617786
4279.000000;2.625488
4278.000000;2.632888
4277.000000;2.638539
4276.000000;2.642391
4275.000000;2.644482
4274.000000;2.643431
4273.000000;2.637030
4272.000000;2.624602
4271.000000;2.608874
4270.000000;2.595562
4269.000000;2.590837
4268.000000;2.597926
4267.000000;2.614140
4266.000000;2.630848
4265.000000;2.638929
4264.000000;2.636123
4263.000000;2.627046
4262.000000;2.616739
4261.000000;2.607247
4260.000000;2.599060
4259.000000;2.594098
4258.000000;2.594836
4257.000000;2.601023
4256.000000;2.609687
4255.000000;2.617414
4254.000000;2.622828
4253.000000;2.627720
4252.000000;2.635208
4251.000000;2.646329
4250.000000;2.658629
4249.000000;2.668342
4248.000000;2.673287
4247.000000;2.672961
4246.000000;2.667190
4245.000000;2.658263
4244.000000;2.655070
4243.000000;2.666057
4242.000000;2.687295
4241.000000;2.702970
4240.000000;2.700480
4239.000000;2.683714
4238.000000;2.666891
4237.000000;2.659004
4236.000000;2.659482
4235.000000;2.664420
4234.000000;2.670684
4233.000000;2.674518
4232.000000;2.672691
4231.000000;2.667968
4230.000000;2.668271
4229.000000;2.677858
4228.000000;2.692799
4227.000000;2.706877
4226.000000;2.718047
4225.000000;2.725145
4224.000000;2.722989
4223.000000;2.707117
4222.000000;2.682960
4221.000000;2.663328
4220.000000;2.656377
4219.000000;2.660609
4218.000000;2.668994
4217.000000;2.674739
4216.000000;2.674449
4215.000000;2.668704
4214.000000;2.660181
4213.000000;2.650633
4212.000000;2.640637
4211.000000;2.632992
4210.000000;2.634004
4209.000000;2.648218
4208.000000;2.671081
4207.000000;2.688308
4206.000000;2.687733
4205.000000;2.673420
4204.000000;2.661386
4203.000000;2.662756
4202.000000;2.674661
4201.000000;2.683535
4200.000000;2.678367
4199.000000;2.662509
4198.000000;2.647574
4197.000000;2.639644
4196.000000;2.635093
4195.000000;2.629095
4194.000000;2.625753
4193.000000;2.632906
4192.000000;2.649831
4191.000000;2.665938
4190.000000;2.673243
4189.000000;2.677034
4188.000000;2.687109
4187.000000;2.702747
4186.000000;2.714052
4185.000000;2.717122
4184.000000;2.719498
4183.000000;2.724319
4182.000000;2.720025
4181.000000;2.695544
4180.000000;2.658972
4179.000000;2.629197
4178.000000;2.617183
4177.000000;2.623382
4176.000000;2.641277
4175.000000;2.655613
4174.000000;2.644834
4173.000000;2.603298
4172.000000;2.556173
4171.000000;2.533201
4170.000000;2.543776
4169.000000;2.576590
4168.000000;2.613037
4167.000000;2.642352
4166.000000;2.660501
4165.000000;2.662096
4164.000000;2.646907
4163.000000;2.628277
4162.000000;2.625969
4161.000000;2.651222
4160.000000;2.698314
4159.000000;2.746489
4158.000000;2.771846
4157.000000;2.763800
4156.000000;2.730105
4155.000000;2.691469
4154.000000;2.669884
4153.000000;2.677292
4152.000000;2.713376
4151.000000;2.764492
4150.000000;2.802088
4149.000000;2.798344
4148.000000;2.758991
4147.000000;2.719976
4146.000000;2.711215
4145.000000;2.736967
4144.000000;2.769313
4143.000000;2.767659
4142.000000;2.731559
4141.000000;2.681561
4140.000000;2.635114
4139.000000;2.615488
4138.000000;2.639748
4137.000000;2.708203
4136.000000;2.792178
4135.000000;2.828766
4134.000000;2.788881
4133.000000;2.725015
4132.000000;2.686238
4131.000000;2.679496
4130.000000;2.684332
4129.000000;2.679504
4128.000000;2.665565
4127.000000;2.652292
4126.000000;2.640956
4125.000000;2.628343
4124.000000;2.617630
4123.000000;2.619106
4122.000000;2.638261
4121.000000;2.668018
4120.000000;2.696226
4119.000000;2.720767
4118.000000;2.747341
4117.000000;2.764025
4116.000000;2.736014
4115.000000;2.667531
4114.000000;2.601667
4113.000000;2.565157
4112.000000;2.568932
4111.000000;2.610402
4110.000000;2.661180
4109.000000;2.686449
4108.000000;2.700479
4107.000000;2.742929
4106.000000;2.817179
4105.000000;2.845325
4104.000000;2.778455
4103.000000;2.700265
4102.000000;2.663566
4101.000000;2.667663
4100.000000;2.685858
4099.000000;2.688484
4098.000000;2.658732
4097.000000;2.616332
4096.000000;2.605288
4095.000000;2.646934
4094.000000;2.720752
4093.000000;2.738718
4092.000000;2.656234
4091.000000;2.555230
4090.000000;2.493951
4089.000000;2.477435
4088.000000;2.478941
4087.000000;2.471614
4086.000000;2.460753
4085.000000;2.464254
4084.000000;2.476232
4083.000000;2.476110
4082.000000;2.465632
4081.000000;2.465815
4080.000000;2.485470
4079.000000;2.516131
4078.000000;2.545735
4077.000000;2.556854
4076.000000;2.534114
4075.000000;2.492657
4074.000000;2.458377
4073.000000;2.458783
4072.000000;2.514246
4071.000000;2.610031
4070.000000;2.693634
4069.000000;2.726819
4068.000000;2.729493
4067.000000;2.702499
4066.000000;2.641133
4065.000000;2.573707
4064.000000;2.516953
4063.000000;2.484042
4062.000000;2.496187
4061.000000;2.573055
4060.000000;2.714616
4059.000000;2.831575
4058.000000;2.761162
4057.000000;2.645820
4056.000000;2.580024
4055.000000;2.549801
4054.000000;2.536900
4053.000000;2.542837
4052.000000;2.575884
4051.000000;2.600926
4050.000000;2.581635
4049.000000;2.563897
4048.000000;2.574842
4047.000000;2.596230
4046.000000;2.628213
4045.000000;2.687458
4044.000000;2.769702
4043.000000;2.849136
4042.000000;2.900227
4041.000000;2.847867
4040.000000;2.744104
4039.000000;2.700220
4038.000000;2.748202
4037.000000;2.868466
4036.000000;2.911271
4035.000000;2.779945
4034.000000;2.625453
4033.000000;2.513527
4032.000000;2.448901
4031.000000;2.421805
4030.000000;2.430152
4029.000000;2.494863
4028.000000;2.596209
4027.000000;2.581475
4026.000000;2.499638
4025.000000;2.497004
4024.000000;2.558370
4023.000000;2.615760
4022.000000;2.600103
4021.000000;2.531267
4020.000000;2.473885
4019.000000;2.454351
4018.000000;2.452326
4017.000000;2.430991
4016.000000;2.384408
4015.000000;2.329799
4014.000000;2.285794
4013.000000;2.276581
4012.000000;2.318951
4011.000000;2.412833
4010.000000;2.537157
4009.000000;2.662720
4008.000000;2.808154
4007.000000;3.017005
4006.000000;3.188173
4005.000000;3.339779
4004.000000;3.767772
4003.000000;3.224140
4002.000000;2.964005
4001.000000;2.898223
4000.000000;2.822390
3999.000000;2.688958
3998.000000;2.646917
3997.000000;2.715265
3996.000000;2.829445
3995.000000;2.839314
3994.000000;2.691511
3993.000000;2.560629
3992.000000;2.519441
3991.000000;2.553925
3990.000000;2.642298
3989.000000;2.759756
3988.000000;2.859521
3987.000000;2.891259
3986.000000;2.880482
3985.000000;2.839666
3984.000000;2.816724
3983.000000;2.899927
3982.000000;3.016643
3981.000000;2.964947
3980.000000;2.959044
3979.000000;2.888012
3978.000000;2.701967
3977.000000;2.578521
3976.000000;2.527405
3975.000000;2.522718
3974.000000;2.522914
3973.000000;2.516892
3972.000000;2.548955
3971.000000;2.652287
3970.000000;2.812615
3969.000000;2.945676
3968.000000;2.953680
3967.000000;2.895747
3966.000000;2.868478
3965.000000;2.859476
3964.000000;2.797215
3963.000000;2.687706
3962.000000;2.597281
3961.000000;2.571761
3960.000000;2.627514
3959.000000;2.753062
3958.000000;2.935204
3957.000000;3.143746
3956.000000;3.491714
3955.000000;3.365642
3954.000000;2.862215
3953.000000;2.643729
3952.000000;2.528750
3951.000000;2.467848
3950.000000;2.467749
3949.000000;2.568627
3948.000000;2.761753
3947.000000;2.898488
3946.000000;3.097588
3945.000000;3.248754
3944.000000;2.976426
3943.000000;2.888633
3942.000000;2.969695
3941.000000;3.069389
3940.000000;2.928985
3939.000000;2.804668
3938.000000;2.784896
3937.000000;2.803849
3936.000000;2.810486
3935.000000;2.826941
3934.000000;2.913532
3933.000000;3.128970
3932.000000;3.161413
3931.000000;2.880997
3930.000000;2.695348
3929.000000;2.643074
3928.000000;2.718981
3927.000000;2.940526
3926.000000;3.396843
3925.000000;4.343408
3924.000000;3.693158
3923.000000;3.192051
3922.000000;3.033254
3921.000000;3.018434
3920.000000;3.241721
3919.000000;3.463039
3918.000000;2.933722
3917.000000;2.750192
3916.000000;2.771229
3915.000000;2.937213
3914.000000;3.168518
3913.000000;3.293506
3912.000000;3.205427
3911.000000;3.091029
3910.000000;3.039657
3909.000000;3.086176
3908.000000;3.244970
3907.000000;3.392413
3906.000000;3.263697
3905.000000;3.068528
3904.000000;3.004107
3903.000000;3.079329
3902.000000;3.313093
3901.000000;3.406271
3900.000000;3.055804
3899.000000;2.822063
3898.000000;2.717842
3897.000000;2.742054
3896.000000;2.870621
3895.000000;3.056870
3894.000000;3.145372
3893.000000;2.990352
3892.000000;2.783993
3891.000000;2.724717
3890.000000;2.853795
3889.000000;3.062275
3888.000000;3.167488
3887.000000;3.086169
3886.000000;2.844289
3885.000000;2.647916
3884.000000;2.621478
3883.000000;2.741492
3882.000000;2.910361
3881.000000;3.008592
3880.000000;3.588994
3879.000000;3.346986
3878.000000;3.102340
3877.000000;3.244795
3876.000000;3.229875
3875.000000;2.858837
3874.000000;2.646829
3873.000000;2.571578
3872.000000;2.535985
3871.000000;2.468124
3870.000000;2.421886
3869.000000;2.490216
3868.000000;2.652782
3867.000000;2.807353
3866.000000;3.099236
3865.000000;3.173606
3864.000000;3.562780
3863.000000;3.937425
3862.000000;3.316805
3861.000000;3.145851
3860.000000;3.076661
3859.000000;3.045402
3858.000000;2.999187
3857.000000;2.981276
3856.000000;3.049252
3855.000000;3.328496
3854.000000;3.627801
3853.000000;3.408690
3852.000000;3.457011
3851.000000;3.977829
3850.000000;3.255183
3849.000000;2.965383
3848.000000;2.916422
3847.000000;3.068391
3846.000000;3.340603
3845.000000;3.200925
3844.000000;3.133957
3843.000000;3.219639
3842.000000;3.262602
3841.000000;3.217401
3840.000000;3.289184
3839.000000;3.560375
3838.000000;3.667834
3837.000000;3.240138
3836.000000;3.073504
3835.000000;3.073981
3834.000000;3.274224
3833.000000;3.573206
3832.000000;3.351471
3831.000000;3.220890
3830.000000;3.330515
3829.000000;3.064613
3828.000000;2.935449
3827.000000;2.986431
3826.000000;3.116028
3825.000000;3.137503
3824.000000;3.091364
3823.000000;3.035367
3822.000000;3.278013
3821.000000;3.218884
3820.000000;3.139160
3819.000000;3.040489
3818.000000;2.969329
3817.000000;2.930561
3816.000000;2.966084
3815.000000;3.102750
3814.000000;3.333378
3813.000000;3.219137
3812.000000;2.936857
3811.000000;2.948147
3810.000000;2.965004
3809.000000;2.955389
3808.000000;2.953178
3807.000000;2.995330
3806.000000;3.015205
3805.000000;2.862089
3804.000000;2.651181
3803.000000;2.487936
3802.000000;2.386821
3801.000000;2.517056
3800.000000;2.587405
3799.000000;2.476060
3798.000000;2.554194
3797.000000;2.688939
3796.000000;2.828714
3795.000000;2.956167
3794.000000;3.127565
3793.000000;3.405394
3792.000000;3.500855
3791.000000;3.177473
3790.000000;3.036449
3789.000000;2.937996
3788.000000;2.812452
3787.000000;2.693320
3786.000000;2.622855
3785.000000;2.617561
3784.000000;2.693589
3783.000000;2.854999
3782.000000;3.117066
3781.000000;3.271065
3780.000000;3.116047
3779.000000;3.036167
3778.000000;3.049314
3777.000000;3.084479
3776.000000;3.086405
3775.000000;3.035198
3774.000000;2.984305
3773.000000;2.988055
3772.000000;3.068163
3771.000000;3.242168
3770.000000;3.593040
3769.000000;3.960871
3768.000000;3.694713
3767.000000;3.620358
3766.000000;3.403160
3765.000000;3.284826
3764.000000;3.403919
3763.000000;3.455459
3762.000000;3.296690
3761.000000;3.216337
3760.000000;3.241611
3759.000000;3.344815
3758.000000;3.308141
3757.000000;3.145878
3756.000000;3.123130
3755.000000;3.434804
3754.000000;3.873698
3753.000000;3.426093
3752.000000;3.257703
3751.000000;3.164109
3750.000000;3.162500
3749.000000;3.268697
3748.000000;3.496227
3747.000000;4.258409
3746.000000;3.855148
3745.000000;3.643189
3744.000000;4.710832
3743.000000;3.671279
3742.000000;3.337126
3741.000000;3.289002
3740.000000;3.317838
3739.000000;3.206539
3738.000000;3.115090
3737.000000;3.187962
3736.000000;3.490134
3735.000000;4.178313
3734.000000;3.759773
3733.000000;3.157741
3732.000000;2.927597
3731.000000;2.881386
3730.000000;2.893009
3729.000000;2.933939
3728.000000;2.962861
3727.000000;2.950366
3726.000000;2.988867
3725.000000;3.203079
3724.000000;3.101216
3723.000000;2.915422
3722.000000;2.966203
3721.000000;3.446326
3720.000000;3.256627
3719.000000;3.030269
3718.000000;3.123617
3717.000000;3.289613
3716.000000;3.133674
3715.000000;2.906099
3714.000000;2.740855
3713.000000;2.641441
3712.000000;2.656018
3711.000000;2.805644
3710.000000;2.882211
3709.000000;2.884665
3708.000000;2.937565
3707.000000;2.960296
3706.000000;2.992913
3705.000000;3.098691
3704.000000;3.136865
3703.000000;3.006004
3702.000000;2.996262
3701.000000;3.194522
3700.000000;3.526397
3699.000000;3.535330
3698.000000;3.389667
3697.000000;3.197128
3696.000000;3.018163
3695.000000;2.936536
3694.000000;2.904908
3693.000000;2.849955
3692.000000;2.836126
3691.000000;2.824776
3690.000000;2.855969
3689.000000;3.594715
3688.000000;3.791251
3687.000000;3.826860
3686.000000;3.284375
3685.000000;3.063341
3684.000000;2.937026
3683.000000;2.883717
3682.000000;2.882629
3681.000000;2.915106
3680.000000;2.973048
3679.000000;3.064271
3678.000000;3.319843
3677.000000;3.661620
3676.000000;3.300301
3675.000000;3.124112
3674.000000;3.410197
3673.000000;3.568907
3672.000000;3.048393
3671.000000;2.947912
3670.000000;3.001380
3669.000000;3.710985
3668.000000;3.467323
3667.000000;2.946755
3666.000000;3.072265
3665.000000;3.143105
3664.000000;3.445572
3663.000000;3.512756
3662.000000;3.287493
3661.000000;3.409657
3660.000000;3.639356
3659.000000;3.314347
3658.000000;3.257293
3657.000000;3.230759
3656.000000;3.268227
3655.000000;3.754048
3654.000000;3.004220
3653.000000;2.670778
3652.000000;2.473813
3651.000000;2.331067
3650.000000;2.245439
3649.000000;2.234965
3648.000000;2.332990
3647.000000;2.545789
3646.000000;2.794647
3645.000000;3.025625
3644.000000;3.212227
3643.000000;3.704605
3642.000000;3.298913
3641.000000;2.964588
3640.000000;3.099779
3639.000000;3.448878
3638.000000;2.991084
3637.000000;2.788752
3636.000000;2.790773
3635.000000;2.873994
3634.000000;3.031070
3633.000000;3.156633
3632.000000;3.105859
3631.000000;3.016018
3630.000000;2.817957
3629.000000;2.566437
3628.000000;2.490549
3627.000000;2.643159
3626.000000;2.936150
3625.000000;3.328659
3624.000000;3.700990
3623.000000;3.431145
3622.000000;3.513768
3621.000000;3.685006
3620.000000;3.163624
3619.000000;2.975145
3618.000000;3.142175
3617.000000;3.470429
3616.000000;3.151584
3615.000000;2.995542
3614.000000;3.027199
3613.000000;2.928301
3612.000000;2.844983
3611.000000;2.939587
3610.000000;3.244679
3609.000000;3.204110
3608.000000;3.089038
3607.000000;3.191916
3606.000000;2.919195
3605.000000;2.766570
3604.000000;2.763920
3603.000000;2.852870
3602.000000;3.021319
3601.000000;3.184277
3600.000000;3.044879
3599.000000;2.851368
3598.000000;2.774508
3597.000000;2.804625
3596.000000;2.917580
3595.000000;3.065682
3594.000000;3.159258
3593.000000;3.168780
3592.000000;3.228968
3591.000000;3.619241
3590.000000;3.946132
3589.000000;3.321704
3588.000000;3.003250
3587.000000;2.953152
3586.000000;3.509271
3585.000000;3.072751
3584.000000;2.796363
3583.000000;2.739554
3582.000000;2.758615
3581.000000;2.882210
3580.000000;3.147083
3579.000000;3.751050
3578.000000;3.328087
3577.000000;2.988451
3576.000000;2.934397
3575.000000;3.161962
3574.000000;3.253498
3573.000000;2.898472
3572.000000;2.797727
3571.000000;2.821766
3570.000000;2.959769
3569.000000;3.339419
3568.000000;3.369604
3567.000000;2.981172
3566.000000;3.073403
3565.000000;3.221520
3564.000000;3.143427
3563.000000;3.128531
3562.000000;3.184303
3561.000000;3.237392
3560.000000;3.292044
3559.000000;3.318197
3558.000000;3.286741
3557.000000;3.346361
3556.000000;3.923941
3555.000000;3.494638
3554.000000;3.115465
3553.000000;3.016809
3552.000000;3.094411
3551.000000;3.323597
3550.000000;3.465852
3549.000000;3.394288
3548.000000;3.260774
3547.000000;3.317405
3546.000000;3.683996
3545.000000;3.244776
3544.000000;2.933249
3543.000000;2.896703
3542.000000;3.043207
3541.000000;3.360630
3540.000000;3.335532
3539.000000;3.073039
3538.000000;2.939291
3537.000000;2.876830
3536.000000;2.881847
3535.000000;2.899113
3534.000000;2.864960
3533.000000;2.793220
3532.000000;2.759740
3531.000000;2.821016
3530.000000;3.126479
3529.000000;3.287120
3528.000000;2.941983
3527.000000;2.919781
3526.000000;3.239779
3525.000000;3.673837
3524.000000;3.389043
3523.000000;3.220811
3522.000000;3.119183
3521.000000;3.125648
3520.000000;3.110448
3519.000000;3.132852
3518.000000;3.272230
3517.000000;3.543157
3516.000000;3.982221
3515.000000;3.518551
3514.000000;3.113738
3513.000000;2.949317
3512.000000;2.876515
3511.000000;2.868740
3510.000000;2.916179
3509.000000;3.022191
3508.000000;3.182503
3507.000000;3.299884
3506.000000;3.329788
3505.000000;3.668659
3504.000000;3.564884
3503.000000;3.066620
3502.000000;2.915476
3501.000000;2.984364
3500.000000;3.134647
3499.000000;3.157868
3498.000000;3.105508
3497.000000;3.025191
3496.000000;2.998478
3495.000000;3.077380
3494.000000;3.232266
3493.000000;3.497114
3492.000000;3.751391
3491.000000;3.334113
3490.000000;3.136341
3489.000000;3.157661
3488.000000;3.442423
3487.000000;3.622189
3486.000000;3.351856
3485.000000;3.259381
3484.000000;3.160890
3483.000000;3.056165
3482.000000;2.995145
3481.000000;3.040590
3480.000000;3.450585
3479.000000;3.385203
3478.000000;3.091221
3477.000000;3.107834
3476.000000;3.268307
3475.000000;3.435527
3474.000000;3.318719
3473.000000;3.199568
3472.000000;3.177379
3471.000000;3.102760
3470.000000;2.992658
3469.000000;3.091924
3468.000000;3.591954
3467.000000;3.203929
3466.000000;3.025928
3465.000000;3.118052
3464.000000;3.222349
3463.000000;3.126884
3462.000000;3.011280
3461.000000;2.919580
3460.000000;2.843738
3459.000000;2.841256
3458.000000;2.972303
3457.000000;3.330828
3456.000000;3.725655
3455.000000;3.649512
3454.000000;3.263501
3453.000000;2.968104
3452.000000;2.856461
3451.000000;2.868325
3450.000000;3.015754
3449.000000;3.252364
3448.000000;3.160934
3447.000000;3.056050
3446.000000;3.107246
3445.000000;3.184249
3444.000000;3.243252
3443.000000;3.398049
3442.000000;3.625141
3441.000000;3.625559
3440.000000;3.468147
3439.000000;3.239279
3438.000000;3.167497
3437.000000;3.258069
3436.000000;3.686499
3435.000000;3.760872
3434.000000;3.265713
3433.000000;3.301489
3432.000000;3.586832
3431.000000;3.351049
3430.000000;3.025702
3429.000000;2.889482
3428.000000;2.825226
3427.000000;2.855940
3426.000000;3.018814
3425.000000;3.349434
3424.000000;3.263238
3423.000000;3.102047
3422.000000;3.138160
3421.000000;3.213505
3420.000000;3.333624
3419.000000;3.562477
3418.000000;3.792774
3417.000000;3.593845
3416.000000;3.238102
3415.000000;3.072835
3414.000000;3.049915
3413.000000;3.140856
3412.000000;3.196628
3411.000000;3.252987
3410.000000;3.383742
3409.000000;3.055554
3408.000000;2.833317
3407.000000;2.815123
3406.000000;3.000235
3405.000000;3.296314
3404.000000;3.100775
3403.000000;2.947220
3402.000000;3.049380
3401.000000;3.364648
3400.000000;3.263782
3399.000000;3.061641
3398.000000;3.076061
3397.000000;3.177979
3396.000000;3.302101
3395.000000;3.362217
3394.000000;3.438833
3393.000000;3.809771
3392.000000;4.033794
3391.000000;4.003812
3390.000000;3.575546
3389.000000;3.159855
3388.000000;3.056346
3387.000000;3.246463
3386.000000;3.559218
3385.000000;3.096788
3384.000000;2.908799
3383.000000;2.842366
3382.000000;2.835357
3381.000000;2.881514
3380.000000;2.980364
3379.000000;3.123435
3378.000000;3.259600
3377.000000;3.308476
3376.000000;3.210296
3375.000000;3.118735
3374.000000;3.139032
3373.000000;3.409258
3372.000000;3.666006
3371.000000;3.389703
3370.000000;3.371197
3369.000000;3.303871
3368.000000;3.104634
3367.000000;3.093485
3366.000000;3.314500
3365.000000;3.279763
3364.000000;3.110352
3363.000000;3.121931
3362.000000;3.246405
3361.000000;3.495463
3360.000000;3.703943
3359.000000;3.511167
3358.000000;3.487313
3357.000000;3.507112
3356.000000;3.461825
3355.000000;3.417288
3354.000000;3.342180
3353.000000;3.312060
3352.000000;3.345935
3351.000000;3.315804
3350.000000;3.468241
3349.000000;3.538976
3348.000000;3.186484
3347.000000;3.075072
3346.000000;3.105871
3345.000000;3.123330
3344.000000;3.065187
3343.000000;3.020120
3342.000000;3.074479
3341.000000;3.277706
3340.000000;3.870899
3339.000000;3.743514
3338.000000;3.331802
3337.000000;3.139617
3336.000000;3.081608
3335.000000;3.194171
3334.000000;3.480845
3333.000000;3.591202
3332.000000;3.486796
3331.000000;3.507486
3330.000000;3.719505
3329.000000;3.678434
3328.000000;3.337513
3327.000000;3.307201
3326.000000;3.306816
3325.000000;3.166233
3324.000000;3.153608
3323.000000;3.204113
3322.000000;3.107472
3321.000000;3.008723
3320.000000;2.994266
3319.000000;3.060115
3318.000000;3.149397
3317.000000;3.187146
3316.000000;3.442903
3315.000000;3.631996
3314.000000;3.198067
3313.000000;3.085041
3312.000000;3.209618
3311.000000;3.589488
3310.000000;4.305866
3309.000000;3.628442
3308.000000;3.272109
3307.000000;3.049443
3306.000000;2.942240
3305.000000;2.928101
3304.000000;2.965612
3303.000000;3.026772
3302.000000;3.053025
3301.000000;3.005934
3300.000000;2.968738
3299.000000;3.061876
3298.000000;3.371079
3297.000000;3.390577
3296.000000;3.211504
3295.000000;3.342853
3294.000000;3.748371
3293.000000;3.747443
3292.000000;3.332084
3291.000000;3.134965
3290.000000;3.120053
3289.000000;3.111307
3288.000000;2.965350
3287.000000;2.861850
3286.000000;2.811471
3285.000000;2.788074
3284.000000;2.831316
3283.000000;2.960276
3282.000000;3.169798
3281.000000;3.386985
3280.000000;3.336813
3279.000000;3.114259
3278.000000;2.936492
3277.000000;2.845757
3276.000000;2.864602
3275.000000;3.001226
3274.000000;3.179492
3273.000000;3.215098
3272.000000;3.199959
3271.000000;3.196276
3270.000000;3.344202
3269.000000;3.638797
3268.000000;3.150557
3267.000000;2.856022
3266.000000;2.765048
3265.000000;2.761639
3264.000000;2.850802
3263.000000;3.075508
3262.000000;3.408454
3261.000000;3.512192
3260.000000;3.808414
3259.000000;3.515584
3258.000000;3.137855
3257.000000;2.941276
3256.000000;2.836298
3255.000000;2.849755
3254.000000;2.999993
3253.000000;3.359397
3252.000000;3.600850
3251.000000;3.209480
3250.000000;3.067005
3249.000000;3.064801
3248.000000;3.129689
3247.000000;3.181837
3246.000000;3.116990
3245.000000;2.954106
3244.000000;2.853384
3243.000000;2.873709
3242.000000;3.001198
3241.000000;3.171430
3240.000000;3.205279
3239.000000;3.119232
3238.000000;3.043044
3237.000000;3.003890
3236.000000;3.011459
3235.000000;3.034481
3234.000000;3.029163
3233.000000;3.039952
3232.000000;3.105335
3231.000000;3.113848
3230.000000;3.040946
3229.000000;3.052411
3228.000000;3.159991
3227.000000;3.459598
3226.000000;3.665354
3225.000000;3.090888
3224.000000;2.909130
3223.000000;2.889166
3222.000000;2.946372
3221.000000;3.048152
3220.000000;3.150670
3219.000000;3.229966
3218.000000;3.466842
3217.000000;3.492768
3216.000000;3.186087
3215.000000;3.169928
3214.000000;3.606344
3213.000000;3.787824
3212.000000;3.284248
3211.000000;3.131857
3210.000000;3.017181
3209.000000;2.921418
3208.000000;2.885018
3207.000000;2.974028
3206.000000;3.240010
3205.000000;3.534762
3204.000000;3.385337
3203.000000;3.162462
3202.000000;3.135497
3201.000000;3.362334
3200.000000;3.551209
3199.000000;3.206195
3198.000000;3.019374
3197.000000;2.963372
3196.000000;3.019166
3195.000000;3.114578
3194.000000;3.140976
3193.000000;3.276187
3192.000000;3.727626
3191.000000;3.474939
3190.000000;3.118870
3189.000000;3.069559
3188.000000;3.167881
3187.000000;3.424842
3186.000000;3.469801
3185.000000;3.341005
3184.000000;3.253727
3183.000000;3.053914
3182.000000;2.893694
3181.000000;2.850374
3180.000000;2.921407
3179.000000;3.088298
3178.000000;3.226784
3177.000000;3.434101
3176.000000;3.913075
3175.000000;3.318040
3174.000000;3.101467
3173.000000;3.058141
3172.000000;3.018210
3171.000000;2.919408
3170.000000;2.793269
3169.000000;2.732855
3168.000000;2.767178
3167.000000;2.893051
3166.000000;3.058102
3165.000000;3.138993
3164.000000;3.079595
3163.000000;2.994998
3162.000000;2.965723
3161.000000;3.021469
3160.000000;3.220272
3159.000000;3.215987
3158.000000;2.989302
3157.000000;2.944885
3156.000000;3.090122
3155.000000;3.369805
3154.000000;3.490803
3153.000000;3.628874
3152.000000;3.801448
3151.000000;3.454289
3150.000000;3.260938
3149.000000;3.157745
3148.000000;3.083788
3147.000000;3.097702
3146.000000;3.132676
3145.000000;3.048220
3144.000000;2.976036
3143.000000;2.986992
3142.000000;3.003991
3141.000000;2.991190
3140.000000;3.019251
3139.000000;3.196877
3138.000000;3.676807
3137.000000;3.657021
3136.000000;3.368635
3135.000000;3.408484
3134.000000;3.354330
3133.000000;3.185651
3132.000000;3.088850
3131.000000;3.109318
3130.000000;3.188417
3129.000000;3.161272
3128.000000;3.114290
3127.000000;3.155389
3126.000000;3.146874
3125.000000;3.080322
3124.000000;3.031537
3123.000000;2.948751
3122.000000;2.868083
3121.000000;2.866611
3120.000000;2.961155
3119.000000;3.226152
3118.000000;3.745706
3117.000000;3.527811
3116.000000;3.372678
3115.000000;3.223359
3114.000000;3.067672
3113.000000;3.033002
3112.000000;3.151260
3111.000000;3.348997
3110.000000;3.159379
3109.000000;2.962083
3108.000000;2.979296
3107.000000;3.344620
3106.000000;3.430470
3105.000000;3.099024
3104.000000;3.097487
3103.000000;3.316306
3102.000000;3.921070
3101.000000;3.657946
3100.000000;3.503957
3099.000000;3.265634
3098.000000;3.016586
3097.000000;2.992221
3096.000000;3.126551
3095.000000;3.269836
3094.000000;3.275152
3093.000000;3.228270
3092.000000;3.121801
3091.000000;3.005555
3090.000000;2.915444
3089.000000;2.877178
3088.000000;2.936546
3087.000000;3.189263
3086.000000;3.331726
3085.000000;3.114614
3084.000000;3.163128
3083.000000;3.557146
3082.000000;3.396308
3081.000000;2.937159
3080.000000;2.743800
3079.000000;2.647495
3078.000000;2.620532
3077.000000;2.652921
3076.000000;2.741747
3075.000000;2.876245
3074.000000;3.010807
3073.000000;3.077209
3072.000000;3.055646
3071.000000;3.069304
3070.000000;3.242377
3069.000000;3.592239
3068.000000;3.487302
3067.000000;3.400047
3066.000000;3.524685
3065.000000;3.621429
3064.000000;3.771983
3063.000000;3.525266
3062.000000;3.344558
3061.000000;3.624047
3060.000000;3.484664
3059.000000;3.111462
3058.000000;3.119760
3057.000000;3.297604
3056.000000;3.262759
3055.000000;3.082241
3054.000000;3.049247
3053.000000;3.106011
3052.000000;3.166808
3051.000000;3.185940
3050.000000;3.275555
3049.000000;3.515676
3048.000000;3.362782
3047.000000;3.176536
3046.000000;3.170556
3045.000000;3.200162
3044.000000;3.077952
3043.000000;2.862929
3042.000000;2.731843
3041.000000;2.694527
3040.000000;2.741444
3039.000000;2.867212
3038.000000;3.144418
3037.000000;3.675147
3036.000000;3.501593
3035.000000;3.405038
3034.000000;3.425891
3033.000000;3.304692
3032.000000;3.250555
3031.000000;3.285474
3030.000000;3.397148
3029.000000;3.580812
3028.000000;3.529881
3027.000000;3.213516
3026.000000;2.998112
3025.000000;2.904853
3024.000000;2.919752
3023.000000;3.015799
3022.000000;3.144313
3021.000000;3.256931
3020.000000;3.322388
3019.000000;3.329446
3018.000000;3.379249
3017.000000;3.601682
3016.000000;3.522061
3015.000000;3.423389
3014.000000;3.786955
3013.000000;3.526690
3012.000000;3.115012
3011.000000;2.997761
3010.000000;2.994166
3009.000000;2.979607
3008.000000;2.940421
3007.000000;2.968056
3006.000000;3.024021
3005.000000;2.971664
3004.000000;2.888441
3003.000000;2.897344
3002.000000;3.168299
3001.000000;3.590146
3000.000000;3.211530
2999.000000;3.067489
2998.000000;3.137253
2997.000000;3.276397
2996.000000;3.423265
2995.000000;3.695181
2994.000000;4.011004
2993.000000;3.792948
2992.000000;3.753583
2991.000000;3.555505
2990.000000;3.290945
2989.000000;3.161102
2988.000000;3.175409
2987.000000;3.457930
2986.000000;3.538957
2985.000000;3.118414
2984.000000;3.016789
2983.000000;3.099849
2982.000000;3.367975
2981.000000;3.892412
2980.000000;3.446452
2979.000000;3.133948
2978.000000;3.063008
2977.000000;3.099657
2976.000000;3.214561
2975.000000;3.372515
2974.000000;3.362401
2973.000000;3.108967
2972.000000;2.937787
2971.000000;2.900951
2970.000000;3.075452
2969.000000;3.515816
2968.000000;3.137201
2967.000000;2.896910
2966.000000;2.933669
2965.000000;3.120032
2964.000000;3.520147
2963.000000;3.761147
2962.000000;3.561333
2961.000000;3.390760
2960.000000;3.191400
2959.000000;3.003117
2958.000000;2.877112
2957.000000;2.812606
2956.000000;2.831583
2955.000000;2.949091
2954.000000;3.322215
2953.000000;4.042315
2952.000000;3.405898
2951.000000;3.252710
2950.000000;3.140504
2949.000000;2.976722
2948.000000;2.895176
2947.000000;2.916301
2946.000000;3.019105
2945.000000;3.133018
2944.000000;3.165025
2943.000000;3.122969
2942.000000;3.122159
2941.000000;3.179128
2940.000000;3.228591
2939.000000;3.243547
2938.000000;3.273186
2937.000000;3.144123
2936.000000;2.952917
2935.000000;2.887713
2934.000000;2.963731
2933.000000;3.117134
2932.000000;3.164479
2931.000000;3.109023
2930.000000;3.060113
2929.000000;3.073593
2928.000000;3.152059
2927.000000;3.165906
2926.000000;3.073337
2925.000000;2.934953
2924.000000;2.807403
2923.000000;2.767952
2922.000000;2.848422
2921.000000;3.056465
2920.000000;3.386706
2919.000000;3.424705
2918.000000;3.120842
2917.000000;2.938489
2916.000000;2.887898
2915.000000;2.954803
2914.000000;3.138671
2913.000000;3.373125
2912.000000;3.463849
2911.000000;3.417931
2910.000000;3.400047
2909.000000;3.432498
2908.000000;3.266909
2907.000000;2.991830
2906.000000;2.844032
2905.000000;2.849221
2904.000000;3.130623
2903.000000;3.312931
2902.000000;2.935502
2901.000000;2.888277
2900.000000;3.093354
2899.000000;3.585419
2898.000000;3.446752
2897.000000;3.154337
2896.000000;3.152068
2895.000000;3.213506
2894.000000;3.322094
2893.000000;3.434994
2892.000000;3.605335
2891.000000;3.638555
2890.000000;3.523670
2889.000000;3.467213
2888.000000;3.346128
2887.000000;3.203196
2886.000000;3.237895
2885.000000;3.505170
2884.000000;3.288020
2883.000000;3.059137
2882.000000;3.045107
2881.000000;3.083317
2880.000000;3.092435
2879.000000;3.113497
2878.000000;3.171837
2877.000000;3.346549
2876.000000;3.547925
2875.000000;3.284364
2874.000000;3.152736
2873.000000;3.464776
2872.000000;3.619521
2871.000000;3.164041
2870.000000;3.461504
2869.000000;3.425957
2868.000000;2.969550
2867.000000;2.952587
2866.000000;3.132966
2865.000000;3.513818
2864.000000;3.324825
2863.000000;3.084613
2862.000000;3.137471
2861.000000;3.303491
2860.000000;3.229960
2859.000000;3.121212
2858.000000;3.170626
2857.000000;3.256067
2856.000000;3.322099
2855.000000;3.498246
2854.000000;3.973760
2853.000000;3.506343
2852.000000;3.187891
2851.000000;3.139386
2850.000000;3.239532
2849.000000;3.279951
2848.000000;3.090971
2847.000000;2.939242
2846.000000;2.886492
2845.000000;2.922708
2844.000000;3.186996
2843.000000;3.553159
2842.000000;3.432566
2841.000000;3.502816
2840.000000;3.382803
2839.000000;3.604133
2838.000000;3.496689
2837.000000;3.036425
2836.000000;3.014656
2835.000000;3.251379
2834.000000;3.407632
2833.000000;3.279874
2832.000000;3.284175
2831.000000;3.302027
2830.000000;3.110274
2829.000000;2.936734
2828.000000;2.887207
2827.000000;3.038243
2826.000000;3.483134
2825.000000;3.621850
2824.000000;3.532690
2823.000000;3.363167
2822.000000;3.145664
2821.000000;3.064319
2820.000000;3.030763
2819.000000;2.968719
2818.000000;2.911932
2817.000000;2.926551
2816.000000;3.021761
2815.000000;3.409544
2814.000000;3.409630
2813.000000;2.939489
2812.000000;2.881113
2811.000000;3.085270
2810.000000;3.062772
2809.000000;2.820562
2808.000000;2.809650
2807.000000;2.997161
2806.000000;3.203761
2805.000000;3.231322
2804.000000;3.348700
2803.000000;3.523026
2802.000000;3.257371
2801.000000;3.072210
2800.000000;3.006659
2799.000000;2.998613
2798.000000;3.038180
2797.000000;3.100309
2796.000000;3.097008
2795.000000;2.973164
2794.000000;2.882855
2793.000000;2.917315
2792.000000;3.088474
2791.000000;3.265148
2790.000000;3.160734
2789.000000;3.047425
2788.000000;3.070972
2787.000000;3.201551
2786.000000;3.642992
2785.000000;3.940041
2784.000000;3.286122
2783.000000;3.026098
2782.000000;2.929386
2781.000000;2.911762
2780.000000;2.921327
2779.000000;2.945572
2778.000000;2.968737
2777.000000;2.992943
2776.000000;3.046585
2775.000000;3.081395
2774.000000;3.070690
2773.000000;3.056351
2772.000000;3.075802
2771.000000;3.165418
2770.000000;3.417070
2769.000000;3.809566
2768.000000;4.064658
2767.000000;3.736415
2766.000000;3.278032
2765.000000;3.090397
2764.000000;3.045637
2763.000000;3.085426
2762.000000;3.223449
2761.000000;3.431834
2760.000000;3.249592
2759.000000;2.994910
2758.000000;2.911708
2757.000000;2.892982
2756.000000;2.910070
2755.000000;2.955784
2754.000000;2.997153
2753.000000;2.986096
2752.000000;2.968226
2751.000000;3.032498
2750.000000;3.282296
2749.000000;3.656191
2748.000000;3.562228
2747.000000;3.556082
2746.000000;3.491110
2745.000000;3.348023
2744.000000;3.311720
2743.000000;3.431048
2742.000000;3.618024
2741.000000;3.278501
2740.000000;3.019114
2739.000000;2.944444
2738.000000;3.046066
2737.000000;3.137302
2736.000000;3.017062
2735.000000;3.029000
2734.000000;3.249529
2733.000000;3.504716
2732.000000;3.461810
2731.000000;3.184374
2730.000000;2.932302
2729.000000;2.799870
2728.000000;2.772829
2727.000000;2.815544
2726.000000;2.890018
2725.000000;3.012375
2724.000000;3.100958
2723.000000;3.037718
2722.000000;3.024916
2721.000000;3.103385
2720.000000;3.143878
2719.000000;3.104723
2718.000000;3.060852
2717.000000;3.044978
2716.000000;3.047838
2715.000000;3.062860
2714.000000;3.105022
2713.000000;3.144428
2712.000000;3.308686
2711.000000;3.607809
2710.000000;3.280326
2709.000000;3.024282
2708.000000;2.955273
2707.000000;2.984443
2706.000000;3.096037
2705.000000;3.285988
2704.000000;3.335861
2703.000000;3.168733
2702.000000;3.105126
2701.000000;3.178160
2700.000000;3.360636
2699.000000;3.285601
2698.000000;3.037244
2697.000000;2.914845
2696.000000;2.920972
2695.000000;3.030395
2694.000000;3.277441
2693.000000;3.736473
2692.000000;3.626072
2691.000000;3.437664
2690.000000;3.469360
2689.000000;3.566225
2688.000000;3.542835
2687.000000;3.434618
2686.000000;3.413105
2685.000000;3.343829
2684.000000;3.223582
2683.000000;3.109181
2682.000000;2.994560
2681.000000;2.913420
2680.000000;2.874691
2679.000000;2.844053
2678.000000;2.824729
2677.000000;2.842567
2676.000000;2.947979
2675.000000;3.117991
2674.000000;3.254174
2673.000000;3.276435
2672.000000;3.392765
2671.000000;4.116816
2670.000000;3.498600
2669.000000;3.093888
2668.000000;2.970662
2667.000000;2.929658
2666.000000;3.024254
2665.000000;3.349223
2664.000000;3.457066
2663.000000;3.118406
2662.000000;3.021515
2661.000000;3.050491
2660.000000;3.101464
2659.000000;3.077835
2658.000000;2.996559
2657.000000;2.953319
2656.000000;2.957844
2655.000000;3.028611
2654.000000;3.206917
2653.000000;3.649802
2652.000000;3.821172
2651.000000;3.335431
2650.000000;3.067486
2649.000000;2.932935
2648.000000;2.916209
2647.000000;3.010879
2646.000000;3.326438
2645.000000;3.488396
2644.000000;3.153908
2643.000000;3.035813
2642.000000;3.017082
2641.000000;2.961019
2640.000000;2.922834
2639.000000;2.986547
2638.000000;3.146570
2637.000000;3.364485
2636.000000;3.498308
2635.000000;3.353839
2634.000000;3.249958
2633.000000;3.275661
2632.000000;3.415792
2631.000000;3.735724
2630.000000;3.828493
2629.000000;3.448633
2628.000000;3.242361
2627.000000;3.209335
2626.000000;3.322573
2625.000000;3.439739
2624.000000;3.338304
2623.000000;3.186289
2622.000000;3.170486
2621.000000;3.246270
2620.000000;3.336162
2619.000000;3.265578
2618.000000;3.156179
2617.000000;3.054628
2616.000000;3.078505
2615.000000;3.584209
2614.000000;3.301694
2613.000000;2.911489
2612.000000;2.867855
2611.000000;2.965841
2610.000000;3.140887
2609.000000;3.236345
2608.000000;3.239959
2607.000000;3.241431
2606.000000;3.262649
2605.000000;3.304032
2604.000000;3.359120
2603.000000;3.505255
2602.000000;3.604748
2601.000000;3.456562
2600.000000;3.519104
2599.000000;3.540896
2598.000000;3.278447
2597.000000;3.217920
2596.000000;3.372197
2595.000000;3.468491
2594.000000;3.268197
2593.000000;3.195624
2592.000000;3.210326
2591.000000;2.959605
2590.000000;2.772800
2589.000000;2.769183
2588.000000;3.034179
2587.000000;3.435487
2586.000000;3.082345
2585.000000;2.996261
2584.000000;3.074786
2583.000000;3.135598
2582.000000;3.322656
2581.000000;3.581566
2580.000000;3.606078
2579.000000;3.424824
2578.000000;3.303239
2577.000000;3.209609
2576.000000;3.116705
2575.000000;3.051519
2574.000000;3.051276
2573.000000;3.048413
2572.000000;2.966218
2571.000000;2.924871
2570.000000;3.055828
2569.000000;3.233128
2568.000000;3.145888
2567.000000;3.122671
2566.000000;3.221451
2565.000000;3.293475
2564.000000;3.240699
2563.000000;3.164486
2562.000000;3.135015
2561.000000;3.282393
2560.000000;3.959811
2559.000000;3.588894
2558.000000;3.333055
2557.000000;3.453045
2556.000000;3.564684
2555.000000;3.491861
2554.000000;3.328575
2553.000000;3.221519
2552.000000;3.159606
2551.000000;3.182976
2550.000000;3.300645
2549.000000;3.449962
2548.000000;3.419697
2547.000000;3.223527
2546.000000;3.104261
2545.000000;3.099303
2544.000000;3.122581
2543.000000;3.097272
2542.000000;3.010471
2541.000000;2.963810
2540.000000;2.996532
2539.000000;3.250390
2538.000000;3.671662
2537.000000;3.279279
2536.000000;3.071235
2535.000000;3.264034
2534.000000;3.820950
2533.000000;3.446723
2532.000000;3.493143
2531.000000;3.484654
2530.000000;3.115794
2529.000000;3.075189
2528.000000;3.273118
2527.000000;3.255634
2526.000000;3.025040
2525.000000;3.000419
2524.000000;3.271334
2523.000000;3.587932
2522.000000;3.203105
2521.000000;3.068137
2520.000000;3.055188
2519.000000;3.043722
2518.000000;3.023268
2517.000000;3.007879
2516.000000;3.078598
2515.000000;3.277163
2514.000000;3.648650
2513.000000;3.714853
2512.000000;3.433958
2511.000000;3.265677
2510.000000;3.219075
2509.000000;3.222462
2508.000000;3.252650
2507.000000;3.410628
2506.000000;3.777582
2505.000000;3.996678
2504.000000;3.861295
2503.000000;3.689014
2502.000000;3.477938
2501.000000;3.336214
2500.000000;3.262354
2499.000000;3.192538
2498.000000;3.077919
2497.000000;2.955178
2496.000000;2.873156
2495.000000;2.839644
2494.000000;2.866100
2493.000000;2.954784
2492.000000;3.011926
2491.000000;2.962790
2490.000000;2.918385
2489.000000;2.942602
2488.000000;3.048898
2487.000000;3.164221
2486.000000;3.222826
2485.000000;3.386625
2484.000000;3.318389
2483.000000;3.002112
2482.000000;2.860923
2481.000000;2.866083
2480.000000;3.003597
2479.000000;3.259586
2478.000000;3.671586
2477.000000;4.353338
2476.000000;3.541148
2475.000000;3.161027
2474.000000;3.020872
2473.000000;3.034646
2472.000000;3.225206
2471.000000;3.372052
2470.000000;3.197902
2469.000000;3.040708
2468.000000;2.960769
2467.000000;2.947378
2466.000000;2.999730
2465.000000;3.113570
2464.000000;3.211494
2463.000000;3.194321
2462.000000;3.164844
2461.000000;3.245434
2460.000000;3.405267
2459.000000;3.174151
2458.000000;2.963097
2457.000000;2.940833
2456.000000;3.067292
2455.000000;3.287635
2454.000000;3.559174
2453.000000;4.069896
2452.000000;3.495823
2451.000000;3.313754
2450.000000;3.445233
2449.000000;3.286799
2448.000000;3.053580
2447.000000;2.938194
2446.000000;2.912924
2445.000000;2.941470
2444.000000;2.980762
2443.000000;2.998178
2442.000000;3.006584
2441.000000;3.050900
2440.000000;3.165886
2439.000000;3.178959
2438.000000;2.999889
2437.000000;2.869481
2436.000000;2.821787
2435.000000;2.879379
2434.000000;3.082283
2433.000000;3.240324
2432.000000;3.431088
2431.000000;3.619264
2430.000000;3.245653
2429.000000;3.114940
2428.000000;3.203597
2427.000000;3.512731
2426.000000;3.664261
2425.000000;3.250009
2424.000000;3.048854
2423.000000;2.972127
2422.000000;2.975043
2421.000000;3.049979
2420.000000;3.192958
2419.000000;3.453228
2418.000000;3.573184
2417.000000;3.323998
2416.000000;3.174990
2415.000000;3.201403
2414.000000;3.422150
2413.000000;3.619188
2412.000000;3.530903
2411.000000;3.489769
2410.000000;3.348626
2409.000000;3.172284
2408.000000;3.077001
2407.000000;3.086533
2406.000000;3.214698
2405.000000;3.297757
2404.000000;3.254034
2403.000000;3.258072
2402.000000;3.268184
2401.000000;3.286714
2400.000000;3.277226
2399.000000;3.173796
2398.000000;3.162739
2397.000000;3.276310
2396.000000;3.401335
2395.000000;3.349688
2394.000000;3.211597
2393.000000;3.130005
2392.000000;3.262453
2391.000000;3.590632
2390.000000;3.393728
2389.000000;3.329602
2388.000000;3.403613
2387.000000;3.221748
2386.000000;3.035736
2385.000000;2.946163
2384.000000;2.960693
2383.000000;3.068660
2382.000000;3.291454
2381.000000;3.573858
2380.000000;3.675150
2379.000000;3.382895
2378.000000;3.111610
2377.000000;3.003428
2376.000000;3.124425
2375.000000;3.529188
2374.000000;3.619926
2373.000000;3.798051
2372.000000;3.707473
2371.000000;3.214448
2370.000000;3.074754
2369.000000;3.097748
2368.000000;3.161789
2367.000000;3.193269
2366.000000;3.221620
2365.000000;3.147716
2364.000000;2.974948
2363.000000;2.867772
2362.000000;2.876561
2361.000000;2.997272
2360.000000;3.183600
2359.000000;3.330513
2358.000000;3.307814
2357.000000;3.256289
2356.000000;3.288775
2355.000000;3.254596
2354.000000;3.140030
2353.000000;3.087403
2352.000000;3.068716
2351.000000;2.980089
2350.000000;2.959890
2349.000000;3.043538
2348.000000;3.012790
2347.000000;2.882643
2346.000000;2.832404
2345.000000;2.859894
2344.000000;2.940584
2343.000000;3.089338
2342.000000;3.380359
2341.000000;3.534530
2340.000000;3.106463
2339.000000;2.878145
2338.000000;2.798802
2337.000000;2.790266
2336.000000;2.821513
2335.000000;2.894725
2334.000000;3.053965
2333.000000;3.148004
2332.000000;3.029775
2331.000000;2.962109
2330.000000;3.059960
2329.000000;3.271031
2328.000000;3.210215
2327.000000;3.026887
2326.000000;2.964419
2325.000000;2.982898
2324.000000;3.229672
2323.000000;3.411856
2322.000000;3.019532
2321.000000;2.808122
2320.000000;2.695159
2319.000000;2.665264
2318.000000;2.736521
2317.000000;2.970763
2316.000000;3.431609
2315.000000;3.174300
2314.000000;2.894833
2313.000000;2.780868
2312.000000;2.754470
2311.000000;2.828255
2310.000000;2.960380
2309.000000;3.157876
2308.000000;3.328905
2307.000000;3.322389
2306.000000;3.200208
2305.000000;3.059907
2304.000000;3.008804
2303.000000;3.091310
2302.000000;3.325862
2301.000000;3.413460
2300.000000;3.288659
2299.000000;3.278181
2298.000000;3.395350
2297.000000;3.837957
2296.000000;3.827844
2295.000000;3.467521
2294.000000;3.343129
2293.000000;3.226737
2292.000000;3.161136
2291.000000;3.142741
2290.000000;3.169129
2289.000000;3.239336
2288.000000;3.213101
2287.000000;3.152282
2286.000000;3.148719
2285.000000;3.409487
2284.000000;3.770217
2283.000000;3.276134
2282.000000;3.157217
2281.000000;3.141489
2280.000000;3.042838
2279.000000;2.948643
2278.000000;2.909584
2277.000000;2.946393
2276.000000;3.001646
2275.000000;3.038982
2274.000000;3.071310
2273.000000;3.125166
2272.000000;3.182970
2271.000000;3.291122
2270.000000;3.297395
2269.000000;3.176053
2268.000000;3.162350
2267.000000;3.215438
2266.000000;3.247923
2265.000000;3.277687
2264.000000;3.234274
2263.000000;3.142883
2262.000000;3.146841
2261.000000;3.234883
2260.000000;3.421315
2259.000000;3.754750
2258.000000;3.591913
2257.000000;3.346363
2256.000000;3.284678
2255.000000;3.302862
2254.000000;3.331892
2253.000000;3.295027
2252.000000;3.242931
2251.000000;3.217000
2250.000000;3.193785
2249.000000;3.160832
2248.000000;3.174292
2247.000000;3.244334
2246.000000;3.291425
2245.000000;3.302807
2244.000000;3.501778
2243.000000;3.949268
2242.000000;3.584761
2241.000000;3.501888
2240.000000;3.573484
2239.000000;3.214507
2238.000000;3.001487
2237.000000;2.963662
2236.000000;3.042722
2235.000000;3.171003
2234.000000;3.214349
2233.000000;3.198946
2232.000000;3.166859
2231.000000;3.133154
2230.000000;3.143966
2229.000000;3.189883
2228.000000;3.381815
2227.000000;3.625200
2226.000000;3.423560
2225.000000;3.311132
2224.000000;3.577401
2223.000000;3.808220
2222.000000;3.246232
2221.000000;3.060402
2220.000000;3.073152
2219.000000;3.163954
2218.000000;3.220457
2217.000000;3.281993
2216.000000;3.505162
2215.000000;3.311979
2214.000000;3.076205
2213.000000;3.088372
2212.000000;3.264721
2211.000000;3.192809
2210.000000;3.065443
2209.000000;3.083812
2208.000000;3.306945
2207.000000;4.365577
2206.000000;3.395169
2205.000000;3.401390
2204.000000;4.107717
2203.000000;3.169475
2202.000000;2.958478
2201.000000;2.955288
2200.000000;3.080615
2199.000000;3.326718
2198.000000;3.362114
2197.000000;3.301137
2196.000000;3.257432
2195.000000;3.195109
2194.000000;3.162570
2193.000000;3.182221
2192.000000;3.143047
2191.000000;3.071625
2190.000000;3.055248
2189.000000;3.258655
2188.000000;3.676822
2187.000000;3.326633
2186.000000;3.148438
2185.000000;3.257356
2184.000000;3.400492
2183.000000;3.392479
2182.000000;3.293724
2181.000000;3.167077
2180.000000;3.039239
2179.000000;2.979305
2178.000000;2.966317
2177.000000;2.933901
2176.000000;2.908460
2175.000000;2.954607
2174.000000;3.077439
2173.000000;3.243151
2172.000000;3.506588
2171.000000;4.007057
2170.000000;3.710275
2169.000000;3.377441
2168.000000;3.347087
2167.000000;3.406805
2166.000000;3.390920
2165.000000;3.351867
2164.000000;3.355180
2163.000000;3.268412
2162.000000;3.188531
2161.000000;3.186485
2160.000000;3.246925
2159.000000;3.368931
2158.000000;3.598652
2157.000000;4.028674
2156.000000;3.684730
2155.000000;3.310003
2154.000000;3.207090
2153.000000;3.196900
2152.000000;3.071461
2151.000000;2.948659
2150.000000;2.954815
2149.000000;3.038676
2148.000000;3.083899
2147.000000;3.077192
2146.000000;3.099221
2145.000000;3.107357
2144.000000;3.063301
2143.000000;3.034285
2142.000000;3.053395
2141.000000;3.105136
2140.000000;3.202547
2139.000000;3.397086
2138.000000;3.653180
2137.000000;3.746730
2136.000000;3.460382
2135.000000;3.184244
2134.000000;3.075408
2133.000000;3.110954
2132.000000;3.282269
2131.000000;3.341303
2130.000000;3.305594
2129.000000;3.359671
2128.000000;3.601112
2127.000000;4.074072
2126.000000;3.452482
2125.000000;3.166039
2124.000000;3.065039
2123.000000;3.038597
2122.000000;3.106639
2121.000000;3.253978
2120.000000;3.415888
2119.000000;3.326838
2118.000000;3.173223
2117.000000;3.195014
2116.000000;3.342426
2115.000000;3.222419
2114.000000;3.147990
2113.000000;3.249388
2112.000000;3.076334
2111.000000;2.932208
2110.000000;2.993433
2109.000000;3.231363
2108.000000;3.617910
2107.000000;3.419126
2106.000000;3.173327
2105.000000;3.085040
2104.000000;2.980598
2103.000000;2.920215
2102.000000;2.943816
2101.000000;3.146281
2100.000000;3.438406
2099.000000;3.200482
2098.000000;3.094241
2097.000000;3.177261
2096.000000;3.379745
2095.000000;3.531494
2094.000000;3.217075
2093.000000;2.947791
2092.000000;2.813310
2091.000000;2.789364
2090.000000;2.841236
2089.000000;3.124824
2088.000000;3.506472
2087.000000;3.060241
2086.000000;2.926805
2085.000000;3.148097
2084.000000;3.108169
2083.000000;2.779938
2082.000000;2.661980
2081.000000;2.694288
2080.000000;2.839647
2079.000000;3.090567
2078.000000;3.491962
2077.000000;3.582794
2076.000000;3.281065
2075.000000;3.103002
2074.000000;3.003337
2073.000000;2.973973
2072.000000;3.125335
2071.000000;3.526682
2070.000000;3.249851
2069.000000;3.034042
2068.000000;3.062862
2067.000000;3.132772
2066.000000;3.137356
2065.000000;3.079384
2064.000000;3.001803
2063.000000;2.940326
2062.000000;2.947046
2061.000000;2.986077
2060.000000;2.989867
2059.000000;2.951611
2058.000000;2.895556
2057.000000;2.892064
2056.000000;2.966090
2055.000000;3.191186
2054.000000;3.647223
2053.000000;3.305632
2052.000000;3.060102
2051.000000;3.108413
2050.000000;3.269788
2049.000000;3.382290
2048.000000;3.356192
2047.000000;3.363078
2046.000000;3.311842
2045.000000;3.245880
2044.000000;3.234422
2043.000000;3.520611
2042.000000;3.763424
2041.000000;3.257542
2040.000000;3.156368
2039.000000;3.447661
2038.000000;3.615435
2037.000000;3.121171
2036.000000;2.976190
2035.000000;3.015623
2034.000000;3.157583
2033.000000;3.516726
2032.000000;4.020343
2031.000000;3.595075
2030.000000;3.179072
2029.000000;2.961340
2028.000000;2.874640
2027.000000;2.927741
2026.000000;3.205800
2025.000000;3.695554
2024.000000;3.486158
2023.000000;3.307516
2022.000000;3.159272
2021.000000;3.051008
2020.000000;3.052563
2019.000000;3.099989
2018.000000;3.163202
2017.000000;3.143822
2016.000000;3.088044
2015.000000;3.115797
2014.000000;3.254514
2013.000000;3.397636
2012.000000;3.396519
2011.000000;3.309035
2010.000000;3.411712
2009.000000;3.648105
2008.000000;3.378782
2007.000000;3.204062
2006.000000;3.254384
2005.000000;3.497914
2004.000000;3.752224
2003.000000;3.436482
2002.000000;3.130718
2001.000000;2.976381
2000.000000;2.924901
1999.000000;2.928151
1998.000000;2.981612
1997.000000;3.072902
1996.000000;3.162780
1995.000000;3.251865
1994.000000;3.297745
1993.000000;3.239228
1992.000000;3.165238
1991.000000;3.168418
1990.000000;3.154861
1989.000000;3.085818
1988.000000;3.087459
1987.000000;3.129846
1986.000000;3.130881
1985.000000;3.111317
1984.000000;3.081089
1983.000000;3.046526
1982.000000;3.021851
1981.000000;3.011450
1980.000000;3.007032
1979.000000;2.961402
1978.000000;2.886993
1977.000000;2.834627
1976.000000;2.846519
1975.000000;2.927025
1974.000000;3.113215
1973.000000;3.380574
1972.000000;3.218257
1971.000000;3.037614
1970.000000;3.017730
1969.000000;2.983535
1968.000000;2.873304
1967.000000;2.768117
1966.000000;2.763591
1965.000000;2.870554
1964.000000;2.997778
1963.000000;3.056514
1962.000000;3.090111
1961.000000;3.108717
1960.000000;3.119527
1959.000000;3.100787
1958.000000;3.061114
1957.000000;3.095130
1956.000000;3.283075
1955.000000;3.413121
1954.000000;3.306820
1953.000000;3.405565
1952.000000;3.457736
1951.000000;3.248696
1950.000000;3.170596
1949.000000;3.170630
1948.000000;3.158884
1947.000000;3.196857
1946.000000;3.300957
1945.000000;3.296136
1944.000000;3.199464
1943.000000;3.135167
1942.000000;3.123705
1941.000000;3.205026
1940.000000;3.381612
1939.000000;3.338977
1938.000000;3.114701
1937.000000;3.014313
1936.000000;3.072198
1935.000000;3.248164
1934.000000;3.260683
1933.000000;3.127280
1932.000000;3.078194
1931.000000;3.095881
1930.000000;3.114880
1929.000000;3.083066
1928.000000;3.048051
1927.000000;3.056307
1926.000000;3.102745
1925.000000;3.146503
1924.000000;3.121196
1923.000000;3.047093
1922.000000;2.994303
1921.000000;3.020594
1920.000000;3.110890
1919.000000;3.106997
1918.000000;3.085175
1917.000000;3.115934
1916.000000;3.167330
1915.000000;3.239216
1914.000000;3.142171
1913.000000;3.091149
1912.000000;3.385085
1911.000000;3.638247
1910.000000;3.306014
1909.000000;3.227647
1908.000000;3.137596
1907.000000;3.080776
1906.000000;3.066283
1905.000000;3.289667
1904.000000;3.625376
1903.000000;3.098941
1902.000000;2.948615
1901.000000;3.067310
1900.000000;3.279276
1899.000000;3.149102
1898.000000;2.961965
1897.000000;2.886064
1896.000000;2.834139
1895.000000;2.865861
1894.000000;2.983179
1893.000000;3.135660
1892.000000;3.310704
1891.000000;3.401074
1890.000000;3.314617
1889.000000;3.445951
1888.000000;3.388466
1887.000000;3.003285
1886.000000;2.831861
1885.000000;2.839445
1884.000000;3.001303
1883.000000;3.363319
1882.000000;4.055063
1881.000000;3.995227
1880.000000;3.669047
1879.000000;3.624943
1878.000000;3.432779
1877.000000;3.124478
1876.000000;2.932877
1875.000000;2.883688
1874.000000;2.971062
1873.000000;3.224773
1872.000000;3.766463
1871.000000;4.787687
1870.000000;3.668732
1869.000000;3.256528
1868.000000;3.108591
1867.000000;3.221876
1866.000000;3.741223
1865.000000;3.314898
1864.000000;3.135353
1863.000000;3.455604
1862.000000;3.217510
1861.000000;2.941331
1860.000000;2.898255
1859.000000;2.959362
1858.000000;3.123236
1857.000000;3.263276
1856.000000;3.199089
1855.000000;3.096236
1854.000000;2.979550
1853.000000;2.857303
1852.000000;2.820854
1851.000000;2.880973
1850.000000;3.004544
1849.000000;3.142487
1848.000000;3.210789
1847.000000;3.102746
1846.000000;2.993624
1845.000000;2.976263
1844.000000;2.938920
1843.000000;2.878234
1842.000000;2.890807
1841.000000;2.938482
1840.000000;2.973800
1839.000000;2.991978
1838.000000;3.064364
1837.000000;3.456165
1836.000000;3.535019
1835.000000;3.110258
1834.000000;3.003251
1833.000000;3.059337
1832.000000;3.222657
1831.000000;3.565124
1830.000000;3.696842
1829.000000;3.183562
1828.000000;2.972199
1827.000000;2.941940
1826.000000;3.144878
1825.000000;3.611677
1824.000000;3.667060
1823.000000;3.872754
1822.000000;3.601672
1821.000000;3.413616
1820.000000;3.490605
1819.000000;3.507230
1818.000000;3.469358
1817.000000;3.214132
1816.000000;2.942650
1815.000000;2.779822
1814.000000;2.724856
1813.000000;2.762011
1812.000000;2.863348
1811.000000;3.001855
1810.000000;3.159071
1809.000000;3.218194
1808.000000;3.150733
1807.000000;3.150920
1806.000000;3.272574
1805.000000;3.430351
1804.000000;3.509511
1803.000000;3.394552
1802.000000;3.384500
1801.000000;3.254861
1800.000000;2.927324
1799.000000;2.810729
1798.000000;2.861547
1797.000000;3.232101
1796.000000;3.583909
1795.000000;3.026428
1794.000000;2.967982
1793.000000;3.072185
1792.000000;3.352729
1791.000000;3.918812
1790.000000;3.732990
1789.000000;3.762912
1788.000000;3.913171
1787.000000;4.119786
1786.000000;3.657696
1785.000000;3.181944
1784.000000;2.987017
1783.000000;2.970857
1782.000000;3.081827
1781.000000;3.346897
1780.000000;3.558194
1779.000000;3.473784
1778.000000;3.315583
1777.000000;3.081135
1776.000000;2.942620
1775.000000;2.908917
1774.000000;2.907539
1773.000000;2.954280
1772.000000;3.076477
1771.000000;3.323868
1770.000000;3.486385
1769.000000;3.200707
1768.000000;3.047988
1767.000000;3.081731
1766.000000;3.260419
1765.000000;3.416802
1764.000000;3.432530
1763.000000;3.333144
1762.000000;3.112331
1761.000000;3.009450
1760.000000;3.041718
1759.000000;3.344133
1758.000000;3.636697
1757.000000;3.161334
1756.000000;2.972393
1755.000000;2.976779
1754.000000;3.074510
1753.000000;3.376138
1752.000000;4.082767
1751.000000;3.683054
1750.000000;3.341260
1749.000000;3.139058
1748.000000;3.009355
1747.000000;2.958573
1746.000000;2.935565
1745.000000;2.910339
1744.000000;2.868103
1743.000000;2.860099
1742.000000;2.926791
1741.000000;3.021167
1740.000000;3.110683
1739.000000;3.456198
1738.000000;3.884865
1737.000000;3.739632
1736.000000;3.606797
1735.000000;3.104799
1734.000000;2.940003
1733.000000;3.033876
1732.000000;3.360329
1731.000000;3.616709
1730.000000;3.296941
1729.000000;3.155523
1728.000000;3.159593
1727.000000;3.205063
1726.000000;3.135919
1725.000000;3.029396
1724.000000;2.973364
1723.000000;2.975002
1722.000000;3.044649
1721.000000;3.081787
1720.000000;3.003916
1719.000000;2.887106
1718.000000;2.766635
1717.000000;2.698969
1716.000000;2.736625
1715.000000;2.958989
1714.000000;3.304528
1713.000000;3.237967
1712.000000;3.182088
1711.000000;3.404485
1710.000000;3.632556
1709.000000;3.410928
1708.000000;3.258170
1707.000000;3.387843
1706.000000;3.658019
1705.000000;3.769323
1704.000000;4.268520
1703.000000;3.832552
1702.000000;3.370040
1701.000000;3.186833
1700.000000;3.126918
1699.000000;3.166607
1698.000000;3.179110
1697.000000;3.171170
1696.000000;3.234438
1695.000000;3.135611
1694.000000;2.944327
1693.000000;2.869709
1692.000000;2.895555
1691.000000;2.999662
1690.000000;3.163248
1689.000000;3.288187
1688.000000;3.398848
1687.000000;3.390135
1686.000000;3.116527
1685.000000;2.949728
1684.000000;3.069919
1683.000000;3.558063
1682.000000;3.312759
1681.000000;2.963374
1680.000000;2.922304
1679.000000;3.013617
1678.000000;3.222525
1677.000000;3.446790
1676.000000;3.562717
1675.000000;3.707846
1674.000000;3.564325
1673.000000;3.525578
1672.000000;4.011145
1671.000000;3.740085
1670.000000;3.500163
1669.000000;3.636094
1668.000000;3.481425
1667.000000;3.212232
1666.000000;3.032553
1665.000000;2.924449
1664.000000;2.902315
1663.000000;2.984762
1662.000000;3.178731
1661.000000;3.434112
1660.000000;3.582210
1659.000000;3.491614
1658.000000;3.311607
1657.000000;3.190614
1656.000000;3.245151
1655.000000;3.594573
1654.000000;3.216401
1653.000000;2.943826
1652.000000;2.948202
1651.000000;2.944635
1650.000000;2.921306
1649.000000;2.942294
1648.000000;3.089895
1647.000000;3.354879
1646.000000;3.340146
1645.000000;3.334257
1644.000000;3.554121
1643.000000;3.466248
1642.000000;3.371869
1641.000000;3.582732
1640.000000;3.606511
1639.000000;3.380876
1638.000000;3.464441
1637.000000;3.807820
1636.000000;3.686615
1635.000000;3.430558
1634.000000;3.278564
1633.000000;3.170290
1632.000000;3.093413
1631.000000;3.065331
1630.000000;3.109510
1629.000000;3.340124
1628.000000;3.728879
1627.000000;3.386206
1626.000000;3.126076
1625.000000;3.107040
1624.000000;3.192673
1623.000000;3.213869
1622.000000;3.144881
1621.000000;3.184144
1620.000000;3.361507
1619.000000;3.425706
1618.000000;3.482021
1617.000000;3.170918
1616.000000;2.959079
1615.000000;2.922396
1614.000000;3.164306
1613.000000;4.129302
1612.000000;3.207142
1611.000000;3.057158
1610.000000;3.194668
1609.000000;3.384015
1608.000000;3.340016
1607.000000;3.136074
1606.000000;3.141615
1605.000000;3.273529
1604.000000;3.446369
1603.000000;3.312030
1602.000000;3.120722
1601.000000;3.055804
1600.000000;3.096207
1599.000000;3.358910
1598.000000;3.738335
1597.000000;3.264982
1596.000000;3.027438
1595.000000;2.991844
1594.000000;3.002116
1593.000000;3.019017
1592.000000;3.010769
1591.000000;2.995338
1590.000000;3.003211
1589.000000;3.044603
1588.000000;3.023521
1587.000000;2.910998
1586.000000;2.854697
1585.000000;2.901524
1584.000000;3.057031
1583.000000;3.436835
1582.000000;3.436374
1581.000000;3.078251
1580.000000;3.020109
1579.000000;3.088932
1578.000000;3.220042
1577.000000;3.296979
1576.000000;3.359092
1575.000000;3.560857
1574.000000;3.671118
1573.000000;3.515913
1572.000000;3.394699
1571.000000;3.357381
1570.000000;3.487518
1569.000000;4.246114
1568.000000;3.896252
1567.000000;3.417976
1566.000000;3.256581
1565.000000;3.152012
1564.000000;3.146871
1563.000000;3.200259
1562.000000;3.303663
1561.000000;3.288352
1560.000000;3.095207
1559.000000;3.074790
1558.000000;3.209918
1557.000000;3.291695
1556.000000;3.219655
1555.000000;3.121949
1554.000000;3.092771
1553.000000;3.090170
1552.000000;3.071655
1551.000000;3.139608
1550.000000;3.471230
1549.000000;3.411808
1548.000000;3.134617
1547.000000;3.141034
1546.000000;3.270841
1545.000000;3.347404
1544.000000;3.192839
1543.000000;3.064381
1542.000000;3.023842
1541.000000;2.993486
1540.000000;3.098264
1539.000000;3.550421
1538.000000;3.655699
1537.000000;3.398860
1536.000000;3.620437
1535.000000;3.592848
1534.000000;3.337398
1533.000000;3.326291
1532.000000;3.292145
1531.000000;3.114313
1530.000000;2.974870
1529.000000;2.944177
1528.000000;2.963843
1527.000000;2.957201
1526.000000;2.966897
1525.000000;2.946484
1524.000000;2.850333
1523.000000;2.780218
1522.000000;2.816019
1521.000000;3.122772
1520.000000;3.624035
1519.000000;3.268582
1518.000000;3.114453
1517.000000;3.120445
1516.000000;3.201827
1515.000000;3.455489
1514.000000;3.425707
1513.000000;3.088654
1512.000000;2.848437
1511.000000;2.730124
1510.000000;2.751141
1509.000000;2.914795
1508.000000;3.180788
1507.000000;3.244212
1506.000000;3.071837
1505.000000;2.998986
1504.000000;3.017107
1503.000000;3.180717
1502.000000;3.594089
1501.000000;3.481435
1500.000000;3.202606
1499.000000;3.121517
1498.000000;3.101965
1497.000000;3.191683
1496.000000;3.587379
1495.000000;4.041890
1494.000000;3.568436
1493.000000;3.324273
1492.000000;3.239152
1491.000000;3.388438
1490.000000;3.257850
1489.000000;2.981252
1488.000000;2.892435
1487.000000;2.911793
1486.000000;2.996102
1485.000000;3.157832
1484.000000;3.500121
1483.000000;3.556087
1482.000000;3.338766
1481.000000;3.340708
1480.000000;3.433395
1479.000000;3.369419
1478.000000;3.165351
1477.000000;3.049767
1476.000000;3.066563
1475.000000;3.223092
1474.000000;3.296542
1473.000000;3.192534
1472.000000;3.189244
1471.000000;3.347750
1470.000000;3.549822
1469.000000;3.472082
1468.000000;3.302787
1467.000000;3.247081
1466.000000;3.254279
1465.000000;3.328592
1464.000000;3.944332
1463.000000;3.596259
1462.000000;3.101543
1461.000000;3.003560
1460.000000;3.047377
1459.000000;3.344376
1458.000000;3.358042
1457.000000;3.150850
1456.000000;3.213200
1455.000000;3.306034
1454.000000;3.337010
1453.000000;3.312687
1452.000000;3.201505
1451.000000;3.133782
1450.000000;3.161864
1449.000000;3.473753
1448.000000;3.851806
1447.000000;3.566964
1446.000000;3.694010
1445.000000;3.504520
1444.000000;3.207580
1443.000000;3.085127
1442.000000;3.064683
1441.000000;3.159049
1440.000000;3.633870
1439.000000;3.517123
1438.000000;2.942662
1437.000000;2.772951
1436.000000;2.780939
1435.000000;2.981502
1434.000000;3.180220
1433.000000;2.942948
1432.000000;2.772030
1431.000000;2.759900
1430.000000;2.864567
1429.000000;3.053396
1428.000000;3.212392
1427.000000;3.181512
1426.000000;3.043891
1425.000000;2.940661
1424.000000;2.928324
1423.000000;2.996211
1422.000000;3.021157
1421.000000;2.984313
1420.000000;3.011693
1419.000000;3.187218
1418.000000;3.670556
1417.000000;3.518169
1416.000000;3.133551
1415.000000;3.054906
1414.000000;3.044246
1413.000000;3.028129
1412.000000;3.022211
1411.000000;3.045148
1410.000000;3.121886
1409.000000;3.452733
1408.000000;3.769066
1407.000000;3.364298
1406.000000;3.300160
1405.000000;3.364768
1404.000000;3.184659
1403.000000;3.003021
1402.000000;2.942921
1401.000000;2.998329
1400.000000;3.104373
1399.000000;3.095621
1398.000000;3.006957
1397.000000;2.955112
1396.000000;3.011504
1395.000000;3.243247
1394.000000;3.530626
1393.000000;3.551820
1392.000000;3.535978
1391.000000;3.512206
1390.000000;3.599756
1389.000000;3.891417
1388.000000;3.651045
1387.000000;3.360269
1386.000000;3.232461
1385.000000;3.231327
1384.000000;3.352166
1383.000000;3.525699
1382.000000;3.838524
1381.000000;3.761060
1380.000000;3.452661
1379.000000;3.254956
1378.000000;3.139447
1377.000000;3.134782
1376.000000;3.302182
1375.000000;3.362864
1374.000000;3.051675
1373.000000;2.959605
1372.000000;3.097173
1371.000000;3.495837
1370.000000;3.647464
1369.000000;3.122216
1368.000000;2.921283
1367.000000;2.924142
1366.000000;3.091924
1365.000000;3.399573
1364.000000;3.702198
1363.000000;3.531667
1362.000000;3.359289
1361.000000;3.397577
1360.000000;3.492059
1359.000000;3.570882
1358.000000;3.534398
1357.000000;3.546811
1356.000000;3.820430
1355.000000;4.294979
1354.000000;3.886455
1353.000000;3.625366
1352.000000;3.735015
1351.000000;3.494957
1350.000000;3.075867
1349.000000;2.861193
1348.000000;2.783652
1347.000000;2.790455
1346.000000;2.839424
1345.000000;2.902420
1344.000000;2.995412
1343.000000;3.166746
1342.000000;3.227224
1341.000000;3.064982
1340.000000;3.039121
1339.000000;3.069919
1338.000000;2.996607
1337.000000;2.970473
1336.000000;3.004123
1335.000000;3.081602
1334.000000;3.469670
1333.000000;3.804885
1332.000000;3.346404
1331.000000;3.275165
1330.000000;3.225211
1329.000000;3.132874
1328.000000;3.135788
1327.000000;3.249080
1326.000000;3.326218
1325.000000;3.489961
1324.000000;3.538581
1323.000000;3.231810
1322.000000;3.128800
1321.000000;3.161817
1320.000000;3.216824
1319.000000;3.272028
1318.000000;3.261838
1317.000000;3.165620
1316.000000;3.121287
1315.000000;3.095192
1314.000000;3.042545
1313.000000;3.154299
1312.000000;3.602681
1311.000000;3.567854
1310.000000;3.289843
1309.000000;3.621737
1308.000000;3.789790
1307.000000;3.252873
1306.000000;3.163633
1305.000000;3.289448
1304.000000;3.533884
1303.000000;3.377952
1302.000000;3.163728
1301.000000;3.058492
1300.000000;2.972666
1299.000000;2.973362
1298.000000;3.093291
1297.000000;3.169821
1296.000000;3.088845
1295.000000;3.169181
1294.000000;3.521966
1293.000000;3.503782
1292.000000;3.407623
1291.000000;3.623325
1290.000000;3.679683
1289.000000;3.346812
1288.000000;3.184239
1287.000000;3.128537
1286.000000;3.058791
1285.000000;2.953957
1284.000000;2.897434
1283.000000;2.945987
1282.000000;3.017132
1281.000000;3.115345
1280.000000;3.301206
1279.000000;3.187079
1278.000000;3.002799
1277.000000;3.025728
1276.000000;3.385078
1275.000000;3.394858
1274.000000;3.008118
1273.000000;2.967923
1272.000000;3.107671
1271.000000;3.176683
1270.000000;3.175660
1269.000000;3.333722
1268.000000;3.628551
1267.000000;3.587400
1266.000000;3.400392
1265.000000;3.264071
1264.000000;3.225681
1263.000000;3.354128
1262.000000;3.580719
1261.000000;3.615672
1260.000000;3.450447
1259.000000;3.351419
1258.000000;3.635574
1257.000000;3.746478
1256.000000;3.377912
1255.000000;3.173567
1254.000000;2.875864
1253.000000;2.715640
1252.000000;2.685932
1251.000000;2.752761
1250.000000;2.895211
1249.000000;3.031841
1248.000000;3.156844
1247.000000;3.396349
1246.000000;3.660447
1245.000000;3.807258
1244.000000;4.184405
1243.000000;3.737987
1242.000000;3.243532
1241.000000;3.007402
1240.000000;2.935523
1239.000000;2.975468
1238.000000;3.079527
1237.000000;3.207324
1236.000000;3.336928
1235.000000;3.436435
1234.000000;3.429299
1233.000000;3.308928
1232.000000;3.155961
1231.000000;3.042348
1230.000000;2.988199
1229.000000;3.031326
1228.000000;3.173478
1227.000000;3.210953
1226.000000;3.147626
1225.000000;3.210896
1224.000000;3.408535
1223.000000;3.594634
1222.000000;3.560807
1221.000000;3.479076
1220.000000;3.521343
1219.000000;3.453473
1218.000000;3.183905
1217.000000;3.002229
1216.000000;2.936280
1215.000000;2.955676
1214.000000;3.061441
1213.000000;3.247354
1212.000000;3.481298
1211.000000;3.747142
1210.000000;3.603630
1209.000000;3.302433
1208.000000;3.154770
1207.000000;3.101554
1206.000000;3.063667
1205.000000;2.991747
1204.000000;2.938945
1203.000000;2.942391
1202.000000;2.971830
1201.000000;3.018864
1200.000000;3.111337
