Criado como novo conjunto de dados;"e0108.spp","-4265083.9 Secs"
cm-1;Abs
10000.000000;1.051128
9999.000000;1.051713
9998.000000;1.052298
9997.000000;1.052883
9996.000000;1.053473
9995.000000;1.054055
9994.000000;1.054653
9993.000000;1.055225
9992.000000;1.055844
9991.000000;1.056378
9990.000000;1.057098
9989.000000;1.056885
9988.000000;1.054724
9987.000000;1.051539
9986.000000;1.048690
9985.000000;1.047142
9984.000000;1.046857
9983.000000;1.047529
9982.000000;1.048851
9981.000000;1.050191
9980.000000;1.050623
9979.000000;1.049787
9978.000000;1.048409
9977.000000;1.047605
9976.000000;1.047826
9975.000000;1.048652
9974.000000;1.049427
9973.000000;1.049794
9972.000000;1.049695
9971.000000;1.049139
9970.000000;1.048184
9969.000000;1.047074
9968.000000;1.046236
9967.000000;1.045971
9966.000000;1.046106
9965.000000;1.045969
9964.000000;1.044914
9963.000000;1.043023
9962.000000;1.041253
9961.000000;1.040645
9960.000000;1.041311
9959.000000;1.042288
9958.000000;1.042514
9957.000000;1.041829
9956.000000;1.040975
9955.000000;1.040725
9954.000000;1.041162
9953.000000;1.041713
9952.000000;1.041625
9951.000000;1.040402
9950.000000;1.038112
9949.000000;1.035534
9948.000000;1.033868
9947.000000;1.033916
9946.000000;1.035320
9945.000000;1.036816
9944.000000;1.037438
9943.000000;1.037357
9942.000000;1.037418
9941.000000;1.038006
9940.000000;1.038624
9939.000000;1.038557
9938.000000;1.037753
9937.000000;1.036845
9936.000000;1.036381
9935.000000;1.036204
9934.000000;1.035725
9933.000000;1.034709
9932.000000;1.033606
9931.000000;1.033045
9930.000000;1.033143
9929.000000;1.033445
9928.000000;1.033473
9927.000000;1.033162
9926.000000;1.032719
9925.000000;1.032256
9924.000000;1.031704
9923.000000;1.031012
9922.000000;1.030272
9921.000000;1.029634
9920.000000;1.029134
9919.000000;1.028668
9918.000000;1.028157
9917.000000;1.027749
9916.000000;1.027749
9915.000000;1.028252
9914.000000;1.028886
9913.000000;1.029083
9912.000000;1.028675
9911.000000;1.028099
9910.000000;1.027923
9909.000000;1.028253
9908.000000;1.028716
9907.000000;1.028890
9906.000000;1.028597
9905.000000;1.027880
9904.000000;1.027007
9903.000000;1.026537
9902.000000;1.027033
9901.000000;1.028429
9900.000000;1.029785
9899.000000;1.030004
9898.000000;1.028852
9897.000000;1.027100
9896.000000;1.025622
9895.000000;1.024563
9894.000000;1.023475
9893.000000;1.022055
9892.000000;1.020561
9891.000000;1.019568
9890.000000;1.019430
9889.000000;1.019994
9888.000000;1.020741
9887.000000;1.021166
9886.000000;1.021048
9885.000000;1.020398
9884.000000;1.019306
9883.000000;1.018036
9882.000000;1.017164
9881.000000;1.017241
9880.000000;1.018133
9879.000000;1.018903
9878.000000;1.018609
9877.000000;1.017163
9876.000000;1.015224
9875.000000;1.013438
9874.000000;1.012138
9873.000000;1.011637
9872.000000;1.012214
9871.000000;1.013537
9870.000000;1.014520
9869.000000;1.014192
9868.000000;1.012654
9867.000000;1.010906
9866.000000;1.009830
9865.000000;1.009645
9864.000000;1.010176
9863.000000;1.011214
9862.000000;1.012433
9861.000000;1.013260
9860.000000;1.013187
9859.000000;1.012242
9858.000000;1.011024
9857.000000;1.010177
9856.000000;1.009824
9855.000000;1.009503
9854.000000;1.008664
9853.000000;1.007274
9852.000000;1.005965
9851.000000;1.005530
9850.000000;1.006165
9849.000000;1.007159
9848.000000;1.007392
9847.000000;1.006278
9846.000000;1.004259
9845.000000;1.002454
9844.000000;1.001773
9843.000000;1.002272
9842.000000;1.003251
9841.000000;1.003851
9840.000000;1.003600
9839.000000;1.002588
9838.000000;1.001386
9837.000000;1.000764
9836.000000;1.001137
9835.000000;1.002153
9834.000000;1.002910
9833.000000;1.002726
9832.000000;1.001695
9831.000000;1.000536
9830.000000;0.999994
9829.000000;1.000378
9828.000000;1.001387
9827.000000;1.002174
9826.000000;1.001769
9825.000000;0.999863
9824.000000;0.997253
9823.000000;0.995317
9822.000000;0.994871
9821.000000;0.995591
9820.000000;0.996508
9819.000000;0.996917
9818.000000;0.996718
9817.000000;0.996084
9816.000000;0.995156
9815.000000;0.994120
9814.000000;0.993269
9813.000000;0.992768
9812.000000;0.992471
9811.000000;0.992194
9810.000000;0.992067
9809.000000;0.992325
9808.000000;0.992759
9807.000000;0.992717
9806.000000;0.991863
9805.000000;0.990725
9804.000000;0.990149
9803.000000;0.990315
9802.000000;0.990609
9801.000000;0.990474
9800.000000;0.990046
9799.000000;0.989734
9798.000000;0.989459
9797.000000;0.988704
9796.000000;0.987365
9795.000000;0.986256
9794.000000;0.986474
9793.000000;0.988200
9792.000000;0.990268
9791.000000;0.991080
9790.000000;0.990103
9789.000000;0.988367
9788.000000;0.987332
9787.000000;0.987365
9786.000000;0.987551
9785.000000;0.986980
9784.000000;0.985847
9783.000000;0.985059
9782.000000;0.984996
9781.000000;0.985070
9780.000000;0.984561
9779.000000;0.983545
9778.000000;0.982797
9777.000000;0.982934
9776.000000;0.983873
9775.000000;0.984993
9774.000000;0.985594
9773.000000;0.985251
9772.000000;0.984009
9771.000000;0.982451
9770.000000;0.981434
9769.000000;0.981502
9768.000000;0.982447
9767.000000;0.983418
9766.000000;0.983493
9765.000000;0.982280
9764.000000;0.980206
9763.000000;0.978335
9762.000000;0.977669
9761.000000;0.978307
9760.000000;0.979249
9759.000000;0.979316
9758.000000;0.978399
9757.000000;0.977488
9756.000000;0.977359
9755.000000;0.977594
9754.000000;0.977230
9753.000000;0.976121
9752.000000;0.975093
9751.000000;0.974704
9750.000000;0.974403
9749.000000;0.973237
9748.000000;0.971161
9747.000000;0.969287
9746.000000;0.968793
9745.000000;0.969794
9744.000000;0.971319
9743.000000;0.972275
9742.000000;0.972342
9741.000000;0.971983
9740.000000;0.971793
9739.000000;0.972021
9738.000000;0.972601
9737.000000;0.973242
9736.000000;0.973416
9735.000000;0.972700
9734.000000;0.971414
9733.000000;0.970604
9732.000000;0.970962
9731.000000;0.971873
9730.000000;0.971935
9729.000000;0.970459
9728.000000;0.968200
9727.000000;0.966534
9726.000000;0.966250
9725.000000;0.967096
9724.000000;0.968126
9723.000000;0.968358
9722.000000;0.967483
9721.000000;0.966096
9720.000000;0.965111
9719.000000;0.964935
9718.000000;0.965312
9717.000000;0.965813
9716.000000;0.966181
9715.000000;0.966217
9714.000000;0.965774
9713.000000;0.965107
9712.000000;0.964837
9711.000000;0.965233
9710.000000;0.965729
9709.000000;0.965453
9708.000000;0.964172
9707.000000;0.962520
9706.000000;0.961428
9705.000000;0.961403
9704.000000;0.962136
9703.000000;0.962639
9702.000000;0.962013
9701.000000;0.960332
9700.000000;0.958612
9699.000000;0.957741
9698.000000;0.957666
9697.000000;0.957787
9696.000000;0.957902
9695.000000;0.958364
9694.000000;0.959395
9693.000000;0.960601
9692.000000;0.961283
9691.000000;0.961080
9690.000000;0.960252
9689.000000;0.959379
9688.000000;0.958779
9687.000000;0.958207
9686.000000;0.957267
9685.000000;0.956056
9684.000000;0.955092
9683.000000;0.954556
9682.000000;0.954040
9681.000000;0.953301
9680.000000;0.952829
9679.000000;0.953222
9678.000000;0.954229
9677.000000;0.954941
9676.000000;0.954868
9675.000000;0.954334
9674.000000;0.953804
9673.000000;0.953367
9672.000000;0.953012
9671.000000;0.952904
9670.000000;0.953105
9669.000000;0.953309
9668.000000;0.953142
9667.000000;0.952560
9666.000000;0.951757
9665.000000;0.950905
9664.000000;0.950233
9663.000000;0.950121
9662.000000;0.950766
9661.000000;0.951754
9660.000000;0.952239
9659.000000;0.951708
9658.000000;0.950501
9657.000000;0.949457
9656.000000;0.949092
9655.000000;0.949192
9654.000000;0.949156
9653.000000;0.948614
9652.000000;0.947670
9651.000000;0.946709
9650.000000;0.946173
9649.000000;0.946395
9648.000000;0.947276
9647.000000;0.947994
9646.000000;0.947416
9645.000000;0.945231
9644.000000;0.942583
9643.000000;0.941214
9642.000000;0.941910
9641.000000;0.943835
9640.000000;0.945301
9639.000000;0.945184
9638.000000;0.943755
9637.000000;0.942306
9636.000000;0.941946
9635.000000;0.942628
9634.000000;0.943340
9633.000000;0.943280
9632.000000;0.942650
9631.000000;0.942184
9630.000000;0.942200
9629.000000;0.942464
9628.000000;0.942717
9627.000000;0.942844
9626.000000;0.942592
9625.000000;0.941689
9624.000000;0.940403
9623.000000;0.939533
9622.000000;0.939630
9621.000000;0.940485
9620.000000;0.941456
9619.000000;0.941971
9618.000000;0.941625
9617.000000;0.940297
9616.000000;0.938491
9615.000000;0.937183
9614.000000;0.936889
9613.000000;0.937091
9612.000000;0.936957
9611.000000;0.936405
9610.000000;0.935981
9609.000000;0.935862
9608.000000;0.935605
9607.000000;0.934988
9606.000000;0.934537
9605.000000;0.934842
9604.000000;0.935691
9603.000000;0.936263
9602.000000;0.936017
9601.000000;0.935058
9600.000000;0.933782
9599.000000;0.932617
9598.000000;0.932106
9597.000000;0.932701
9596.000000;0.934108
9595.000000;0.935114
9594.000000;0.934613
9593.000000;0.932861
9592.000000;0.931345
9591.000000;0.931253
9590.000000;0.932305
9589.000000;0.933145
9588.000000;0.932690
9587.000000;0.930939
9586.000000;0.928741
9585.000000;0.927094
9584.000000;0.926553
9583.000000;0.926927
9582.000000;0.927446
9581.000000;0.927470
9580.000000;0.927118
9579.000000;0.927007
9578.000000;0.927396
9577.000000;0.927873
9576.000000;0.927936
9575.000000;0.927576
9574.000000;0.927154
9573.000000;0.926920
9572.000000;0.926881
9571.000000;0.926980
9570.000000;0.927120
9569.000000;0.927067
9568.000000;0.926531
9567.000000;0.925418
9566.000000;0.923942
9565.000000;0.922511
9564.000000;0.921580
9563.000000;0.921459
9562.000000;0.922088
9561.000000;0.923040
9560.000000;0.923873
9559.000000;0.924422
9558.000000;0.924640
9557.000000;0.924339
9556.000000;0.923417
9555.000000;0.922274
9554.000000;0.921611
9553.000000;0.921665
9552.000000;0.921916
9551.000000;0.921758
9550.000000;0.921228
9549.000000;0.920802
9548.000000;0.920618
9547.000000;0.920268
9546.000000;0.919395
9545.000000;0.918196
9544.000000;0.917157
9543.000000;0.916488
9542.000000;0.916034
9541.000000;0.915614
9540.000000;0.915257
9539.000000;0.915115
9538.000000;0.915301
9537.000000;0.915784
9536.000000;0.916347
9535.000000;0.916642
9534.000000;0.916439
9533.000000;0.915910
9532.000000;0.915539
9531.000000;0.915642
9530.000000;0.916051
9529.000000;0.916331
9528.000000;0.916260
9527.000000;0.916046
9526.000000;0.916045
9525.000000;0.916297
9524.000000;0.916398
9523.000000;0.915875
9522.000000;0.914713
9521.000000;0.913422
9520.000000;0.912503
9519.000000;0.911944
9518.000000;0.911393
9517.000000;0.910785
9516.000000;0.910533
9515.000000;0.910929
9514.000000;0.911612
9513.000000;0.911881
9512.000000;0.911458
9511.000000;0.910706
9510.000000;0.910102
9509.000000;0.909730
9508.000000;0.909352
9507.000000;0.908781
9506.000000;0.908105
9505.000000;0.907664
9504.000000;0.907849
9503.000000;0.908766
9502.000000;0.909977
9501.000000;0.910716
9500.000000;0.910601
9499.000000;0.910009
9498.000000;0.909557
9497.000000;0.909273
9496.000000;0.908607
9495.000000;0.907352
9494.000000;0.906214
9493.000000;0.906111
9492.000000;0.906976
9491.000000;0.907647
9490.000000;0.907064
9489.000000;0.905361
9488.000000;0.903575
9487.000000;0.902517
9486.000000;0.902259
9485.000000;0.902578
9484.000000;0.903426
9483.000000;0.904738
9482.000000;0.906059
9481.000000;0.906712
9480.000000;0.906389
9479.000000;0.905444
9478.000000;0.904525
9477.000000;0.904007
9476.000000;0.903766
9475.000000;0.903406
9474.000000;0.902692
9473.000000;0.901779
9472.000000;0.900986
9471.000000;0.900394
9470.000000;0.899803
9469.000000;0.899139
9468.000000;0.898728
9467.000000;0.898940
9466.000000;0.899644
9465.000000;0.900269
9464.000000;0.900434
9463.000000;0.900275
9462.000000;0.900070
9461.000000;0.899826
9460.000000;0.899465
9459.000000;0.899150
9458.000000;0.899122
9457.000000;0.899260
9456.000000;0.899101
9455.000000;0.898404
9454.000000;0.897504
9453.000000;0.897062
9452.000000;0.897547
9451.000000;0.898922
9450.000000;0.900554
9449.000000;0.901377
9448.000000;0.900543
9447.000000;0.898295
9446.000000;0.896051
9445.000000;0.895246
9444.000000;0.896028
9443.000000;0.897200
9442.000000;0.897443
9441.000000;0.896461
9440.000000;0.895007
9439.000000;0.894097
9438.000000;0.894243
9437.000000;0.895063
9436.000000;0.895475
9435.000000;0.894572
9434.000000;0.892561
9433.000000;0.890682
9432.000000;0.889972
9431.000000;0.890276
9430.000000;0.890670
9429.000000;0.890643
9428.000000;0.890456
9427.000000;0.890452
9426.000000;0.890553
9425.000000;0.890564
9424.000000;0.890545
9423.000000;0.890606
9422.000000;0.890589
9421.000000;0.890263
9420.000000;0.889705
9419.000000;0.889253
9418.000000;0.889075
9417.000000;0.888996
9416.000000;0.888793
9415.000000;0.888475
9414.000000;0.888223
9413.000000;0.888165
9412.000000;0.888262
9411.000000;0.888412
9410.000000;0.888555
9409.000000;0.888644
9408.000000;0.888558
9407.000000;0.888204
9406.000000;0.887719
9405.000000;0.887402
9404.000000;0.887324
9403.000000;0.887153
9402.000000;0.886585
9401.000000;0.885863
9400.000000;0.885535
9399.000000;0.885711
9398.000000;0.885879
9397.000000;0.885560
9396.000000;0.884865
9395.000000;0.884250
9394.000000;0.883987
9393.000000;0.884061
9392.000000;0.884365
9391.000000;0.884702
9390.000000;0.884767
9389.000000;0.884413
9388.000000;0.883895
9387.000000;0.883593
9386.000000;0.883552
9385.000000;0.883468
9384.000000;0.883094
9383.000000;0.882432
9382.000000;0.881619
9381.000000;0.880910
9380.000000;0.880746
9379.000000;0.881458
9378.000000;0.882742
9377.000000;0.883701
9376.000000;0.883673
9375.000000;0.882915
9374.000000;0.882252
9373.000000;0.882117
9372.000000;0.882202
9371.000000;0.882073
9370.000000;0.881851
9369.000000;0.882049
9368.000000;0.882780
9367.000000;0.883378
9366.000000;0.882970
9365.000000;0.881398
9364.000000;0.879427
9363.000000;0.878023
9362.000000;0.877538
9361.000000;0.877638
9360.000000;0.877833
9359.000000;0.877929
9358.000000;0.877989
9357.000000;0.878054
9356.000000;0.878029
9355.000000;0.877808
9354.000000;0.877426
9353.000000;0.877085
9352.000000;0.877008
9351.000000;0.877217
9350.000000;0.877412
9349.000000;0.877138
9348.000000;0.876207
9347.000000;0.874973
9346.000000;0.874084
9345.000000;0.873865
9344.000000;0.874004
9343.000000;0.873962
9342.000000;0.873626
9341.000000;0.873384
9340.000000;0.873565
9339.000000;0.874056
9338.000000;0.874588
9337.000000;0.875094
9336.000000;0.875493
9335.000000;0.875383
9334.000000;0.874417
9333.000000;0.872998
9332.000000;0.872152
9331.000000;0.872538
9330.000000;0.873833
9329.000000;0.875195
9328.000000;0.876029
9327.000000;0.876132
9326.000000;0.875458
9325.000000;0.874145
9324.000000;0.872631
9323.000000;0.871383
9322.000000;0.870547
9321.000000;0.870043
9320.000000;0.869874
9319.000000;0.870054
9318.000000;0.870320
9317.000000;0.870259
9316.000000;0.869783
9315.000000;0.869215
9314.000000;0.868840
9313.000000;0.868615
9312.000000;0.868409
9311.000000;0.868242
9310.000000;0.868163
9309.000000;0.868074
9308.000000;0.867891
9307.000000;0.867746
9306.000000;0.867868
9305.000000;0.868312
9304.000000;0.868924
9303.000000;0.869513
9302.000000;0.869904
9301.000000;0.869878
9300.000000;0.869294
9299.000000;0.868336
9298.000000;0.867538
9297.000000;0.867398
9296.000000;0.867919
9295.000000;0.868554
9294.000000;0.868663
9293.000000;0.868039
9292.000000;0.867046
9291.000000;0.866280
9290.000000;0.866114
9289.000000;0.866476
9288.000000;0.866950
9287.000000;0.867072
9286.000000;0.866634
9285.000000;0.865834
9284.000000;0.865089
9283.000000;0.864661
9282.000000;0.864466
9281.000000;0.864244
9280.000000;0.863835
9279.000000;0.863270
9278.000000;0.862734
9277.000000;0.862524
9276.000000;0.862915
9275.000000;0.863854
9274.000000;0.864806
9273.000000;0.865105
9272.000000;0.864563
9271.000000;0.863639
9270.000000;0.862946
9269.000000;0.862677
9268.000000;0.862547
9267.000000;0.862223
9266.000000;0.861663
9265.000000;0.861077
9264.000000;0.860686
9263.000000;0.860599
9262.000000;0.860880
9261.000000;0.861595
9260.000000;0.862691
9259.000000;0.863825
9258.000000;0.864439
9257.000000;0.864127
9256.000000;0.862990
9255.000000;0.861575
9254.000000;0.860474
9253.000000;0.859938
9252.000000;0.859840
9251.000000;0.859900
9250.000000;0.859917
9249.000000;0.859792
9248.000000;0.859445
9247.000000;0.858818
9246.000000;0.858009
9245.000000;0.857356
9244.000000;0.857247
9243.000000;0.857787
9242.000000;0.858678
9241.000000;0.859454
9240.000000;0.859840
9239.000000;0.859895
9238.000000;0.859839
9237.000000;0.859771
9236.000000;0.859542
9235.000000;0.858941
9234.000000;0.858015
9233.000000;0.857122
9232.000000;0.856612
9231.000000;0.856503
9230.000000;0.856534
9229.000000;0.856489
9228.000000;0.856344
9227.000000;0.856170
9226.000000;0.856054
9225.000000;0.856091
9224.000000;0.856277
9223.000000;0.856379
9222.000000;0.856108
9221.000000;0.855492
9220.000000;0.854858
9219.000000;0.854394
9218.000000;0.853924
9217.000000;0.853269
9216.000000;0.852649
9215.000000;0.852479
9214.000000;0.852864
9213.000000;0.853483
9212.000000;0.853934
9211.000000;0.854041
9210.000000;0.853845
9209.000000;0.853501
9208.000000;0.853227
9207.000000;0.853197
9206.000000;0.853353
9205.000000;0.853407
9204.000000;0.853108
9203.000000;0.852527
9202.000000;0.852040
9201.000000;0.851972
9200.000000;0.852234
9199.000000;0.852350
9198.000000;0.851960
9197.000000;0.851267
9196.000000;0.850825
9195.000000;0.850900
9194.000000;0.851232
9193.000000;0.851462
9192.000000;0.851542
9191.000000;0.851587
9190.000000;0.851585
9189.000000;0.851482
9188.000000;0.851390
9187.000000;0.851397
9186.000000;0.851275
9185.000000;0.850686
9184.000000;0.849720
9183.000000;0.848945
9182.000000;0.848822
9181.000000;0.849221
9180.000000;0.849579
9179.000000;0.849426
9178.000000;0.848721
9177.000000;0.847840
9176.000000;0.847288
9175.000000;0.847320
9174.000000;0.847760
9173.000000;0.848200
9172.000000;0.848350
9171.000000;0.848139
9170.000000;0.847627
9169.000000;0.847000
9168.000000;0.846602
9167.000000;0.846705
9166.000000;0.847223
9165.000000;0.847831
9164.000000;0.848415
9163.000000;0.849162
9162.000000;0.850114
9161.000000;0.850855
9160.000000;0.850846
9159.000000;0.849979
9158.000000;0.848631
9157.000000;0.847248
9156.000000;0.846037
9155.000000;0.845048
9154.000000;0.844421
9153.000000;0.844436
9152.000000;0.845299
9151.000000;0.846850
9150.000000;0.848501
9149.000000;0.849548
9148.000000;0.849581
9147.000000;0.848650
9146.000000;0.847160
9145.000000;0.845711
9144.000000;0.844924
9143.000000;0.845102
9142.000000;0.845952
9141.000000;0.846781
9140.000000;0.847120
9139.000000;0.847037
9138.000000;0.846766
9137.000000;0.846241
9136.000000;0.845234
9135.000000;0.843918
9134.000000;0.842953
9133.000000;0.842858
9132.000000;0.843426
9131.000000;0.843930
9130.000000;0.843884
9129.000000;0.843427
9128.000000;0.842970
9127.000000;0.842709
9126.000000;0.842627
9125.000000;0.842775
9124.000000;0.843222
9123.000000;0.843747
9122.000000;0.843892
9121.000000;0.843507
9120.000000;0.843018
9119.000000;0.842918
9118.000000;0.843130
9117.000000;0.843129
9116.000000;0.842657
9115.000000;0.842013
9114.000000;0.841583
9113.000000;0.841344
9112.000000;0.841006
9111.000000;0.840522
9110.000000;0.840260
9109.000000;0.840599
9108.000000;0.841438
9107.000000;0.842151
9106.000000;0.842093
9105.000000;0.841167
9104.000000;0.839884
9103.000000;0.838875
9102.000000;0.838413
9101.000000;0.838409
9100.000000;0.838674
9099.000000;0.839037
9098.000000;0.839299
9097.000000;0.839290
9096.000000;0.839028
9095.000000;0.838722
9094.000000;0.838597
9093.000000;0.838760
9092.000000;0.839136
9091.000000;0.839483
9090.000000;0.839534
9089.000000;0.839275
9088.000000;0.838993
9087.000000;0.838939
9086.000000;0.839073
9085.000000;0.839287
9084.000000;0.839664
9083.000000;0.840198
9082.000000;0.840400
9081.000000;0.839641
9080.000000;0.837991
9079.000000;0.836393
9078.000000;0.835805
9077.000000;0.836371
9076.000000;0.837496
9075.000000;0.838431
9074.000000;0.838696
9073.000000;0.838195
9072.000000;0.837210
9071.000000;0.836189
9070.000000;0.835438
9069.000000;0.835060
9068.000000;0.835133
9067.000000;0.835685
9066.000000;0.836441
9065.000000;0.836943
9064.000000;0.837048
9063.000000;0.837057
9062.000000;0.837171
9061.000000;0.837137
9060.000000;0.836672
9059.000000;0.835963
9058.000000;0.835420
9057.000000;0.835125
9056.000000;0.834893
9055.000000;0.834715
9054.000000;0.834759
9053.000000;0.835008
9052.000000;0.835276
9051.000000;0.835534
9050.000000;0.835900
9049.000000;0.836297
9048.000000;0.836495
9047.000000;0.836491
9046.000000;0.836522
9045.000000;0.836596
9044.000000;0.836360
9043.000000;0.835649
9042.000000;0.834898
9041.000000;0.834754
9040.000000;0.835403
9039.000000;0.836425
9038.000000;0.837196
9037.000000;0.837325
9036.000000;0.836812
9035.000000;0.835938
9034.000000;0.835000
9033.000000;0.834119
9032.000000;0.833330
9031.000000;0.832810
9030.000000;0.832811
9029.000000;0.833290
9028.000000;0.833768
9027.000000;0.833714
9026.000000;0.833031
9025.000000;0.832117
9024.000000;0.831513
9023.000000;0.831541
9022.000000;0.832144
9021.000000;0.832932
9020.000000;0.833397
9019.000000;0.833197
9018.000000;0.832328
9017.000000;0.831135
9016.000000;0.830204
9015.000000;0.830079
9014.000000;0.830844
9013.000000;0.831938
9012.000000;0.832584
9011.000000;0.832509
9010.000000;0.832137
9009.000000;0.831966
9008.000000;0.831963
9007.000000;0.831730
9006.000000;0.831159
9005.000000;0.830684
9004.000000;0.830828
9003.000000;0.831592
9002.000000;0.832378
9001.000000;0.832531
9000.000000;0.832028
8999.000000;0.831535
8998.000000;0.831695
8997.000000;0.832399
8996.000000;0.832876
8995.000000;0.832526
8994.000000;0.831525
8993.000000;0.830537
8992.000000;0.830071
8991.000000;0.830195
8990.000000;0.830688
8989.000000;0.831246
8988.000000;0.831604
8987.000000;0.831640
8986.000000;0.831396
8985.000000;0.830950
8984.000000;0.830353
8983.000000;0.829756
8982.000000;0.829468
8981.000000;0.829734
8980.000000;0.830471
8979.000000;0.831345
8978.000000;0.832050
8977.000000;0.832401
8976.000000;0.832292
8975.000000;0.831789
8974.000000;0.831225
8973.000000;0.830975
8972.000000;0.831093
8971.000000;0.831295
8970.000000;0.831302
8969.000000;0.831094
8968.000000;0.830799
8967.000000;0.830485
8966.000000;0.830134
8965.000000;0.829726
8964.000000;0.829331
8963.000000;0.829157
8962.000000;0.829441
8961.000000;0.830143
8960.000000;0.830780
8959.000000;0.830777
8958.000000;0.830056
8957.000000;0.829152
8956.000000;0.828636
8955.000000;0.828573
8954.000000;0.828619
8953.000000;0.828532
8952.000000;0.828384
8951.000000;0.828308
8950.000000;0.828190
8949.000000;0.827797
8948.000000;0.827182
8947.000000;0.826827
8946.000000;0.827193
8945.000000;0.828101
8944.000000;0.828746
8943.000000;0.828478
8942.000000;0.827499
8941.000000;0.826625
8940.000000;0.826392
8939.000000;0.826651
8938.000000;0.827009
8937.000000;0.827378
8936.000000;0.827907
8935.000000;0.828579
8934.000000;0.829093
8933.000000;0.829131
8932.000000;0.828637
8931.000000;0.827858
8930.000000;0.827169
8929.000000;0.826831
8928.000000;0.826844
8927.000000;0.827075
8926.000000;0.827491
8925.000000;0.828116
8924.000000;0.828757
8923.000000;0.829011
8922.000000;0.828698
8921.000000;0.828132
8920.000000;0.827776
8919.000000;0.827755
8918.000000;0.827853
8917.000000;0.827878
8916.000000;0.827787
8915.000000;0.827529
8914.000000;0.827045
8913.000000;0.826469
8912.000000;0.826111
8911.000000;0.826117
8910.000000;0.826283
8909.000000;0.826293
8908.000000;0.826069
8907.000000;0.825821
8906.000000;0.825778
8905.000000;0.825912
8904.000000;0.825937
8903.000000;0.825600
8902.000000;0.825026
8901.000000;0.824662
8900.000000;0.824820
8899.000000;0.825364
8898.000000;0.825986
8897.000000;0.826614
8896.000000;0.827310
8895.000000;0.827845
8894.000000;0.827742
8893.000000;0.826850
8892.000000;0.825610
8891.000000;0.824625
8890.000000;0.824168
8889.000000;0.824200
8888.000000;0.824589
8887.000000;0.825109
8886.000000;0.825464
8885.000000;0.825591
8884.000000;0.825820
8883.000000;0.826459
8882.000000;0.827338
8881.000000;0.828021
8880.000000;0.828360
8879.000000;0.828494
8878.000000;0.828378
8877.000000;0.827768
8876.000000;0.826775
8875.000000;0.826038
8874.000000;0.826068
8873.000000;0.826652
8872.000000;0.827172
8871.000000;0.827365
8870.000000;0.827458
8869.000000;0.827643
8868.000000;0.827752
8867.000000;0.827552
8866.000000;0.827115
8865.000000;0.826748
8864.000000;0.826626
8863.000000;0.826635
8862.000000;0.826546
8861.000000;0.826308
8860.000000;0.826120
8859.000000;0.826206
8858.000000;0.826518
8857.000000;0.826756
8856.000000;0.826750
8855.000000;0.826705
8854.000000;0.826951
8853.000000;0.827471
8852.000000;0.827844
8851.000000;0.827666
8850.000000;0.826935
8849.000000;0.826017
8848.000000;0.825339
8847.000000;0.825160
8846.000000;0.825473
8845.000000;0.826042
8844.000000;0.826574
8843.000000;0.826957
8842.000000;0.827317
8841.000000;0.827823
8840.000000;0.828487
8839.000000;0.829174
8838.000000;0.829712
8837.000000;0.829944
8836.000000;0.829767
8835.000000;0.829232
8834.000000;0.828561
8833.000000;0.827965
8832.000000;0.827461
8831.000000;0.826951
8830.000000;0.826472
8829.000000;0.826261
8828.000000;0.826542
8827.000000;0.827277
8826.000000;0.828137
8825.000000;0.828701
8824.000000;0.828724
8823.000000;0.828264
8822.000000;0.827552
8821.000000;0.826801
8820.000000;0.826178
8819.000000;0.825882
8818.000000;0.826050
8817.000000;0.826531
8816.000000;0.826930
8815.000000;0.827020
8814.000000;0.826986
8813.000000;0.827123
8812.000000;0.827391
8811.000000;0.827502
8810.000000;0.827398
8809.000000;0.827416
8808.000000;0.827913
8807.000000;0.828880
8806.000000;0.829960
8805.000000;0.830714
8804.000000;0.830859
8803.000000;0.830427
8802.000000;0.829808
8801.000000;0.829534
8800.000000;0.829870
8799.000000;0.830628
8798.000000;0.831408
8797.000000;0.831966
8796.000000;0.832299
8795.000000;0.832476
8794.000000;0.832460
8793.000000;0.832136
8792.000000;0.831518
8791.000000;0.830925
8790.000000;0.830828
8789.000000;0.831341
8788.000000;0.831933
8787.000000;0.831882
8786.000000;0.831062
8785.000000;0.830124
8784.000000;0.829820
8783.000000;0.830320
8782.000000;0.831242
8781.000000;0.832134
8780.000000;0.832791
8779.000000;0.833245
8778.000000;0.833628
8777.000000;0.833997
8776.000000;0.834199
8775.000000;0.834024
8774.000000;0.833547
8773.000000;0.833176
8772.000000;0.833234
8771.000000;0.833595
8770.000000;0.833876
8769.000000;0.833818
8768.000000;0.833397
8767.000000;0.832742
8766.000000;0.832191
8765.000000;0.832240
8764.000000;0.833093
8763.000000;0.834278
8762.000000;0.835031
8761.000000;0.835110
8760.000000;0.835009
8759.000000;0.835314
8758.000000;0.836094
8757.000000;0.836967
8756.000000;0.837550
8755.000000;0.837712
8754.000000;0.837568
8753.000000;0.837408
8752.000000;0.837546
8751.000000;0.838114
8750.000000;0.838957
8749.000000;0.839750
8748.000000;0.840187
8747.000000;0.840128
8746.000000;0.839711
8745.000000;0.839318
8744.000000;0.839282
8743.000000;0.839572
8742.000000;0.839870
8741.000000;0.839980
8740.000000;0.840005
8739.000000;0.840090
8738.000000;0.840218
8737.000000;0.840375
8736.000000;0.840721
8735.000000;0.841356
8734.000000;0.842040
8733.000000;0.842337
8732.000000;0.842048
8731.000000;0.841396
8730.000000;0.840797
8729.000000;0.840532
8728.000000;0.840652
8727.000000;0.841055
8726.000000;0.841563
8725.000000;0.842008
8724.000000;0.842316
8723.000000;0.842571
8722.000000;0.842955
8721.000000;0.843566
8720.000000;0.844239
8719.000000;0.844617
8718.000000;0.844504
8717.000000;0.844148
8716.000000;0.844057
8715.000000;0.844486
8714.000000;0.845180
8713.000000;0.845645
8712.000000;0.845592
8711.000000;0.845102
8710.000000;0.844464
8709.000000;0.843956
8708.000000;0.843731
8707.000000;0.843793
8706.000000;0.844039
8705.000000;0.844331
8704.000000;0.844560
8703.000000;0.844735
8702.000000;0.845043
8701.000000;0.845709
8700.000000;0.846680
8699.000000;0.847540
8698.000000;0.847892
8697.000000;0.847797
8696.000000;0.847654
8695.000000;0.847671
8694.000000;0.847714
8693.000000;0.847687
8692.000000;0.847751
8691.000000;0.847982
8690.000000;0.848108
8689.000000;0.847858
8688.000000;0.847431
8687.000000;0.847302
8686.000000;0.847624
8685.000000;0.848090
8684.000000;0.848393
8683.000000;0.848580
8682.000000;0.848888
8681.000000;0.849401
8680.000000;0.849969
8679.000000;0.850369
8678.000000;0.850491
8677.000000;0.850448
8676.000000;0.850526
8675.000000;0.850928
8674.000000;0.851563
8673.000000;0.852161
8672.000000;0.852569
8671.000000;0.852836
8670.000000;0.853043
8669.000000;0.853192
8668.000000;0.853288
8667.000000;0.853352
8666.000000;0.853314
8665.000000;0.853061
8664.000000;0.852643
8663.000000;0.852310
8662.000000;0.852247
8661.000000;0.852406
8660.000000;0.852657
8659.000000;0.852950
8658.000000;0.853201
8657.000000;0.853209
8656.000000;0.852907
8655.000000;0.852591
8654.000000;0.852635
8653.000000;0.853011
8652.000000;0.853297
8651.000000;0.853200
8650.000000;0.852837
8649.000000;0.852440
8648.000000;0.852070
8647.000000;0.851792
8646.000000;0.851848
8645.000000;0.852353
8644.000000;0.852955
8643.000000;0.853164
8642.000000;0.853029
8641.000000;0.853157
8640.000000;0.853910
8639.000000;0.854887
8638.000000;0.855407
8637.000000;0.855297
8636.000000;0.854922
8635.000000;0.854580
8634.000000;0.854230
8633.000000;0.853829
8632.000000;0.853623
8631.000000;0.853919
8630.000000;0.854682
8629.000000;0.855488
8628.000000;0.855856
8627.000000;0.855640
8626.000000;0.855155
8625.000000;0.854903
8624.000000;0.855071
8623.000000;0.855338
8622.000000;0.855294
8621.000000;0.854994
8620.000000;0.854884
8619.000000;0.855196
8618.000000;0.855675
8617.000000;0.855957
8616.000000;0.855960
8615.000000;0.855777
8614.000000;0.855445
8613.000000;0.855029
8612.000000;0.854741
8611.000000;0.854727
8610.000000;0.854879
8609.000000;0.855087
8608.000000;0.855508
8607.000000;0.856259
8606.000000;0.856973
8605.000000;0.857074
8604.000000;0.856570
8603.000000;0.856182
8602.000000;0.856513
8601.000000;0.857328
8600.000000;0.857859
8599.000000;0.857662
8598.000000;0.857002
8597.000000;0.856472
8596.000000;0.856417
8595.000000;0.856700
8594.000000;0.856924
8593.000000;0.856880
8592.000000;0.856807
8591.000000;0.857104
8590.000000;0.857774
8589.000000;0.858322
8588.000000;0.858300
8587.000000;0.857797
8586.000000;0.857288
8585.000000;0.857131
8584.000000;0.857371
8583.000000;0.857864
8582.000000;0.858340
8581.000000;0.858400
8580.000000;0.857760
8579.000000;0.856618
8578.000000;0.855594
8577.000000;0.855209
8576.000000;0.855505
8575.000000;0.856204
8574.000000;0.857047
8573.000000;0.857813
8572.000000;0.858173
8571.000000;0.857836
8570.000000;0.856902
8569.000000;0.855926
8568.000000;0.855462
8567.000000;0.855585
8566.000000;0.855926
8565.000000;0.856128
8564.000000;0.856177
8563.000000;0.856278
8562.000000;0.856530
8561.000000;0.856795
8560.000000;0.856860
8559.000000;0.856652
8558.000000;0.856256
8557.000000;0.855775
8556.000000;0.855256
8555.000000;0.854778
8554.000000;0.854546
8553.000000;0.854778
8552.000000;0.855434
8551.000000;0.856140
8550.000000;0.856512
8549.000000;0.856531
8548.000000;0.856483
8547.000000;0.856522
8546.000000;0.856471
8545.000000;0.856174
8544.000000;0.855863
8543.000000;0.855965
8542.000000;0.856557
8541.000000;0.857240
8540.000000;0.857584
8539.000000;0.857552
8538.000000;0.857413
8537.000000;0.857357
8536.000000;0.857322
8535.000000;0.857112
8534.000000;0.856597
8533.000000;0.855849
8532.000000;0.855169
8531.000000;0.854962
8530.000000;0.855448
8529.000000;0.856447
8528.000000;0.857443
8527.000000;0.857910
8526.000000;0.857659
8525.000000;0.856955
8524.000000;0.856353
8523.000000;0.856289
8522.000000;0.856753
8521.000000;0.857339
8520.000000;0.857687
8519.000000;0.857822
8518.000000;0.857994
8517.000000;0.858253
8516.000000;0.858336
8515.000000;0.858021
8514.000000;0.857486
8513.000000;0.857172
8512.000000;0.857294
8511.000000;0.857578
8510.000000;0.857552
8509.000000;0.857065
8508.000000;0.856444
8507.000000;0.856162
8506.000000;0.856425
8505.000000;0.857073
8504.000000;0.857743
8503.000000;0.858080
8502.000000;0.857914
8501.000000;0.857421
8500.000000;0.857044
8499.000000;0.857115
8498.000000;0.857518
8497.000000;0.857878
8496.000000;0.858026
8495.000000;0.858116
8494.000000;0.858263
8493.000000;0.858342
8492.000000;0.858240
8491.000000;0.858103
8490.000000;0.858122
8489.000000;0.858225
8488.000000;0.858189
8487.000000;0.858009
8486.000000;0.857920
8485.000000;0.858075
8484.000000;0.858358
8483.000000;0.858567
8482.000000;0.858632
8481.000000;0.858649
8480.000000;0.858756
8479.000000;0.858991
8478.000000;0.859189
8477.000000;0.859088
8476.000000;0.858632
8475.000000;0.858108
8474.000000;0.857827
8473.000000;0.857762
8472.000000;0.857674
8471.000000;0.857560
8470.000000;0.857716
8469.000000;0.858290
8468.000000;0.858969
8467.000000;0.859250
8466.000000;0.858913
8465.000000;0.858148
8464.000000;0.857333
8463.000000;0.856779
8462.000000;0.856571
8461.000000;0.856559
8460.000000;0.856527
8459.000000;0.856406
8458.000000;0.856272
8457.000000;0.856171
8456.000000;0.856079
8455.000000;0.856026
8454.000000;0.856093
8453.000000;0.856281
8452.000000;0.856542
8451.000000;0.856981
8450.000000;0.857773
8449.000000;0.858785
8448.000000;0.859539
8447.000000;0.859745
8446.000000;0.859653
8445.000000;0.859645
8444.000000;0.859673
8443.000000;0.859414
8442.000000;0.858846
8441.000000;0.858322
8440.000000;0.858076
8439.000000;0.857977
8438.000000;0.857830
8437.000000;0.857644
8436.000000;0.857500
8435.000000;0.857374
8434.000000;0.857229
8433.000000;0.857121
8432.000000;0.857075
8431.000000;0.857004
8430.000000;0.856878
8429.000000;0.856845
8428.000000;0.857039
8427.000000;0.857353
8426.000000;0.857557
8425.000000;0.857601
8424.000000;0.857644
8423.000000;0.857807
8422.000000;0.857987
8421.000000;0.857981
8420.000000;0.857748
8419.000000;0.857497
8418.000000;0.857518
8417.000000;0.857909
8416.000000;0.858479
8415.000000;0.858938
8414.000000;0.859144
8413.000000;0.859134
8412.000000;0.859010
8411.000000;0.858900
8410.000000;0.858978
8409.000000;0.859344
8408.000000;0.859814
8407.000000;0.860028
8406.000000;0.859869
8405.000000;0.859663
8404.000000;0.859815
8403.000000;0.860304
8402.000000;0.860685
8401.000000;0.860573
8400.000000;0.860024
8399.000000;0.859431
8398.000000;0.859114
8397.000000;0.859073
8396.000000;0.859099
8395.000000;0.859076
8394.000000;0.859127
8393.000000;0.859420
8392.000000;0.859877
8391.000000;0.860210
8390.000000;0.860272
8389.000000;0.860269
8388.000000;0.860529
8387.000000;0.861122
8386.000000;0.861749
8385.000000;0.861961
8384.000000;0.861469
8383.000000;0.860392
8382.000000;0.859277
8381.000000;0.858778
8380.000000;0.859131
8379.000000;0.859946
8378.000000;0.860609
8377.000000;0.860860
8376.000000;0.860885
8375.000000;0.860937
8374.000000;0.861058
8373.000000;0.861146
8372.000000;0.861107
8371.000000;0.860878
8370.000000;0.860459
8369.000000;0.860020
8368.000000;0.859842
8367.000000;0.860012
8366.000000;0.860263
8365.000000;0.860253
8364.000000;0.860006
8363.000000;0.859920
8362.000000;0.860289
8361.000000;0.860931
8360.000000;0.861358
8359.000000;0.861309
8358.000000;0.861023
8357.000000;0.860956
8356.000000;0.861278
8355.000000;0.861713
8354.000000;0.861867
8353.000000;0.861640
8352.000000;0.861278
8351.000000;0.861088
8350.000000;0.861199
8349.000000;0.861557
8348.000000;0.862026
8347.000000;0.862424
8346.000000;0.862549
8345.000000;0.862314
8344.000000;0.861848
8343.000000;0.861413
8342.000000;0.861184
8341.000000;0.861147
8340.000000;0.861213
8339.000000;0.861361
8338.000000;0.861645
8337.000000;0.862069
8336.000000;0.862499
8335.000000;0.862750
8334.000000;0.862755
8333.000000;0.862625
8332.000000;0.862531
8331.000000;0.862534
8330.000000;0.862544
8329.000000;0.862461
8328.000000;0.862344
8327.000000;0.862394
8326.000000;0.862730
8325.000000;0.863225
8324.000000;0.863606
8323.000000;0.863699
8322.000000;0.863545
8321.000000;0.863249
8320.000000;0.862855
8319.000000;0.862415
8318.000000;0.862114
8317.000000;0.862173
8316.000000;0.862603
8315.000000;0.863154
8314.000000;0.863532
8313.000000;0.863610
8312.000000;0.863422
8311.000000;0.863086
8310.000000;0.862782
8309.000000;0.862678
8308.000000;0.862760
8307.000000;0.862807
8306.000000;0.862664
8305.000000;0.862499
8304.000000;0.862641
8303.000000;0.863149
8302.000000;0.863691
8301.000000;0.863906
8300.000000;0.863761
8299.000000;0.863479
8298.000000;0.863236
8297.000000;0.863076
8296.000000;0.863024
8295.000000;0.863122
8294.000000;0.863318
8293.000000;0.863473
8292.000000;0.863552
8291.000000;0.863687
8290.000000;0.863949
8289.000000;0.864169
8288.000000;0.864101
8287.000000;0.863748
8286.000000;0.863344
8285.000000;0.863018
8284.000000;0.862653
8283.000000;0.862158
8282.000000;0.861741
8281.000000;0.861747
8280.000000;0.862285
8279.000000;0.863117
8278.000000;0.863885
8277.000000;0.864322
8276.000000;0.864300
8275.000000;0.863874
8274.000000;0.863344
8273.000000;0.863106
8272.000000;0.863321
8271.000000;0.863773
8270.000000;0.864104
8269.000000;0.864111
8268.000000;0.863804
8267.000000;0.863321
8266.000000;0.862892
8265.000000;0.862759
8264.000000;0.862964
8263.000000;0.863276
8262.000000;0.863441
8261.000000;0.863468
8260.000000;0.863532
8259.000000;0.863643
8258.000000;0.863607
8257.000000;0.863349
8256.000000;0.863081
8255.000000;0.863054
8254.000000;0.863234
8253.000000;0.863362
8252.000000;0.863284
8251.000000;0.863104
8250.000000;0.862995
8249.000000;0.862968
8248.000000;0.862876
8247.000000;0.862625
8246.000000;0.862313
8245.000000;0.862172
8244.000000;0.862374
8243.000000;0.862909
8242.000000;0.863589
8241.000000;0.864158
8240.000000;0.864444
8239.000000;0.864485
8238.000000;0.864509
8237.000000;0.864690
8236.000000;0.864925
8235.000000;0.864934
8234.000000;0.864630
8233.000000;0.864278
8232.000000;0.864218
8231.000000;0.864509
8230.000000;0.864951
8229.000000;0.865365
8228.000000;0.865702
8227.000000;0.865881
8226.000000;0.865703
8225.000000;0.865053
8224.000000;0.864144
8223.000000;0.863453
8222.000000;0.863388
8221.000000;0.863981
8220.000000;0.864873
8219.000000;0.865578
8218.000000;0.865810
8217.000000;0.865580
8216.000000;0.865082
8215.000000;0.864551
8214.000000;0.864212
8213.000000;0.864207
8212.000000;0.864464
8211.000000;0.864739
8210.000000;0.864894
8209.000000;0.865068
8208.000000;0.865447
8207.000000;0.865902
8206.000000;0.866083
8205.000000;0.865849
8204.000000;0.865477
8203.000000;0.865343
8202.000000;0.865539
8201.000000;0.865864
8200.000000;0.866080
8199.000000;0.866105
8198.000000;0.866016
8197.000000;0.865931
8196.000000;0.865885
8195.000000;0.865796
8194.000000;0.865606
8193.000000;0.865414
8192.000000;0.865387
8191.000000;0.865528
8190.000000;0.865679
8189.000000;0.865747
8188.000000;0.865804
8187.000000;0.865885
8186.000000;0.865858
8185.000000;0.865649
8184.000000;0.865467
8183.000000;0.865614
8182.000000;0.866088
8181.000000;0.866539
8180.000000;0.866663
8179.000000;0.866538
8178.000000;0.866507
8177.000000;0.866795
8176.000000;0.867286
8175.000000;0.867648
8174.000000;0.867645
8173.000000;0.867331
8172.000000;0.866948
8171.000000;0.866701
8170.000000;0.866646
8169.000000;0.866751
8168.000000;0.866913
8167.000000;0.866950
8166.000000;0.866701
8165.000000;0.866246
8164.000000;0.865910
8163.000000;0.865960
8162.000000;0.866353
8161.000000;0.866861
8160.000000;0.867316
8159.000000;0.867644
8158.000000;0.867772
8157.000000;0.867696
8156.000000;0.867605
8155.000000;0.867730
8154.000000;0.868048
8153.000000;0.868282
8152.000000;0.868233
8151.000000;0.868010
8150.000000;0.867882
8149.000000;0.868016
8148.000000;0.868389
8147.000000;0.868829
8146.000000;0.869098
8145.000000;0.869045
8144.000000;0.868774
8143.000000;0.868598
8142.000000;0.868740
8141.000000;0.869105
8140.000000;0.869367
8139.000000;0.869263
8138.000000;0.868798
8137.000000;0.868215
8136.000000;0.867814
8135.000000;0.867726
8134.000000;0.867837
8133.000000;0.867954
8132.000000;0.868018
8131.000000;0.868089
8130.000000;0.868173
8129.000000;0.868185
8128.000000;0.868140
8127.000000;0.868214
8126.000000;0.868523
8125.000000;0.868933
8124.000000;0.869199
8123.000000;0.869225
8122.000000;0.869100
8121.000000;0.868935
8120.000000;0.868797
8119.000000;0.868751
8118.000000;0.868831
8117.000000;0.868963
8116.000000;0.869021
8115.000000;0.869008
8114.000000;0.869085
8113.000000;0.869372
8112.000000;0.869784
8111.000000;0.870106
8110.000000;0.870183
8109.000000;0.870027
8108.000000;0.869762
8107.000000;0.869489
8106.000000;0.869202
8105.000000;0.868844
8104.000000;0.868435
8103.000000;0.868113
8102.000000;0.868007
8101.000000;0.868104
8100.000000;0.868306
8099.000000;0.868582
8098.000000;0.868959
8097.000000;0.869373
8096.000000;0.869650
8095.000000;0.869695
8094.000000;0.869658
8093.000000;0.869804
8092.000000;0.870221
8091.000000;0.870674
8090.000000;0.870752
8089.000000;0.870215
8088.000000;0.869264
8087.000000;0.868470
8086.000000;0.868347
8085.000000;0.868914
8084.000000;0.869711
8083.000000;0.870244
8082.000000;0.870370
8081.000000;0.870247
8080.000000;0.870049
8079.000000;0.869861
8078.000000;0.869771
8077.000000;0.869864
8076.000000;0.870074
8075.000000;0.870201
8074.000000;0.870133
8073.000000;0.870009
8072.000000;0.870062
8071.000000;0.870344
8070.000000;0.870684
8069.000000;0.870879
8068.000000;0.870874
8067.000000;0.870751
8066.000000;0.870626
8065.000000;0.870569
8064.000000;0.870584
8063.000000;0.870629
8062.000000;0.870670
8061.000000;0.870724
8060.000000;0.870844
8059.000000;0.871059
8058.000000;0.871344
8057.000000;0.871634
8056.000000;0.871850
8055.000000;0.871908
8054.000000;0.871753
8053.000000;0.871414
8052.000000;0.871029
8051.000000;0.870788
8050.000000;0.870846
8049.000000;0.871244
8048.000000;0.871872
8047.000000;0.872500
8046.000000;0.872880
8045.000000;0.872887
8044.000000;0.872607
8043.000000;0.872281
8042.000000;0.872158
8041.000000;0.872329
8040.000000;0.872676
8039.000000;0.872965
8038.000000;0.873049
8037.000000;0.872991
8036.000000;0.872969
8035.000000;0.873058
8034.000000;0.873156
8033.000000;0.873142
8032.000000;0.873055
8031.000000;0.873028
8030.000000;0.873089
8029.000000;0.873114
8028.000000;0.872997
8027.000000;0.872764
8026.000000;0.872501
8025.000000;0.872237
8024.000000;0.871986
8023.000000;0.871840
8022.000000;0.871923
8021.000000;0.872233
8020.000000;0.872592
8019.000000;0.872786
8018.000000;0.872726
8017.000000;0.872496
8016.000000;0.872298
8015.000000;0.872351
8014.000000;0.872744
8013.000000;0.873329
8012.000000;0.873792
8011.000000;0.873901
8010.000000;0.873719
8009.000000;0.873543
8008.000000;0.873624
8007.000000;0.873946
8006.000000;0.874270
8005.000000;0.874350
8004.000000;0.874143
8003.000000;0.873817
8002.000000;0.873611
8001.000000;0.873642
8000.000000;0.873834
7999.000000;0.873980
7998.000000;0.873906
7997.000000;0.873609
7996.000000;0.873282
7995.000000;0.873194
7994.000000;0.873485
7993.000000;0.874041
7992.000000;0.874581
7991.000000;0.874887
7990.000000;0.874975
7989.000000;0.875003
7988.000000;0.875065
7987.000000;0.875106
7986.000000;0.875054
7985.000000;0.874956
7984.000000;0.874926
7983.000000;0.874984
7982.000000;0.875067
7981.000000;0.875172
7980.000000;0.875406
7979.000000;0.875793
7978.000000;0.876121
7977.000000;0.876122
7976.000000;0.875830
7975.000000;0.875619
7974.000000;0.875798
7973.000000;0.876234
7972.000000;0.876487
7971.000000;0.876303
7970.000000;0.875852
7969.000000;0.875482
7968.000000;0.875355
7967.000000;0.875393
7966.000000;0.875490
7965.000000;0.875636
7964.000000;0.875838
7963.000000;0.876032
7962.000000;0.876152
7961.000000;0.876232
7960.000000;0.876358
7959.000000;0.876526
7958.000000;0.876611
7957.000000;0.876524
7956.000000;0.876368
7955.000000;0.876374
7954.000000;0.876654
7953.000000;0.877060
7952.000000;0.877301
7951.000000;0.877195
7950.000000;0.876803
7949.000000;0.876355
7948.000000;0.876084
7947.000000;0.876100
7946.000000;0.876345
7945.000000;0.876641
7944.000000;0.876796
7943.000000;0.876722
7942.000000;0.876504
7941.000000;0.876348
7940.000000;0.876455
7939.000000;0.876850
7938.000000;0.877322
7937.000000;0.877569
7936.000000;0.877481
7935.000000;0.877286
7934.000000;0.877356
7933.000000;0.877852
7932.000000;0.878550
7931.000000;0.879031
7930.000000;0.879025
7929.000000;0.878620
7928.000000;0.878191
7927.000000;0.878106
7926.000000;0.878445
7925.000000;0.878942
7924.000000;0.879249
7923.000000;0.879235
7922.000000;0.879017
7921.000000;0.878743
7920.000000;0.878461
7919.000000;0.878235
7918.000000;0.878225
7917.000000;0.878513
7916.000000;0.878922
7915.000000;0.879129
7914.000000;0.878991
7913.000000;0.878660
7912.000000;0.878392
7911.000000;0.878311
7910.000000;0.878391
7909.000000;0.878577
7908.000000;0.878848
7907.000000;0.879201
7906.000000;0.879614
7905.000000;0.880028
7904.000000;0.880365
7903.000000;0.880584
7902.000000;0.880727
7901.000000;0.880850
7900.000000;0.880927
7899.000000;0.880856
7898.000000;0.880613
7897.000000;0.880331
7896.000000;0.880181
7895.000000;0.880195
7894.000000;0.880261
7893.000000;0.880281
7892.000000;0.880266
7891.000000;0.880280
7890.000000;0.880357
7889.000000;0.880515
7888.000000;0.880786
7887.000000;0.881163
7886.000000;0.881538
7885.000000;0.881774
7884.000000;0.881840
7883.000000;0.881816
7882.000000;0.881754
7881.000000;0.881607
7880.000000;0.881367
7879.000000;0.881202
7878.000000;0.881317
7877.000000;0.881688
7876.000000;0.882045
7875.000000;0.882164
7874.000000;0.882081
7873.000000;0.881972
7872.000000;0.881906
7871.000000;0.881818
7870.000000;0.881672
7869.000000;0.881542
7868.000000;0.881527
7867.000000;0.881657
7866.000000;0.881902
7865.000000;0.882184
7864.000000;0.882407
7863.000000;0.882516
7862.000000;0.882552
7861.000000;0.882591
7860.000000;0.882639
7859.000000;0.882650
7858.000000;0.882649
7857.000000;0.882741
7856.000000;0.882998
7855.000000;0.883382
7854.000000;0.883809
7853.000000;0.884201
7852.000000;0.884445
7851.000000;0.884423
7850.000000;0.884180
7849.000000;0.883970
7848.000000;0.884008
7847.000000;0.884182
7846.000000;0.884123
7845.000000;0.883622
7844.000000;0.882926
7843.000000;0.882552
7842.000000;0.882841
7841.000000;0.883673
7840.000000;0.884605
7839.000000;0.885261
7838.000000;0.885595
7837.000000;0.885799
7836.000000;0.886007
7835.000000;0.886146
7834.000000;0.886096
7833.000000;0.885891
7832.000000;0.885681
7831.000000;0.885556
7830.000000;0.885487
7829.000000;0.885421
7828.000000;0.885332
7827.000000;0.885186
7826.000000;0.884974
7825.000000;0.884819
7824.000000;0.884916
7823.000000;0.885279
7822.000000;0.885661
7821.000000;0.885846
7820.000000;0.885943
7819.000000;0.886221
7818.000000;0.886671
7817.000000;0.886922
7816.000000;0.886693
7815.000000;0.886203
7814.000000;0.885993
7813.000000;0.886369
7812.000000;0.887151
7811.000000;0.887944
7810.000000;0.888535
7809.000000;0.888964
7808.000000;0.889292
7807.000000;0.889441
7806.000000;0.889296
7805.000000;0.888901
7804.000000;0.888475
7803.000000;0.888218
7802.000000;0.888146
7801.000000;0.888150
7800.000000;0.888173
7799.000000;0.888274
7798.000000;0.888493
7797.000000;0.888741
7796.000000;0.888882
7795.000000;0.888885
7794.000000;0.888848
7793.000000;0.888872
7792.000000;0.889000
7791.000000;0.889243
7790.000000;0.889601
7789.000000;0.890015
7788.000000;0.890369
7787.000000;0.890555
7786.000000;0.890539
7785.000000;0.890375
7784.000000;0.890203
7783.000000;0.890221
7782.000000;0.890565
7781.000000;0.891158
7780.000000;0.891719
7779.000000;0.891999
7778.000000;0.891979
7777.000000;0.891845
7776.000000;0.891798
7775.000000;0.891909
7774.000000;0.892109
7773.000000;0.892246
7772.000000;0.892193
7771.000000;0.891954
7770.000000;0.891687
7769.000000;0.891588
7768.000000;0.891752
7767.000000;0.892128
7766.000000;0.892558
7765.000000;0.892858
7764.000000;0.892933
7763.000000;0.892877
7762.000000;0.892880
7761.000000;0.893008
7760.000000;0.893117
7759.000000;0.893062
7758.000000;0.892909
7757.000000;0.892850
7756.000000;0.892944
7755.000000;0.893081
7754.000000;0.893209
7753.000000;0.893444
7752.000000;0.893888
7751.000000;0.894428
7750.000000;0.894809
7749.000000;0.894887
7748.000000;0.894760
7747.000000;0.894621
7746.000000;0.894551
7745.000000;0.894470
7744.000000;0.894289
7743.000000;0.894065
7742.000000;0.893956
7741.000000;0.894019
7740.000000;0.894158
7739.000000;0.894300
7738.000000;0.894553
7737.000000;0.895053
7736.000000;0.895713
7735.000000;0.896255
7734.000000;0.896504
7733.000000;0.896536
7732.000000;0.896526
7731.000000;0.896564
7730.000000;0.896685
7729.000000;0.896935
7728.000000;0.897323
7727.000000;0.897772
7726.000000;0.898207
7725.000000;0.898640
7724.000000;0.899072
7723.000000;0.899381
7722.000000;0.899412
7721.000000;0.899196
7720.000000;0.898969
7719.000000;0.898947
7718.000000;0.899145
7717.000000;0.899418
7716.000000;0.899637
7715.000000;0.899785
7714.000000;0.899918
7713.000000;0.900078
7712.000000;0.900234
7711.000000;0.900312
7710.000000;0.900272
7709.000000;0.900142
7708.000000;0.899984
7707.000000;0.899836
7706.000000;0.899722
7705.000000;0.899680
7704.000000;0.899761
7703.000000;0.899999
7702.000000;0.900379
7701.000000;0.900851
7700.000000;0.901327
7699.000000;0.901706
7698.000000;0.901929
7697.000000;0.902038
7696.000000;0.902163
7695.000000;0.902399
7694.000000;0.902686
7693.000000;0.902827
7692.000000;0.902705
7691.000000;0.902470
7690.000000;0.902438
7689.000000;0.902757
7688.000000;0.903242
7687.000000;0.903605
7686.000000;0.903785
7685.000000;0.903927
7684.000000;0.904077
7683.000000;0.904086
7682.000000;0.903860
7681.000000;0.903568
7680.000000;0.903502
7679.000000;0.903792
7678.000000;0.904342
7677.000000;0.904975
7676.000000;0.905555
7675.000000;0.906007
7674.000000;0.906319
7673.000000;0.906536
7672.000000;0.906694
7671.000000;0.906803
7670.000000;0.906910
7669.000000;0.907101
7668.000000;0.907362
7667.000000;0.907534
7666.000000;0.907504
7665.000000;0.907392
7664.000000;0.907425
7663.000000;0.907622
7662.000000;0.907780
7661.000000;0.907776
7660.000000;0.907758
7659.000000;0.907943
7658.000000;0.908326
7657.000000;0.908691
7656.000000;0.908879
7655.000000;0.908940
7654.000000;0.909019
7653.000000;0.909181
7652.000000;0.909389
7651.000000;0.909604
7650.000000;0.909838
7649.000000;0.910111
7648.000000;0.910391
7647.000000;0.910625
7646.000000;0.910810
7645.000000;0.911003
7644.000000;0.911243
7643.000000;0.911517
7642.000000;0.911802
7641.000000;0.912111
7640.000000;0.912460
7639.000000;0.912820
7638.000000;0.913143
7637.000000;0.913408
7636.000000;0.913635
7635.000000;0.913860
7634.000000;0.914143
7633.000000;0.914548
7632.000000;0.915063
7631.000000;0.915570
7630.000000;0.915939
7629.000000;0.916114
7628.000000;0.916100
7627.000000;0.915912
7626.000000;0.915649
7625.000000;0.915528
7624.000000;0.915734
7623.000000;0.916219
7622.000000;0.916753
7621.000000;0.917167
7620.000000;0.917470
7619.000000;0.917745
7618.000000;0.918059
7617.000000;0.918479
7616.000000;0.919012
7615.000000;0.919478
7614.000000;0.919586
7613.000000;0.919278
7612.000000;0.918879
7611.000000;0.918780
7610.000000;0.919055
7609.000000;0.919498
7608.000000;0.919963
7607.000000;0.920464
7606.000000;0.920956
7605.000000;0.921247
7604.000000;0.921240
7603.000000;0.921114
7602.000000;0.921160
7601.000000;0.921483
7600.000000;0.921965
7599.000000;0.922464
7598.000000;0.922936
7597.000000;0.923386
7596.000000;0.923798
7595.000000;0.924161
7594.000000;0.924483
7593.000000;0.924774
7592.000000;0.925050
7591.000000;0.925341
7590.000000;0.925659
7589.000000;0.925944
7588.000000;0.926115
7587.000000;0.926205
7586.000000;0.926360
7585.000000;0.926673
7584.000000;0.927088
7583.000000;0.927515
7582.000000;0.927957
7581.000000;0.928445
7580.000000;0.928898
7579.000000;0.929176
7578.000000;0.929290
7577.000000;0.929420
7576.000000;0.929703
7575.000000;0.930074
7574.000000;0.930371
7573.000000;0.930526
7572.000000;0.930595
7571.000000;0.930685
7570.000000;0.930922
7569.000000;0.931406
7568.000000;0.932086
7567.000000;0.932708
7566.000000;0.933010
7565.000000;0.932995
7564.000000;0.932917
7563.000000;0.933022
7562.000000;0.933377
7561.000000;0.933942
7560.000000;0.934685
7559.000000;0.935515
7558.000000;0.936212
7557.000000;0.936538
7556.000000;0.936455
7555.000000;0.936166
7554.000000;0.935934
7553.000000;0.935893
7552.000000;0.936026
7551.000000;0.936264
7550.000000;0.936565
7549.000000;0.936922
7548.000000;0.937326
7547.000000;0.937747
7546.000000;0.938160
7545.000000;0.938561
7544.000000;0.938965
7543.000000;0.939379
7542.000000;0.939791
7541.000000;0.940175
7540.000000;0.940511
7539.000000;0.940814
7538.000000;0.941145
7537.000000;0.941569
7536.000000;0.942079
7535.000000;0.942586
7534.000000;0.943029
7533.000000;0.943460
7532.000000;0.943973
7531.000000;0.944561
7530.000000;0.945102
7529.000000;0.945497
7528.000000;0.945760
7527.000000;0.945957
7526.000000;0.946127
7525.000000;0.946305
7524.000000;0.946559
7523.000000;0.946938
7522.000000;0.947416
7521.000000;0.947936
7520.000000;0.948496
7519.000000;0.949110
7518.000000;0.949699
7517.000000;0.950102
7516.000000;0.950228
7515.000000;0.950174
7514.000000;0.950157
7513.000000;0.950342
7512.000000;0.950751
7511.000000;0.951300
7510.000000;0.951893
7509.000000;0.952483
7508.000000;0.953058
7507.000000;0.953584
7506.000000;0.954005
7505.000000;0.954327
7504.000000;0.954666
7503.000000;0.955157
7502.000000;0.955799
7501.000000;0.956445
7500.000000;0.956967
7499.000000;0.957391
7498.000000;0.957804
7497.000000;0.958208
7496.000000;0.958537
7495.000000;0.958786
7494.000000;0.959029
7493.000000;0.959300
7492.000000;0.959546
7491.000000;0.959736
7490.000000;0.959898
7489.000000;0.960156
7488.000000;0.960517
7487.000000;0.960997
7486.000000;0.961636
7485.000000;0.962386
7484.000000;0.963066
7483.000000;0.963523
7482.000000;0.963819
7481.000000;0.964155
7480.000000;0.964601
7479.000000;0.965026
7478.000000;0.965302
7477.000000;0.965465
7476.000000;0.965622
7475.000000;0.965802
7474.000000;0.965992
7473.000000;0.966217
7472.000000;0.966528
7471.000000;0.966917
7470.000000;0.967342
7469.000000;0.967791
7468.000000;0.968274
7467.000000;0.968780
7466.000000;0.969288
7465.000000;0.969784
7464.000000;0.970221
7463.000000;0.970544
7462.000000;0.970817
7461.000000;0.971257
7460.000000;0.972015
7459.000000;0.972920
7458.000000;0.973578
7457.000000;0.973766
7456.000000;0.973654
7455.000000;0.973595
7454.000000;0.973786
7453.000000;0.974147
7452.000000;0.974478
7451.000000;0.974688
7450.000000;0.974894
7449.000000;0.975320
7448.000000;0.976050
7447.000000;0.976881
7446.000000;0.977467
7445.000000;0.977673
7444.000000;0.977724
7443.000000;0.977962
7442.000000;0.978498
7441.000000;0.979151
7440.000000;0.979698
7439.000000;0.980109
7438.000000;0.980520
7437.000000;0.981024
7436.000000;0.981554
7435.000000;0.981974
7434.000000;0.982247
7433.000000;0.982465
7432.000000;0.982730
7431.000000;0.983049
7430.000000;0.983377
7429.000000;0.983693
7428.000000;0.983996
7427.000000;0.984263
7426.000000;0.984484
7425.000000;0.984720
7424.000000;0.985048
7423.000000;0.985481
7422.000000;0.985983
7421.000000;0.986539
7420.000000;0.987145
7419.000000;0.987745
7418.000000;0.988261
7417.000000;0.988681
7416.000000;0.989019
7415.000000;0.989219
7414.000000;0.989237
7413.000000;0.989232
7412.000000;0.989509
7411.000000;0.990195
7410.000000;0.991065
7409.000000;0.991789
7408.000000;0.992256
7407.000000;0.992563
7406.000000;0.992789
7405.000000;0.992938
7404.000000;0.993051
7403.000000;0.993220
7402.000000;0.993460
7401.000000;0.993712
7400.000000;0.993993
7399.000000;0.994415
7398.000000;0.995003
7397.000000;0.995594
7396.000000;0.995979
7395.000000;0.996128
7394.000000;0.996182
7393.000000;0.996286
7392.000000;0.996492
7391.000000;0.996825
7390.000000;0.997329
7389.000000;0.998016
7388.000000;0.998781
7387.000000;0.999432
7386.000000;0.999821
7385.000000;0.999927
7384.000000;0.999842
7383.000000;0.999722
7382.000000;0.999759
7381.000000;1.000092
7380.000000;1.000669
7379.000000;1.001213
7378.000000;1.001452
7377.000000;1.001390
7376.000000;1.001338
7375.000000;1.001634
7374.000000;1.002356
7373.000000;1.003271
7372.000000;1.004050
7371.000000;1.004506
7370.000000;1.004687
7369.000000;1.004818
7368.000000;1.005130
7367.000000;1.005703
7366.000000;1.006442
7365.000000;1.007177
7364.000000;1.007760
7363.000000;1.008108
7362.000000;1.008270
7361.000000;1.008451
7360.000000;1.008835
7359.000000;1.009345
7358.000000;1.009698
7357.000000;1.009740
7356.000000;1.009654
7355.000000;1.009788
7354.000000;1.010352
7353.000000;1.011287
7352.000000;1.012337
7351.000000;1.013173
7350.000000;1.013576
7349.000000;1.013633
7348.000000;1.013668
7347.000000;1.013889
7346.000000;1.014181
7345.000000;1.014355
7344.000000;1.014424
7343.000000;1.014486
7342.000000;1.014490
7341.000000;1.014372
7340.000000;1.014350
7339.000000;1.014782
7338.000000;1.015714
7337.000000;1.016809
7336.000000;1.017769
7335.000000;1.018588
7334.000000;1.019370
7333.000000;1.020129
7332.000000;1.020830
7331.000000;1.021419
7330.000000;1.021749
7329.000000;1.021696
7328.000000;1.021461
7327.000000;1.021544
7326.000000;1.022225
7325.000000;1.023250
7324.000000;1.024162
7323.000000;1.024771
7322.000000;1.025184
7321.000000;1.025585
7320.000000;1.026133
7319.000000;1.026921
7318.000000;1.027837
7317.000000;1.028560
7316.000000;1.028920
7315.000000;1.029137
7314.000000;1.029546
7313.000000;1.030184
7312.000000;1.030816
7311.000000;1.031279
7310.000000;1.031601
7309.000000;1.031853
7308.000000;1.032109
7307.000000;1.032540
7306.000000;1.033342
7305.000000;1.034507
7304.000000;1.035831
7303.000000;1.037125
7302.000000;1.038274
7301.000000;1.039156
7300.000000;1.039756
7299.000000;1.040308
7298.000000;1.041091
7297.000000;1.042049
7296.000000;1.042873
7295.000000;1.043447
7294.000000;1.043978
7293.000000;1.044652
7292.000000;1.045397
7291.000000;1.046115
7290.000000;1.046916
7289.000000;1.047937
7288.000000;1.049080
7287.000000;1.050109
7286.000000;1.050972
7285.000000;1.051847
7284.000000;1.052918
7283.000000;1.054216
7282.000000;1.055626
7281.000000;1.056938
7280.000000;1.057959
7279.000000;1.058677
7278.000000;1.059286
7277.000000;1.060003
7276.000000;1.060885
7275.000000;1.061865
7274.000000;1.062896
7273.000000;1.063974
7272.000000;1.065045
7271.000000;1.066026
7270.000000;1.066952
7269.000000;1.067999
7268.000000;1.069312
7267.000000;1.070834
7266.000000;1.072338
7265.000000;1.073630
7264.000000;1.074742
7263.000000;1.075917
7262.000000;1.077386
7261.000000;1.079136
7260.000000;1.080914
7259.000000;1.082471
7258.000000;1.083773
7257.000000;1.084946
7256.000000;1.086103
7255.000000;1.087285
7254.000000;1.088540
7253.000000;1.089954
7252.000000;1.091534
7251.000000;1.093152
7250.000000;1.094664
7249.000000;1.096071
7248.000000;1.097500
7247.000000;1.099007
7246.000000;1.100474
7245.000000;1.101786
7244.000000;1.103067
7243.000000;1.104671
7242.000000;1.106855
7241.000000;1.109499
7240.000000;1.112184
7239.000000;1.114527
7238.000000;1.116381
7237.000000;1.117821
7236.000000;1.119068
7235.000000;1.120409
7234.000000;1.122083
7233.000000;1.124198
7232.000000;1.126744
7231.000000;1.129636
7230.000000;1.132655
7229.000000;1.135438
7228.000000;1.137692
7227.000000;1.139486
7226.000000;1.141260
7225.000000;1.143477
7224.000000;1.146277
7223.000000;1.149478
7222.000000;1.152750
7221.000000;1.155740
7220.000000;1.158230
7219.000000;1.160334
7218.000000;1.162454
7217.000000;1.164928
7216.000000;1.167773
7215.000000;1.170773
7214.000000;1.173737
7213.000000;1.176594
7212.000000;1.179362
7211.000000;1.182164
7210.000000;1.185220
7209.000000;1.188664
7208.000000;1.192346
7207.000000;1.195930
7206.000000;1.199211
7205.000000;1.202296
7204.000000;1.205465
7203.000000;1.208922
7202.000000;1.212677
7201.000000;1.216531
7200.000000;1.220153
7199.000000;1.223314
7198.000000;1.226160
7197.000000;1.229165
7196.000000;1.232742
7195.000000;1.236889
7194.000000;1.241246
7193.000000;1.245432
7192.000000;1.249321
7191.000000;1.253030
7190.000000;1.256759
7189.000000;1.260659
7188.000000;1.264781
7187.000000;1.269118
7186.000000;1.273610
7185.000000;1.278078
7184.000000;1.282253
7183.000000;1.286035
7182.000000;1.289716
7181.000000;1.293739
7180.000000;1.298176
7179.000000;1.302616
7178.000000;1.306700
7177.000000;1.310539
7176.000000;1.314500
7175.000000;1.318781
7174.000000;1.323362
7173.000000;1.328180
7172.000000;1.333099
7171.000000;1.337847
7170.000000;1.342278
7169.000000;1.346628
7168.000000;1.351256
7167.000000;1.356159
7166.000000;1.360979
7165.000000;1.365515
7164.000000;1.369966
7163.000000;1.374614
7162.000000;1.379570
7161.000000;1.384879
7160.000000;1.390534
7159.000000;1.396252
7158.000000;1.401542
7157.000000;1.406237
7156.000000;1.410785
7155.000000;1.415813
7154.000000;1.421519
7153.000000;1.427579
7152.000000;1.433482
7151.000000;1.438792
7150.000000;1.443322
7149.000000;1.447352
7148.000000;1.451568
7147.000000;1.456507
7146.000000;1.462063
7145.000000;1.467665
7144.000000;1.472869
7143.000000;1.477608
7142.000000;1.482000
7141.000000;1.486240
7140.000000;1.490654
7139.000000;1.495551
7138.000000;1.500866
7137.000000;1.506137
7136.000000;1.510964
7135.000000;1.515372
7134.000000;1.519714
7133.000000;1.524381
7132.000000;1.529609
7131.000000;1.535320
7130.000000;1.541061
7129.000000;1.546328
7128.000000;1.551136
7127.000000;1.556084
7126.000000;1.561648
7125.000000;1.567579
7124.000000;1.573213
7123.000000;1.578197
7122.000000;1.582655
7121.000000;1.586787
7120.000000;1.590699
7119.000000;1.594645
7118.000000;1.599075
7117.000000;1.604225
7116.000000;1.609867
7115.000000;1.615644
7114.000000;1.621495
7113.000000;1.627520
7112.000000;1.633530
7111.000000;1.639021
7110.000000;1.643662
7109.000000;1.647681
7108.000000;1.651708
7107.000000;1.656261
7106.000000;1.661321
7105.000000;1.666251
7104.000000;1.670217
7103.000000;1.672926
7102.000000;1.674980
7101.000000;1.677346
7100.000000;1.680494
7099.000000;1.684203
7098.000000;1.688172
7097.000000;1.692494
7096.000000;1.697295
7095.000000;1.702229
7094.000000;1.706702
7093.000000;1.710519
7092.000000;1.714008
7091.000000;1.717545
7090.000000;1.721257
7089.000000;1.725162
7088.000000;1.729319
7087.000000;1.733793
7086.000000;1.738634
7085.000000;1.743850
7084.000000;1.749245
7083.000000;1.754327
7082.000000;1.758580
7081.000000;1.761908
7080.000000;1.764700
7079.000000;1.767384
7078.000000;1.770042
7077.000000;1.772516
7076.000000;1.774738
7075.000000;1.776851
7074.000000;1.779107
7073.000000;1.781707
7072.000000;1.784677
7071.000000;1.787833
7070.000000;1.790953
7069.000000;1.793996
7068.000000;1.797132
7067.000000;1.800497
7066.000000;1.803964
7065.000000;1.807126
7064.000000;1.809499
7063.000000;1.811010
7062.000000;1.812336
7061.000000;1.814427
7060.000000;1.817480
7059.000000;1.820643
7058.000000;1.823061
7057.000000;1.825030
7056.000000;1.827635
7055.000000;1.831325
7054.000000;1.835408
7053.000000;1.839042
7052.000000;1.842156
7051.000000;1.845099
7050.000000;1.847848
7049.000000;1.850043
7048.000000;1.851653
7047.000000;1.853200
7046.000000;1.855257
7045.000000;1.857797
7044.000000;1.860101
7043.000000;1.861455
7042.000000;1.862092
7041.000000;1.863230
7040.000000;1.865793
7039.000000;1.869222
7038.000000;1.871955
7037.000000;1.873130
7036.000000;1.873362
7035.000000;1.873760
7034.000000;1.874854
7033.000000;1.876704
7032.000000;1.879388
7031.000000;1.882765
7030.000000;1.886019
7029.000000;1.888020
7028.000000;1.888277
7027.000000;1.887369
7026.000000;1.886498
7025.000000;1.886736
7024.000000;1.888465
7023.000000;1.891272
7022.000000;1.894418
7021.000000;1.897459
7020.000000;1.900284
7019.000000;1.902665
7018.000000;1.904222
7017.000000;1.904936
7016.000000;1.905265
7015.000000;1.905534
7014.000000;1.905651
7013.000000;1.905677
7012.000000;1.906239
7011.000000;1.907927
7010.000000;1.910482
7009.000000;1.912898
7008.000000;1.914286
7007.000000;1.914543
7006.000000;1.914416
7005.000000;1.915075
7004.000000;1.917163
7003.000000;1.919972
7002.000000;1.921941
7001.000000;1.922267
7000.000000;1.921714
6999.000000;1.921579
6998.000000;1.922279
6997.000000;1.923410
6996.000000;1.924726
6995.000000;1.926303
6994.000000;1.927965
6993.000000;1.929208
6992.000000;1.929656
6991.000000;1.929170
6990.000000;1.927748
6989.000000;1.925932
6988.000000;1.925114
6987.000000;1.926565
6986.000000;1.929891
6985.000000;1.932941
6984.000000;1.933719
6983.000000;1.932297
6982.000000;1.930573
6981.000000;1.930284
6980.000000;1.931496
6979.000000;1.932888
6978.000000;1.933334
6977.000000;1.933135
6976.000000;1.933596
6975.000000;1.935469
6974.000000;1.938112
6973.000000;1.940209
6972.000000;1.941002
6971.000000;1.940591
6970.000000;1.939465
6969.000000;1.938264
6968.000000;1.937720
6967.000000;1.938201
6966.000000;1.939352
6965.000000;1.940587
6964.000000;1.941850
6963.000000;1.943438
6962.000000;1.945197
6961.000000;1.946436
6960.000000;1.946689
6959.000000;1.946216
6958.000000;1.945650
6957.000000;1.945447
6956.000000;1.945666
6955.000000;1.945974
6954.000000;1.945940
6953.000000;1.945533
6952.000000;1.945204
6951.000000;1.945213
6950.000000;1.945202
6949.000000;1.944895
6948.000000;1.944877
6947.000000;1.945993
6946.000000;1.948064
6945.000000;1.949919
6944.000000;1.950775
6943.000000;1.950923
6942.000000;1.950933
6941.000000;1.950903
6940.000000;1.950723
6939.000000;1.950369
6938.000000;1.949541
6937.000000;1.947674
6936.000000;1.944830
6935.000000;1.942073
6934.000000;1.940446
6933.000000;1.939975
6932.000000;1.940066
6931.000000;1.940479
6930.000000;1.941316
6929.000000;1.942382
6928.000000;1.943297
6927.000000;1.944100
6926.000000;1.945001
6925.000000;1.945577
6924.000000;1.944995
6923.000000;1.943234
6922.000000;1.941388
6921.000000;1.940471
6920.000000;1.940476
6919.000000;1.940879
6918.000000;1.941470
6917.000000;1.942184
6916.000000;1.942641
6915.000000;1.942512
6914.000000;1.942139
6913.000000;1.942132
6912.000000;1.942495
6911.000000;1.942713
6910.000000;1.942551
6909.000000;1.942121
6908.000000;1.941219
6907.000000;1.939464
6906.000000;1.937327
6905.000000;1.936171
6904.000000;1.936770
6903.000000;1.938442
6902.000000;1.940169
6901.000000;1.941894
6900.000000;1.943886
6899.000000;1.945383
6898.000000;1.945015
6897.000000;1.942617
6896.000000;1.939634
6895.000000;1.937540
6894.000000;1.936658
6893.000000;1.936630
6892.000000;1.937183
6891.000000;1.938049
6890.000000;1.938764
6889.000000;1.939000
6888.000000;1.938737
6887.000000;1.937912
6886.000000;1.936416
6885.000000;1.934684
6884.000000;1.933656
6883.000000;1.933665
6882.000000;1.933912
6881.000000;1.933563
6880.000000;1.932900
6879.000000;1.932696
6878.000000;1.932863
6877.000000;1.932563
6876.000000;1.931499
6875.000000;1.930243
6874.000000;1.929267
6873.000000;1.928438
6872.000000;1.927662
6871.000000;1.927332
6870.000000;1.927761
6869.000000;1.928666
6868.000000;1.929552
6867.000000;1.930205
6866.000000;1.930488
6865.000000;1.930057
6864.000000;1.928800
6863.000000;1.927351
6862.000000;1.926597
6861.000000;1.926611
6860.000000;1.926481
6859.000000;1.925370
6858.000000;1.923498
6857.000000;1.921884
6856.000000;1.921333
6855.000000;1.921936
6854.000000;1.923333
6853.000000;1.924972
6852.000000;1.926058
6851.000000;1.925833
6850.000000;1.924394
6849.000000;1.922940
6848.000000;1.922651
6847.000000;1.923377
6846.000000;1.923853
6845.000000;1.923143
6844.000000;1.921415
6843.000000;1.919299
6842.000000;1.917220
6841.000000;1.915578
6840.000000;1.914875
6839.000000;1.915083
6838.000000;1.915234
6837.000000;1.914252
6836.000000;1.912107
6835.000000;1.909707
6834.000000;1.907831
6833.000000;1.906623
6832.000000;1.905930
6831.000000;1.905602
6830.000000;1.905388
6829.000000;1.904928
6828.000000;1.903965
6827.000000;1.902386
6826.000000;1.900154
6825.000000;1.897524
6824.000000;1.895218
6823.000000;1.893983
6822.000000;1.893818
6821.000000;1.893857
6820.000000;1.893206
6819.000000;1.891767
6818.000000;1.890146
6817.000000;1.888879
6816.000000;1.887914
6815.000000;1.886857
6814.000000;1.885564
6813.000000;1.884337
6812.000000;1.883450
6811.000000;1.882644
6810.000000;1.881342
6809.000000;1.879356
6808.000000;1.877093
6807.000000;1.875015
6806.000000;1.873224
6805.000000;1.871683
6804.000000;1.870430
6803.000000;1.869315
6802.000000;1.867923
6801.000000;1.865995
6800.000000;1.863710
6799.000000;1.861432
6798.000000;1.859431
6797.000000;1.857944
6796.000000;1.857040
6795.000000;1.856171
6794.000000;1.854417
6793.000000;1.851655
6792.000000;1.848992
6791.000000;1.847438
6790.000000;1.846558
6789.000000;1.845155
6788.000000;1.842978
6787.000000;1.840875
6786.000000;1.839373
6785.000000;1.838113
6784.000000;1.836737
6783.000000;1.835398
6782.000000;1.834034
6781.000000;1.831984
6780.000000;1.828924
6779.000000;1.825618
6778.000000;1.823080
6777.000000;1.821318
6776.000000;1.819480
6775.000000;1.817084
6774.000000;1.814583
6773.000000;1.812742
6772.000000;1.811822
6771.000000;1.811421
6770.000000;1.810818
6769.000000;1.809375
6768.000000;1.806811
6767.000000;1.803288
6766.000000;1.799320
6765.000000;1.795593
6764.000000;1.792714
6763.000000;1.790885
6762.000000;1.789755
6761.000000;1.788714
6760.000000;1.787362
6759.000000;1.785576
6758.000000;1.783268
6757.000000;1.780440
6756.000000;1.777522
6755.000000;1.775252
6754.000000;1.774006
6753.000000;1.773425
6752.000000;1.772829
6751.000000;1.771746
6750.000000;1.769950
6749.000000;1.767384
6748.000000;1.764347
6747.000000;1.761526
6746.000000;1.759458
6745.000000;1.758014
6744.000000;1.756602
6743.000000;1.754820
6742.000000;1.752700
6741.000000;1.750442
6740.000000;1.748154
6739.000000;1.745910
6738.000000;1.743853
6737.000000;1.742144
6736.000000;1.740804
6735.000000;1.739566
6734.000000;1.737933
6733.000000;1.735574
6732.000000;1.732724
6731.000000;1.730000
6730.000000;1.727731
6729.000000;1.725693
6728.000000;1.723635
6727.000000;1.721792
6726.000000;1.720511
6725.000000;1.719531
6724.000000;1.718026
6723.000000;1.715470
6722.000000;1.712226
6721.000000;1.709175
6720.000000;1.706943
6719.000000;1.705563
6718.000000;1.704656
6717.000000;1.703759
6716.000000;1.702510
6715.000000;1.700694
6714.000000;1.698258
6713.000000;1.695347
6712.000000;1.692328
6711.000000;1.689680
6710.000000;1.687740
6709.000000;1.686481
6708.000000;1.685459
6707.000000;1.684023
6706.000000;1.681711
6705.000000;1.678641
6704.000000;1.675480
6703.000000;1.672897
6702.000000;1.671021
6701.000000;1.669543
6700.000000;1.668228
6699.000000;1.667086
6698.000000;1.666021
6697.000000;1.664781
6696.000000;1.663167
6695.000000;1.661322
6694.000000;1.659301
6693.000000;1.656802
6692.000000;1.653752
6691.000000;1.650724
6690.000000;1.648420
6689.000000;1.646833
6688.000000;1.645366
6687.000000;1.643699
6686.000000;1.642096
6685.000000;1.640794
6684.000000;1.639509
6683.000000;1.637721
6682.000000;1.635187
6681.000000;1.632034
6680.000000;1.628656
6679.000000;1.625674
6678.000000;1.623689
6677.000000;1.622772
6676.000000;1.622289
6675.000000;1.621473
6674.000000;1.620120
6673.000000;1.618545
6672.000000;1.616971
6671.000000;1.615223
6670.000000;1.613061
6669.000000;1.610609
6668.000000;1.608331
6667.000000;1.606556
6666.000000;1.605124
6665.000000;1.603555
6664.000000;1.601615
6663.000000;1.599578
6662.000000;1.597799
6661.000000;1.596172
6660.000000;1.594279
6659.000000;1.592064
6658.000000;1.589990
6657.000000;1.588423
6656.000000;1.587155
6655.000000;1.585759
6654.000000;1.584152
6653.000000;1.582494
6652.000000;1.580704
6651.000000;1.578492
6650.000000;1.575884
6649.000000;1.573402
6648.000000;1.571563
6647.000000;1.570380
6646.000000;1.569437
6645.000000;1.568331
6644.000000;1.566947
6643.000000;1.565412
6642.000000;1.563892
6641.000000;1.562425
6640.000000;1.560888
6639.000000;1.559131
6638.000000;1.557133
6637.000000;1.555042
6636.000000;1.553104
6635.000000;1.551541
6634.000000;1.550389
6633.000000;1.549388
6632.000000;1.548128
6631.000000;1.546423
6630.000000;1.544480
6629.000000;1.542620
6628.000000;1.540906
6627.000000;1.539186
6626.000000;1.537390
6625.000000;1.535600
6624.000000;1.533849
6623.000000;1.532075
6622.000000;1.530308
6621.000000;1.528716
6620.000000;1.527384
6619.000000;1.526173
6618.000000;1.524885
6617.000000;1.523460
6616.000000;1.521930
6615.000000;1.520285
6614.000000;1.518500
6613.000000;1.516633
6612.000000;1.514780
6611.000000;1.512963
6610.000000;1.511163
6609.000000;1.509428
6608.000000;1.507857
6607.000000;1.506448
6606.000000;1.505032
6605.000000;1.503397
6604.000000;1.501513
6603.000000;1.499601
6602.000000;1.497999
6601.000000;1.496890
6600.000000;1.496136
6599.000000;1.495362
6598.000000;1.494212
6597.000000;1.492599
6596.000000;1.490776
6595.000000;1.489181
6594.000000;1.488098
6593.000000;1.487365
6592.000000;1.486435
6591.000000;1.484832
6590.000000;1.482579
6589.000000;1.480164
6588.000000;1.478120
6587.000000;1.476667
6586.000000;1.475673
6585.000000;1.474802
6584.000000;1.473725
6583.000000;1.472334
6582.000000;1.470792
6581.000000;1.469293
6580.000000;1.467802
6579.000000;1.466166
6578.000000;1.464451
6577.000000;1.462985
6576.000000;1.461995
6575.000000;1.461329
6574.000000;1.460614
6573.000000;1.459606
6572.000000;1.458283
6571.000000;1.456743
6570.000000;1.455132
6569.000000;1.453614
6568.000000;1.452272
6567.000000;1.451037
6566.000000;1.449771
6565.000000;1.448409
6564.000000;1.446993
6563.000000;1.445620
6562.000000;1.444367
6561.000000;1.443232
6560.000000;1.442097
6559.000000;1.440832
6558.000000;1.439459
6557.000000;1.438131
6556.000000;1.436911
6555.000000;1.435675
6554.000000;1.434300
6553.000000;1.432834
6552.000000;1.431415
6551.000000;1.430117
6550.000000;1.428953
6549.000000;1.427889
6548.000000;1.426759
6547.000000;1.425311
6546.000000;1.423516
6545.000000;1.421729
6544.000000;1.420347
6543.000000;1.419372
6542.000000;1.418493
6541.000000;1.417522
6540.000000;1.416542
6539.000000;1.415615
6538.000000;1.414593
6537.000000;1.413303
6536.000000;1.411771
6535.000000;1.410175
6534.000000;1.408708
6533.000000;1.407536
6532.000000;1.406753
6531.000000;1.406261
6530.000000;1.405759
6529.000000;1.404945
6528.000000;1.403741
6527.000000;1.402319
6526.000000;1.400956
6525.000000;1.399840
6524.000000;1.398928
6523.000000;1.397998
6522.000000;1.396910
6521.000000;1.395773
6520.000000;1.394747
6519.000000;1.393734
6518.000000;1.392448
6517.000000;1.390824
6516.000000;1.389154
6515.000000;1.387783
6514.000000;1.386791
6513.000000;1.386051
6512.000000;1.385400
6511.000000;1.384665
6510.000000;1.383686
6509.000000;1.382485
6508.000000;1.381299
6507.000000;1.380285
6506.000000;1.379309
6505.000000;1.378173
6504.000000;1.376962
6503.000000;1.375961
6502.000000;1.375239
6501.000000;1.374522
6500.000000;1.373520
6499.000000;1.372239
6498.000000;1.370909
6497.000000;1.369737
6496.000000;1.368777
6495.000000;1.367956
6494.000000;1.367142
6493.000000;1.366251
6492.000000;1.365304
6491.000000;1.364367
6490.000000;1.363444
6489.000000;1.362504
6488.000000;1.361584
6487.000000;1.360777
6486.000000;1.360065
6485.000000;1.359281
6484.000000;1.358282
6483.000000;1.357102
6482.000000;1.355866
6481.000000;1.354655
6480.000000;1.353514
6479.000000;1.352532
6478.000000;1.351784
6477.000000;1.351183
6476.000000;1.350494
6475.000000;1.349537
6474.000000;1.348322
6473.000000;1.346999
6472.000000;1.345720
6471.000000;1.344585
6470.000000;1.343615
6469.000000;1.342733
6468.000000;1.341817
6467.000000;1.340853
6466.000000;1.340007
6465.000000;1.339428
6464.000000;1.338998
6463.000000;1.338388
6462.000000;1.337432
6461.000000;1.336340
6460.000000;1.335443
6459.000000;1.334786
6458.000000;1.334110
6457.000000;1.333230
6456.000000;1.332275
6455.000000;1.331481
6454.000000;1.330872
6453.000000;1.330242
6452.000000;1.329400
6451.000000;1.328343
6450.000000;1.327214
6449.000000;1.326195
6448.000000;1.325418
6447.000000;1.324863
6446.000000;1.324327
6445.000000;1.323573
6444.000000;1.322551
6443.000000;1.321444
6442.000000;1.320452
6441.000000;1.319618
6440.000000;1.318870
6439.000000;1.318178
6438.000000;1.317559
6437.000000;1.316969
6436.000000;1.316278
6435.000000;1.315401
6434.000000;1.314422
6433.000000;1.313542
6432.000000;1.312874
6431.000000;1.312314
6430.000000;1.311633
6429.000000;1.310715
6428.000000;1.309692
6427.000000;1.308808
6426.000000;1.308162
6425.000000;1.307624
6424.000000;1.306994
6423.000000;1.306202
6422.000000;1.305324
6421.000000;1.304464
6420.000000;1.303669
6419.000000;1.302942
6418.000000;1.302272
6417.000000;1.301627
6416.000000;1.300967
6415.000000;1.300283
6414.000000;1.299613
6413.000000;1.298992
6412.000000;1.298380
6411.000000;1.297664
6410.000000;1.296747
6409.000000;1.295667
6408.000000;1.294601
6407.000000;1.293741
6406.000000;1.293138
6405.000000;1.292677
6404.000000;1.292208
6403.000000;1.291675
6402.000000;1.291104
6401.000000;1.290508
6400.000000;1.289849
6399.000000;1.289087
6398.000000;1.288211
6397.000000;1.287247
6396.000000;1.286271
6395.000000;1.285426
6394.000000;1.284842
6393.000000;1.284512
6392.000000;1.284268
6391.000000;1.283922
6390.000000;1.283403
6389.000000;1.282757
6388.000000;1.282035
6387.000000;1.281246
6386.000000;1.280387
6385.000000;1.279505
6384.000000;1.278699
6383.000000;1.278077
6382.000000;1.277673
6381.000000;1.277357
6380.000000;1.276888
6379.000000;1.276094
6378.000000;1.275043
6377.000000;1.273989
6376.000000;1.273162
6375.000000;1.272613
6374.000000;1.272240
6373.000000;1.271901
6372.000000;1.271505
6371.000000;1.271026
6370.000000;1.270483
6369.000000;1.269895
6368.000000;1.269255
6367.000000;1.268551
6366.000000;1.267804
6365.000000;1.267058
6364.000000;1.266363
6363.000000;1.265789
6362.000000;1.265409
6361.000000;1.265212
6360.000000;1.265035
6359.000000;1.264669
6358.000000;1.264041
6357.000000;1.263262
6356.000000;1.262477
6355.000000;1.261747
6354.000000;1.261067
6353.000000;1.260432
6352.000000;1.259814
6351.000000;1.259154
6350.000000;1.258431
6349.000000;1.257694
6348.000000;1.256989
6347.000000;1.256308
6346.000000;1.255656
6345.000000;1.255107
6344.000000;1.254716
6343.000000;1.254404
6342.000000;1.254022
6341.000000;1.253513
6340.000000;1.252947
6339.000000;1.252393
6338.000000;1.251846
6337.000000;1.251285
6336.000000;1.250730
6335.000000;1.250205
6334.000000;1.249703
6333.000000;1.249219
6332.000000;1.248770
6331.000000;1.248360
6330.000000;1.247958
6329.000000;1.247546
6328.000000;1.247154
6327.000000;1.246800
6326.000000;1.246441
6325.000000;1.245990
6324.000000;1.245401
6323.000000;1.244709
6322.000000;1.244012
6321.000000;1.243421
6320.000000;1.242969
6319.000000;1.242569
6318.000000;1.242087
6317.000000;1.241491
6316.000000;1.240882
6315.000000;1.240346
6314.000000;1.239817
6313.000000;1.239168
6312.000000;1.238408
6311.000000;1.237723
6310.000000;1.237282
6309.000000;1.237050
6308.000000;1.236852
6307.000000;1.236568
6306.000000;1.236238
6305.000000;1.235948
6304.000000;1.235670
6303.000000;1.235280
6302.000000;1.234717
6301.000000;1.234078
6300.000000;1.233515
6299.000000;1.233080
6298.000000;1.232705
6297.000000;1.232329
6296.000000;1.231979
6295.000000;1.231705
6294.000000;1.231487
6293.000000;1.231230
6292.000000;1.230833
6291.000000;1.230271
6290.000000;1.229617
6289.000000;1.229032
6288.000000;1.228664
6287.000000;1.228516
6286.000000;1.228423
6285.000000;1.228182
6284.000000;1.227724
6283.000000;1.227122
6282.000000;1.226476
6281.000000;1.225847
6280.000000;1.225323
6279.000000;1.225023
6278.000000;1.224961
6277.000000;1.224938
6276.000000;1.224680
6275.000000;1.224106
6274.000000;1.223413
6273.000000;1.222854
6272.000000;1.222507
6271.000000;1.222262
6270.000000;1.221999
6269.000000;1.221682
6268.000000;1.221301
6267.000000;1.220821
6266.000000;1.220242
6265.000000;1.219646
6264.000000;1.219148
6263.000000;1.218784
6262.000000;1.218503
6261.000000;1.218228
6260.000000;1.217908
6259.000000;1.217523
6258.000000;1.217090
6257.000000;1.216669
6256.000000;1.216336
6255.000000;1.216123
6254.000000;1.215998
6253.000000;1.215892
6252.000000;1.215752
6251.000000;1.215561
6250.000000;1.215326
6249.000000;1.215038
6248.000000;1.214658
6247.000000;1.214163
6246.000000;1.213633
6245.000000;1.213230
6244.000000;1.213055
6243.000000;1.213032
6242.000000;1.212965
6241.000000;1.212720
6240.000000;1.212325
6239.000000;1.211878
6238.000000;1.211431
6237.000000;1.210963
6236.000000;1.210459
6235.000000;1.209958
6234.000000;1.209539
6233.000000;1.209257
6232.000000;1.209091
6231.000000;1.208963
6230.000000;1.208799
6229.000000;1.208581
6228.000000;1.208319
6227.000000;1.208007
6226.000000;1.207637
6225.000000;1.207251
6224.000000;1.206912
6223.000000;1.206614
6222.000000;1.206267
6221.000000;1.205799
6220.000000;1.205247
6219.000000;1.204731
6218.000000;1.204347
6217.000000;1.204116
6216.000000;1.204008
6215.000000;1.203978
6214.000000;1.203992
6213.000000;1.203998
6212.000000;1.203905
6211.000000;1.203603
6210.000000;1.203071
6209.000000;1.202450
6208.000000;1.201956
6207.000000;1.201683
6206.000000;1.201545
6205.000000;1.201398
6204.000000;1.201175
6203.000000;1.200876
6202.000000;1.200497
6201.000000;1.200065
6200.000000;1.199686
6199.000000;1.199465
6198.000000;1.199371
6197.000000;1.199268
6196.000000;1.199081
6195.000000;1.198857
6194.000000;1.198649
6193.000000;1.198420
6192.000000;1.198110
6191.000000;1.197750
6190.000000;1.197430
6189.000000;1.197202
6188.000000;1.197040
6187.000000;1.196875
6186.000000;1.196637
6185.000000;1.196276
6184.000000;1.195813
6183.000000;1.195358
6182.000000;1.195039
6181.000000;1.194878
6180.000000;1.194778
6179.000000;1.194638
6178.000000;1.194460
6177.000000;1.194318
6176.000000;1.194241
6175.000000;1.194160
6174.000000;1.193985
6173.000000;1.193717
6172.000000;1.193452
6171.000000;1.193279
6170.000000;1.193188
6169.000000;1.193092
6168.000000;1.192928
6167.000000;1.192709
6166.000000;1.192472
6165.000000;1.192204
6164.000000;1.191866
6163.000000;1.191461
6162.000000;1.191061
6161.000000;1.190745
6160.000000;1.190553
6159.000000;1.190469
6158.000000;1.190456
6157.000000;1.190465
6156.000000;1.190445
6155.000000;1.190346
6154.000000;1.190150
6153.000000;1.189881
6152.000000;1.189589
6151.000000;1.189304
6150.000000;1.189026
6149.000000;1.188751
6148.000000;1.188510
6147.000000;1.188347
6146.000000;1.188268
6145.000000;1.188229
6144.000000;1.188193
6143.000000;1.188154
6142.000000;1.188088
6141.000000;1.187926
6140.000000;1.187631
6139.000000;1.187275
6138.000000;1.186993
6137.000000;1.186847
6136.000000;1.186775
6135.000000;1.186689
6134.000000;1.186567
6133.000000;1.186417
6132.000000;1.186215
6131.000000;1.185922
6130.000000;1.185549
6129.000000;1.185176
6128.000000;1.184898
6127.000000;1.184781
6126.000000;1.184817
6125.000000;1.184907
6124.000000;1.184898
6123.000000;1.184702
6122.000000;1.184377
6121.000000;1.184074
6120.000000;1.183896
6119.000000;1.183848
6118.000000;1.183881
6117.000000;1.183920
6116.000000;1.183857
6115.000000;1.183599
6114.000000;1.183175
6113.000000;1.182721
6112.000000;1.182352
6111.000000;1.182077
6110.000000;1.181867
6109.000000;1.181740
6108.000000;1.181715
6107.000000;1.181745
6106.000000;1.181764
6105.000000;1.181786
6104.000000;1.181863
6103.000000;1.181962
6102.000000;1.181959
6101.000000;1.181761
6100.000000;1.181394
6099.000000;1.180963
6098.000000;1.180587
6097.000000;1.180383
6096.000000;1.180417
6095.000000;1.180611
6094.000000;1.180757
6093.000000;1.180680
6092.000000;1.180391
6091.000000;1.180050
6090.000000;1.179809
6089.000000;1.179718
6088.000000;1.179730
6087.000000;1.179747
6086.000000;1.179679
6085.000000;1.179509
6084.000000;1.179312
6083.000000;1.179169
6082.000000;1.179064
6081.000000;1.178920
6080.000000;1.178713
6079.000000;1.178495
6078.000000;1.178313
6077.000000;1.178149
6076.000000;1.177979
6075.000000;1.177836
6074.000000;1.177773
6073.000000;1.177797
6072.000000;1.177870
6071.000000;1.177966
6070.000000;1.178093
6069.000000;1.178253
6068.000000;1.178428
6067.000000;1.178588
6066.000000;1.178703
6065.000000;1.178723
6064.000000;1.178599
6063.000000;1.178337
6062.000000;1.178030
6061.000000;1.177792
6060.000000;1.177654
6059.000000;1.177555
6058.000000;1.177436
6057.000000;1.177326
6056.000000;1.177299
6055.000000;1.177369
6054.000000;1.177471
6053.000000;1.177541
6052.000000;1.177565
6051.000000;1.177539
6050.000000;1.177436
6049.000000;1.177260
6048.000000;1.177086
6047.000000;1.176992
6046.000000;1.176958
6045.000000;1.176886
6044.000000;1.176721
6043.000000;1.176518
6042.000000;1.176370
6041.000000;1.176326
6040.000000;1.176373
6039.000000;1.176468
6038.000000;1.176552
6037.000000;1.176576
6036.000000;1.176533
6035.000000;1.176472
6034.000000;1.176451
6033.000000;1.176490
6032.000000;1.176565
6031.000000;1.176623
6030.000000;1.176608
6029.000000;1.176503
6028.000000;1.176342
6027.000000;1.176184
6026.000000;1.176054
6025.000000;1.175959
6024.000000;1.175932
6023.000000;1.176024
6022.000000;1.176209
6021.000000;1.176359
6020.000000;1.176356
6019.000000;1.176197
6018.000000;1.175975
6017.000000;1.175790
6016.000000;1.175701
6015.000000;1.175726
6014.000000;1.175820
6013.000000;1.175889
6012.000000;1.175873
6011.000000;1.175815
6010.000000;1.175805
6009.000000;1.175862
6008.000000;1.175936
6007.000000;1.176001
6006.000000;1.176078
6005.000000;1.176195
6004.000000;1.176341
6003.000000;1.176502
6002.000000;1.176653
6001.000000;1.176735
6000.000000;1.176686
5999.000000;1.176541
5998.000000;1.176434
5997.000000;1.176468
5996.000000;1.176619
5995.000000;1.176791
5994.000000;1.176934
5993.000000;1.177072
5992.000000;1.177225
5991.000000;1.177367
5990.000000;1.177463
5989.000000;1.177524
5988.000000;1.177607
5987.000000;1.177757
5986.000000;1.177941
5985.000000;1.178071
5984.000000;1.178100
5983.000000;1.178094
5982.000000;1.178158
5981.000000;1.178315
5980.000000;1.178499
5979.000000;1.178664
5978.000000;1.178829
5977.000000;1.178998
5976.000000;1.179120
5975.000000;1.179165
5974.000000;1.179201
5973.000000;1.179312
5972.000000;1.179499
5971.000000;1.179693
5970.000000;1.179867
5969.000000;1.180047
5968.000000;1.180248
5967.000000;1.180445
5966.000000;1.180627
5965.000000;1.180813
5964.000000;1.181009
5963.000000;1.181199
5962.000000;1.181394
5961.000000;1.181638
5960.000000;1.181954
5959.000000;1.182306
5958.000000;1.182632
5957.000000;1.182899
5956.000000;1.183117
5955.000000;1.183333
5954.000000;1.183597
5953.000000;1.183923
5952.000000;1.184261
5951.000000;1.184544
5950.000000;1.184748
5949.000000;1.184899
5948.000000;1.185044
5947.000000;1.185216
5946.000000;1.185428
5945.000000;1.185637
5944.000000;1.185758
5943.000000;1.185756
5942.000000;1.185731
5941.000000;1.185837
5940.000000;1.186121
5939.000000;1.186503
5938.000000;1.186920
5937.000000;1.187410
5936.000000;1.187998
5935.000000;1.188573
5934.000000;1.188968
5933.000000;1.189123
5932.000000;1.189129
5931.000000;1.189118
5930.000000;1.189173
5929.000000;1.189323
5928.000000;1.189547
5927.000000;1.189775
5926.000000;1.189942
5925.000000;1.190072
5924.000000;1.190260
5923.000000;1.190557
5922.000000;1.190912
5921.000000;1.191230
5920.000000;1.191473
5919.000000;1.191673
5918.000000;1.191871
5917.000000;1.192056
5916.000000;1.192167
5915.000000;1.192148
5914.000000;1.192025
5913.000000;1.191911
5912.000000;1.191915
5911.000000;1.192045
5910.000000;1.192221
5909.000000;1.192393
5908.000000;1.192595
5907.000000;1.192852
5906.000000;1.193108
5905.000000;1.193278
5904.000000;1.193351
5903.000000;1.193394
5902.000000;1.193459
5901.000000;1.193533
5900.000000;1.193577
5899.000000;1.193574
5898.000000;1.193545
5897.000000;1.193545
5896.000000;1.193644
5895.000000;1.193864
5894.000000;1.194137
5893.000000;1.194350
5892.000000;1.194460
5891.000000;1.194520
5890.000000;1.194585
5889.000000;1.194640
5888.000000;1.194641
5887.000000;1.194581
5886.000000;1.194499
5885.000000;1.194445
5884.000000;1.194479
5883.000000;1.194666
5882.000000;1.195012
5881.000000;1.195409
5880.000000;1.195687
5879.000000;1.195746
5878.000000;1.195643
5877.000000;1.195556
5876.000000;1.195655
5875.000000;1.195978
5874.000000;1.196389
5873.000000;1.196693
5872.000000;1.196816
5871.000000;1.196864
5870.000000;1.196991
5869.000000;1.197229
5868.000000;1.197504
5867.000000;1.197767
5866.000000;1.198052
5865.000000;1.198401
5864.000000;1.198804
5863.000000;1.199234
5862.000000;1.199679
5861.000000;1.200094
5860.000000;1.200382
5859.000000;1.200481
5858.000000;1.200461
5857.000000;1.200488
5856.000000;1.200696
5855.000000;1.201087
5854.000000;1.201558
5853.000000;1.201999
5852.000000;1.202389
5851.000000;1.202807
5850.000000;1.203326
5849.000000;1.203911
5848.000000;1.204439
5847.000000;1.204844
5846.000000;1.205196
5845.000000;1.205609
5844.000000;1.206105
5843.000000;1.206597
5842.000000;1.206993
5841.000000;1.207288
5840.000000;1.207543
5839.000000;1.207808
5838.000000;1.208091
5837.000000;1.208386
5836.000000;1.208737
5835.000000;1.209215
5834.000000;1.209817
5833.000000;1.210419
5832.000000;1.210892
5831.000000;1.211253
5830.000000;1.211637
5829.000000;1.212108
5828.000000;1.212586
5827.000000;1.212989
5826.000000;1.213376
5825.000000;1.213858
5824.000000;1.214421
5823.000000;1.214940
5822.000000;1.215356
5821.000000;1.215746
5820.000000;1.216200
5819.000000;1.216713
5818.000000;1.217232
5817.000000;1.217735
5816.000000;1.218219
5815.000000;1.218660
5814.000000;1.219043
5813.000000;1.219428
5812.000000;1.219913
5811.000000;1.220520
5810.000000;1.221156
5809.000000;1.221704
5808.000000;1.222156
5807.000000;1.222620
5806.000000;1.223197
5805.000000;1.223863
5804.000000;1.224501
5803.000000;1.225039
5802.000000;1.225527
5801.000000;1.226063
5800.000000;1.226689
5799.000000;1.227365
5798.000000;1.228006
5797.000000;1.228533
5796.000000;1.228910
5795.000000;1.229193
5794.000000;1.229507
5793.000000;1.229933
5792.000000;1.230430
5791.000000;1.230913
5790.000000;1.231377
5789.000000;1.231884
5788.000000;1.232452
5787.000000;1.233034
5786.000000;1.233613
5785.000000;1.234249
5784.000000;1.234987
5783.000000;1.235785
5782.000000;1.236565
5781.000000;1.237287
5780.000000;1.237929
5779.000000;1.238465
5778.000000;1.238908
5777.000000;1.239353
5776.000000;1.239894
5775.000000;1.240515
5774.000000;1.241110
5773.000000;1.241601
5772.000000;1.242022
5771.000000;1.242466
5770.000000;1.243010
5769.000000;1.243668
5768.000000;1.244389
5767.000000;1.245083
5766.000000;1.245681
5765.000000;1.246198
5764.000000;1.246721
5763.000000;1.247307
5762.000000;1.247920
5761.000000;1.248460
5760.000000;1.248849
5759.000000;1.249107
5758.000000;1.249344
5757.000000;1.249691
5756.000000;1.250217
5755.000000;1.250897
5754.000000;1.251640
5753.000000;1.252358
5752.000000;1.253010
5751.000000;1.253604
5750.000000;1.254159
5749.000000;1.254683
5748.000000;1.255179
5747.000000;1.255669
5746.000000;1.256192
5745.000000;1.256764
5744.000000;1.257348
5743.000000;1.257898
5742.000000;1.258428
5741.000000;1.259016
5740.000000;1.259715
5739.000000;1.260485
5738.000000;1.261221
5737.000000;1.261849
5736.000000;1.262379
5735.000000;1.262867
5734.000000;1.263345
5733.000000;1.263794
5732.000000;1.264193
5731.000000;1.264580
5730.000000;1.265050
5729.000000;1.265659
5728.000000;1.266357
5727.000000;1.267041
5726.000000;1.267674
5725.000000;1.268321
5724.000000;1.269056
5723.000000;1.269858
5722.000000;1.270640
5721.000000;1.271335
5720.000000;1.271947
5719.000000;1.272518
5718.000000;1.273088
5717.000000;1.273678
5716.000000;1.274292
5715.000000;1.274931
5714.000000;1.275576
5713.000000;1.276182
5712.000000;1.276698
5711.000000;1.277135
5710.000000;1.277599
5709.000000;1.278222
5708.000000;1.279023
5707.000000;1.279893
5706.000000;1.280706
5705.000000;1.281426
5704.000000;1.282083
5703.000000;1.282700
5702.000000;1.283315
5701.000000;1.283991
5700.000000;1.284742
5699.000000;1.285460
5698.000000;1.286009
5697.000000;1.286401
5696.000000;1.286814
5695.000000;1.287389
5694.000000;1.288101
5693.000000;1.288792
5692.000000;1.289380
5691.000000;1.289889
5690.000000;1.290401
5689.000000;1.291019
5688.000000;1.291776
5687.000000;1.292608
5686.000000;1.293374
5685.000000;1.293983
5684.000000;1.294477
5683.000000;1.294983
5682.000000;1.295605
5681.000000;1.296356
5680.000000;1.297173
5679.000000;1.297962
5678.000000;1.298650
5677.000000;1.299233
5676.000000;1.299766
5675.000000;1.300299
5674.000000;1.300836
5673.000000;1.301384
5672.000000;1.301990
5671.000000;1.302685
5670.000000;1.303411
5669.000000;1.304069
5668.000000;1.304623
5667.000000;1.305122
5666.000000;1.305629
5665.000000;1.306165
5664.000000;1.306731
5663.000000;1.307331
5662.000000;1.307968
5661.000000;1.308628
5660.000000;1.309294
5659.000000;1.309942
5658.000000;1.310536
5657.000000;1.311070
5656.000000;1.311604
5655.000000;1.312203
5654.000000;1.312839
5653.000000;1.313402
5652.000000;1.313829
5651.000000;1.314173
5650.000000;1.314536
5649.000000;1.314966
5648.000000;1.315460
5647.000000;1.316021
5646.000000;1.316658
5645.000000;1.317334
5644.000000;1.317972
5643.000000;1.318524
5642.000000;1.319023
5641.000000;1.319546
5640.000000;1.320144
5639.000000;1.320779
5638.000000;1.321346
5637.000000;1.321761
5636.000000;1.322056
5635.000000;1.322364
5634.000000;1.322799
5633.000000;1.323371
5632.000000;1.324023
5631.000000;1.324701
5630.000000;1.325354
5629.000000;1.325924
5628.000000;1.326402
5627.000000;1.326881
5626.000000;1.327462
5625.000000;1.328101
5624.000000;1.328612
5623.000000;1.328857
5622.000000;1.328899
5621.000000;1.328928
5620.000000;1.329086
5619.000000;1.329390
5618.000000;1.329779
5617.000000;1.330193
5616.000000;1.330600
5615.000000;1.331005
5614.000000;1.331447
5613.000000;1.331955
5612.000000;1.332497
5611.000000;1.332991
5610.000000;1.333374
5609.000000;1.333655
5608.000000;1.333905
5607.000000;1.334206
5606.000000;1.334618
5605.000000;1.335145
5604.000000;1.335720
5603.000000;1.336219
5602.000000;1.336525
5601.000000;1.336616
5600.000000;1.336593
5599.000000;1.336623
5598.000000;1.336822
5597.000000;1.337168
5596.000000;1.337517
5595.000000;1.337722
5594.000000;1.337768
5593.000000;1.337809
5592.000000;1.338031
5591.000000;1.338463
5590.000000;1.338935
5589.000000;1.339232
5588.000000;1.339306
5587.000000;1.339304
5586.000000;1.339394
5585.000000;1.339611
5584.000000;1.339880
5583.000000;1.340123
5582.000000;1.340309
5581.000000;1.340424
5580.000000;1.340465
5579.000000;1.340473
5578.000000;1.340513
5577.000000;1.340610
5576.000000;1.340733
5575.000000;1.340863
5574.000000;1.341022
5573.000000;1.341225
5572.000000;1.341430
5571.000000;1.341591
5570.000000;1.341714
5569.000000;1.341833
5568.000000;1.341959
5567.000000;1.342084
5566.000000;1.342231
5565.000000;1.342437
5564.000000;1.342667
5563.000000;1.342816
5562.000000;1.342819
5561.000000;1.342723
5560.000000;1.342620
5559.000000;1.342541
5558.000000;1.342456
5557.000000;1.342365
5556.000000;1.342319
5555.000000;1.342348
5554.000000;1.342402
5553.000000;1.342426
5552.000000;1.342434
5551.000000;1.342489
5550.000000;1.342604
5549.000000;1.342717
5548.000000;1.342770
5547.000000;1.342767
5546.000000;1.342724
5545.000000;1.342618
5544.000000;1.342433
5543.000000;1.342240
5542.000000;1.342174
5541.000000;1.342293
5540.000000;1.342515
5539.000000;1.342720
5538.000000;1.342882
5537.000000;1.343066
5536.000000;1.343304
5535.000000;1.343542
5534.000000;1.343714
5533.000000;1.343816
5532.000000;1.343894
5531.000000;1.343956
5530.000000;1.343966
5529.000000;1.343903
5528.000000;1.343804
5527.000000;1.343737
5526.000000;1.343730
5525.000000;1.343764
5524.000000;1.343830
5523.000000;1.343972
5522.000000;1.344226
5521.000000;1.344534
5520.000000;1.344736
5519.000000;1.344713
5518.000000;1.344503
5517.000000;1.344284
5516.000000;1.344216
5515.000000;1.344309
5514.000000;1.344441
5513.000000;1.344472
5512.000000;1.344347
5511.000000;1.344127
5510.000000;1.343944
5509.000000;1.343923
5508.000000;1.344105
5507.000000;1.344420
5506.000000;1.344718
5505.000000;1.344863
5504.000000;1.344840
5503.000000;1.344761
5502.000000;1.344758
5501.000000;1.344870
5500.000000;1.345061
5499.000000;1.345315
5498.000000;1.345636
5497.000000;1.345946
5496.000000;1.346072
5495.000000;1.345917
5494.000000;1.345629
5493.000000;1.345501
5492.000000;1.345679
5491.000000;1.346012
5490.000000;1.346235
5489.000000;1.346283
5488.000000;1.346366
5487.000000;1.346724
5486.000000;1.347351
5485.000000;1.347994
5484.000000;1.348412
5483.000000;1.348605
5482.000000;1.348785
5481.000000;1.349147
5480.000000;1.349687
5479.000000;1.350220
5478.000000;1.350533
5477.000000;1.350565
5476.000000;1.350474
5475.000000;1.350539
5474.000000;1.350934
5473.000000;1.351560
5472.000000;1.352171
5471.000000;1.352631
5470.000000;1.352964
5469.000000;1.353186
5468.000000;1.353244
5467.000000;1.353170
5466.000000;1.353168
5465.000000;1.353402
5464.000000;1.353802
5463.000000;1.354186
5462.000000;1.354531
5461.000000;1.355032
5460.000000;1.355889
5459.000000;1.357065
5458.000000;1.358287
5457.000000;1.359283
5456.000000;1.360025
5455.000000;1.360695
5454.000000;1.361412
5453.000000;1.362052
5452.000000;1.362420
5451.000000;1.362544
5450.000000;1.362673
5449.000000;1.362976
5448.000000;1.363401
5447.000000;1.363857
5446.000000;1.364409
5445.000000;1.365199
5444.000000;1.366222
5443.000000;1.367304
5442.000000;1.368306
5441.000000;1.369260
5440.000000;1.370298
5439.000000;1.371427
5438.000000;1.372449
5437.000000;1.373166
5436.000000;1.373641
5435.000000;1.374191
5434.000000;1.375076
5433.000000;1.376208
5432.000000;1.377267
5431.000000;1.378099
5430.000000;1.378863
5429.000000;1.379840
5428.000000;1.381172
5427.000000;1.382746
5426.000000;1.384311
5425.000000;1.385695
5424.000000;1.386943
5423.000000;1.388241
5422.000000;1.389712
5421.000000;1.391310
5420.000000;1.392948
5419.000000;1.394612
5418.000000;1.396290
5417.000000;1.397861
5416.000000;1.399181
5415.000000;1.400285
5414.000000;1.401427
5413.000000;1.402807
5412.000000;1.404383
5411.000000;1.406051
5410.000000;1.407904
5409.000000;1.410116
5408.000000;1.412670
5407.000000;1.415332
5406.000000;1.417916
5405.000000;1.420429
5404.000000;1.422944
5403.000000;1.425470
5402.000000;1.427968
5401.000000;1.430443
5400.000000;1.432952
5399.000000;1.435539
5398.000000;1.438187
5397.000000;1.440819
5396.000000;1.443383
5395.000000;1.445931
5394.000000;1.448606
5393.000000;1.451555
5392.000000;1.454835
5391.000000;1.458387
5390.000000;1.462098
5389.000000;1.465869
5388.000000;1.469658
5387.000000;1.473493
5386.000000;1.477449
5385.000000;1.481540
5384.000000;1.485647
5383.000000;1.489671
5382.000000;1.493704
5381.000000;1.497909
5380.000000;1.502326
5379.000000;1.506850
5378.000000;1.511385
5377.000000;1.515990
5376.000000;1.520814
5375.000000;1.525912
5374.000000;1.531170
5373.000000;1.536431
5372.000000;1.541705
5371.000000;1.547233
5370.000000;1.553218
5369.000000;1.559554
5368.000000;1.565959
5367.000000;1.572339
5366.000000;1.578871
5365.000000;1.585698
5364.000000;1.592697
5363.000000;1.599666
5362.000000;1.606621
5361.000000;1.613772
5360.000000;1.621275
5359.000000;1.629134
5358.000000;1.637288
5357.000000;1.645655
5356.000000;1.654172
5355.000000;1.662881
5354.000000;1.671911
5353.000000;1.681307
5352.000000;1.690943
5351.000000;1.700734
5350.000000;1.710814
5349.000000;1.721332
5348.000000;1.732175
5347.000000;1.743097
5346.000000;1.754100
5345.000000;1.765459
5344.000000;1.777337
5343.000000;1.789552
5342.000000;1.801853
5341.000000;1.814218
5340.000000;1.826897
5339.000000;1.840304
5338.000000;1.854686
5337.000000;1.869705
5336.000000;1.884554
5335.000000;1.898769
5334.000000;1.912802
5333.000000;1.927618
5332.000000;1.943838
5331.000000;1.961399
5330.000000;1.979869
5329.000000;1.998735
5328.000000;2.017474
5327.000000;2.035805
5326.000000;2.053952
5325.000000;2.072346
5324.000000;2.091176
5323.000000;2.110521
5322.000000;2.130658
5321.000000;2.151728
5320.000000;2.173322
5319.000000;2.194957
5318.000000;2.216848
5317.000000;2.239579
5316.000000;2.263117
5315.000000;2.286749
5314.000000;2.309843
5313.000000;2.332113
5312.000000;2.353437
5311.000000;2.374194
5310.000000;2.395428
5309.000000;2.417827
5308.000000;2.440750
5307.000000;2.463026
5306.000000;2.484425
5305.000000;2.505566
5304.000000;2.526857
5303.000000;2.548496
5302.000000;2.570931
5301.000000;2.594279
5300.000000;2.618028
5299.000000;2.642222
5298.000000;2.667566
5297.000000;2.692918
5296.000000;2.714714
5295.000000;2.731453
5294.000000;2.746411
5293.000000;2.763215
5292.000000;2.781241
5291.000000;2.797634
5290.000000;2.812548
5289.000000;2.828596
5288.000000;2.845239
5287.000000;2.858528
5286.000000;2.866586
5285.000000;2.871512
5284.000000;2.876321
5283.000000;2.883381
5282.000000;2.894507
5281.000000;2.908581
5280.000000;2.919993
5279.000000;2.924181
5278.000000;2.924438
5277.000000;2.928058
5276.000000;2.937242
5275.000000;2.947905
5274.000000;2.955875
5273.000000;2.960576
5272.000000;2.962671
5271.000000;2.962164
5270.000000;2.959729
5269.000000;2.956382
5268.000000;2.951866
5267.000000;2.946823
5266.000000;2.944988
5265.000000;2.949046
5264.000000;2.955468
5263.000000;2.957925
5262.000000;2.956089
5261.000000;2.955251
5260.000000;2.957435
5259.000000;2.959421
5258.000000;2.959381
5257.000000;2.959271
5256.000000;2.959599
5255.000000;2.957381
5254.000000;2.950833
5253.000000;2.942291
5252.000000;2.935305
5251.000000;2.932076
5250.000000;2.934390
5249.000000;2.943509
5248.000000;2.956990
5247.000000;2.968177
5246.000000;2.972305
5245.000000;2.971535
5244.000000;2.971360
5243.000000;2.974335
5242.000000;2.978601
5241.000000;2.980560
5240.000000;2.978254
5239.000000;2.973153
5238.000000;2.968941
5237.000000;2.968059
5236.000000;2.969223
5235.000000;2.969178
5234.000000;2.966785
5233.000000;2.963429
5232.000000;2.959611
5231.000000;2.954103
5230.000000;2.946900
5229.000000;2.940483
5228.000000;2.937523
5227.000000;2.939235
5226.000000;2.945959
5225.000000;2.956992
5224.000000;2.969280
5223.000000;2.978750
5222.000000;2.983946
5221.000000;2.986240
5220.000000;2.986148
5219.000000;2.982054
5218.000000;2.973246
5217.000000;2.962078
5216.000000;2.952170
5215.000000;2.946219
5214.000000;2.945963
5213.000000;2.951349
5212.000000;2.958551
5211.000000;2.961618
5210.000000;2.958292
5209.000000;2.952713
5208.000000;2.950716
5207.000000;2.954550
5206.000000;2.962808
5205.000000;2.972313
5204.000000;2.978692
5203.000000;2.977954
5202.000000;2.970544
5201.000000;2.962655
5200.000000;2.960879
5199.000000;2.965763
5198.000000;2.971200
5197.000000;2.970322
5196.000000;2.962509
5195.000000;2.953431
5194.000000;2.948325
5193.000000;2.947436
5192.000000;2.947570
5191.000000;2.946632
5190.000000;2.945908
5189.000000;2.947665
5188.000000;2.951804
5187.000000;2.956011
5186.000000;2.958425
5185.000000;2.958836
5184.000000;2.957901
5183.000000;2.956950
5182.000000;2.958095
5181.000000;2.962315
5180.000000;2.967282
5179.000000;2.969329
5178.000000;2.968330
5177.000000;2.968114
5176.000000;2.970915
5175.000000;2.973685
5174.000000;2.971906
5173.000000;2.965952
5172.000000;2.960409
5171.000000;2.957915
5170.000000;2.956300
5169.000000;2.951868
5168.000000;2.944622
5167.000000;2.938614
5166.000000;2.937533
5165.000000;2.941434
5164.000000;2.947203
5163.000000;2.951325
5162.000000;2.952021
5161.000000;2.949361
5160.000000;2.945048
5159.000000;2.942142
5158.000000;2.943437
5157.000000;2.949379
5156.000000;2.956982
5155.000000;2.961441
5154.000000;2.960343
5153.000000;2.955793
5152.000000;2.951918
5151.000000;2.951340
5150.000000;2.953496
5149.000000;2.955407
5148.000000;2.955030
5147.000000;2.953996
5146.000000;2.955897
5145.000000;2.961795
5144.000000;2.968067
5143.000000;2.969537
5142.000000;2.965079
5141.000000;2.958812
5140.000000;2.955683
5139.000000;2.957626
5138.000000;2.963087
5137.000000;2.968203
5136.000000;2.969094
5135.000000;2.964924
5134.000000;2.958745
5133.000000;2.954215
5132.000000;2.952442
5131.000000;2.953131
5130.000000;2.957125
5129.000000;2.965119
5128.000000;2.974088
5127.000000;2.978331
5126.000000;2.976419
5125.000000;2.974207
5124.000000;2.977752
5123.000000;2.985658
5122.000000;2.990597
5121.000000;2.987576
5120.000000;2.978115
5119.000000;2.966624
5118.000000;2.956459
5117.000000;2.949699
5116.000000;2.947660
5115.000000;2.949835
5114.000000;2.953522
5113.000000;2.956223
5112.000000;2.957930
5111.000000;2.959754
5110.000000;2.961292
5109.000000;2.960999
5108.000000;2.958634
5107.000000;2.955722
5106.000000;2.953687
5105.000000;2.953112
5104.000000;2.954684
5103.000000;2.959002
5102.000000;2.964552
5101.000000;2.967192
5100.000000;2.963686
5099.000000;2.955622
5098.000000;2.948210
5097.000000;2.945463
5096.000000;2.947768
5095.000000;2.953290
5094.000000;2.959754
5093.000000;2.964638
5092.000000;2.965479
5091.000000;2.961526
5090.000000;2.955109
5089.000000;2.949614
5088.000000;2.945997
5087.000000;2.943366
5086.000000;2.941565
5085.000000;2.941062
5084.000000;2.941576
5083.000000;2.942010
5082.000000;2.941580
5081.000000;2.940629
5080.000000;2.940077
5079.000000;2.940158
5078.000000;2.940035
5077.000000;2.939002
5076.000000;2.937799
5075.000000;2.938183
5074.000000;2.940723
5073.000000;2.943195
5072.000000;2.942512
5071.000000;2.939254
5070.000000;2.938838
5069.000000;2.945658
5068.000000;2.956704
5067.000000;2.963940
5066.000000;2.963388
5065.000000;2.958704
5064.000000;2.955215
5063.000000;2.953843
5062.000000;2.952031
5061.000000;2.948342
5060.000000;2.944066
5059.000000;2.941192
5058.000000;2.940686
5057.000000;2.941952
5056.000000;2.943021
5055.000000;2.942289
5054.000000;2.940350
5053.000000;2.939192
5052.000000;2.939295
5051.000000;2.938919
5050.000000;2.936996
5049.000000;2.935261
5048.000000;2.936237
5047.000000;2.939362
5046.000000;2.941037
5045.000000;2.939125
5044.000000;2.935225
5043.000000;2.932143
5042.000000;2.930677
5041.000000;2.929565
5040.000000;2.927540
5039.000000;2.924628
5038.000000;2.922110
5037.000000;2.921095
5036.000000;2.921108
5035.000000;2.920885
5034.000000;2.920536
5033.000000;2.921584
5032.000000;2.923942
5031.000000;2.924180
5030.000000;2.918900
5029.000000;2.909644
5028.000000;2.902253
5027.000000;2.901296
5026.000000;2.906327
5025.000000;2.912820
5024.000000;2.915887
5023.000000;2.913738
5022.000000;2.908344
5021.000000;2.902969
5020.000000;2.899099
5019.000000;2.896019
5018.000000;2.893216
5017.000000;2.892003
5016.000000;2.893629
5015.000000;2.896493
5014.000000;2.897221
5013.000000;2.894904
5012.000000;2.892075
5011.000000;2.890512
5010.000000;2.888332
5009.000000;2.882925
5008.000000;2.875473
5007.000000;2.870302
5006.000000;2.869958
5005.000000;2.872373
5004.000000;2.872972
5003.000000;2.869377
5002.000000;2.864055
5001.000000;2.861932
5000.000000;2.865041
4999.000000;2.869609
4998.000000;2.869412
4997.000000;2.862715
4996.000000;2.854439
4995.000000;2.850824
4994.000000;2.853492
4993.000000;2.859003
4992.000000;2.862844
4991.000000;2.862749
4990.000000;2.858346
4989.000000;2.849957
4988.000000;2.839265
4987.000000;2.829879
4986.000000;2.825463
4985.000000;2.826921
4984.000000;2.831641
4983.000000;2.835497
4982.000000;2.835681
4981.000000;2.832030
4980.000000;2.826186
4979.000000;2.820015
4978.000000;2.814965
4977.000000;2.812232
4976.000000;2.812471
4975.000000;2.814728
4974.000000;2.816123
4973.000000;2.814029
4972.000000;2.808889
4971.000000;2.803830
4970.000000;2.801560
4969.000000;2.801922
4968.000000;2.801977
4967.000000;2.798339
4966.000000;2.790268
4965.000000;2.780810
4964.000000;2.774338
4963.000000;2.772964
4962.000000;2.775064
4961.000000;2.776935
4960.000000;2.776075
4959.000000;2.772851
4958.000000;2.769034
4957.000000;2.765619
4956.000000;2.762432
4955.000000;2.758865
4954.000000;2.754378
4953.000000;2.748800
4952.000000;2.742790
4951.000000;2.737677
4950.000000;2.734370
4949.000000;2.732659
4948.000000;2.731628
4947.000000;2.730520
4946.000000;2.729017
4945.000000;2.726870
4944.000000;2.723916
4943.000000;2.720581
4942.000000;2.717684
4941.000000;2.715439
4940.000000;2.713001
4939.000000;2.709455
4938.000000;2.705140
4937.000000;2.701592
4936.000000;2.699858
4935.000000;2.698920
4934.000000;2.696496
4933.000000;2.691723
4932.000000;2.686426
4931.000000;2.683315
4930.000000;2.682955
4929.000000;2.682789
4928.000000;2.679594
4927.000000;2.673120
4926.000000;2.666687
4925.000000;2.663776
4924.000000;2.664387
4923.000000;2.664871
4922.000000;2.661281
4921.000000;2.652998
4920.000000;2.643061
4919.000000;2.635476
4918.000000;2.632522
4917.000000;2.633759
4916.000000;2.636622
4915.000000;2.638092
4914.000000;2.636479
4913.000000;2.631997
4912.000000;2.625836
4911.000000;2.619036
4910.000000;2.612284
4909.000000;2.606287
4908.000000;2.601789
4907.000000;2.599090
4906.000000;2.597664
4905.000000;2.596262
4904.000000;2.593481
4903.000000;2.588768
4902.000000;2.583302
4901.000000;2.579382
4900.000000;2.578173
4899.000000;2.578149
4898.000000;2.576490
4897.000000;2.572338
4896.000000;2.567812
4895.000000;2.565135
4894.000000;2.563712
4893.000000;2.561059
4892.000000;2.556149
4891.000000;2.550534
4890.000000;2.546031
4889.000000;2.542638
4888.000000;2.539268
4887.000000;2.535671
4886.000000;2.532721
4885.000000;2.531001
4884.000000;2.529869
4883.000000;2.528093
4882.000000;2.525044
4881.000000;2.521023
4880.000000;2.516667
4879.000000;2.512330
4878.000000;2.507962
4877.000000;2.503426
4876.000000;2.498943
4875.000000;2.495129
4874.000000;2.492498
4873.000000;2.491003
4872.000000;2.490132
4871.000000;2.489370
4870.000000;2.488450
4869.000000;2.487077
4868.000000;2.484678
4867.000000;2.480801
4866.000000;2.475814
4865.000000;2.470890
4864.000000;2.467099
4863.000000;2.464556
4862.000000;2.462388
4861.000000;2.459419
4860.000000;2.454977
4859.000000;2.449306
4858.000000;2.443420
4857.000000;2.438361
4856.000000;2.434413
4855.000000;2.431103
4854.000000;2.428125
4853.000000;2.425999
4852.000000;2.425356
4851.000000;2.425643
4850.000000;2.425141
4849.000000;2.422435
4848.000000;2.417514
4847.000000;2.411517
4846.000000;2.406012
4845.000000;2.402460
4844.000000;2.401429
4843.000000;2.401789
4842.000000;2.401226
4841.000000;2.398143
4840.000000;2.392957
4839.000000;2.387242
4838.000000;2.381982
4837.000000;2.377294
4836.000000;2.373428
4835.000000;2.371048
4834.000000;2.370283
4833.000000;2.370006
4832.000000;2.368471
4831.000000;2.364787
4830.000000;2.359722
4829.000000;2.354931
4828.000000;2.351375
4827.000000;2.348535
4826.000000;2.345187
4825.000000;2.340872
4824.000000;2.336314
4823.000000;2.332461
4822.000000;2.329562
4821.000000;2.327365
4820.000000;2.325693
4819.000000;2.324436
4818.000000;2.323211
4817.000000;2.321461
4816.000000;2.318822
4815.000000;2.315212
4814.000000;2.310818
4813.000000;2.306274
4812.000000;2.302473
4811.000000;2.299775
4810.000000;2.297650
4809.000000;2.295514
4808.000000;2.293589
4807.000000;2.292293
4806.000000;2.291069
4805.000000;2.288686
4804.000000;2.284824
4803.000000;2.280587
4802.000000;2.277196
4801.000000;2.274879
4800.000000;2.273267
4799.000000;2.272122
4798.000000;2.271074
4797.000000;2.269179
4796.000000;2.265643
4795.000000;2.260963
4794.000000;2.256614
4793.000000;2.253471
4792.000000;2.251010
4791.000000;2.248202
4790.000000;2.244773
4789.000000;2.241234
4788.000000;2.237974
4787.000000;2.234867
4786.000000;2.231829
4785.000000;2.229193
4784.000000;2.227150
4783.000000;2.225188
4782.000000;2.222610
4781.000000;2.219504
4780.000000;2.216656
4779.000000;2.214438
4778.000000;2.212336
4777.000000;2.209753
4776.000000;2.206716
4775.000000;2.203431
4774.000000;2.199694
4773.000000;2.195368
4772.000000;2.191099
4771.000000;2.187786
4770.000000;2.185391
4769.000000;2.182973
4768.000000;2.180033
4767.000000;2.177236
4766.000000;2.175409
4765.000000;2.174222
4764.000000;2.172334
4763.000000;2.168808
4762.000000;2.164139
4761.000000;2.159811
4760.000000;2.156915
4759.000000;2.155257
4758.000000;2.153788
4757.000000;2.151877
4756.000000;2.149902
4755.000000;2.148395
4754.000000;2.146997
4753.000000;2.144800
4752.000000;2.141589
4751.000000;2.138145
4750.000000;2.135232
4749.000000;2.132854
4748.000000;2.130647
4747.000000;2.128467
4746.000000;2.126230
4745.000000;2.123603
4744.000000;2.120363
4743.000000;2.116849
4742.000000;2.113676
4741.000000;2.111055
4740.000000;2.108667
4739.000000;2.106163
4738.000000;2.103565
4737.000000;2.101146
4736.000000;2.099057
4735.000000;2.097108
4734.000000;2.094896
4733.000000;2.092237
4732.000000;2.089388
4731.000000;2.086717
4730.000000;2.084257
4729.000000;2.081793
4728.000000;2.079338
4727.000000;2.077212
4726.000000;2.075621
4725.000000;2.074363
4724.000000;2.073041
4723.000000;2.071367
4722.000000;2.069231
4721.000000;2.066708
4720.000000;2.064094
4719.000000;2.061697
4718.000000;2.059488
4717.000000;2.057166
4716.000000;2.054628
4715.000000;2.052098
4714.000000;2.049690
4713.000000;2.047207
4712.000000;2.044558
4711.000000;2.042042
4710.000000;2.039920
4709.000000;2.037973
4708.000000;2.035851
4707.000000;2.033662
4706.000000;2.031771
4705.000000;2.030080
4704.000000;2.027925
4703.000000;2.024852
4702.000000;2.021210
4701.000000;2.017830
4700.000000;2.015277
4699.000000;2.013532
4698.000000;2.012229
4697.000000;2.011024
4696.000000;2.009706
4695.000000;2.008116
4694.000000;2.006113
4693.000000;2.003732
4692.000000;2.001294
4691.000000;1.999205
4690.000000;1.997584
4689.000000;1.996184
4688.000000;1.994718
4687.000000;1.993174
4686.000000;1.991700
4685.000000;1.990265
4684.000000;1.988597
4683.000000;1.986543
4682.000000;1.984398
4681.000000;1.982683
4680.000000;1.981492
4679.000000;1.980203
4678.000000;1.978119
4677.000000;1.975370
4676.000000;1.972796
4675.000000;1.970883
4674.000000;1.969281
4673.000000;1.967587
4672.000000;1.966058
4671.000000;1.965006
4670.000000;1.963873
4669.000000;1.961726
4668.000000;1.958634
4667.000000;1.955749
4666.000000;1.953895
4665.000000;1.952763
4664.000000;1.951696
4663.000000;1.950582
4662.000000;1.949547
4661.000000;1.948367
4660.000000;1.946741
4659.000000;1.944802
4658.000000;1.942895
4657.000000;1.941126
4656.000000;1.939533
4655.000000;1.938335
4654.000000;1.937503
4653.000000;1.936406
4652.000000;1.934493
4651.000000;1.932142
4650.000000;1.930238
4649.000000;1.929002
4648.000000;1.927821
4647.000000;1.926195
4646.000000;1.924303
4645.000000;1.922532
4644.000000;1.920959
4643.000000;1.919504
4642.000000;1.918163
4641.000000;1.916881
4640.000000;1.915491
4639.000000;1.913951
4638.000000;1.912372
4637.000000;1.910684
4636.000000;1.908649
4635.000000;1.906344
4634.000000;1.904329
4633.000000;1.903066
4632.000000;1.902363
4631.000000;1.901553
4630.000000;1.900165
4629.000000;1.898329
4628.000000;1.896648
4627.000000;1.895701
4626.000000;1.895527
4625.000000;1.895522
4624.000000;1.894955
4623.000000;1.893624
4622.000000;1.891850
4621.000000;1.889949
4620.000000;1.888008
4619.000000;1.886164
4618.000000;1.884698
4617.000000;1.883685
4616.000000;1.882864
4615.000000;1.881995
4614.000000;1.881115
4613.000000;1.880270
4612.000000;1.879340
4611.000000;1.878330
4610.000000;1.877537
4609.000000;1.877076
4608.000000;1.876487
4607.000000;1.875211
4606.000000;1.873348
4605.000000;1.871569
4604.000000;1.870305
4603.000000;1.869377
4602.000000;1.868421
4601.000000;1.867359
4600.000000;1.866342
4599.000000;1.865454
4598.000000;1.864620
4597.000000;1.863662
4596.000000;1.862399
4595.000000;1.860831
4594.000000;1.859289
4593.000000;1.858250
4592.000000;1.857906
4591.000000;1.857990
4590.000000;1.858072
4589.000000;1.857921
4588.000000;1.857486
4587.000000;1.856706
4586.000000;1.855509
4585.000000;1.853995
4584.000000;1.852444
4583.000000;1.851081
4582.000000;1.849919
4581.000000;1.848853
4580.000000;1.847839
4579.000000;1.846937
4578.000000;1.846207
4577.000000;1.845631
4576.000000;1.845150
4575.000000;1.844721
4574.000000;1.844268
4573.000000;1.843582
4572.000000;1.842439
4571.000000;1.840918
4570.000000;1.839532
4569.000000;1.838880
4568.000000;1.839120
4567.000000;1.839826
4566.000000;1.840348
4565.000000;1.840254
4564.000000;1.839468
4563.000000;1.838168
4562.000000;1.836646
4561.000000;1.835172
4560.000000;1.833867
4559.000000;1.832723
4558.000000;1.831764
4557.000000;1.831090
4556.000000;1.830707
4555.000000;1.830468
4554.000000;1.830269
4553.000000;1.830149
4552.000000;1.830018
4551.000000;1.829458
4550.000000;1.828145
4549.000000;1.826454
4548.000000;1.825260
4547.000000;1.824982
4546.000000;1.825107
4545.000000;1.824858
4544.000000;1.824088
4543.000000;1.823230
4542.000000;1.822605
4541.000000;1.822160
4540.000000;1.821828
4539.000000;1.821706
4538.000000;1.821754
4537.000000;1.821628
4536.000000;1.821040
4535.000000;1.820154
4534.000000;1.819399
4533.000000;1.818947
4532.000000;1.818576
4531.000000;1.818064
4530.000000;1.817587
4529.000000;1.817587
4528.000000;1.818180
4527.000000;1.818792
4526.000000;1.818556
4525.000000;1.817150
4524.000000;1.815156
4523.000000;1.813540
4522.000000;1.812919
4521.000000;1.813334
4520.000000;1.814400
4519.000000;1.815413
4518.000000;1.815589
4517.000000;1.814651
4516.000000;1.813186
4515.000000;1.812077
4514.000000;1.811586
4513.000000;1.811307
4512.000000;1.810932
4511.000000;1.810641
4510.000000;1.810644
4509.000000;1.810784
4508.000000;1.810809
4507.000000;1.810674
4506.000000;1.810358
4505.000000;1.809758
4504.000000;1.809026
4503.000000;1.808659
4502.000000;1.808890
4501.000000;1.809310
4500.000000;1.809482
4499.000000;1.809630
4498.000000;1.810204
4497.000000;1.810969
4496.000000;1.811121
4495.000000;1.810294
4494.000000;1.808927
4493.000000;1.807637
4492.000000;1.806769
4491.000000;1.806644
4490.000000;1.807617
4489.000000;1.809512
4488.000000;1.811363
4487.000000;1.812135
4486.000000;1.811644
4485.000000;1.810578
4484.000000;1.809756
4483.000000;1.809543
4482.000000;1.809805
4481.000000;1.810197
4480.000000;1.810570
4479.000000;1.811185
4478.000000;1.812361
4477.000000;1.813843
4476.000000;1.814736
4475.000000;1.814340
4474.000000;1.812959
4473.000000;1.811703
4472.000000;1.811532
4471.000000;1.812579
4470.000000;1.814245
4469.000000;1.815765
4468.000000;1.816771
4467.000000;1.817477
4466.000000;1.818286
4465.000000;1.819206
4464.000000;1.819776
4463.000000;1.819674
4462.000000;1.819247
4461.000000;1.819197
4460.000000;1.819793
4459.000000;1.820673
4458.000000;1.821464
4457.000000;1.822312
4456.000000;1.823620
4455.000000;1.825434
4454.000000;1.827319
4453.000000;1.828848
4452.000000;1.830008
4451.000000;1.830952
4450.000000;1.831547
4449.000000;1.831525
4448.000000;1.831114
4447.000000;1.831176
4446.000000;1.832480
4445.000000;1.834979
4444.000000;1.837982
4443.000000;1.840849
4442.000000;1.843274
4441.000000;1.845069
4440.000000;1.846168
4439.000000;1.846894
4438.000000;1.847747
4437.000000;1.848764
4436.000000;1.849463
4435.000000;1.849652
4434.000000;1.849942
4433.000000;1.851151
4432.000000;1.853403
4431.000000;1.856074
4430.000000;1.858459
4429.000000;1.860259
4428.000000;1.861624
4427.000000;1.863020
4426.000000;1.864973
4425.000000;1.867566
4424.000000;1.870221
4423.000000;1.872273
4422.000000;1.873773
4421.000000;1.875399
4420.000000;1.877576
4419.000000;1.879974
4418.000000;1.881960
4417.000000;1.883339
4416.000000;1.884573
4415.000000;1.886445
4414.000000;1.889501
4413.000000;1.893572
4412.000000;1.897730
4411.000000;1.900919
4410.000000;1.902797
4409.000000;1.903889
4408.000000;1.904991
4407.000000;1.906676
4406.000000;1.909279
4405.000000;1.912852
4404.000000;1.916860
4403.000000;1.920238
4402.000000;1.922184
4401.000000;1.922935
4400.000000;1.923552
4399.000000;1.924952
4398.000000;1.927303
4397.000000;1.930199
4396.000000;1.933133
4395.000000;1.935767
4394.000000;1.938014
4393.000000;1.940071
4392.000000;1.942324
4391.000000;1.945140
4390.000000;1.948605
4389.000000;1.952364
4388.000000;1.955836
4387.000000;1.958684
4386.000000;1.961036
4385.000000;1.963187
4384.000000;1.965266
4383.000000;1.967415
4382.000000;1.970103
4381.000000;1.973701
4380.000000;1.977572
4379.000000;1.980159
4378.000000;1.980616
4377.000000;1.980104
4376.000000;1.980779
4375.000000;1.983501
4374.000000;1.987020
4373.000000;1.989548
4372.000000;1.990765
4371.000000;1.991924
4370.000000;1.994111
4369.000000;1.997035
4368.000000;1.999670
4367.000000;2.001543
4366.000000;2.003122
4365.000000;2.005138
4364.000000;2.007675
4363.000000;2.009938
4362.000000;2.010950
4361.000000;2.010583
4360.000000;2.009960
4359.000000;2.010662
4358.000000;2.013401
4357.000000;2.017520
4356.000000;2.021746
4355.000000;2.025309
4354.000000;2.028218
4353.000000;2.030571
4352.000000;2.032226
4351.000000;2.033374
4350.000000;2.034872
4349.000000;2.037358
4348.000000;2.040234
4347.000000;2.042209
4346.000000;2.042948
4345.000000;2.043560
4344.000000;2.045254
4343.000000;2.048181
4342.000000;2.051978
4341.000000;2.056655
4340.000000;2.062051
4339.000000;2.066910
4338.000000;2.069698
4337.000000;2.070432
4336.000000;2.070690
4335.000000;2.071490
4334.000000;2.072112
4333.000000;2.071594
4332.000000;2.070376
4331.000000;2.069696
4330.000000;2.070219
4329.000000;2.072006
4328.000000;2.075091
4327.000000;2.079124
4326.000000;2.082780
4325.000000;2.084564
4324.000000;2.084401
4323.000000;2.083852
4322.000000;2.084700
4321.000000;2.087657
4320.000000;2.092164
4319.000000;2.096849
4318.000000;2.100312
4317.000000;2.102124
4316.000000;2.103088
4315.000000;2.104072
4314.000000;2.104801
4313.000000;2.104455
4312.000000;2.103214
4311.000000;2.102411
4310.000000;2.103198
4309.000000;2.105771
4308.000000;2.109870
4307.000000;2.115278
4306.000000;2.121612
4305.000000;2.128192
4304.000000;2.134398
4303.000000;2.139590
4302.000000;2.142738
4301.000000;2.143066
4300.000000;2.141120
4299.000000;2.138281
4298.000000;2.135365
4297.000000;2.132933
4296.000000;2.132585
4295.000000;2.136085
4294.000000;2.142868
4293.000000;2.149875
4292.000000;2.154862
4291.000000;2.158698
4290.000000;2.162881
4289.000000;2.166244
4288.000000;2.166516
4287.000000;2.164460
4286.000000;2.163514
4285.000000;2.165682
4284.000000;2.170312
4283.000000;2.176419
4282.000000;2.183642
4281.000000;2.190512
4280.000000;2.194515
4279.000000;2.195645
4278.000000;2.197820
4277.000000;2.204390
4276.000000;2.213052
4275.000000;2.217538
4274.000000;2.215481
4273.000000;2.211704
4272.000000;2.211737
4271.000000;2.215321
4270.000000;2.218234
4269.000000;2.219175
4268.000000;2.222035
4267.000000;2.230337
4266.000000;2.241794
4265.000000;2.249992
4264.000000;2.251705
4263.000000;2.250631
4262.000000;2.252234
4261.000000;2.257251
4260.000000;2.261950
4259.000000;2.263780
4258.000000;2.265059
4257.000000;2.270177
4256.000000;2.280132
4255.000000;2.290701
4254.000000;2.296025
4253.000000;2.294383
4252.000000;2.289940
4251.000000;2.288219
4250.000000;2.290771
4249.000000;2.294816
4248.000000;2.297336
4247.000000;2.298150
4246.000000;2.299035
4245.000000;2.301177
4244.000000;2.303873
4243.000000;2.305826
4242.000000;2.307050
4241.000000;2.309108
4240.000000;2.313834
4239.000000;2.321129
4238.000000;2.327699
4237.000000;2.329505
4236.000000;2.327923
4235.000000;2.330759
4234.000000;2.343270
4233.000000;2.360298
4232.000000;2.370529
4231.000000;2.369331
4230.000000;2.363361
4229.000000;2.361227
4228.000000;2.366000
4227.000000;2.377703
4226.000000;2.395603
4225.000000;2.414838
4224.000000;2.426384
4223.000000;2.424587
4222.000000;2.411949
4221.000000;2.394998
4220.000000;2.378689
4219.000000;2.366020
4218.000000;2.360852
4217.000000;2.366768
4216.000000;2.382277
4215.000000;2.400913
4214.000000;2.416459
4213.000000;2.425192
4212.000000;2.423522
4211.000000;2.409539
4210.000000;2.389408
4209.000000;2.376099
4208.000000;2.379556
4207.000000;2.399193
4206.000000;2.424232
4205.000000;2.443531
4204.000000;2.456394
4203.000000;2.468072
4202.000000;2.478778
4201.000000;2.482462
4200.000000;2.475181
4199.000000;2.462783
4198.000000;2.456576
4197.000000;2.463019
4196.000000;2.479585
4195.000000;2.497560
4194.000000;2.507198
4193.000000;2.502851
4192.000000;2.486144
4191.000000;2.463943
4190.000000;2.444007
4189.000000;2.432349
4188.000000;2.431669
4187.000000;2.442348
4186.000000;2.465605
4185.000000;2.503316
4184.000000;2.551204
4183.000000;2.591194
4182.000000;2.598720
4181.000000;2.568808
4180.000000;2.523464
4179.000000;2.487840
4178.000000;2.473541
4177.000000;2.478899
4176.000000;2.493561
4175.000000;2.506217
4174.000000;2.515125
4173.000000;2.525812
4172.000000;2.539629
4171.000000;2.551797
4170.000000;2.557019
4169.000000;2.554539
4168.000000;2.548066
4167.000000;2.541533
4166.000000;2.536773
4165.000000;2.533273
4164.000000;2.532115
4163.000000;2.540035
4162.000000;2.561619
4161.000000;2.590096
4160.000000;2.611143
4159.000000;2.614487
4158.000000;2.601298
4157.000000;2.581009
4156.000000;2.564390
4155.000000;2.562110
4154.000000;2.581766
4153.000000;2.618537
4152.000000;2.652763
4151.000000;2.667542
4150.000000;2.664541
4149.000000;2.648253
4148.000000;2.606873
4147.000000;2.542744
4146.000000;2.492944
4145.000000;2.486485
4144.000000;2.526366
4143.000000;2.592455
4142.000000;2.639742
4141.000000;2.627548
4140.000000;2.567067
4139.000000;2.509989
4138.000000;2.491493
4137.000000;2.511588
4136.000000;2.548858
4135.000000;2.579028
4134.000000;2.596994
4133.000000;2.618724
4132.000000;2.650096
4131.000000;2.665645
4130.000000;2.639258
4129.000000;2.586212
4128.000000;2.542425
4127.000000;2.525354
4126.000000;2.527648
4125.000000;2.529320
4124.000000;2.514237
4123.000000;2.486424
4122.000000;2.467724
4121.000000;2.476654
4120.000000;2.516065
4119.000000;2.576695
4118.000000;2.635975
4117.000000;2.657084
4116.000000;2.630677
4115.000000;2.589001
4114.000000;2.574729
4113.000000;2.603415
4112.000000;2.633490
4111.000000;2.600226
4110.000000;2.509696
4109.000000;2.425106
4108.000000;2.385589
4107.000000;2.384661
4106.000000;2.395112
4105.000000;2.403909
4104.000000;2.420785
4103.000000;2.449385
4102.000000;2.475182
4101.000000;2.500041
4100.000000;2.550693
4099.000000;2.633266
4098.000000;2.709606
4097.000000;2.754553
4096.000000;2.753721
4095.000000;2.674466
4094.000000;2.572845
4093.000000;2.503479
4092.000000;2.466407
4091.000000;2.439846
4090.000000;2.406132
4089.000000;2.374799
4088.000000;2.374151
4087.000000;2.422041
4086.000000;2.510406
4085.000000;2.602094
4084.000000;2.651346
4083.000000;2.653507
4082.000000;2.648621
4081.000000;2.672466
4080.000000;2.742432
4079.000000;2.846133
4078.000000;2.923530
4077.000000;2.899472
4076.000000;2.775752
4075.000000;2.624275
4074.000000;2.495401
4073.000000;2.418639
4072.000000;2.403627
4071.000000;2.425083
4070.000000;2.432458
4069.000000;2.406540
4068.000000;2.370955
4067.000000;2.360699
4066.000000;2.392581
4065.000000;2.445745
4064.000000;2.497935
4063.000000;2.563938
4062.000000;2.626819
4061.000000;2.629897
4060.000000;2.547847
4059.000000;2.419815
4058.000000;2.330121
4057.000000;2.315256
4056.000000;2.379600
4055.000000;2.511611
4054.000000;2.661925
4053.000000;2.710941
4052.000000;2.621397
4051.000000;2.533064
4050.000000;2.515903
4049.000000;2.532168
4048.000000;2.522693
4047.000000;2.517783
4046.000000;2.579439
4045.000000;2.713356
4044.000000;2.695397
4043.000000;2.561365
4042.000000;2.559955
4041.000000;2.737576
4040.000000;3.092922
4039.000000;3.321320
4038.000000;2.967804
4037.000000;2.665403
4036.000000;2.503245
4035.000000;2.423773
4034.000000;2.387298
4033.000000;2.377656
4032.000000;2.384078
4031.000000;2.383683
4030.000000;2.362006
4029.000000;2.341573
4028.000000;2.354845
4027.000000;2.407164
4026.000000;2.477052
4025.000000;2.536907
4024.000000;2.562402
4023.000000;2.544102
4022.000000;2.498162
4021.000000;2.436670
4020.000000;2.372997
4019.000000;2.336927
4018.000000;2.336749
4017.000000;2.377099
4016.000000;2.482740
4015.000000;2.706223
4014.000000;3.153422
4013.000000;3.641230
4012.000000;3.756322
4011.000000;3.128294
4010.000000;2.829195
4009.000000;2.656151
4008.000000;2.530157
4007.000000;2.490772
4006.000000;2.553172
4005.000000;2.711673
4004.000000;2.762931
4003.000000;2.577776
4002.000000;2.456221
4001.000000;2.453727
4000.000000;2.549241
3999.000000;2.675811
3998.000000;2.766688
3997.000000;2.795604
3996.000000;2.650682
3995.000000;2.462743
3994.000000;2.359432
3993.000000;2.332942
3992.000000;2.334981
3991.000000;2.340116
3990.000000;2.383420
3989.000000;2.467503
3988.000000;2.508517
3987.000000;2.432940
3986.000000;2.324636
3985.000000;2.290781
3984.000000;2.366478
3983.000000;2.557756
3982.000000;2.750365
3981.000000;2.812029
3980.000000;2.932309
3979.000000;2.811512
3978.000000;2.582047
3977.000000;2.521555
3976.000000;2.599425
3975.000000;2.702549
3974.000000;2.689511
3973.000000;2.717654
3972.000000;2.902628
3971.000000;3.255150
3970.000000;3.605728
3969.000000;3.425547
3968.000000;3.060698
3967.000000;2.779362
3966.000000;2.628897
3965.000000;2.580823
3964.000000;2.587342
3963.000000;2.616739
3962.000000;2.668414
3961.000000;2.757396
3960.000000;2.905671
3959.000000;3.188297
3958.000000;3.240960
3957.000000;2.940902
3956.000000;2.827638
3955.000000;2.888493
3954.000000;3.089672
3953.000000;3.140665
3952.000000;2.951477
3951.000000;2.875100
3950.000000;3.002165
3949.000000;3.302219
3948.000000;3.217149
3947.000000;3.109292
3946.000000;3.099113
3945.000000;2.981055
3944.000000;2.834786
3943.000000;2.752489
3942.000000;2.700939
3941.000000;2.653012
3940.000000;2.630508
3939.000000;2.694096
3938.000000;2.980827
3937.000000;2.985739
3936.000000;2.718169
3935.000000;2.709376
3934.000000;2.941018
3933.000000;2.989493
3932.000000;2.805076
3931.000000;2.841092
3930.000000;3.071399
3929.000000;3.407920
3928.000000;3.860332
3927.000000;3.307362
3926.000000;2.836593
3925.000000;2.591030
3924.000000;2.493251
3923.000000;2.543010
3922.000000;2.794817
3921.000000;2.967762
3920.000000;2.756479
3919.000000;2.758661
3918.000000;2.866180
3917.000000;2.777059
3916.000000;2.633446
3915.000000;2.588649
3914.000000;2.605722
3913.000000;2.750703
3912.000000;3.382509
3911.000000;3.140214
3910.000000;2.813583
3909.000000;2.887919
3908.000000;2.941006
3907.000000;2.881504
3906.000000;2.867962
3905.000000;2.995826
3904.000000;3.102356
3903.000000;2.855896
3902.000000;2.603718
3901.000000;2.453214
3900.000000;2.375365
3899.000000;2.340406
3898.000000;2.360268
3897.000000;2.491153
3896.000000;2.784467
3895.000000;3.090474
3894.000000;3.010001
3893.000000;2.927100
3892.000000;2.907998
3891.000000;2.833498
3890.000000;2.682134
3889.000000;2.606982
3888.000000;2.670471
3887.000000;2.919813
3886.000000;3.334455
3885.000000;2.927563
3884.000000;2.633247
3883.000000;2.558738
3882.000000;2.543374
3881.000000;2.589521
3880.000000;2.698517
3879.000000;2.722858
3878.000000;2.624894
3877.000000;2.637194
3876.000000;2.699885
3875.000000;2.750558
3874.000000;2.796279
3873.000000;3.022971
3872.000000;3.650456
3871.000000;3.141275
3870.000000;2.982362
3869.000000;3.197902
3868.000000;3.183014
3867.000000;2.952807
3866.000000;2.975779
3865.000000;3.053402
3864.000000;3.102246
3863.000000;3.276497
3862.000000;3.692009
3861.000000;3.430740
3860.000000;3.161400
3859.000000;3.313021
3858.000000;3.552455
3857.000000;3.221295
3856.000000;3.048826
3855.000000;3.051065
3854.000000;2.973560
3853.000000;2.805632
3852.000000;2.742541
3851.000000;2.844897
3850.000000;3.001443
3849.000000;3.062535
3848.000000;3.044000
3847.000000;3.031945
3846.000000;3.092862
3845.000000;3.222759
3844.000000;3.494584
3843.000000;3.679825
3842.000000;3.849665
3841.000000;3.821983
3840.000000;3.206786
3839.000000;3.088011
3838.000000;3.509595
3837.000000;3.625288
3836.000000;3.193557
3835.000000;3.260745
3834.000000;3.339297
3833.000000;3.380418
3832.000000;3.434117
3831.000000;3.280124
3830.000000;3.055316
3829.000000;3.050670
3828.000000;3.230427
3827.000000;3.169533
3826.000000;3.021132
3825.000000;2.965387
3824.000000;2.931231
3823.000000;2.971228
3822.000000;3.106626
3821.000000;3.293970
3820.000000;3.752246
3819.000000;3.354345
3818.000000;3.293830
3817.000000;3.419184
3816.000000;2.849182
3815.000000;2.664794
3814.000000;2.812970
3813.000000;3.194423
3812.000000;3.247593
3811.000000;3.078580
3810.000000;3.007071
3809.000000;3.178829
3808.000000;3.414588
3807.000000;3.103706
3806.000000;2.979498
3805.000000;2.986033
3804.000000;2.903097
3803.000000;2.803378
3802.000000;2.698563
3801.000000;2.648509
3800.000000;2.750401
3799.000000;2.998306
3798.000000;3.224676
3797.000000;3.324043
3796.000000;3.188738
3795.000000;3.145413
3794.000000;3.453793
3793.000000;3.291693
3792.000000;2.997990
3791.000000;2.955649
3790.000000;2.956051
3789.000000;2.925529
3788.000000;2.896178
3787.000000;2.939931
3786.000000;3.101968
3785.000000;3.092223
3784.000000;2.865898
3783.000000;2.969443
3782.000000;3.253715
3781.000000;2.982752
3780.000000;2.831373
3779.000000;2.966701
3778.000000;3.289288
3777.000000;3.168129
3776.000000;3.050228
3775.000000;3.119614
3774.000000;3.352349
3773.000000;3.738031
3772.000000;3.291963
3771.000000;3.074240
3770.000000;2.986566
3769.000000;2.908631
3768.000000;2.881106
3767.000000;2.972659
3766.000000;3.267944
3765.000000;3.206981
3764.000000;2.962382
3763.000000;2.927583
3762.000000;3.120306
3761.000000;3.559730
3760.000000;3.425230
3759.000000;3.275763
3758.000000;3.340657
3757.000000;3.299000
3756.000000;3.087576
3755.000000;2.900597
3754.000000;2.858253
3753.000000;2.904528
3752.000000;3.030422
3751.000000;3.100784
3750.000000;3.247576
3749.000000;3.602107
3748.000000;3.326173
3747.000000;3.193932
3746.000000;3.270276
3745.000000;3.411030
3744.000000;3.316708
3743.000000;3.099890
3742.000000;3.072799
3741.000000;3.101409
3740.000000;3.023579
3739.000000;2.898005
3738.000000;2.822408
3737.000000;2.968449
3736.000000;2.916706
3735.000000;2.529937
3734.000000;2.399016
3733.000000;2.480160
3732.000000;2.691629
3731.000000;2.746389
3730.000000;2.643158
3729.000000;2.692753
3728.000000;2.802260
3727.000000;2.849916
3726.000000;2.720490
3725.000000;2.515496
3724.000000;2.435852
3723.000000;2.520380
3722.000000;2.687872
3721.000000;2.807549
3720.000000;2.884781
3719.000000;2.827075
3718.000000;2.721218
3717.000000;2.686237
3716.000000;2.679071
3715.000000;2.727107
3714.000000;2.896916
3713.000000;3.274245
3712.000000;3.624920
3711.000000;3.411592
3710.000000;3.186183
3709.000000;3.209976
3708.000000;3.361893
3707.000000;3.184528
3706.000000;2.980221
3705.000000;2.861685
3704.000000;2.815411
3703.000000;2.815379
3702.000000;2.819225
3701.000000;2.842254
3700.000000;2.857174
3699.000000;2.804092
3698.000000;2.743700
3697.000000;2.747529
3696.000000;2.796480
3695.000000;3.063908
3694.000000;3.373629
3693.000000;2.954636
3692.000000;2.769277
3691.000000;2.812246
3690.000000;3.178477
3689.000000;3.196573
3688.000000;2.813746
3687.000000;2.766477
3686.000000;2.868684
3685.000000;2.985660
3684.000000;3.004772
3683.000000;2.938625
3682.000000;2.907480
3681.000000;2.960124
3680.000000;3.151598
3679.000000;3.253198
3678.000000;2.957454
3677.000000;2.766884
3676.000000;2.674206
3675.000000;2.567418
3674.000000;2.544177
3673.000000;2.695752
3672.000000;2.918787
3671.000000;2.974182
3670.000000;2.907281
3669.000000;3.143736
3668.000000;3.437792
3667.000000;3.026632
3666.000000;2.879657
3665.000000;2.805870
3664.000000;2.860020
3663.000000;3.127614
3662.000000;3.452005
3661.000000;3.784686
3660.000000;3.381730
3659.000000;3.102762
3658.000000;3.134272
3657.000000;3.432913
3656.000000;3.563176
3655.000000;3.294796
3654.000000;3.565928
3653.000000;3.532115
3652.000000;3.177447
3651.000000;3.158561
3650.000000;3.037372
3649.000000;2.827574
3648.000000;2.660373
3647.000000;2.651292
3646.000000;2.803030
3645.000000;3.028765
3644.000000;3.403017
3643.000000;3.540546
3642.000000;3.060117
3641.000000;2.815820
3640.000000;2.762712
3639.000000;2.853653
3638.000000;3.209592
3637.000000;3.424288
3636.000000;3.069414
3635.000000;3.005027
3634.000000;3.178434
3633.000000;3.512832
3632.000000;3.761715
3631.000000;3.757455
3630.000000;3.341939
3629.000000;2.959892
3628.000000;2.699829
3627.000000;2.584624
3626.000000;2.674377
3625.000000;3.004946
3624.000000;3.407235
3623.000000;3.428215
3622.000000;3.320980
3621.000000;3.114776
3620.000000;3.024722
3619.000000;2.993979
3618.000000;3.070717
3617.000000;3.305902
3616.000000;3.041156
3615.000000;2.856637
3614.000000;2.940474
3613.000000;3.020492
3612.000000;3.002413
3611.000000;3.016755
3610.000000;3.025363
3609.000000;2.945582
3608.000000;2.802459
3607.000000;2.717350
3606.000000;2.752392
3605.000000;2.891476
3604.000000;3.062005
3603.000000;3.199637
3602.000000;3.237827
3601.000000;3.096985
3600.000000;2.951903
3599.000000;2.852771
3598.000000;2.761740
3597.000000;2.686436
3596.000000;2.645930
3595.000000;2.650028
3594.000000;2.693813
3593.000000;2.758236
3592.000000;2.822574
3591.000000;2.879218
3590.000000;2.902019
3589.000000;2.863040
3588.000000;2.794618
3587.000000;2.764429
3586.000000;2.799391
3585.000000;2.798463
3584.000000;2.713195
3583.000000;2.621110
3582.000000;2.574290
3581.000000;2.601274
3580.000000;2.687726
3579.000000;2.802519
3578.000000;2.932273
3577.000000;3.137660
3576.000000;3.531710
3575.000000;3.570115
3574.000000;3.268491
3573.000000;3.253156
3572.000000;3.601786
3571.000000;3.378681
3570.000000;2.942585
3569.000000;2.816278
3568.000000;2.797931
3567.000000;2.891817
3566.000000;3.248040
3565.000000;3.310704
3564.000000;2.975247
3563.000000;2.909757
3562.000000;2.956592
3561.000000;2.976507
3560.000000;2.966265
3559.000000;2.970216
3558.000000;2.958136
3557.000000;2.963730
3556.000000;3.200695
3555.000000;3.180037
3554.000000;2.828692
3553.000000;2.721333
3552.000000;2.773818
3551.000000;2.938090
3550.000000;3.218449
3549.000000;3.638302
3548.000000;3.894787
3547.000000;3.720213
3546.000000;3.659398
3545.000000;3.370228
3544.000000;3.227506
3543.000000;3.267311
3542.000000;3.321065
3541.000000;3.388423
3540.000000;3.486677
3539.000000;3.521208
3538.000000;3.438364
3537.000000;3.534115
3536.000000;3.609331
3535.000000;3.139953
3534.000000;2.865160
3533.000000;2.816378
3532.000000;2.906315
3531.000000;3.142164
3530.000000;3.700719
3529.000000;3.398753
3528.000000;3.065463
3527.000000;3.004360
3526.000000;3.115817
3525.000000;3.486842
3524.000000;3.405694
3523.000000;3.015187
3522.000000;2.823644
3521.000000;2.769347
3520.000000;2.814209
3519.000000;2.846739
3518.000000;2.834612
3517.000000;2.870570
3516.000000;2.950609
3515.000000;2.982467
3514.000000;2.943941
3513.000000;2.937607
3512.000000;3.050276
3511.000000;3.335595
3510.000000;3.421675
3509.000000;3.100063
3508.000000;2.901316
3507.000000;2.856026
3506.000000;2.944606
3505.000000;3.084626
3504.000000;3.164242
3503.000000;3.188958
3502.000000;3.110112
3501.000000;3.064998
3500.000000;3.111646
3499.000000;3.108027
3498.000000;3.055744
3497.000000;3.045671
3496.000000;3.093336
3495.000000;3.094370
3494.000000;2.930449
3493.000000;2.796221
3492.000000;2.782624
3491.000000;2.892590
3490.000000;3.107190
3489.000000;3.195402
3488.000000;3.130673
3487.000000;2.975416
3486.000000;2.828570
3485.000000;2.805728
3484.000000;2.916721
3483.000000;3.510828
3482.000000;3.502223
3481.000000;3.057636
3480.000000;3.123270
3479.000000;3.148882
3478.000000;3.246977
3477.000000;3.703310
3476.000000;3.624811
3475.000000;3.455308
3474.000000;3.154719
3473.000000;2.991310
3472.000000;3.085227
3471.000000;3.094882
3470.000000;2.973900
3469.000000;2.997933
3468.000000;2.897582
3467.000000;2.705179
3466.000000;2.647812
3465.000000;2.690663
3464.000000;2.716449
3463.000000;2.667930
3462.000000;2.646960
3461.000000;2.723148
3460.000000;3.079354
3459.000000;3.605765
3458.000000;3.400109
3457.000000;3.657516
3456.000000;3.231082
3455.000000;2.965675
3454.000000;2.921185
3453.000000;2.863926
3452.000000;2.794381
3451.000000;2.749678
3450.000000;2.783431
3449.000000;2.922629
3448.000000;3.214868
3447.000000;3.519163
3446.000000;3.375453
3445.000000;3.177718
3444.000000;3.087053
3443.000000;3.123390
3442.000000;3.161527
3441.000000;3.128819
3440.000000;3.331939
3439.000000;3.943767
3438.000000;3.479414
3437.000000;3.169962
3436.000000;2.977003
3435.000000;2.855920
3434.000000;2.802946
3433.000000;2.833329
3432.000000;2.960393
3431.000000;3.120406
3430.000000;3.253707
3429.000000;3.317422
3428.000000;3.280333
3427.000000;3.223494
3426.000000;3.154438
3425.000000;3.159312
3424.000000;3.277523
3423.000000;3.366864
3422.000000;3.390771
3421.000000;3.396895
3420.000000;3.290309
3419.000000;3.211538
3418.000000;3.349169
3417.000000;3.479728
3416.000000;3.187360
3415.000000;3.161240
3414.000000;3.429107
3413.000000;3.387627
3412.000000;3.214562
3411.000000;3.377559
3410.000000;3.481944
3409.000000;3.311798
3408.000000;3.452799
3407.000000;3.590168
3406.000000;3.349673
3405.000000;3.217913
3404.000000;3.205738
3403.000000;3.273823
3402.000000;3.205961
3401.000000;3.054153
3400.000000;2.990243
3399.000000;2.955307
3398.000000;2.913394
3397.000000;2.885518
3396.000000;2.855278
3395.000000;2.800897
3394.000000;2.756871
3393.000000;2.783695
3392.000000;2.927238
3391.000000;3.237827
3390.000000;3.626185
3389.000000;3.322701
3388.000000;2.961535
3387.000000;2.754690
3386.000000;2.688931
3385.000000;2.794435
3384.000000;3.045171
3383.000000;2.923639
3382.000000;2.739376
3381.000000;2.778834
3380.000000;3.092981
3379.000000;3.265474
3378.000000;2.976240
3377.000000;3.034334
3376.000000;3.324334
3375.000000;3.245163
3374.000000;3.044627
3373.000000;3.057321
3372.000000;3.255298
3371.000000;3.682458
3370.000000;3.168939
3369.000000;2.920099
3368.000000;2.854593
3367.000000;2.863208
3366.000000;2.966113
3365.000000;3.005463
3364.000000;2.908796
3363.000000;2.825980
3362.000000;2.850104
3361.000000;3.162901
3360.000000;3.310398
3359.000000;2.764485
3358.000000;2.652943
3357.000000;2.711234
3356.000000;3.026960
3355.000000;3.516540
3354.000000;3.174370
3353.000000;3.217111
3352.000000;3.501213
3351.000000;3.640092
3350.000000;3.241895
3349.000000;2.970577
3348.000000;2.861438
3347.000000;2.837334
3346.000000;2.832996
3345.000000;2.840644
3344.000000;2.850797
3343.000000;2.773319
3342.000000;2.654176
3341.000000;2.612461
3340.000000;2.680837
3339.000000;2.798012
3338.000000;2.820329
3337.000000;2.819557
3336.000000;2.929117
3335.000000;3.155996
3334.000000;2.988750
3333.000000;2.745712
3332.000000;2.638212
3331.000000;2.621577
3330.000000;2.671353
3329.000000;2.744039
3328.000000;2.796352
3327.000000;2.861645
3326.000000;2.996793
3325.000000;3.366014
3324.000000;3.674227
3323.000000;3.314325
3322.000000;3.141088
3321.000000;2.983629
3320.000000;2.872251
3319.000000;2.790902
3318.000000;2.775031
3317.000000;2.891234
3316.000000;3.119993
3315.000000;2.962694
3314.000000;2.797885
3313.000000;2.796748
3312.000000;2.926628
3311.000000;3.260388
3310.000000;3.431409
3309.000000;3.049667
3308.000000;2.833445
3307.000000;2.729579
3306.000000;2.739016
3305.000000;2.870922
3304.000000;3.270689
3303.000000;3.592269
3302.000000;3.029620
3301.000000;3.310472
3300.000000;3.619093
3299.000000;2.932344
3298.000000;2.837461
3297.000000;2.897615
3296.000000;3.113696
3295.000000;3.418459
3294.000000;3.610939
3293.000000;3.557814
3292.000000;3.525478
3291.000000;3.557268
3290.000000;3.525226
3289.000000;3.181871
3288.000000;2.901701
3287.000000;2.786127
3286.000000;2.832880
3285.000000;3.113430
3284.000000;3.471867
3283.000000;3.100745
3282.000000;3.080065
3281.000000;3.339420
3280.000000;3.306799
3279.000000;3.113322
3278.000000;3.192409
3277.000000;3.552686
3276.000000;3.688826
3275.000000;3.605031
3274.000000;3.385446
3273.000000;2.960399
3272.000000;2.823591
3271.000000;2.813180
3270.000000;3.153861
3269.000000;3.442254
3268.000000;2.889356
3267.000000;2.739305
3266.000000;2.738008
3265.000000;2.836248
3264.000000;2.986297
3263.000000;3.120846
3262.000000;3.145816
3261.000000;3.129668
3260.000000;3.159477
3259.000000;3.159008
3258.000000;3.163114
3257.000000;3.205287
3256.000000;3.064518
3255.000000;3.010784
3254.000000;3.208539
3253.000000;3.951112
3252.000000;3.576142
3251.000000;3.412877
3250.000000;3.328513
3249.000000;3.397383
3248.000000;3.330707
3247.000000;3.170621
3246.000000;3.355892
3245.000000;3.730260
3244.000000;3.218228
3243.000000;2.982606
3242.000000;2.924294
3241.000000;2.970190
3240.000000;3.044528
3239.000000;3.071882
3238.000000;3.109772
3237.000000;3.172487
3236.000000;3.203190
3235.000000;3.626917
3234.000000;3.335300
3233.000000;2.941237
3232.000000;2.799661
3231.000000;2.787712
3230.000000;2.873398
3229.000000;3.036315
3228.000000;3.347119
3227.000000;3.799005
3226.000000;3.066360
3225.000000;2.890940
3224.000000;2.906244
3223.000000;3.260971
3222.000000;3.576511
3221.000000;2.904985
3220.000000;2.798935
3219.000000;2.831836
3218.000000;3.072857
3217.000000;3.480097
3216.000000;3.569713
3215.000000;3.217254
3214.000000;2.962068
3213.000000;2.887902
3212.000000;2.954682
3211.000000;3.080554
3210.000000;3.223515
3209.000000;3.341264
3208.000000;3.258019
3207.000000;3.238753
3206.000000;3.021468
3205.000000;2.818057
3204.000000;2.786735
3203.000000;2.911705
3202.000000;3.215599
3201.000000;3.480846
3200.000000;3.254063
3199.000000;3.140458
3198.000000;3.041455
3197.000000;2.992220
3196.000000;2.978710
3195.000000;2.918038
3194.000000;2.815222
3193.000000;2.761785
3192.000000;2.781131
3191.000000;2.825012
3190.000000;2.857707
3189.000000;2.936040
3188.000000;3.110031
3187.000000;3.311130
3186.000000;3.277392
3185.000000;3.093308
3184.000000;2.963857
3183.000000;2.908594
3182.000000;2.950735
3181.000000;3.229913
3180.000000;3.504105
3179.000000;3.065974
3178.000000;2.924428
3177.000000;2.987607
3176.000000;3.201373
3175.000000;3.437232
3174.000000;3.406083
3173.000000;3.334015
3172.000000;3.518652
3171.000000;4.516660
3170.000000;3.546224
3169.000000;3.599480
3168.000000;3.691708
3167.000000;3.638439
3166.000000;3.632239
3165.000000;3.766233
3164.000000;3.242823
3163.000000;2.891237
3162.000000;2.783786
3161.000000;2.844746
3160.000000;3.093161
3159.000000;3.606004
3158.000000;4.224126
3157.000000;3.636450
3156.000000;3.191013
3155.000000;2.909930
3154.000000;2.771395
3153.000000;2.780809
3152.000000;2.937298
3151.000000;3.140084
3150.000000;3.285788
3149.000000;3.706856
3148.000000;3.360476
3147.000000;3.156842
3146.000000;3.135864
3145.000000;3.188948
3144.000000;3.164154
3143.000000;3.072511
3142.000000;3.012703
3141.000000;2.980798
3140.000000;2.998209
3139.000000;3.092230
3138.000000;3.361857
3137.000000;3.806754
3136.000000;3.363809
3135.000000;3.056311
3134.000000;2.895537
3133.000000;2.774845
3132.000000;2.703750
3131.000000;2.713394
3130.000000;2.839505
3129.000000;3.137658
3128.000000;3.576142
3127.000000;3.453736
3126.000000;3.444660
3125.000000;3.628619
3124.000000;3.338097
3123.000000;3.184254
3122.000000;3.178217
3121.000000;3.257112
3120.000000;3.939041
3119.000000;2.925120
3118.000000;2.670292
3117.000000;2.615528
3116.000000;2.694014
3115.000000;2.851838
3114.000000;3.097648
3113.000000;3.452174
3112.000000;3.420735
3111.000000;3.318024
3110.000000;3.645726
3109.000000;3.975400
3108.000000;3.702149
3107.000000;3.416750
3106.000000;3.261963
3105.000000;3.458259
3104.000000;3.502520
3103.000000;3.119624
3102.000000;2.868978
3101.000000;2.747280
3100.000000;2.717427
3099.000000;2.724528
3098.000000;2.729957
3097.000000;2.753120
3096.000000;2.789677
3095.000000;2.784759
3094.000000;2.783290
3093.000000;2.903778
3092.000000;3.284844
3091.000000;3.135399
3090.000000;2.853431
3089.000000;2.800260
3088.000000;2.818557
3087.000000;2.791192
3086.000000;2.718092
3085.000000;2.698287
3084.000000;2.783835
3083.000000;3.027286
3082.000000;3.315883
3081.000000;3.214797
3080.000000;3.061272
3079.000000;2.995710
3078.000000;3.022274
3077.000000;3.174749
3076.000000;3.233060
3075.000000;3.100897
3074.000000;3.079729
3073.000000;3.220814
3072.000000;3.866478
3071.000000;3.553685
3070.000000;3.088170
3069.000000;2.891879
3068.000000;2.854330
3067.000000;2.987395
3066.000000;3.336300
3065.000000;3.217807
3064.000000;3.048736
3063.000000;3.081357
3062.000000;2.981112
3061.000000;2.823355
3060.000000;2.839215
3059.000000;3.086296
3058.000000;3.633797
3057.000000;3.555793
3056.000000;3.348651
3055.000000;3.273321
3054.000000;3.216394
3053.000000;3.234708
3052.000000;3.207585
3051.000000;3.109762
3050.000000;3.088277
3049.000000;3.186880
3048.000000;3.410149
3047.000000;3.476417
3046.000000;3.273354
3045.000000;3.183933
3044.000000;3.214884
3043.000000;3.401883
3042.000000;3.917343
3041.000000;3.565595
3040.000000;3.400544
3039.000000;3.165271
3038.000000;3.014056
3037.000000;3.010992
3036.000000;3.185746
3035.000000;3.448418
3034.000000;3.217433
3033.000000;3.123254
3032.000000;3.285204
3031.000000;3.810876
3030.000000;3.607596
3029.000000;3.229618
3028.000000;3.212138
3027.000000;3.697704
3026.000000;3.631665
3025.000000;3.145619
3024.000000;3.038444
3023.000000;2.952163
3022.000000;2.931120
3021.000000;2.980634
3020.000000;3.233629
3019.000000;3.439459
3018.000000;2.945651
3017.000000;2.740458
3016.000000;2.728430
3015.000000;2.820464
3014.000000;2.922271
3013.000000;2.924066
3012.000000;2.895534
3011.000000;2.949954
3010.000000;3.109206
3009.000000;3.258273
3008.000000;3.242915
3007.000000;3.240171
3006.000000;3.283203
3005.000000;3.538975
3004.000000;3.842768
3003.000000;3.268286
3002.000000;3.523890
3001.000000;3.480880
3000.000000;2.967990
2999.000000;2.859972
2998.000000;2.819305
2997.000000;2.800252
2996.000000;2.810619
2995.000000;2.865213
2994.000000;2.933827
2993.000000;2.970154
2992.000000;2.985062
2991.000000;3.049760
2990.000000;3.289408
2989.000000;3.673607
2988.000000;3.373577
2987.000000;3.101788
2986.000000;2.889083
2985.000000;2.753198
2984.000000;2.732129
2983.000000;2.836574
2982.000000;3.102446
2981.000000;3.557178
2980.000000;3.401903
2979.000000;3.060927
2978.000000;2.889830
2977.000000;2.839094
2976.000000;2.986164
2975.000000;3.203032
2974.000000;3.058940
2973.000000;3.008491
2972.000000;3.213284
2971.000000;3.808668
2970.000000;3.693437
2969.000000;3.387003
2968.000000;3.593643
2967.000000;3.699638
2966.000000;3.283494
2965.000000;3.144617
2964.000000;3.329768
2963.000000;3.821823
2962.000000;3.302804
2961.000000;3.137268
2960.000000;3.188251
2959.000000;3.314019
2958.000000;3.444293
2957.000000;3.412112
2956.000000;3.308440
2955.000000;3.305501
2954.000000;3.445892
2953.000000;3.678145
2952.000000;3.593616
2951.000000;3.248411
2950.000000;3.033934
2949.000000;2.916836
2948.000000;2.859053
2947.000000;2.855014
2946.000000;2.907453
2945.000000;3.011833
2944.000000;3.144724
2943.000000;3.259586
2942.000000;3.324529
2941.000000;3.337789
2940.000000;3.347751
2939.000000;3.216657
2938.000000;2.991233
2937.000000;2.880542
2936.000000;2.936144
2935.000000;3.092604
2934.000000;3.110032
2933.000000;3.122282
2932.000000;3.408044
2931.000000;3.867030
2930.000000;3.358831
2929.000000;3.167059
2928.000000;3.047041
2927.000000;2.963029
2926.000000;2.926637
2925.000000;2.933969
2924.000000;2.954958
2923.000000;2.914016
2922.000000;2.845827
2921.000000;2.802735
2920.000000;2.811621
2919.000000;2.895562
2918.000000;3.015359
2917.000000;3.090458
2916.000000;3.106999
2915.000000;3.092668
2914.000000;3.110420
2913.000000;3.151303
2912.000000;3.088860
2911.000000;2.936037
2910.000000;2.798368
2909.000000;2.727763
2908.000000;2.722590
2907.000000;2.746692
2906.000000;2.788453
2905.000000;2.850474
2904.000000;2.901739
2903.000000;2.947513
2902.000000;3.067870
2901.000000;3.476884
2900.000000;3.672650
2899.000000;3.166741
2898.000000;3.045659
2897.000000;3.034690
2896.000000;3.034360
2895.000000;2.987287
2894.000000;2.980254
2893.000000;3.142992
2892.000000;3.379877
2891.000000;3.398446
2890.000000;3.738484
2889.000000;3.784973
2888.000000;3.186302
2887.000000;2.906248
2886.000000;2.755118
2885.000000;2.688856
2884.000000;2.686820
2883.000000;2.704910
2882.000000;2.724025
2881.000000;2.754367
2880.000000;2.912114
2879.000000;3.449891
2878.000000;3.133024
2877.000000;2.784901
2876.000000;2.706432
2875.000000;2.764789
2874.000000;2.889610
2873.000000;2.886277
2872.000000;2.811263
2871.000000;2.792859
2870.000000;2.834117
2869.000000;2.913660
2868.000000;2.975524
2867.000000;2.933946
2866.000000;2.843395
2865.000000;2.817764
2864.000000;2.910501
2863.000000;2.984400
2862.000000;2.880019
2861.000000;2.834327
2860.000000;2.935680
2859.000000;3.179666
2858.000000;3.514612
2857.000000;3.513329
2856.000000;3.339113
2855.000000;3.397515
2854.000000;3.523945
2853.000000;3.143133
2852.000000;2.913331
2851.000000;2.835039
2850.000000;2.819999
2849.000000;2.813445
2848.000000;2.899931
2847.000000;3.145990
2846.000000;3.046809
2845.000000;2.889226
2844.000000;2.974619
2843.000000;3.045753
2842.000000;2.934511
2841.000000;2.909762
2840.000000;3.043019
2839.000000;3.289047
2838.000000;3.413485
2837.000000;3.319587
2836.000000;3.307560
2835.000000;3.300210
2834.000000;3.207311
2833.000000;3.130882
2832.000000;3.084750
2831.000000;3.059175
2830.000000;3.122455
2829.000000;3.308092
2828.000000;3.240594
2827.000000;3.051302
2826.000000;2.927958
2825.000000;2.783521
2824.000000;2.634207
2823.000000;2.562606
2822.000000;2.604906
2821.000000;2.848193
2820.000000;3.316489
2819.000000;3.147287
2818.000000;3.046437
2817.000000;3.053068
2816.000000;2.935135
2815.000000;2.872758
2814.000000;3.024723
2813.000000;3.492477
2812.000000;3.178940
2811.000000;2.905493
2810.000000;2.898933
2809.000000;2.965835
2808.000000;3.078907
2807.000000;3.243949
2806.000000;3.495426
2805.000000;3.364233
2804.000000;3.156314
2803.000000;3.014925
2802.000000;2.870709
2801.000000;2.845244
2800.000000;2.933504
2799.000000;2.921056
2798.000000;2.818721
2797.000000;2.829181
2796.000000;2.990851
2795.000000;3.265102
2794.000000;3.296204
2793.000000;3.106633
2792.000000;2.997426
2791.000000;2.969888
2790.000000;2.982795
2789.000000;2.959755
2788.000000;2.890291
2787.000000;2.823941
2786.000000;2.807821
2785.000000;2.864707
2784.000000;2.984881
2783.000000;3.095828
2782.000000;3.158059
2781.000000;3.281292
2780.000000;3.447968
2779.000000;3.359181
2778.000000;3.117066
2777.000000;2.980791
2776.000000;2.971079
2775.000000;3.063853
2774.000000;3.122138
2773.000000;2.974694
2772.000000;2.818515
2771.000000;2.775265
2770.000000;2.822698
2769.000000;2.832255
2768.000000;2.797449
2767.000000;2.838050
2766.000000;2.889002
2765.000000;2.869431
2764.000000;2.845003
2763.000000;2.897921
2762.000000;3.038156
2761.000000;3.091385
2760.000000;3.000850
2759.000000;3.020256
2758.000000;3.466000
2757.000000;3.702299
2756.000000;3.174503
2755.000000;3.023838
2754.000000;2.879872
2753.000000;2.782666
2752.000000;2.775713
2751.000000;2.876142
2750.000000;3.121992
2749.000000;3.233605
2748.000000;3.062709
2747.000000;2.972738
2746.000000;3.002514
2745.000000;3.185231
2744.000000;3.377327
2743.000000;3.201034
2742.000000;3.089578
2741.000000;3.085507
2740.000000;3.119031
2739.000000;3.181543
2738.000000;3.259953
2737.000000;3.317359
2736.000000;3.241764
2735.000000;3.105101
2734.000000;3.007054
2733.000000;2.981053
2732.000000;3.051463
2731.000000;3.171783
2730.000000;3.220557
2729.000000;3.304715
2728.000000;3.382589
2727.000000;3.300710
2726.000000;3.320898
2725.000000;3.320266
2724.000000;3.139702
2723.000000;2.978432
2722.000000;2.863410
2721.000000;2.781085
2720.000000;2.749155
2719.000000;2.775095
2718.000000;2.886084
2717.000000;3.074313
2716.000000;3.069282
2715.000000;2.921458
2714.000000;2.846038
2713.000000;2.804810
2712.000000;2.784930
2711.000000;2.799680
2710.000000;2.858271
2709.000000;2.946463
2708.000000;3.012485
2707.000000;3.230778
2706.000000;3.410025
2705.000000;3.013588
2704.000000;2.816061
2703.000000;2.801200
2702.000000;2.835307
2701.000000;2.808768
2700.000000;2.761580
2699.000000;2.778909
2698.000000;2.860931
2697.000000;2.989260
2696.000000;3.097602
2695.000000;3.121119
2694.000000;3.077355
2693.000000;3.018060
2692.000000;2.976152
2691.000000;2.992270
2690.000000;3.074908
2689.000000;3.128141
2688.000000;3.142108
2687.000000;3.260735
2686.000000;3.430383
2685.000000;3.430988
2684.000000;3.365850
2683.000000;3.398352
2682.000000;3.563338
2681.000000;3.482584
2680.000000;3.195413
2679.000000;3.129805
2678.000000;3.313236
2677.000000;3.160286
2676.000000;2.849399
2675.000000;2.743478
2674.000000;2.752063
2673.000000;2.783296
2672.000000;2.781397
2671.000000;2.803276
2670.000000;2.924782
2669.000000;3.152967
2668.000000;3.556264
2667.000000;3.595415
2666.000000;3.053515
2665.000000;2.822160
2664.000000;2.777476
2663.000000;2.845075
2662.000000;2.930273
2661.000000;3.164342
2660.000000;3.473818
2659.000000;3.050795
2658.000000;2.876263
2657.000000;2.830886
2656.000000;2.829674
2655.000000;2.887187
2654.000000;2.932123
2653.000000;2.899344
2652.000000;2.846622
2651.000000;2.932108
2650.000000;3.243287
2649.000000;3.922603
2648.000000;3.450491
2647.000000;3.001705
2646.000000;2.842793
2645.000000;2.861415
2644.000000;3.018830
2643.000000;3.044124
2642.000000;2.972045
2641.000000;3.077531
2640.000000;3.280165
2639.000000;3.538731
2638.000000;3.518865
2637.000000;3.108373
2636.000000;2.929873
2635.000000;2.876520
2634.000000;2.890219
2633.000000;3.009859
2632.000000;3.170802
2631.000000;3.157589
2630.000000;3.063737
2629.000000;3.020585
2628.000000;2.989721
2627.000000;2.975216
2626.000000;3.030177
2625.000000;3.165978
2624.000000;3.125154
2623.000000;2.966151
2622.000000;2.993972
2621.000000;3.123847
2620.000000;2.997989
2619.000000;2.871981
2618.000000;2.950812
2617.000000;3.130098
2616.000000;3.169265
2615.000000;3.068350
2614.000000;2.922755
2613.000000;2.850907
2612.000000;2.918890
2611.000000;3.114650
2610.000000;3.266366
2609.000000;3.171882
2608.000000;3.041858
2607.000000;2.974564
2606.000000;2.980125
2605.000000;3.118377
2604.000000;3.494751
2603.000000;3.408969
2602.000000;3.049746
2601.000000;2.900317
2600.000000;2.818605
2599.000000;2.803252
2598.000000;2.855319
2597.000000;2.953155
2596.000000;3.064431
2595.000000;3.115054
2594.000000;3.148683
2593.000000;3.144104
2592.000000;3.037317
2591.000000;2.965506
2590.000000;3.039481
2589.000000;3.246607
2588.000000;3.244593
2587.000000;3.059131
2586.000000;2.971304
2585.000000;2.977522
2584.000000;3.134932
2583.000000;3.353115
2582.000000;3.310017
2581.000000;3.247375
2580.000000;3.199941
2579.000000;3.166207
2578.000000;3.226452
2577.000000;3.321473
2576.000000;3.187999
2575.000000;2.970342
2574.000000;2.904047
2573.000000;3.001077
2572.000000;3.052634
2571.000000;2.929238
2570.000000;2.865641
2569.000000;2.863205
2568.000000;2.877274
2567.000000;2.876763
2566.000000;2.851362
2565.000000;2.863501
2564.000000;2.966133
2563.000000;3.137996
2562.000000;3.247322
2561.000000;3.490087
2560.000000;3.513605
2559.000000;3.046638
2558.000000;2.831006
2557.000000;2.796492
2556.000000;2.923291
2555.000000;3.254087
2554.000000;3.543964
2553.000000;3.186652
2552.000000;2.870027
2551.000000;2.728290
2550.000000;2.714632
2549.000000;2.798752
2548.000000;2.965331
2547.000000;3.191606
2546.000000;3.233038
2545.000000;3.070546
2544.000000;2.965344
2543.000000;2.927651
2542.000000;2.899553
2541.000000;2.858324
2540.000000;2.840815
2539.000000;2.917700
2538.000000;3.090025
2537.000000;3.056117
2536.000000;2.881076
2535.000000;2.781993
2534.000000;2.750949
2533.000000;2.774904
2532.000000;2.772480
2531.000000;2.722555
2530.000000;2.724856
2529.000000;2.838077
2528.000000;3.104733
2527.000000;3.300299
2526.000000;3.117948
2525.000000;3.034597
2524.000000;3.077861
2523.000000;3.284952
2522.000000;3.480509
2521.000000;3.261458
2520.000000;3.083287
2519.000000;3.091115
2518.000000;3.405955
2517.000000;3.439323
2516.000000;3.105870
2515.000000;3.131959
2514.000000;3.615098
2513.000000;3.541407
2512.000000;3.140800
2511.000000;3.100409
2510.000000;3.131303
2509.000000;3.087021
2508.000000;2.958647
2507.000000;2.877073
2506.000000;2.848023
2505.000000;2.861673
2504.000000;2.946996
2503.000000;3.150576
2502.000000;3.397461
2501.000000;3.164205
2500.000000;2.979135
2499.000000;2.970180
2498.000000;3.063404
2497.000000;3.148317
2496.000000;3.146313
2495.000000;3.161697
2494.000000;3.209135
2493.000000;3.117482
2492.000000;2.939524
2491.000000;2.810329
2490.000000;2.901231
2489.000000;3.322725
2488.000000;3.042106
2487.000000;2.772185
2486.000000;2.863093
2485.000000;3.321493
2484.000000;3.550623
2483.000000;3.172823
2482.000000;3.272961
2481.000000;3.522552
2480.000000;3.643728
2479.000000;3.578499
2478.000000;3.054613
2477.000000;2.862575
2476.000000;2.936972
2475.000000;3.168169
2474.000000;3.181388
2473.000000;3.209333
2472.000000;3.437841
2471.000000;3.238672
2470.000000;3.074444
2469.000000;3.197143
2468.000000;3.361007
2467.000000;3.145965
2466.000000;3.015131
2465.000000;3.015779
2464.000000;3.063791
2463.000000;3.172225
2462.000000;3.430171
2461.000000;3.324100
2460.000000;3.018752
2459.000000;2.950173
2458.000000;3.029679
2457.000000;3.266452
2456.000000;3.693991
2455.000000;3.515513
2454.000000;3.282494
2453.000000;3.401533
2452.000000;3.688173
2451.000000;3.481621
2450.000000;3.584526
2449.000000;3.926371
2448.000000;3.541506
2447.000000;3.319368
2446.000000;3.107456
2445.000000;2.978352
2444.000000;2.937134
2443.000000;2.956790
2442.000000;3.006268
2441.000000;2.970460
2440.000000;2.866398
2439.000000;2.799810
2438.000000;2.800189
2437.000000;2.875984
2436.000000;2.963516
2435.000000;2.936240
2434.000000;2.867867
2433.000000;2.859622
2432.000000;3.095556
2431.000000;3.423060
2430.000000;3.018725
2429.000000;2.868285
2428.000000;2.934005
2427.000000;3.027443
2426.000000;3.041270
2425.000000;2.984974
2424.000000;3.004814
2423.000000;3.278003
2422.000000;3.334317
2421.000000;2.983942
2420.000000;2.940443
2419.000000;3.105668
2418.000000;3.511965
2417.000000;3.561635
2416.000000;3.081618
2415.000000;2.892555
2414.000000;2.815720
2413.000000;2.808794
2412.000000;2.864123
2411.000000;2.980296
2410.000000;3.186066
2409.000000;3.632816
2408.000000;3.584332
2407.000000;3.239127
2406.000000;3.163593
2405.000000;3.117387
2404.000000;3.079605
2403.000000;3.049690
2402.000000;3.008102
2401.000000;2.927217
2400.000000;2.840780
2399.000000;2.811842
2398.000000;2.856093
2397.000000;2.953121
2396.000000;3.073858
2395.000000;3.195881
2394.000000;3.321758
2393.000000;3.257843
2392.000000;3.024724
2391.000000;2.935383
2390.000000;3.056824
2389.000000;3.463581
2388.000000;3.493572
2387.000000;3.179884
2386.000000;3.248654
2385.000000;3.401642
2384.000000;3.154283
2383.000000;2.991895
2382.000000;3.022103
2381.000000;3.291123
2380.000000;3.642509
2379.000000;3.270676
2378.000000;3.015618
2377.000000;2.917272
2376.000000;2.904286
2375.000000;2.958764
2374.000000;3.043050
2373.000000;3.217740
2372.000000;3.747856
2371.000000;3.369628
2370.000000;2.975371
2369.000000;2.831401
2368.000000;2.803888
2367.000000;2.848173
2366.000000;2.906731
2365.000000;2.914110
2364.000000;2.857988
2363.000000;2.806804
2362.000000;2.803905
2361.000000;2.850719
2360.000000;2.948457
2359.000000;3.062248
2358.000000;3.404604
2357.000000;3.715395
2356.000000;3.072476
2355.000000;2.871268
2354.000000;2.837035
2353.000000;3.054816
2352.000000;3.258194
2351.000000;2.798979
2350.000000;2.593611
2349.000000;2.593126
2348.000000;2.744364
2347.000000;3.355992
2346.000000;2.950903
2345.000000;2.635305
2344.000000;2.627939
2343.000000;2.887626
2342.000000;3.305948
2341.000000;2.975448
2340.000000;2.946222
2339.000000;3.008679
2338.000000;2.927838
2337.000000;2.875857
2336.000000;2.891428
2335.000000;2.945954
2334.000000;2.981215
2333.000000;3.039728
2332.000000;3.212536
2331.000000;3.226522
2330.000000;3.002836
2329.000000;2.916170
2328.000000;2.944786
2327.000000;3.087974
2326.000000;3.479809
2325.000000;3.997679
2324.000000;4.043018
2323.000000;3.775715
2322.000000;3.231429
2321.000000;3.008181
2320.000000;2.991186
2319.000000;3.071634
2318.000000;3.110612
2317.000000;3.155005
2316.000000;3.278015
2315.000000;3.317138
2314.000000;3.218878
2313.000000;3.067032
2312.000000;2.898148
2311.000000;2.825871
2310.000000;2.918943
2309.000000;3.162579
2308.000000;3.199329
2307.000000;3.048010
2306.000000;2.878913
2305.000000;2.723032
2304.000000;2.668157
2303.000000;2.756255
2302.000000;2.964655
2301.000000;3.032402
2300.000000;2.934006
2299.000000;2.853418
2298.000000;2.748111
2297.000000;2.650684
2296.000000;2.644341
2295.000000;2.783998
2294.000000;3.073861
2293.000000;3.541330
2292.000000;3.641560
2291.000000;3.505098
2290.000000;3.701774
2289.000000;4.024422
2288.000000;3.824266
2287.000000;3.490778
2286.000000;3.195796
2285.000000;2.980816
2284.000000;2.811288
2283.000000;2.718965
2282.000000;2.735930
2281.000000;2.816703
2280.000000;2.874842
2279.000000;2.940071
2278.000000;3.036964
2277.000000;3.056368
2276.000000;2.969288
2275.000000;2.870573
2274.000000;2.844508
2273.000000;2.907512
2272.000000;2.985463
2271.000000;3.050945
2270.000000;3.155263
2269.000000;3.739020
2268.000000;3.378344
2267.000000;2.959368
2266.000000;2.809143
2265.000000;2.738298
2264.000000;2.752479
2263.000000;2.808792
2262.000000;2.783302
2261.000000;2.710799
2260.000000;2.705284
2259.000000;2.829060
2258.000000;3.227043
2257.000000;3.271627
2256.000000;2.994933
2255.000000;3.097795
2254.000000;3.417711
2253.000000;3.585955
2252.000000;3.403416
2251.000000;3.147208
2250.000000;2.937358
2249.000000;2.869763
2248.000000;2.915928
2247.000000;3.036085
2246.000000;3.172638
2245.000000;3.305002
2244.000000;3.303537
2243.000000;3.052097
2242.000000;2.894128
2241.000000;2.930025
2240.000000;3.292235
2239.000000;3.698677
2238.000000;3.484985
2237.000000;3.781863
2236.000000;3.919849
2235.000000;3.506373
2234.000000;3.258834
2233.000000;3.082249
2232.000000;3.011817
2231.000000;3.062586
2230.000000;3.147334
2229.000000;3.128785
2228.000000;3.084378
2227.000000;3.065372
2226.000000;3.114221
2225.000000;3.211652
2224.000000;3.211176
2223.000000;3.168520
2222.000000;3.364297
2221.000000;3.780229
2220.000000;3.305819
2219.000000;3.088002
2218.000000;3.090443
2217.000000;3.535936
2216.000000;3.622009
2215.000000;3.178816
2214.000000;3.162782
2213.000000;3.295559
2212.000000;3.460466
2211.000000;3.384516
2210.000000;3.125552
2209.000000;2.940740
2208.000000;2.853664
2207.000000;2.843817
2206.000000;2.898850
2205.000000;2.998242
2204.000000;3.085394
2203.000000;3.132570
2202.000000;3.188933
2201.000000;3.234105
2200.000000;3.217157
2199.000000;3.186666
2198.000000;3.144005
2197.000000;3.087050
2196.000000;3.039309
2195.000000;3.003585
2194.000000;3.022220
2193.000000;3.130318
2192.000000;3.273933
2191.000000;3.339008
2190.000000;3.671505
2189.000000;3.808066
2188.000000;3.273769
2187.000000;3.034064
2186.000000;2.936224
2185.000000;2.928251
2184.000000;2.945536
2183.000000;2.942411
2182.000000;2.966113
2181.000000;3.050493
2180.000000;3.161077
2179.000000;3.230545
2178.000000;3.233529
2177.000000;3.161885
2176.000000;3.079709
2175.000000;3.154252
2174.000000;3.547655
2173.000000;3.306108
2172.000000;2.962148
2171.000000;2.856474
2170.000000;2.841054
2169.000000;2.925378
2168.000000;3.091368
2167.000000;3.226436
2166.000000;3.219385
2165.000000;3.097095
2164.000000;3.008498
2163.000000;3.073499
2162.000000;3.332898
2161.000000;3.814889
2160.000000;3.700576
2159.000000;3.779257
2158.000000;3.960672
2157.000000;4.235070
2156.000000;3.542006
2155.000000;3.124405
2154.000000;2.988232
2153.000000;3.030191
2152.000000;3.236385
2151.000000;3.664538
2150.000000;4.170038
2149.000000;4.050776
2148.000000;3.786065
2147.000000;3.212796
2146.000000;2.950317
2145.000000;2.846849
2144.000000;2.865506
2143.000000;2.875577
2142.000000;2.786463
2141.000000;2.721287
2140.000000;2.730121
2139.000000;2.796004
2138.000000;2.906837
2137.000000;3.003107
2136.000000;3.003863
2135.000000;2.973887
2134.000000;2.962020
2133.000000;2.998046
2132.000000;3.146634
2131.000000;3.329713
2130.000000;3.204287
2129.000000;3.156043
2128.000000;3.244819
2127.000000;3.285815
2126.000000;3.237532
2125.000000;3.139087
2124.000000;3.137485
2123.000000;3.472472
2122.000000;3.202832
2121.000000;2.864082
2120.000000;2.807098
2119.000000;2.893109
2118.000000;3.043716
2117.000000;3.053885
2116.000000;2.947189
2115.000000;2.891576
2114.000000;2.935239
2113.000000;3.062912
2112.000000;3.314164
2111.000000;3.397120
2110.000000;3.165092
2109.000000;3.153883
2108.000000;3.476283
2107.000000;3.466025
2106.000000;3.449666
2105.000000;3.242462
2104.000000;3.026239
2103.000000;2.993307
2102.000000;2.942007
2101.000000;2.853452
2100.000000;2.810417
2099.000000;2.826139
2098.000000;2.915406
2097.000000;3.053044
2096.000000;2.901352
2095.000000;2.710651
2094.000000;2.662230
2093.000000;2.742453
2092.000000;2.934939
2091.000000;3.251541
2090.000000;3.839200
2089.000000;3.831951
2088.000000;3.588675
2087.000000;3.427006
2086.000000;3.189870
2085.000000;3.098463
2084.000000;3.039886
2083.000000;2.943844
2082.000000;2.860063
2081.000000;2.877221
2080.000000;3.038415
2079.000000;3.433121
2078.000000;3.461343
2077.000000;3.399725
2076.000000;3.533424
2075.000000;3.637619
2074.000000;3.612929
2073.000000;3.640608
2072.000000;3.449285
2071.000000;3.104538
2070.000000;2.962712
2069.000000;2.993447
2068.000000;3.308055
2067.000000;3.636873
2066.000000;3.052751
2065.000000;3.006932
2064.000000;3.147654
2063.000000;3.486232
2062.000000;3.554053
2061.000000;3.286122
2060.000000;3.010470
2059.000000;2.871763
2058.000000;2.889806
2057.000000;3.032940
2056.000000;3.198198
2055.000000;3.254831
2054.000000;3.211907
2053.000000;3.123522
2052.000000;3.065879
2051.000000;3.073498
2050.000000;3.101114
2049.000000;3.056317
2048.000000;2.950594
2047.000000;2.866293
2046.000000;2.843593
2045.000000;2.884483
2044.000000;2.941962
2043.000000;2.951108
2042.000000;2.923427
2041.000000;2.875050
2040.000000;2.878704
2039.000000;2.979983
2038.000000;3.042073
2037.000000;3.122980
2036.000000;3.357303
2035.000000;3.078455
2034.000000;2.801754
2033.000000;2.706354
2032.000000;2.700065
2031.000000;2.749377
2030.000000;2.812786
2029.000000;2.881385
2028.000000;2.952884
2027.000000;3.073009
2026.000000;3.082127
2025.000000;2.931582
2024.000000;2.888548
2023.000000;2.956922
2022.000000;3.030093
2021.000000;3.106978
2020.000000;3.235447
2019.000000;3.377072
2018.000000;3.475523
2017.000000;3.451383
2016.000000;3.320341
2015.000000;3.202394
2014.000000;3.150199
2013.000000;3.156542
2012.000000;3.167615
2011.000000;3.162859
2010.000000;3.229918
2009.000000;3.422808
2008.000000;3.963325
2007.000000;3.948609
2006.000000;3.390860
2005.000000;3.182796
2004.000000;2.967669
2003.000000;2.776975
2002.000000;2.654768
2001.000000;2.636079
2000.000000;2.745162
1999.000000;3.012387
1998.000000;3.576474
1997.000000;3.827667
1996.000000;3.558188
1995.000000;4.279046
1994.000000;3.307709
1993.000000;2.964248
1992.000000;2.908711
1991.000000;3.040824
1990.000000;3.167403
1989.000000;3.039657
1988.000000;3.003277
1987.000000;3.055817
1986.000000;3.087670
1985.000000;3.049498
1984.000000;3.031047
1983.000000;3.104830
1982.000000;3.413294
1981.000000;3.225479
1980.000000;2.798392
1979.000000;2.657916
1978.000000;2.645859
1977.000000;2.738732
1976.000000;2.889770
1975.000000;2.989995
1974.000000;2.916645
1973.000000;2.815114
1972.000000;2.788182
1971.000000;2.769580
1970.000000;2.724321
1969.000000;2.737430
1968.000000;2.848526
1967.000000;2.995856
1966.000000;3.092796
1965.000000;3.155102
1964.000000;3.194541
1963.000000;3.250338
1962.000000;3.388862
1961.000000;3.490808
1960.000000;3.319627
1959.000000;3.252218
1958.000000;3.472160
1957.000000;3.509541
1956.000000;3.150059
1955.000000;3.006132
1954.000000;2.909963
1953.000000;2.924611
1952.000000;3.005834
1951.000000;2.943788
1950.000000;2.881885
1949.000000;2.983300
1948.000000;3.596189
1947.000000;3.660157
1946.000000;3.377956
1945.000000;3.943249
1944.000000;3.684953
1943.000000;3.662546
1942.000000;3.446919
1941.000000;3.242289
1940.000000;3.373843
1939.000000;3.491521
1938.000000;3.200981
1937.000000;3.184740
1936.000000;3.598888
1935.000000;3.341475
1934.000000;3.011479
1933.000000;2.905286
1932.000000;2.883164
1931.000000;2.993779
1930.000000;3.156668
1929.000000;3.050138
1928.000000;2.982398
1927.000000;3.253837
1926.000000;3.669308
1925.000000;3.432755
1924.000000;3.669479
1923.000000;3.268753
1922.000000;2.911227
1921.000000;2.787156
1920.000000;2.756256
1919.000000;2.835180
1918.000000;3.017763
1917.000000;3.128503
1916.000000;3.010564
1915.000000;2.923963
1914.000000;3.029806
1913.000000;3.175367
1912.000000;3.113416
1911.000000;3.213463
1910.000000;2.954827
1909.000000;2.716383
1908.000000;2.679174
1907.000000;2.786974
1906.000000;3.077406
1905.000000;3.671624
1904.000000;3.511672
1903.000000;3.274286
1902.000000;3.264942
1901.000000;3.419512
1900.000000;3.444425
1899.000000;3.134813
1898.000000;3.037378
1897.000000;3.116169
1896.000000;3.366902
1895.000000;3.698870
1894.000000;3.274572
1893.000000;2.979830
1892.000000;2.902583
1891.000000;2.892344
1890.000000;2.854673
1889.000000;2.852162
1888.000000;2.908315
1887.000000;2.892186
1886.000000;2.880157
1885.000000;2.970766
1884.000000;3.138887
1883.000000;3.281940
1882.000000;3.245765
1881.000000;3.121502
1880.000000;3.009159
1879.000000;2.911808
1878.000000;2.858183
1877.000000;2.890504
1876.000000;3.048587
1875.000000;3.401457
1874.000000;3.688209
1873.000000;3.395120
1872.000000;3.125184
1871.000000;2.967952
1870.000000;2.936338
1869.000000;2.976258
1868.000000;3.056904
1867.000000;3.144324
1866.000000;3.288882
1865.000000;3.635633
1864.000000;3.282836
1863.000000;2.970255
1862.000000;2.855259
1861.000000;2.831628
1860.000000;2.909052
1859.000000;2.978915
1858.000000;2.823132
1857.000000;2.705629
1856.000000;2.726073
1855.000000;2.927661
1854.000000;3.453038
1853.000000;3.136000
1852.000000;2.813322
1851.000000;2.752235
1850.000000;2.852236
1849.000000;3.091076
1848.000000;3.260831
1847.000000;3.143135
1846.000000;3.020161
1845.000000;2.939209
1844.000000;2.874405
1843.000000;2.926122
1842.000000;3.088279
1841.000000;3.116015
1840.000000;3.060440
1839.000000;3.104057
1838.000000;3.100089
1837.000000;3.007774
1836.000000;2.976011
1835.000000;3.010330
1834.000000;3.076659
1833.000000;3.167769
1832.000000;3.390353
1831.000000;3.425634
1830.000000;3.044725
1829.000000;2.849942
1828.000000;2.759069
1827.000000;2.737698
1826.000000;2.815129
1825.000000;3.052502
1824.000000;3.210622
1823.000000;3.015014
1822.000000;2.944999
1821.000000;2.910788
1820.000000;2.837357
1819.000000;2.764038
1818.000000;2.721885
1817.000000;2.716780
1816.000000;2.729904
1815.000000;2.738999
1814.000000;2.720214
1813.000000;2.702641
1812.000000;2.723353
1811.000000;2.805619
1810.000000;2.946067
1809.000000;3.132231
1808.000000;3.576965
1807.000000;3.610530
1806.000000;3.288479
1805.000000;3.363285
1804.000000;3.209316
1803.000000;2.972199
1802.000000;2.978004
1801.000000;3.173719
1800.000000;3.490199
1799.000000;3.638337
1798.000000;3.231580
1797.000000;3.000312
1796.000000;2.962732
1795.000000;3.062370
1794.000000;3.136151
1793.000000;3.025058
1792.000000;2.993841
1791.000000;3.313007
1790.000000;3.394422
1789.000000;3.033237
1788.000000;2.903887
1787.000000;2.781444
1786.000000;2.719797
1785.000000;2.758261
1784.000000;2.862015
1783.000000;3.081293
1782.000000;3.639357
1781.000000;3.384085
1780.000000;3.074198
1779.000000;3.083503
1778.000000;3.204687
1777.000000;3.122446
1776.000000;2.953566
1775.000000;2.878550
1774.000000;2.834726
1773.000000;2.835169
1772.000000;2.918069
1771.000000;3.063136
1770.000000;3.252834
1769.000000;3.396602
1768.000000;3.154986
1767.000000;2.889482
1766.000000;2.773270
1765.000000;2.762178
1764.000000;2.773678
1763.000000;2.789507
1762.000000;2.874127
1761.000000;2.982420
1760.000000;2.952052
1759.000000;2.858012
1758.000000;2.803556
1757.000000;2.779090
1756.000000;2.780434
1755.000000;2.824025
1754.000000;2.936525
1753.000000;3.135476
1752.000000;3.353184
1751.000000;3.391871
1750.000000;3.352835
1749.000000;3.248791
1748.000000;3.071291
1747.000000;3.029001
1746.000000;3.206624
1745.000000;3.520902
1744.000000;3.497553
1743.000000;3.179137
1742.000000;2.979454
1741.000000;2.989151
1740.000000;3.013898
1739.000000;2.949324
1738.000000;2.965525
1737.000000;3.123626
1736.000000;3.558169
1735.000000;3.401842
1734.000000;3.107378
1733.000000;3.209030
1732.000000;3.082858
1731.000000;2.818098
1730.000000;2.725329
1729.000000;2.736797
1728.000000;2.839154
1727.000000;3.020539
1726.000000;3.253561
1725.000000;3.664941
1724.000000;3.541238
1723.000000;3.031139
1722.000000;2.833746
1721.000000;2.812661
1720.000000;2.914189
1719.000000;3.083463
1718.000000;3.282385
1717.000000;3.258101
1716.000000;2.915838
1715.000000;2.760690
1714.000000;2.803494
1713.000000;3.007121
1712.000000;3.395969
1711.000000;3.356625
1710.000000;3.124259
1709.000000;2.991688
1708.000000;2.838393
1707.000000;2.750542
1706.000000;2.788359
1705.000000;2.912393
1704.000000;3.180785
1703.000000;3.730632
1702.000000;3.237727
1701.000000;2.924909
1700.000000;2.859552
1699.000000;2.862231
1698.000000;2.951946
1697.000000;3.270169
1696.000000;3.281355
1695.000000;3.011513
1694.000000;2.991155
1693.000000;2.916681
1692.000000;2.856677
1691.000000;2.911068
1690.000000;3.095496
1689.000000;3.460263
1688.000000;3.548818
1687.000000;3.373190
1686.000000;3.121620
1685.000000;2.906050
1684.000000;2.858813
1683.000000;2.898661
1682.000000;2.916368
1681.000000;2.904190
1680.000000;2.888264
1679.000000;2.887539
1678.000000;2.921186
1677.000000;2.990343
1676.000000;3.096238
1675.000000;3.235983
1674.000000;3.149993
1673.000000;2.955860
1672.000000;2.892572
1671.000000;3.007805
1670.000000;3.259002
1669.000000;3.388553
1668.000000;3.280330
1667.000000;3.421202
1666.000000;3.749870
1665.000000;3.176290
1664.000000;2.939330
1663.000000;2.921943
1662.000000;3.009436
1661.000000;3.118547
1660.000000;3.109210
1659.000000;3.090705
1658.000000;3.097145
1657.000000;3.086379
1656.000000;3.057816
1655.000000;3.072428
1654.000000;3.127185
1653.000000;3.220530
1652.000000;3.141049
1651.000000;3.018655
1650.000000;3.175925
1649.000000;3.427134
1648.000000;3.250740
1647.000000;3.304476
1646.000000;3.631455
1645.000000;3.277924
1644.000000;3.015264
1643.000000;3.092657
1642.000000;3.362881
1641.000000;3.122603
1640.000000;2.934768
1639.000000;2.995849
1638.000000;3.297646
1637.000000;3.953415
1636.000000;3.722548
1635.000000;3.405320
1634.000000;3.154000
1633.000000;3.011582
1632.000000;3.015223
1631.000000;3.270993
1630.000000;3.654820
1629.000000;3.348562
1628.000000;3.287766
1627.000000;3.551496
1626.000000;3.397429
1625.000000;3.174021
1624.000000;3.116072
1623.000000;3.118843
1622.000000;3.089519
1621.000000;3.163782
1620.000000;3.753945
1619.000000;3.480478
1618.000000;3.111740
1617.000000;3.072249
1616.000000;3.090093
1615.000000;3.220741
1614.000000;3.468240
1613.000000;3.388390
1612.000000;3.558001
1611.000000;4.004950
1610.000000;3.271487
1609.000000;3.229991
1608.000000;3.503139
1607.000000;3.395623
1606.000000;3.099891
1605.000000;2.941472
1604.000000;2.880601
1603.000000;2.911127
1602.000000;3.082158
1601.000000;3.145181
1600.000000;3.040550
1599.000000;3.064968
1598.000000;3.254034
1597.000000;3.555789
1596.000000;3.507172
1595.000000;3.288442
1594.000000;3.231417
1593.000000;3.222377
1592.000000;3.198558
1591.000000;3.124991
1590.000000;3.112830
1589.000000;3.175704
1588.000000;3.020863
1587.000000;2.826838
1586.000000;2.775764
1585.000000;2.829024
1584.000000;2.913392
1583.000000;2.982331
1582.000000;3.086118
1581.000000;3.280856
1580.000000;3.540512
1579.000000;3.532193
1578.000000;3.293184
1577.000000;3.089012
1576.000000;2.968514
1575.000000;2.944954
1574.000000;2.957475
1573.000000;2.995072
1572.000000;3.176639
1571.000000;3.517285
1570.000000;3.315059
1569.000000;2.991055
1568.000000;2.836658
1567.000000;2.776025
1566.000000;2.785718
1565.000000;2.837323
1564.000000;2.933641
1563.000000;3.114543
1562.000000;3.187156
1561.000000;3.037371
1560.000000;2.995624
1559.000000;3.120318
1558.000000;3.205388
1557.000000;3.156573
1556.000000;3.135181
1555.000000;3.030790
1554.000000;2.860670
1553.000000;2.775857
1552.000000;2.801568
1551.000000;2.979128
1550.000000;3.255967
1549.000000;3.402860
1548.000000;3.601737
1547.000000;3.226122
1546.000000;2.921071
1545.000000;2.899743
1544.000000;2.986312
1543.000000;3.063678
1542.000000;2.960717
1541.000000;2.805267
1540.000000;2.721395
1539.000000;2.732338
1538.000000;2.816119
1537.000000;2.778509
1536.000000;2.712234
1535.000000;2.718324
1534.000000;2.740275
1533.000000;2.717767
1532.000000;2.689312
1531.000000;2.690023
1530.000000;2.884660
1529.000000;3.418999
1528.000000;3.045347
1527.000000;2.843357
1526.000000;2.899338
1525.000000;2.899947
1524.000000;2.879698
1523.000000;2.957223
1522.000000;3.155120
1521.000000;3.453047
1520.000000;3.509993
1519.000000;3.480890
1518.000000;3.541931
1517.000000;3.258155
1516.000000;3.063216
1515.000000;3.061546
1514.000000;3.306426
1513.000000;3.402490
1512.000000;3.075173
1511.000000;2.874484
1510.000000;2.793722
1509.000000;2.807415
1508.000000;2.936398
1507.000000;3.091080
1506.000000;2.888348
1505.000000;2.722012
1504.000000;2.688559
1503.000000;2.734241
1502.000000;2.921471
1501.000000;3.387990
1500.000000;3.474613
1499.000000;3.054228
1498.000000;2.951062
1497.000000;2.934345
1496.000000;2.997127
1495.000000;3.245377
1494.000000;3.412147
1493.000000;3.337045
1492.000000;3.773609
1491.000000;3.732078
1490.000000;3.171653
1489.000000;3.017706
1488.000000;3.059507
1487.000000;3.263892
1486.000000;3.170338
1485.000000;2.969620
1484.000000;2.901986
1483.000000;2.911412
1482.000000;2.959471
1481.000000;2.986072
1480.000000;3.010922
1479.000000;3.059981
1478.000000;3.071045
1477.000000;3.009309
1476.000000;2.924133
1475.000000;2.880293
1474.000000;2.913421
1473.000000;2.880729
1472.000000;2.764203
1471.000000;2.765371
1470.000000;2.958457
1469.000000;3.463683
1468.000000;4.393968
1467.000000;3.810878
1466.000000;3.447664
1465.000000;3.268954
1464.000000;3.221321
1463.000000;3.160969
1462.000000;3.180844
1461.000000;3.324484
1460.000000;3.273419
1459.000000;3.135856
1458.000000;3.106953
1457.000000;3.111730
1456.000000;3.085404
1455.000000;3.073805
1454.000000;3.063112
1453.000000;3.051954
1452.000000;3.129378
1451.000000;3.206034
1450.000000;3.045613
1449.000000;2.927121
1448.000000;2.950424
1447.000000;3.221201
1446.000000;3.770284
1445.000000;3.307813
1444.000000;3.112525
1443.000000;3.241807
1442.000000;3.407096
1441.000000;3.180446
1440.000000;3.041523
1439.000000;3.007980
1438.000000;2.918290
1437.000000;2.834155
1436.000000;2.827024
1435.000000;2.880550
1434.000000;2.877668
1433.000000;2.845543
1432.000000;2.890972
1431.000000;3.001822
1430.000000;3.151519
1429.000000;3.532004
1428.000000;3.503222
1427.000000;3.009428
1426.000000;2.828130
1425.000000;2.798069
1424.000000;2.820513
1423.000000;2.826507
1422.000000;2.837288
1421.000000;2.917408
1420.000000;3.049965
1419.000000;3.126652
1418.000000;3.087056
1417.000000;3.101995
1416.000000;3.323192
1415.000000;3.506464
1414.000000;3.251554
1413.000000;3.127930
1412.000000;3.114922
1411.000000;3.225589
1410.000000;3.620342
1409.000000;3.296509
1408.000000;2.983075
1407.000000;2.923339
1406.000000;2.923478
1405.000000;2.976889
1404.000000;3.088477
1403.000000;3.413498
1402.000000;3.603042
1401.000000;3.025917
1400.000000;2.814475
1399.000000;2.810282
1398.000000;3.021144
1397.000000;3.563465
1396.000000;3.837982
1395.000000;3.640480
1394.000000;3.275610
1393.000000;3.258936
1392.000000;3.348027
1391.000000;3.276968
1390.000000;3.351727
1389.000000;3.367207
1388.000000;3.332355
1387.000000;3.627516
1386.000000;3.541505
1385.000000;3.146040
1384.000000;3.030626
1383.000000;3.027096
1382.000000;3.168741
1381.000000;3.625541
1380.000000;3.546880
1379.000000;3.242690
1378.000000;3.228338
1377.000000;3.534387
1376.000000;3.708397
1375.000000;3.329000
1374.000000;3.269671
1373.000000;3.203912
1372.000000;3.028820
1371.000000;2.934515
1370.000000;2.981143
1369.000000;3.281099
1368.000000;3.527125
1367.000000;3.254397
1366.000000;3.535339
1365.000000;3.662602
1364.000000;3.108924
1363.000000;2.980150
1362.000000;2.950997
1361.000000;3.045608
1360.000000;3.237548
1359.000000;3.236217
1358.000000;3.160224
1357.000000;3.223703
1356.000000;3.311349
1355.000000;3.222356
1354.000000;2.979376
1353.000000;2.832177
1352.000000;2.822506
1351.000000;3.016647
1350.000000;3.689024
1349.000000;3.097086
1348.000000;2.825982
1347.000000;2.800745
1346.000000;2.939655
1345.000000;3.224671
1344.000000;3.064360
1343.000000;2.998296
1342.000000;3.297699
1341.000000;4.032642
1340.000000;3.374098
1339.000000;3.177293
1338.000000;2.990358
1337.000000;2.873331
1336.000000;2.842660
1335.000000;2.866438
1334.000000;2.949390
1333.000000;3.153830
1332.000000;3.617277
1331.000000;3.266667
1330.000000;2.950330
1329.000000;2.915255
1328.000000;2.931519
1327.000000;2.889305
1326.000000;2.869109
1325.000000;2.958281
1324.000000;3.117550
1323.000000;3.221111
1322.000000;3.157236
1321.000000;3.016235
1320.000000;2.949504
1319.000000;3.029633
1318.000000;3.345089
1317.000000;3.539834
1316.000000;3.205524
1315.000000;3.010633
1314.000000;2.854195
1313.000000;2.752032
1312.000000;2.743782
1311.000000;2.919253
1310.000000;3.374336
1309.000000;3.279596
1308.000000;3.051725
1307.000000;3.099665
1306.000000;3.197112
1305.000000;3.289713
1304.000000;3.596783
1303.000000;3.816125
1302.000000;3.344965
1301.000000;3.186072
1300.000000;3.144443
1299.000000;3.046386
1298.000000;2.919053
1297.000000;2.850710
1296.000000;2.888214
1295.000000;3.100685
1294.000000;3.679619
1293.000000;3.912331
1292.000000;3.495979
1291.000000;3.099189
1290.000000;2.975711
1289.000000;3.051744
1288.000000;3.245710
1287.000000;3.513273
1286.000000;3.221171
1285.000000;2.835266
1284.000000;2.689499
1283.000000;2.704781
1282.000000;2.870390
1281.000000;3.016976
1280.000000;2.988052
1279.000000;3.041930
1278.000000;3.252325
1277.000000;3.555191
1276.000000;3.535460
1275.000000;3.391826
1274.000000;3.272821
1273.000000;3.191501
1272.000000;3.246402
1271.000000;3.311534
1270.000000;3.384793
1269.000000;3.952932
1268.000000;3.336508
1267.000000;3.041472
1266.000000;3.013277
1265.000000;3.134258
1264.000000;3.372691
1263.000000;3.349334
1262.000000;3.109876
1261.000000;2.975472
1260.000000;2.941099
1259.000000;2.937943
1258.000000;2.935658
1257.000000;2.954197
1256.000000;2.982221
1255.000000;3.021820
1254.000000;3.098600
1253.000000;3.334449
1252.000000;3.579247
1251.000000;3.264634
1250.000000;3.075088
1249.000000;3.028748
1248.000000;3.046110
1247.000000;3.114753
1246.000000;3.187663
1245.000000;3.218697
1244.000000;3.199054
1243.000000;3.148015
1242.000000;3.213373
1241.000000;3.373480
1240.000000;3.194443
1239.000000;3.115215
1238.000000;3.253308
1237.000000;3.344013
1236.000000;3.218948
1235.000000;3.059329
1234.000000;2.816954
1233.000000;2.662634
1232.000000;2.642386
1231.000000;2.741927
1230.000000;2.924546
1229.000000;3.038848
1228.000000;2.929674
1227.000000;2.815249
1226.000000;2.803454
1225.000000;2.890229
1224.000000;3.071837
1223.000000;3.078897
1222.000000;2.938245
1221.000000;2.951533
1220.000000;3.170556
1219.000000;3.262732
1218.000000;3.096718
1217.000000;3.025934
1216.000000;3.006718
1215.000000;3.020849
1214.000000;3.125818
1213.000000;3.342639
1212.000000;3.509032
1211.000000;3.514519
1210.000000;3.439388
1209.000000;3.636200
1208.000000;3.682414
1207.000000;3.268211
1206.000000;3.196914
1205.000000;3.232854
1204.000000;3.239084
1203.000000;3.154450
1202.000000;3.093541
1201.000000;3.152464
1200.000000;3.285460
