Criado como novo conjunto de dados;"e0108.spp","-4266704.1 Secs"
cm-1;Abs
10000.000000;1.096253
9999.000000;1.095907
9998.000000;1.095562
9997.000000;1.095216
9996.000000;1.094872
9995.000000;1.094526
9994.000000;1.094183
9993.000000;1.093836
9992.000000;1.093502
9991.000000;1.092829
9990.000000;1.092138
9989.000000;1.091845
9988.000000;1.091778
9987.000000;1.091321
9986.000000;1.089945
9985.000000;1.087687
9984.000000;1.085345
9983.000000;1.084117
9982.000000;1.084686
9981.000000;1.086559
9980.000000;1.088377
9979.000000;1.088947
9978.000000;1.088069
9977.000000;1.086590
9976.000000;1.085773
9975.000000;1.086399
9974.000000;1.088124
9973.000000;1.089588
9972.000000;1.089386
9971.000000;1.087183
9970.000000;1.083966
9969.000000;1.081252
9968.000000;1.080002
9967.000000;1.080090
9966.000000;1.080641
9965.000000;1.080879
9964.000000;1.080783
9963.000000;1.080919
9962.000000;1.081619
9961.000000;1.082474
9960.000000;1.082741
9959.000000;1.081983
9958.000000;1.080186
9957.000000;1.077641
9956.000000;1.075082
9955.000000;1.073656
9954.000000;1.074143
9953.000000;1.076025
9952.000000;1.077674
9951.000000;1.077780
9950.000000;1.076536
9949.000000;1.075282
9948.000000;1.075126
9947.000000;1.075972
9946.000000;1.076635
9945.000000;1.075840
9944.000000;1.073435
9943.000000;1.070827
9942.000000;1.069945
9941.000000;1.071514
9940.000000;1.074367
9939.000000;1.076512
9938.000000;1.076797
9937.000000;1.075556
9936.000000;1.073917
9935.000000;1.072795
9934.000000;1.072413
9933.000000;1.072319
9932.000000;1.071774
9931.000000;1.070512
9930.000000;1.069244
9929.000000;1.069085
9928.000000;1.070323
9927.000000;1.072010
9926.000000;1.072922
9925.000000;1.072702
9924.000000;1.071873
9923.000000;1.071004
9922.000000;1.070217
9921.000000;1.069396
9920.000000;1.068529
9919.000000;1.067714
9918.000000;1.067116
9917.000000;1.067041
9916.000000;1.067673
9915.000000;1.068503
9914.000000;1.068338
9913.000000;1.066291
9912.000000;1.062778
9911.000000;1.059351
9910.000000;1.057462
9909.000000;1.057538
9908.000000;1.059101
9907.000000;1.061427
9906.000000;1.063874
9905.000000;1.065775
9904.000000;1.066465
9903.000000;1.065724
9902.000000;1.064089
9901.000000;1.062531
9900.000000;1.061796
9899.000000;1.061986
9898.000000;1.062570
9897.000000;1.062722
9896.000000;1.061847
9895.000000;1.060081
9894.000000;1.058237
9893.000000;1.057072
9892.000000;1.056628
9891.000000;1.056478
9890.000000;1.056542
9889.000000;1.057263
9888.000000;1.058805
9887.000000;1.060427
9886.000000;1.061037
9885.000000;1.060255
9884.000000;1.058618
9883.000000;1.056870
9882.000000;1.055468
9881.000000;1.054691
9880.000000;1.054628
9879.000000;1.054849
9878.000000;1.054503
9877.000000;1.053118
9876.000000;1.051140
9875.000000;1.049459
9874.000000;1.048617
9873.000000;1.048651
9872.000000;1.049429
9871.000000;1.050718
9870.000000;1.052014
9869.000000;1.052758
9868.000000;1.052882
9867.000000;1.052852
9866.000000;1.052980
9865.000000;1.052883
9864.000000;1.051836
9863.000000;1.049681
9862.000000;1.047285
9861.000000;1.045998
9860.000000;1.046586
9859.000000;1.048506
9858.000000;1.050241
9857.000000;1.050531
9856.000000;1.049335
9855.000000;1.047507
9854.000000;1.045747
9853.000000;1.044180
9852.000000;1.042870
9851.000000;1.042183
9850.000000;1.042412
9849.000000;1.043315
9848.000000;1.044271
9847.000000;1.044792
9846.000000;1.044705
9845.000000;1.044093
9844.000000;1.043303
9843.000000;1.042836
9842.000000;1.042892
9841.000000;1.043040
9840.000000;1.042632
9839.000000;1.041539
9838.000000;1.040272
9837.000000;1.039448
9836.000000;1.039331
9835.000000;1.039771
9834.000000;1.040282
9833.000000;1.040198
9832.000000;1.039184
9831.000000;1.037825
9830.000000;1.037358
9829.000000;1.038507
9828.000000;1.040681
9827.000000;1.042549
9826.000000;1.043216
9825.000000;1.042627
9824.000000;1.041029
9823.000000;1.038562
9822.000000;1.035527
9821.000000;1.032706
9820.000000;1.031049
9819.000000;1.030974
9818.000000;1.032008
9817.000000;1.033104
9816.000000;1.033389
9815.000000;1.032749
9814.000000;1.031820
9813.000000;1.031363
9812.000000;1.031584
9811.000000;1.032002
9810.000000;1.031954
9809.000000;1.031228
9808.000000;1.030206
9807.000000;1.029447
9806.000000;1.029192
9805.000000;1.029254
9804.000000;1.029312
9803.000000;1.029232
9802.000000;1.029117
9801.000000;1.029108
9800.000000;1.029219
9799.000000;1.029305
9798.000000;1.029059
9797.000000;1.028103
9796.000000;1.026364
9795.000000;1.024524
9794.000000;1.023823
9793.000000;1.024995
9792.000000;1.027342
9791.000000;1.029119
9790.000000;1.029049
9789.000000;1.027431
9788.000000;1.025643
9787.000000;1.024692
9786.000000;1.024465
9785.000000;1.024248
9784.000000;1.023608
9783.000000;1.022713
9782.000000;1.021991
9781.000000;1.021685
9780.000000;1.021617
9779.000000;1.021244
9778.000000;1.020057
9777.000000;1.018148
9776.000000;1.016382
9775.000000;1.015741
9774.000000;1.016382
9773.000000;1.017530
9772.000000;1.018434
9771.000000;1.019182
9770.000000;1.020272
9769.000000;1.021555
9768.000000;1.022077
9767.000000;1.021107
9766.000000;1.018900
9765.000000;1.016286
9764.000000;1.013906
9763.000000;1.012186
9762.000000;1.011647
9761.000000;1.012537
9760.000000;1.014152
9759.000000;1.015162
9758.000000;1.014936
9757.000000;1.014181
9756.000000;1.013998
9755.000000;1.014610
9754.000000;1.015313
9753.000000;1.015436
9752.000000;1.014972
9751.000000;1.014392
9750.000000;1.014166
9749.000000;1.014455
9748.000000;1.014969
9747.000000;1.015096
9746.000000;1.014419
9745.000000;1.013106
9744.000000;1.011667
9743.000000;1.010406
9742.000000;1.009418
9741.000000;1.009009
9740.000000;1.009622
9739.000000;1.011122
9738.000000;1.012532
9737.000000;1.012861
9736.000000;1.012115
9735.000000;1.011187
9734.000000;1.010765
9733.000000;1.010624
9732.000000;1.010029
9731.000000;1.008634
9730.000000;1.006917
9729.000000;1.005842
9728.000000;1.006093
9727.000000;1.007476
9726.000000;1.008918
9725.000000;1.009258
9724.000000;1.008227
9723.000000;1.006653
9722.000000;1.005638
9721.000000;1.005541
9720.000000;1.005798
9719.000000;1.005628
9718.000000;1.004773
9717.000000;1.003560
9716.000000;1.002444
9715.000000;1.001670
9714.000000;1.001348
9713.000000;1.001625
9712.000000;1.002599
9711.000000;1.004070
9710.000000;1.005467
9709.000000;1.006125
9708.000000;1.005731
9707.000000;1.004576
9706.000000;1.003394
9705.000000;1.002817
9704.000000;1.002802
9703.000000;1.002606
9702.000000;1.001524
9701.000000;0.999809
9700.000000;0.998704
9699.000000;0.999287
9698.000000;1.001236
9697.000000;1.002903
9696.000000;1.002831
9695.000000;1.001186
9694.000000;0.999471
9693.000000;0.998883
9692.000000;0.999247
9691.000000;0.999565
9690.000000;0.999260
9689.000000;0.998599
9688.000000;0.998047
9687.000000;0.997649
9686.000000;0.997175
9685.000000;0.996541
9684.000000;0.995789
9683.000000;0.994893
9682.000000;0.993905
9681.000000;0.993165
9680.000000;0.992931
9679.000000;0.992831
9678.000000;0.992117
9677.000000;0.990669
9676.000000;0.989340
9675.000000;0.989019
9674.000000;0.989623
9673.000000;0.990342
9672.000000;0.990640
9671.000000;0.990527
9670.000000;0.990005
9669.000000;0.988911
9668.000000;0.987523
9667.000000;0.986783
9666.000000;0.987469
9665.000000;0.989370
9664.000000;0.991574
9663.000000;0.993331
9662.000000;0.994282
9661.000000;0.994118
9660.000000;0.992660
9659.000000;0.990326
9658.000000;0.988020
9657.000000;0.986401
9656.000000;0.985543
9655.000000;0.985291
9654.000000;0.985497
9653.000000;0.985751
9652.000000;0.985344
9651.000000;0.983928
9650.000000;0.982067
9649.000000;0.980763
9648.000000;0.980517
9647.000000;0.981022
9646.000000;0.981606
9645.000000;0.981785
9644.000000;0.981499
9643.000000;0.981074
9642.000000;0.980927
9641.000000;0.981178
9640.000000;0.981573
9639.000000;0.981890
9638.000000;0.982228
9637.000000;0.982714
9636.000000;0.983117
9635.000000;0.983050
9634.000000;0.982450
9633.000000;0.981544
9632.000000;0.980446
9631.000000;0.979134
9630.000000;0.977763
9629.000000;0.976617
9628.000000;0.975764
9627.000000;0.975120
9626.000000;0.974876
9625.000000;0.975417
9624.000000;0.976647
9623.000000;0.977786
9622.000000;0.978130
9621.000000;0.977772
9620.000000;0.977322
9619.000000;0.977086
9618.000000;0.976840
9617.000000;0.976317
9616.000000;0.975584
9615.000000;0.974932
9614.000000;0.974552
9613.000000;0.974340
9612.000000;0.973993
9611.000000;0.973369
9610.000000;0.972729
9609.000000;0.972459
9608.000000;0.972568
9607.000000;0.972679
9606.000000;0.972576
9605.000000;0.972430
9604.000000;0.972363
9603.000000;0.972142
9602.000000;0.971568
9601.000000;0.970853
9600.000000;0.970270
9599.000000;0.969706
9598.000000;0.968981
9597.000000;0.968402
9596.000000;0.968442
9595.000000;0.968896
9594.000000;0.968855
9593.000000;0.967729
9592.000000;0.965985
9591.000000;0.964665
9590.000000;0.964355
9589.000000;0.964776
9588.000000;0.965239
9587.000000;0.965309
9586.000000;0.965090
9585.000000;0.965006
9584.000000;0.965312
9583.000000;0.965826
9582.000000;0.966125
9581.000000;0.965926
9580.000000;0.965303
9579.000000;0.964623
9578.000000;0.964301
9577.000000;0.964498
9576.000000;0.964889
9575.000000;0.964794
9574.000000;0.963786
9573.000000;0.962193
9572.000000;0.960853
9571.000000;0.960400
9570.000000;0.960889
9569.000000;0.961963
9568.000000;0.963139
9567.000000;0.964008
9566.000000;0.964370
9565.000000;0.964267
9564.000000;0.963858
9563.000000;0.963274
9562.000000;0.962679
9561.000000;0.962272
9560.000000;0.962035
9559.000000;0.961598
9558.000000;0.960633
9557.000000;0.959366
9556.000000;0.958454
9555.000000;0.958326
9554.000000;0.958828
9553.000000;0.959477
9552.000000;0.959894
9551.000000;0.960017
9550.000000;0.960078
9549.000000;0.960352
9548.000000;0.960761
9547.000000;0.960789
9546.000000;0.959993
9545.000000;0.958525
9544.000000;0.956974
9543.000000;0.955806
9542.000000;0.955163
9541.000000;0.955028
9540.000000;0.955194
9539.000000;0.955194
9538.000000;0.954745
9537.000000;0.954251
9536.000000;0.954402
9535.000000;0.955165
9534.000000;0.955675
9533.000000;0.955279
9532.000000;0.954246
9531.000000;0.953250
9530.000000;0.952601
9529.000000;0.952266
9528.000000;0.952199
9527.000000;0.952265
9526.000000;0.952166
9525.000000;0.951876
9524.000000;0.951860
9523.000000;0.952368
9522.000000;0.952734
9521.000000;0.951937
9520.000000;0.949896
9519.000000;0.947739
9518.000000;0.946680
9517.000000;0.946983
9516.000000;0.948105
9515.000000;0.949429
9514.000000;0.950562
9513.000000;0.951185
9512.000000;0.950971
9511.000000;0.949821
9510.000000;0.948125
9509.000000;0.946709
9508.000000;0.946309
9507.000000;0.946884
9506.000000;0.947507
9505.000000;0.947177
9504.000000;0.945810
9503.000000;0.944314
9502.000000;0.943625
9501.000000;0.943817
9500.000000;0.944208
9499.000000;0.944199
9498.000000;0.943865
9497.000000;0.943751
9496.000000;0.944223
9495.000000;0.945114
9494.000000;0.945954
9493.000000;0.946417
9492.000000;0.946465
9491.000000;0.946209
9490.000000;0.945806
9489.000000;0.945439
9488.000000;0.945204
9487.000000;0.944970
9486.000000;0.944504
9485.000000;0.943781
9484.000000;0.943020
9483.000000;0.942394
9482.000000;0.941863
9481.000000;0.941359
9480.000000;0.940903
9479.000000;0.940476
9478.000000;0.939975
9477.000000;0.939448
9476.000000;0.939167
9475.000000;0.939333
9474.000000;0.939838
9473.000000;0.940397
9472.000000;0.940718
9471.000000;0.940439
9470.000000;0.939276
9469.000000;0.937522
9468.000000;0.936133
9467.000000;0.935917
9466.000000;0.936711
9465.000000;0.937695
9464.000000;0.938333
9463.000000;0.938612
9462.000000;0.938511
9461.000000;0.937831
9460.000000;0.936704
9459.000000;0.935775
9458.000000;0.935566
9457.000000;0.935953
9456.000000;0.936505
9455.000000;0.937076
9454.000000;0.937748
9453.000000;0.938374
9452.000000;0.938523
9451.000000;0.937934
9450.000000;0.936779
9449.000000;0.935485
9448.000000;0.934433
9447.000000;0.933859
9446.000000;0.933823
9445.000000;0.934191
9444.000000;0.934681
9443.000000;0.934987
9442.000000;0.934874
9441.000000;0.934268
9440.000000;0.933380
9439.000000;0.932756
9438.000000;0.932955
9437.000000;0.933995
9436.000000;0.935139
9435.000000;0.935434
9434.000000;0.934539
9433.000000;0.932938
9432.000000;0.931373
9431.000000;0.930263
9430.000000;0.929710
9429.000000;0.929761
9428.000000;0.930336
9427.000000;0.931025
9426.000000;0.931319
9425.000000;0.931111
9424.000000;0.930710
9423.000000;0.930357
9422.000000;0.930056
9421.000000;0.929898
9420.000000;0.930127
9419.000000;0.930603
9418.000000;0.930610
9417.000000;0.929627
9416.000000;0.928130
9415.000000;0.927136
9414.000000;0.927052
9413.000000;0.927386
9412.000000;0.927566
9411.000000;0.927547
9410.000000;0.927511
9409.000000;0.927359
9408.000000;0.926853
9407.000000;0.926111
9406.000000;0.925643
9405.000000;0.925793
9404.000000;0.926279
9403.000000;0.926392
9402.000000;0.925683
9401.000000;0.924439
9400.000000;0.923429
9399.000000;0.923161
9398.000000;0.923425
9397.000000;0.923566
9396.000000;0.923143
9395.000000;0.922281
9394.000000;0.921542
9393.000000;0.921528
9392.000000;0.922446
9391.000000;0.923813
9390.000000;0.924713
9389.000000;0.924593
9388.000000;0.923775
9387.000000;0.923058
9386.000000;0.922878
9385.000000;0.923047
9384.000000;0.923156
9383.000000;0.922934
9382.000000;0.922220
9381.000000;0.920989
9380.000000;0.919519
9379.000000;0.918316
9378.000000;0.917722
9377.000000;0.917731
9376.000000;0.918194
9375.000000;0.918941
9374.000000;0.919661
9373.000000;0.919981
9372.000000;0.919873
9371.000000;0.919731
9370.000000;0.919836
9369.000000;0.919954
9368.000000;0.919704
9367.000000;0.919143
9366.000000;0.918692
9365.000000;0.918539
9364.000000;0.918441
9363.000000;0.918129
9362.000000;0.917680
9361.000000;0.917394
9360.000000;0.917446
9359.000000;0.917759
9358.000000;0.918078
9357.000000;0.918053
9356.000000;0.917360
9355.000000;0.915965
9354.000000;0.914313
9353.000000;0.913166
9352.000000;0.913038
9351.000000;0.913697
9350.000000;0.914328
9349.000000;0.914279
9348.000000;0.913666
9347.000000;0.913179
9346.000000;0.913299
9345.000000;0.913864
9344.000000;0.914370
9343.000000;0.914547
9342.000000;0.914519
9341.000000;0.914496
9340.000000;0.914440
9339.000000;0.914052
9338.000000;0.913067
9337.000000;0.911605
9336.000000;0.910202
9335.000000;0.909420
9334.000000;0.909406
9333.000000;0.909868
9332.000000;0.910426
9331.000000;0.910866
9330.000000;0.911081
9329.000000;0.910999
9328.000000;0.910725
9327.000000;0.910607
9326.000000;0.910965
9325.000000;0.911725
9324.000000;0.912442
9323.000000;0.912662
9322.000000;0.912226
9321.000000;0.911330
9320.000000;0.910414
9319.000000;0.909927
9318.000000;0.909941
9317.000000;0.909980
9316.000000;0.909397
9315.000000;0.908057
9314.000000;0.906542
9313.000000;0.905613
9312.000000;0.905521
9311.000000;0.905932
9310.000000;0.906405
9309.000000;0.906719
9308.000000;0.906750
9307.000000;0.906337
9306.000000;0.905467
9305.000000;0.904455
9304.000000;0.903753
9303.000000;0.903591
9302.000000;0.903939
9301.000000;0.904711
9300.000000;0.905756
9299.000000;0.906715
9298.000000;0.907203
9297.000000;0.907209
9296.000000;0.907086
9295.000000;0.906996
9294.000000;0.906585
9293.000000;0.905455
9292.000000;0.903807
9291.000000;0.902393
9290.000000;0.901900
9289.000000;0.902515
9288.000000;0.903891
9287.000000;0.905312
9286.000000;0.906030
9285.000000;0.905754
9284.000000;0.904917
9283.000000;0.904293
9282.000000;0.904377
9281.000000;0.905159
9280.000000;0.906236
9279.000000;0.906915
9278.000000;0.906484
9277.000000;0.904875
9276.000000;0.903006
9275.000000;0.901984
9274.000000;0.901924
9273.000000;0.901960
9272.000000;0.901441
9271.000000;0.900648
9270.000000;0.900165
9269.000000;0.900075
9268.000000;0.900110
9267.000000;0.900165
9266.000000;0.900192
9265.000000;0.899875
9264.000000;0.898934
9263.000000;0.897699
9262.000000;0.896948
9261.000000;0.897124
9260.000000;0.897936
9259.000000;0.898687
9258.000000;0.898795
9257.000000;0.898129
9256.000000;0.897124
9255.000000;0.896515
9254.000000;0.896663
9253.000000;0.897171
9252.000000;0.897365
9251.000000;0.897086
9250.000000;0.896669
9249.000000;0.896238
9248.000000;0.895501
9247.000000;0.894344
9246.000000;0.893224
9245.000000;0.892722
9244.000000;0.892963
9243.000000;0.893689
9242.000000;0.894668
9241.000000;0.895784
9240.000000;0.896830
9239.000000;0.897482
9238.000000;0.897508
9237.000000;0.896938
9236.000000;0.896084
9235.000000;0.895429
9234.000000;0.895333
9233.000000;0.895700
9232.000000;0.895996
9231.000000;0.895762
9230.000000;0.895043
9229.000000;0.894225
9228.000000;0.893583
9227.000000;0.893166
9226.000000;0.893028
9225.000000;0.893289
9224.000000;0.893945
9223.000000;0.894763
9222.000000;0.895468
9221.000000;0.895873
9220.000000;0.895790
9219.000000;0.895000
9218.000000;0.893509
9217.000000;0.891762
9216.000000;0.890385
9215.000000;0.889696
9214.000000;0.889580
9213.000000;0.889846
9212.000000;0.890518
9211.000000;0.891611
9210.000000;0.892724
9209.000000;0.893186
9208.000000;0.892752
9207.000000;0.891955
9206.000000;0.891551
9205.000000;0.891665
9204.000000;0.891738
9203.000000;0.891345
9202.000000;0.890778
9201.000000;0.890693
9200.000000;0.891328
9199.000000;0.892282
9198.000000;0.892957
9197.000000;0.893003
9196.000000;0.892362
9195.000000;0.891216
9194.000000;0.890010
9193.000000;0.889303
9192.000000;0.889281
9191.000000;0.889458
9190.000000;0.889111
9189.000000;0.888129
9188.000000;0.887215
9187.000000;0.887118
9186.000000;0.887762
9185.000000;0.888343
9184.000000;0.888247
9183.000000;0.887661
9182.000000;0.887194
9181.000000;0.887090
9180.000000;0.887016
9179.000000;0.886541
9178.000000;0.885634
9177.000000;0.884678
9176.000000;0.884098
9175.000000;0.884025
9174.000000;0.884264
9173.000000;0.884527
9172.000000;0.884717
9171.000000;0.884954
9170.000000;0.885293
9169.000000;0.885525
9168.000000;0.885397
9167.000000;0.884999
9166.000000;0.884751
9165.000000;0.884914
9164.000000;0.885226
9163.000000;0.885168
9162.000000;0.884538
9161.000000;0.883654
9160.000000;0.883012
9159.000000;0.882875
9158.000000;0.883187
9157.000000;0.883744
9156.000000;0.884334
9155.000000;0.884768
9154.000000;0.884889
9153.000000;0.884681
9152.000000;0.884351
9151.000000;0.884220
9150.000000;0.884444
9149.000000;0.884845
9148.000000;0.885054
9147.000000;0.884849
9146.000000;0.884305
9145.000000;0.883651
9144.000000;0.883101
9143.000000;0.882803
9142.000000;0.882782
9141.000000;0.882830
9140.000000;0.882616
9139.000000;0.882065
9138.000000;0.881529
9137.000000;0.881397
9136.000000;0.881570
9135.000000;0.881572
9134.000000;0.881166
9133.000000;0.880649
9132.000000;0.880434
9131.000000;0.880566
9130.000000;0.880793
9129.000000;0.880907
9128.000000;0.880822
9127.000000;0.880454
9126.000000;0.879836
9125.000000;0.879326
9124.000000;0.879461
9123.000000;0.880428
9122.000000;0.881779
9121.000000;0.882771
9120.000000;0.882969
9119.000000;0.882527
9118.000000;0.881981
9117.000000;0.881797
9116.000000;0.881999
9115.000000;0.882155
9114.000000;0.881755
9113.000000;0.880710
9112.000000;0.879456
9111.000000;0.878536
9110.000000;0.878124
9109.000000;0.877981
9108.000000;0.877822
9107.000000;0.877632
9106.000000;0.877629
9105.000000;0.877953
9104.000000;0.878486
9103.000000;0.878964
9102.000000;0.879233
9101.000000;0.879327
9100.000000;0.879320
9099.000000;0.879234
9098.000000;0.879111
9097.000000;0.879007
9096.000000;0.878871
9095.000000;0.878601
9094.000000;0.878321
9093.000000;0.878389
9092.000000;0.878857
9091.000000;0.879089
9090.000000;0.878333
9089.000000;0.876717
9088.000000;0.875286
9087.000000;0.874898
9086.000000;0.875398
9085.000000;0.876036
9084.000000;0.876336
9083.000000;0.876282
9082.000000;0.875944
9081.000000;0.875364
9080.000000;0.874778
9079.000000;0.874522
9078.000000;0.874660
9077.000000;0.874957
9076.000000;0.875275
9075.000000;0.875716
9074.000000;0.876295
9073.000000;0.876689
9072.000000;0.876511
9071.000000;0.875749
9070.000000;0.874851
9069.000000;0.874425
9068.000000;0.874835
9067.000000;0.875923
9066.000000;0.877048
9065.000000;0.877549
9064.000000;0.877260
9063.000000;0.876529
9062.000000;0.875748
9061.000000;0.874999
9060.000000;0.874223
9059.000000;0.873534
9058.000000;0.873190
9057.000000;0.873277
9056.000000;0.873547
9055.000000;0.873614
9054.000000;0.873296
9053.000000;0.872782
9052.000000;0.872449
9051.000000;0.872491
9050.000000;0.872762
9049.000000;0.872999
9048.000000;0.873111
9047.000000;0.873165
9046.000000;0.873201
9045.000000;0.873225
9044.000000;0.873288
9043.000000;0.873388
9042.000000;0.873360
9041.000000;0.873096
9040.000000;0.872827
9039.000000;0.872871
9038.000000;0.873121
9037.000000;0.873105
9036.000000;0.872675
9035.000000;0.872275
9034.000000;0.872342
9033.000000;0.872718
9032.000000;0.872910
9031.000000;0.872733
9030.000000;0.872433
9029.000000;0.872277
9028.000000;0.872268
9027.000000;0.872213
9026.000000;0.871904
9025.000000;0.871282
9024.000000;0.870556
9023.000000;0.870124
9022.000000;0.870237
9021.000000;0.870794
9020.000000;0.871482
9019.000000;0.871957
9018.000000;0.871892
9017.000000;0.871162
9016.000000;0.870182
9015.000000;0.869744
9014.000000;0.870194
9013.000000;0.870991
9012.000000;0.871354
9011.000000;0.871178
9010.000000;0.870950
9009.000000;0.870963
9008.000000;0.871055
9007.000000;0.871045
9006.000000;0.870917
9005.000000;0.870568
9004.000000;0.869894
9003.000000;0.869203
9002.000000;0.869007
9001.000000;0.869172
9000.000000;0.868798
8999.000000;0.867343
8998.000000;0.865528
8997.000000;0.864639
8996.000000;0.865094
8995.000000;0.866101
8994.000000;0.866655
8993.000000;0.866529
8992.000000;0.866303
8991.000000;0.866712
8990.000000;0.867999
8989.000000;0.869669
8988.000000;0.870822
8987.000000;0.870885
8986.000000;0.870057
8985.000000;0.868978
8984.000000;0.868078
8983.000000;0.867432
8982.000000;0.867082
8981.000000;0.867121
8980.000000;0.867458
8979.000000;0.867814
8978.000000;0.868043
8977.000000;0.868300
8976.000000;0.868786
8975.000000;0.869460
8974.000000;0.870081
8973.000000;0.870390
8972.000000;0.870183
8971.000000;0.869382
8970.000000;0.868210
8969.000000;0.867157
8968.000000;0.866612
8967.000000;0.866559
8966.000000;0.866733
8965.000000;0.866962
8964.000000;0.867197
8963.000000;0.867325
8962.000000;0.867191
8961.000000;0.866885
8960.000000;0.866797
8959.000000;0.867234
8958.000000;0.868048
8957.000000;0.868752
8956.000000;0.868972
8955.000000;0.868675
8954.000000;0.867984
8953.000000;0.866995
8952.000000;0.865901
8951.000000;0.865168
8950.000000;0.865297
8949.000000;0.866308
8948.000000;0.867543
8947.000000;0.868186
8946.000000;0.867963
8945.000000;0.867239
8944.000000;0.866470
8943.000000;0.865745
8942.000000;0.864951
8941.000000;0.864193
8940.000000;0.863828
8939.000000;0.864064
8938.000000;0.864703
8937.000000;0.865348
8936.000000;0.865763
8935.000000;0.865985
8934.000000;0.866150
8933.000000;0.866274
8932.000000;0.866211
8931.000000;0.865792
8930.000000;0.865038
8929.000000;0.864235
8928.000000;0.863739
8927.000000;0.863698
8926.000000;0.863998
8925.000000;0.864453
8924.000000;0.864896
8923.000000;0.865080
8922.000000;0.864770
8921.000000;0.864131
8920.000000;0.863849
8919.000000;0.864517
8918.000000;0.865885
8917.000000;0.866972
8916.000000;0.867049
8915.000000;0.866317
8914.000000;0.865499
8913.000000;0.865018
8912.000000;0.864781
8911.000000;0.864566
8910.000000;0.864314
8909.000000;0.864058
8908.000000;0.863826
8907.000000;0.863703
8906.000000;0.863782
8905.000000;0.863984
8904.000000;0.864027
8903.000000;0.863710
8902.000000;0.863158
8901.000000;0.862703
8900.000000;0.862561
8899.000000;0.862669
8898.000000;0.862817
8897.000000;0.862866
8896.000000;0.862846
8895.000000;0.862864
8894.000000;0.862945
8893.000000;0.862984
8892.000000;0.862865
8891.000000;0.862642
8890.000000;0.862575
8889.000000;0.862969
8888.000000;0.863902
8887.000000;0.865030
8886.000000;0.865723
8885.000000;0.865547
8884.000000;0.864732
8883.000000;0.864053
8882.000000;0.864124
8881.000000;0.864841
8880.000000;0.865566
8879.000000;0.865794
8878.000000;0.865551
8877.000000;0.865201
8876.000000;0.865005
8875.000000;0.864894
8874.000000;0.864587
8873.000000;0.863912
8872.000000;0.863076
8871.000000;0.862558
8870.000000;0.862648
8869.000000;0.863135
8868.000000;0.863553
8867.000000;0.863691
8866.000000;0.863702
8865.000000;0.863781
8864.000000;0.863955
8863.000000;0.864182
8862.000000;0.864428
8861.000000;0.864586
8860.000000;0.864548
8859.000000;0.864447
8858.000000;0.864587
8857.000000;0.864989
8856.000000;0.865239
8855.000000;0.864998
8854.000000;0.864496
8853.000000;0.864276
8852.000000;0.864521
8851.000000;0.864882
8850.000000;0.864937
8849.000000;0.864601
8848.000000;0.864070
8847.000000;0.863591
8846.000000;0.863365
8845.000000;0.863503
8844.000000;0.863921
8843.000000;0.864327
8842.000000;0.864452
8841.000000;0.864282
8840.000000;0.864057
8839.000000;0.864030
8838.000000;0.864245
8837.000000;0.864501
8836.000000;0.864554
8835.000000;0.864349
8834.000000;0.864064
8833.000000;0.863904
8832.000000;0.863913
8831.000000;0.864038
8830.000000;0.864272
8829.000000;0.864604
8828.000000;0.864899
8827.000000;0.864979
8826.000000;0.864853
8825.000000;0.864756
8824.000000;0.864875
8823.000000;0.865121
8822.000000;0.865224
8821.000000;0.865045
8820.000000;0.864744
8819.000000;0.864628
8818.000000;0.864833
8817.000000;0.865165
8816.000000;0.865288
8815.000000;0.865086
8814.000000;0.864783
8813.000000;0.864678
8812.000000;0.864826
8811.000000;0.865038
8810.000000;0.865105
8809.000000;0.864939
8808.000000;0.864582
8807.000000;0.864243
8806.000000;0.864256
8805.000000;0.864796
8804.000000;0.865614
8803.000000;0.866214
8802.000000;0.866384
8801.000000;0.866409
8800.000000;0.866700
8799.000000;0.867334
8798.000000;0.868098
8797.000000;0.868800
8796.000000;0.869356
8795.000000;0.869645
8794.000000;0.869494
8793.000000;0.868850
8792.000000;0.867891
8791.000000;0.866965
8790.000000;0.866437
8789.000000;0.866507
8788.000000;0.867035
8787.000000;0.867589
8786.000000;0.867842
8785.000000;0.867945
8784.000000;0.868357
8783.000000;0.869235
8782.000000;0.870168
8781.000000;0.870642
8780.000000;0.870676
8779.000000;0.870807
8778.000000;0.871427
8777.000000;0.872277
8776.000000;0.872708
8775.000000;0.872380
8774.000000;0.871628
8773.000000;0.871127
8772.000000;0.871278
8771.000000;0.871925
8770.000000;0.872595
8769.000000;0.872882
8768.000000;0.872634
8767.000000;0.871953
8766.000000;0.871177
8765.000000;0.870789
8764.000000;0.871095
8763.000000;0.871909
8762.000000;0.872654
8761.000000;0.872907
8760.000000;0.872801
8759.000000;0.872835
8758.000000;0.873311
8757.000000;0.874037
8756.000000;0.874560
8755.000000;0.874592
8754.000000;0.874229
8753.000000;0.873829
8752.000000;0.873725
8751.000000;0.873983
8750.000000;0.874419
8749.000000;0.874840
8748.000000;0.875239
8747.000000;0.875685
8746.000000;0.876077
8745.000000;0.876157
8744.000000;0.875832
8743.000000;0.875353
8742.000000;0.875106
8741.000000;0.875273
8740.000000;0.875745
8739.000000;0.876310
8738.000000;0.876837
8737.000000;0.877327
8736.000000;0.877910
8735.000000;0.878743
8734.000000;0.879792
8733.000000;0.880687
8732.000000;0.880901
8731.000000;0.880218
8730.000000;0.879005
8729.000000;0.877967
8728.000000;0.877585
8727.000000;0.877803
8726.000000;0.878239
8725.000000;0.878661
8724.000000;0.879176
8723.000000;0.879928
8722.000000;0.880752
8721.000000;0.881264
8720.000000;0.881291
8719.000000;0.881046
8718.000000;0.880838
8717.000000;0.880787
8716.000000;0.880899
8715.000000;0.881238
8714.000000;0.881848
8713.000000;0.882582
8712.000000;0.883226
8711.000000;0.883730
8710.000000;0.884163
8709.000000;0.884472
8708.000000;0.884487
8707.000000;0.884162
8706.000000;0.883653
8705.000000;0.883156
8704.000000;0.882839
8703.000000;0.882917
8702.000000;0.883545
8701.000000;0.884532
8700.000000;0.885400
8699.000000;0.885840
8698.000000;0.885966
8697.000000;0.886011
8696.000000;0.885985
8695.000000;0.885790
8694.000000;0.885512
8693.000000;0.885367
8692.000000;0.885452
8691.000000;0.885724
8690.000000;0.886121
8689.000000;0.886534
8688.000000;0.886739
8687.000000;0.886607
8686.000000;0.886341
8685.000000;0.886306
8684.000000;0.886654
8683.000000;0.887281
8682.000000;0.888085
8681.000000;0.889028
8680.000000;0.889914
8679.000000;0.890392
8678.000000;0.890293
8677.000000;0.889814
8676.000000;0.889296
8675.000000;0.888962
8674.000000;0.888898
8673.000000;0.889103
8672.000000;0.889455
8671.000000;0.889788
8670.000000;0.890086
8669.000000;0.890463
8668.000000;0.890873
8667.000000;0.891019
8666.000000;0.890696
8665.000000;0.890074
8664.000000;0.889496
8663.000000;0.889138
8662.000000;0.889025
8661.000000;0.889205
8660.000000;0.889690
8659.000000;0.890296
8658.000000;0.890776
8657.000000;0.891077
8656.000000;0.891279
8655.000000;0.891346
8654.000000;0.891182
8653.000000;0.890908
8652.000000;0.890814
8651.000000;0.891004
8650.000000;0.891279
8649.000000;0.891427
8648.000000;0.891427
8647.000000;0.891345
8646.000000;0.891242
8645.000000;0.891241
8644.000000;0.891457
8643.000000;0.891746
8642.000000;0.891789
8641.000000;0.891582
8640.000000;0.891562
8639.000000;0.892012
8638.000000;0.892583
8637.000000;0.892741
8636.000000;0.892518
8635.000000;0.892418
8634.000000;0.892653
8633.000000;0.892906
8632.000000;0.892939
8631.000000;0.893005
8630.000000;0.893428
8629.000000;0.894032
8628.000000;0.894262
8627.000000;0.893770
8626.000000;0.892700
8625.000000;0.891515
8624.000000;0.890720
8623.000000;0.890647
8622.000000;0.891247
8621.000000;0.892079
8620.000000;0.892650
8619.000000;0.892854
8618.000000;0.892985
8617.000000;0.893346
8616.000000;0.893902
8615.000000;0.894347
8614.000000;0.894458
8613.000000;0.894363
8612.000000;0.894405
8611.000000;0.894688
8610.000000;0.894831
8609.000000;0.894355
8608.000000;0.893328
8607.000000;0.892408
8606.000000;0.892168
8605.000000;0.892545
8604.000000;0.893093
8603.000000;0.893526
8602.000000;0.893811
8601.000000;0.893920
8600.000000;0.893822
8599.000000;0.893674
8598.000000;0.893695
8597.000000;0.893841
8596.000000;0.893833
8595.000000;0.893532
8594.000000;0.893058
8593.000000;0.892543
8592.000000;0.892057
8591.000000;0.891806
8590.000000;0.892091
8589.000000;0.892917
8588.000000;0.893891
8587.000000;0.894680
8586.000000;0.895333
8585.000000;0.895970
8584.000000;0.896398
8583.000000;0.896324
8582.000000;0.895837
8581.000000;0.895369
8580.000000;0.895198
8579.000000;0.895217
8578.000000;0.895181
8577.000000;0.894966
8576.000000;0.894547
8575.000000;0.893970
8574.000000;0.893420
8573.000000;0.893174
8572.000000;0.893341
8571.000000;0.893718
8570.000000;0.893986
8569.000000;0.894016
8568.000000;0.893927
8567.000000;0.893863
8566.000000;0.893783
8565.000000;0.893525
8564.000000;0.893080
8563.000000;0.892695
8562.000000;0.892613
8561.000000;0.892752
8560.000000;0.892826
8559.000000;0.892816
8558.000000;0.893080
8557.000000;0.893840
8556.000000;0.894720
8555.000000;0.895044
8554.000000;0.894567
8553.000000;0.893699
8552.000000;0.893021
8551.000000;0.892800
8550.000000;0.892971
8549.000000;0.893355
8548.000000;0.893788
8547.000000;0.894195
8546.000000;0.894641
8545.000000;0.895234
8544.000000;0.895903
8543.000000;0.896401
8542.000000;0.896554
8541.000000;0.896389
8540.000000;0.895958
8539.000000;0.895267
8538.000000;0.894477
8537.000000;0.894016
8536.000000;0.894199
8535.000000;0.894800
8534.000000;0.895218
8533.000000;0.895080
8532.000000;0.894522
8531.000000;0.893903
8530.000000;0.893469
8529.000000;0.893301
8528.000000;0.893336
8527.000000;0.893327
8526.000000;0.893012
8525.000000;0.892502
8524.000000;0.892331
8523.000000;0.892878
8522.000000;0.893817
8521.000000;0.894421
8520.000000;0.894404
8519.000000;0.894189
8518.000000;0.894270
8517.000000;0.894570
8516.000000;0.894641
8515.000000;0.894332
8514.000000;0.893984
8513.000000;0.893967
8512.000000;0.894228
8511.000000;0.894406
8510.000000;0.894275
8509.000000;0.893990
8508.000000;0.893924
8507.000000;0.894300
8506.000000;0.895001
8505.000000;0.895678
8504.000000;0.896012
8503.000000;0.895869
8502.000000;0.895273
8501.000000;0.894387
8500.000000;0.893544
8499.000000;0.893154
8498.000000;0.893406
8497.000000;0.894088
8496.000000;0.894786
8495.000000;0.895257
8494.000000;0.895540
8493.000000;0.895774
8492.000000;0.896024
8491.000000;0.896235
8490.000000;0.896245
8489.000000;0.895872
8488.000000;0.895135
8487.000000;0.894367
8486.000000;0.893961
8485.000000;0.893978
8484.000000;0.894125
8483.000000;0.894142
8482.000000;0.894082
8481.000000;0.894162
8480.000000;0.894480
8479.000000;0.894949
8478.000000;0.895379
8477.000000;0.895587
8476.000000;0.895533
8475.000000;0.895417
8474.000000;0.895522
8473.000000;0.895861
8472.000000;0.896100
8471.000000;0.895931
8470.000000;0.895418
8469.000000;0.894914
8468.000000;0.894709
8467.000000;0.894860
8466.000000;0.895259
8465.000000;0.895737
8464.000000;0.896123
8463.000000;0.896306
8462.000000;0.896262
8461.000000;0.896022
8460.000000;0.895658
8459.000000;0.895322
8458.000000;0.895170
8457.000000;0.895199
8456.000000;0.895274
8455.000000;0.895350
8454.000000;0.895536
8453.000000;0.895855
8452.000000;0.896122
8451.000000;0.896224
8450.000000;0.896331
8449.000000;0.896664
8448.000000;0.897165
8447.000000;0.897624
8446.000000;0.898029
8445.000000;0.898533
8444.000000;0.899094
8443.000000;0.899366
8442.000000;0.899033
8441.000000;0.898126
8440.000000;0.897000
8439.000000;0.896095
8438.000000;0.895657
8437.000000;0.895559
8436.000000;0.895418
8435.000000;0.895050
8434.000000;0.894716
8433.000000;0.894769
8432.000000;0.895128
8431.000000;0.895376
8430.000000;0.895320
8429.000000;0.895154
8428.000000;0.895042
8427.000000;0.894888
8426.000000;0.894632
8425.000000;0.894461
8424.000000;0.894521
8423.000000;0.894642
8422.000000;0.894619
8421.000000;0.894580
8420.000000;0.894823
8419.000000;0.895401
8418.000000;0.896093
8417.000000;0.896711
8416.000000;0.897189
8415.000000;0.897445
8414.000000;0.897407
8413.000000;0.897190
8412.000000;0.897026
8411.000000;0.896974
8410.000000;0.896889
8409.000000;0.896704
8408.000000;0.896590
8407.000000;0.896742
8406.000000;0.897146
8405.000000;0.897622
8404.000000;0.897979
8403.000000;0.898069
8402.000000;0.897852
8401.000000;0.897528
8400.000000;0.897485
8399.000000;0.897944
8398.000000;0.898688
8397.000000;0.899252
8396.000000;0.899357
8395.000000;0.899070
8394.000000;0.898623
8393.000000;0.898227
8392.000000;0.898063
8391.000000;0.898246
8390.000000;0.898702
8389.000000;0.899159
8388.000000;0.899348
8387.000000;0.899228
8386.000000;0.898964
8385.000000;0.898736
8384.000000;0.898603
8383.000000;0.898523
8382.000000;0.898456
8381.000000;0.898448
8380.000000;0.898600
8379.000000;0.898912
8378.000000;0.899204
8377.000000;0.899271
8376.000000;0.899116
8375.000000;0.898934
8374.000000;0.898830
8373.000000;0.898703
8372.000000;0.898484
8371.000000;0.898350
8370.000000;0.898544
8369.000000;0.899048
8368.000000;0.899601
8367.000000;0.900004
8366.000000;0.900246
8365.000000;0.900353
8364.000000;0.900330
8363.000000;0.900277
8362.000000;0.900354
8361.000000;0.900525
8360.000000;0.900492
8359.000000;0.900036
8358.000000;0.899336
8357.000000;0.898799
8356.000000;0.898638
8355.000000;0.898731
8354.000000;0.898855
8353.000000;0.898962
8352.000000;0.899179
8351.000000;0.899585
8350.000000;0.900001
8349.000000;0.900066
8348.000000;0.899632
8347.000000;0.899055
8346.000000;0.898916
8345.000000;0.899391
8344.000000;0.900026
8343.000000;0.900229
8342.000000;0.899849
8341.000000;0.899157
8340.000000;0.898447
8339.000000;0.897911
8338.000000;0.897768
8337.000000;0.898180
8336.000000;0.898959
8335.000000;0.899593
8334.000000;0.899685
8333.000000;0.899272
8332.000000;0.898665
8331.000000;0.898146
8330.000000;0.897880
8329.000000;0.897974
8328.000000;0.898442
8327.000000;0.899119
8326.000000;0.899729
8325.000000;0.900072
8324.000000;0.900129
8323.000000;0.900002
8322.000000;0.899789
8321.000000;0.899537
8320.000000;0.899312
8319.000000;0.899230
8318.000000;0.899335
8317.000000;0.899460
8316.000000;0.899367
8315.000000;0.899110
8314.000000;0.899092
8313.000000;0.899591
8312.000000;0.900327
8311.000000;0.900705
8310.000000;0.900455
8309.000000;0.899882
8308.000000;0.899488
8307.000000;0.899550
8306.000000;0.900070
8305.000000;0.900889
8304.000000;0.901729
8303.000000;0.902252
8302.000000;0.902260
8301.000000;0.901812
8300.000000;0.901136
8299.000000;0.900504
8298.000000;0.900136
8297.000000;0.900099
8296.000000;0.900225
8295.000000;0.900246
8294.000000;0.900064
8293.000000;0.899840
8292.000000;0.899809
8291.000000;0.900129
8290.000000;0.900853
8289.000000;0.901839
8288.000000;0.902642
8287.000000;0.902750
8286.000000;0.902102
8285.000000;0.901213
8284.000000;0.900632
8283.000000;0.900433
8282.000000;0.900370
8281.000000;0.900380
8280.000000;0.900650
8279.000000;0.901225
8278.000000;0.901790
8277.000000;0.901920
8276.000000;0.901481
8275.000000;0.900752
8274.000000;0.900243
8273.000000;0.900334
8272.000000;0.900970
8271.000000;0.901685
8270.000000;0.902006
8269.000000;0.901859
8268.000000;0.901533
8267.000000;0.901318
8266.000000;0.901304
8265.000000;0.901445
8264.000000;0.901628
8263.000000;0.901680
8262.000000;0.901472
8261.000000;0.901100
8260.000000;0.900852
8259.000000;0.900909
8258.000000;0.901149
8257.000000;0.901332
8256.000000;0.901386
8255.000000;0.901446
8254.000000;0.901612
8253.000000;0.901777
8252.000000;0.901717
8251.000000;0.901333
8250.000000;0.900792
8249.000000;0.900418
8248.000000;0.900431
8247.000000;0.900780
8246.000000;0.901225
8245.000000;0.901579
8244.000000;0.901851
8243.000000;0.902159
8242.000000;0.902530
8241.000000;0.902807
8240.000000;0.902768
8239.000000;0.902376
8238.000000;0.901887
8237.000000;0.901636
8236.000000;0.901717
8235.000000;0.901922
8234.000000;0.902031
8233.000000;0.902066
8232.000000;0.902189
8231.000000;0.902411
8230.000000;0.902572
8229.000000;0.902589
8228.000000;0.902588
8227.000000;0.902727
8226.000000;0.902949
8225.000000;0.902999
8224.000000;0.902669
8223.000000;0.902036
8222.000000;0.901476
8221.000000;0.901411
8220.000000;0.901956
8219.000000;0.902798
8218.000000;0.903468
8217.000000;0.903738
8216.000000;0.903712
8215.000000;0.903599
8214.000000;0.903512
8213.000000;0.903512
8212.000000;0.903676
8211.000000;0.903993
8210.000000;0.904285
8209.000000;0.904361
8208.000000;0.904229
8207.000000;0.904060
8206.000000;0.903942
8205.000000;0.903778
8204.000000;0.903452
8203.000000;0.903019
8202.000000;0.902663
8201.000000;0.902509
8200.000000;0.902530
8199.000000;0.902632
8198.000000;0.902763
8197.000000;0.902923
8196.000000;0.903117
8195.000000;0.903332
8194.000000;0.903564
8193.000000;0.903779
8192.000000;0.903847
8191.000000;0.903599
8190.000000;0.903035
8189.000000;0.902459
8188.000000;0.902280
8187.000000;0.902614
8186.000000;0.903175
8185.000000;0.903599
8184.000000;0.903795
8183.000000;0.903891
8182.000000;0.903916
8181.000000;0.903722
8180.000000;0.903266
8179.000000;0.902815
8178.000000;0.902730
8177.000000;0.903082
8176.000000;0.903573
8175.000000;0.903862
8174.000000;0.903882
8173.000000;0.903801
8172.000000;0.903739
8171.000000;0.903617
8170.000000;0.903321
8169.000000;0.902916
8168.000000;0.902626
8167.000000;0.902603
8166.000000;0.902805
8165.000000;0.903136
8164.000000;0.903603
8163.000000;0.904255
8162.000000;0.904991
8161.000000;0.905546
8160.000000;0.905714
8159.000000;0.905533
8158.000000;0.905207
8157.000000;0.904909
8156.000000;0.904698
8155.000000;0.904570
8154.000000;0.904512
8153.000000;0.904529
8152.000000;0.904670
8151.000000;0.905016
8150.000000;0.905574
8149.000000;0.906157
8148.000000;0.906440
8147.000000;0.906192
8146.000000;0.905510
8145.000000;0.904810
8144.000000;0.904550
8143.000000;0.904886
8142.000000;0.905545
8141.000000;0.906073
8140.000000;0.906236
8139.000000;0.906175
8138.000000;0.906151
8137.000000;0.906222
8136.000000;0.906225
8135.000000;0.906019
8134.000000;0.905650
8133.000000;0.905271
8132.000000;0.904999
8131.000000;0.904895
8130.000000;0.904997
8129.000000;0.905312
8128.000000;0.905773
8127.000000;0.906221
8126.000000;0.906452
8125.000000;0.906315
8124.000000;0.905823
8123.000000;0.905191
8122.000000;0.904712
8121.000000;0.904565
8120.000000;0.904733
8119.000000;0.905060
8118.000000;0.905370
8117.000000;0.905562
8116.000000;0.905681
8115.000000;0.905874
8114.000000;0.906233
8113.000000;0.906660
8112.000000;0.906965
8111.000000;0.907078
8110.000000;0.907111
8109.000000;0.907196
8108.000000;0.907362
8107.000000;0.907579
8106.000000;0.907816
8105.000000;0.908001
8104.000000;0.908012
8103.000000;0.907801
8102.000000;0.907485
8101.000000;0.907252
8100.000000;0.907211
8099.000000;0.907342
8098.000000;0.907533
8097.000000;0.907626
8096.000000;0.907531
8095.000000;0.907376
8094.000000;0.907446
8093.000000;0.907869
8092.000000;0.908404
8091.000000;0.908661
8090.000000;0.908510
8089.000000;0.908168
8088.000000;0.907917
8087.000000;0.907846
8086.000000;0.907864
8085.000000;0.907838
8084.000000;0.907654
8083.000000;0.907279
8082.000000;0.906837
8081.000000;0.906576
8080.000000;0.906683
8079.000000;0.907103
8078.000000;0.907586
8077.000000;0.907911
8076.000000;0.908038
8075.000000;0.908054
8074.000000;0.908003
8073.000000;0.907847
8072.000000;0.907592
8071.000000;0.907390
8070.000000;0.907422
8069.000000;0.907676
8068.000000;0.907949
8067.000000;0.908108
8066.000000;0.908246
8065.000000;0.908498
8064.000000;0.908789
8063.000000;0.908912
8062.000000;0.908823
8061.000000;0.908732
8060.000000;0.908872
8059.000000;0.909246
8058.000000;0.909639
8057.000000;0.909826
8056.000000;0.909746
8055.000000;0.909528
8054.000000;0.909344
8053.000000;0.909239
8052.000000;0.909102
8051.000000;0.908853
8050.000000;0.908594
8049.000000;0.908499
8048.000000;0.908600
8047.000000;0.908771
8046.000000;0.908909
8045.000000;0.909040
8044.000000;0.909229
8043.000000;0.909487
8042.000000;0.909778
8041.000000;0.910023
8040.000000;0.910109
8039.000000;0.909987
8038.000000;0.909783
8037.000000;0.909705
8036.000000;0.909783
8035.000000;0.909806
8034.000000;0.909592
8033.000000;0.909229
8032.000000;0.908974
8031.000000;0.908976
8030.000000;0.909205
8029.000000;0.909584
8028.000000;0.910058
8027.000000;0.910518
8026.000000;0.910773
8025.000000;0.910686
8024.000000;0.910305
8023.000000;0.909823
8022.000000;0.909404
8021.000000;0.909095
8020.000000;0.908901
8019.000000;0.908906
8018.000000;0.909236
8017.000000;0.909866
8016.000000;0.910528
8015.000000;0.910908
8014.000000;0.910930
8013.000000;0.910790
8012.000000;0.910716
8011.000000;0.910796
8010.000000;0.911022
8009.000000;0.911387
8008.000000;0.911857
8007.000000;0.912322
8006.000000;0.912658
8005.000000;0.912815
8004.000000;0.912787
8003.000000;0.912565
8002.000000;0.912188
8001.000000;0.911797
8000.000000;0.911539
7999.000000;0.911404
7998.000000;0.911244
7997.000000;0.910994
7996.000000;0.910804
7995.000000;0.910885
7994.000000;0.911245
7993.000000;0.911665
7992.000000;0.911932
7991.000000;0.912061
7990.000000;0.912215
7989.000000;0.912460
7988.000000;0.912659
7987.000000;0.912659
7986.000000;0.912476
7985.000000;0.912252
7984.000000;0.912076
7983.000000;0.911964
7982.000000;0.911946
7981.000000;0.912052
7980.000000;0.912175
7979.000000;0.912089
7978.000000;0.911717
7977.000000;0.911302
7976.000000;0.911225
7975.000000;0.911638
7974.000000;0.912295
7973.000000;0.912752
7972.000000;0.912734
7971.000000;0.912373
7970.000000;0.912098
7969.000000;0.912219
7968.000000;0.912608
7967.000000;0.912844
7966.000000;0.912721
7965.000000;0.912478
7964.000000;0.912453
7963.000000;0.912656
7962.000000;0.912821
7961.000000;0.912794
7960.000000;0.912671
7959.000000;0.912572
7958.000000;0.912521
7957.000000;0.912575
7956.000000;0.912864
7955.000000;0.913396
7954.000000;0.913961
7953.000000;0.914344
7952.000000;0.914520
7951.000000;0.914547
7950.000000;0.914408
7949.000000;0.914123
7948.000000;0.913908
7947.000000;0.913993
7946.000000;0.914296
7945.000000;0.914464
7944.000000;0.914293
7943.000000;0.913935
7942.000000;0.913665
7941.000000;0.913593
7940.000000;0.913702
7939.000000;0.914003
7938.000000;0.914519
7937.000000;0.915165
7936.000000;0.915788
7935.000000;0.916290
7934.000000;0.916634
7933.000000;0.916764
7932.000000;0.916629
7931.000000;0.916260
7930.000000;0.915746
7929.000000;0.915181
7928.000000;0.914706
7927.000000;0.914545
7926.000000;0.914811
7925.000000;0.915298
7924.000000;0.915605
7923.000000;0.915544
7922.000000;0.915319
7921.000000;0.915252
7920.000000;0.915424
7919.000000;0.915679
7918.000000;0.915868
7917.000000;0.915987
7916.000000;0.916101
7915.000000;0.916242
7914.000000;0.916392
7913.000000;0.916533
7912.000000;0.916689
7911.000000;0.916928
7910.000000;0.917288
7909.000000;0.917677
7908.000000;0.917913
7907.000000;0.917901
7906.000000;0.917747
7905.000000;0.917626
7904.000000;0.917586
7903.000000;0.917536
7902.000000;0.917412
7901.000000;0.917278
7900.000000;0.917245
7899.000000;0.917337
7898.000000;0.917464
7897.000000;0.917520
7896.000000;0.917515
7895.000000;0.917555
7894.000000;0.917682
7893.000000;0.917770
7892.000000;0.917682
7891.000000;0.917513
7890.000000;0.917548
7889.000000;0.917919
7888.000000;0.918412
7887.000000;0.918715
7886.000000;0.918769
7885.000000;0.918763
7884.000000;0.918830
7883.000000;0.918901
7882.000000;0.918860
7881.000000;0.918713
7880.000000;0.918583
7879.000000;0.918611
7878.000000;0.918889
7877.000000;0.919383
7876.000000;0.919885
7875.000000;0.920132
7874.000000;0.920028
7873.000000;0.919740
7872.000000;0.919521
7871.000000;0.919475
7870.000000;0.919492
7869.000000;0.919417
7868.000000;0.919255
7867.000000;0.919192
7866.000000;0.919400
7865.000000;0.919809
7864.000000;0.920156
7863.000000;0.920271
7862.000000;0.920265
7861.000000;0.920336
7860.000000;0.920477
7859.000000;0.920485
7858.000000;0.920250
7857.000000;0.919915
7856.000000;0.919723
7855.000000;0.919810
7854.000000;0.920145
7853.000000;0.920574
7852.000000;0.920907
7851.000000;0.921060
7850.000000;0.921156
7849.000000;0.921392
7848.000000;0.921778
7847.000000;0.922078
7846.000000;0.922074
7845.000000;0.921801
7844.000000;0.921491
7843.000000;0.921369
7842.000000;0.921536
7841.000000;0.921940
7840.000000;0.922382
7839.000000;0.922633
7838.000000;0.922638
7837.000000;0.922559
7836.000000;0.922548
7835.000000;0.922559
7834.000000;0.922466
7833.000000;0.922293
7832.000000;0.922183
7831.000000;0.922197
7830.000000;0.922252
7829.000000;0.922285
7828.000000;0.922330
7827.000000;0.922422
7826.000000;0.922541
7825.000000;0.922682
7824.000000;0.922881
7823.000000;0.923088
7822.000000;0.923117
7821.000000;0.922852
7820.000000;0.922481
7819.000000;0.922392
7818.000000;0.922795
7817.000000;0.923503
7816.000000;0.924158
7815.000000;0.924612
7814.000000;0.925006
7813.000000;0.925485
7812.000000;0.925946
7811.000000;0.926149
7810.000000;0.926005
7809.000000;0.925641
7808.000000;0.925233
7807.000000;0.924875
7806.000000;0.924616
7805.000000;0.924507
7804.000000;0.924535
7803.000000;0.924587
7802.000000;0.924601
7801.000000;0.924687
7800.000000;0.925002
7799.000000;0.925491
7798.000000;0.925858
7797.000000;0.925862
7796.000000;0.925591
7795.000000;0.925381
7794.000000;0.925467
7793.000000;0.925780
7792.000000;0.926089
7791.000000;0.926300
7790.000000;0.926545
7789.000000;0.926960
7788.000000;0.927453
7787.000000;0.927762
7786.000000;0.927728
7785.000000;0.927433
7784.000000;0.927078
7783.000000;0.926802
7782.000000;0.926675
7781.000000;0.926782
7780.000000;0.927203
7779.000000;0.927872
7778.000000;0.928546
7777.000000;0.928956
7776.000000;0.929018
7775.000000;0.928880
7774.000000;0.928765
7773.000000;0.928780
7772.000000;0.928874
7771.000000;0.928971
7770.000000;0.929070
7769.000000;0.929192
7768.000000;0.929283
7767.000000;0.929257
7766.000000;0.929157
7765.000000;0.929163
7764.000000;0.929401
7763.000000;0.929783
7762.000000;0.930110
7761.000000;0.930303
7760.000000;0.930482
7759.000000;0.930802
7758.000000;0.931269
7757.000000;0.931709
7756.000000;0.931886
7755.000000;0.931673
7754.000000;0.931161
7753.000000;0.930627
7752.000000;0.930361
7751.000000;0.930465
7750.000000;0.930783
7749.000000;0.931040
7748.000000;0.931093
7747.000000;0.931071
7746.000000;0.931262
7745.000000;0.931813
7744.000000;0.932562
7743.000000;0.933178
7742.000000;0.933462
7741.000000;0.933495
7740.000000;0.933503
7739.000000;0.933645
7738.000000;0.933928
7737.000000;0.934242
7736.000000;0.934465
7735.000000;0.934572
7734.000000;0.934662
7733.000000;0.934824
7732.000000;0.934975
7731.000000;0.934921
7730.000000;0.934639
7729.000000;0.934393
7728.000000;0.934482
7727.000000;0.934930
7726.000000;0.935510
7725.000000;0.935998
7724.000000;0.936299
7723.000000;0.936375
7722.000000;0.936238
7721.000000;0.936040
7720.000000;0.935999
7719.000000;0.936164
7718.000000;0.936353
7717.000000;0.936424
7716.000000;0.936498
7715.000000;0.936791
7714.000000;0.937289
7713.000000;0.937750
7712.000000;0.938005
7711.000000;0.938136
7710.000000;0.938292
7709.000000;0.938458
7708.000000;0.938504
7707.000000;0.938381
7706.000000;0.938185
7705.000000;0.938041
7704.000000;0.938017
7703.000000;0.938137
7702.000000;0.938394
7701.000000;0.938714
7700.000000;0.938983
7699.000000;0.939146
7698.000000;0.939245
7697.000000;0.939326
7696.000000;0.939382
7695.000000;0.939413
7694.000000;0.939510
7693.000000;0.939779
7692.000000;0.940226
7691.000000;0.940749
7690.000000;0.941253
7689.000000;0.941685
7688.000000;0.941970
7687.000000;0.942021
7686.000000;0.941842
7685.000000;0.941547
7684.000000;0.941247
7683.000000;0.940966
7682.000000;0.940724
7681.000000;0.940629
7680.000000;0.940817
7679.000000;0.941311
7678.000000;0.942002
7677.000000;0.942733
7676.000000;0.943362
7675.000000;0.943785
7674.000000;0.943987
7673.000000;0.944071
7672.000000;0.944145
7671.000000;0.944208
7670.000000;0.944207
7669.000000;0.944204
7668.000000;0.944360
7667.000000;0.944730
7666.000000;0.945168
7665.000000;0.945480
7664.000000;0.945612
7663.000000;0.945617
7662.000000;0.945535
7661.000000;0.945391
7660.000000;0.945279
7659.000000;0.945330
7658.000000;0.945580
7657.000000;0.945931
7656.000000;0.946246
7655.000000;0.946437
7654.000000;0.946478
7653.000000;0.946427
7652.000000;0.946444
7651.000000;0.946705
7650.000000;0.947233
7649.000000;0.947831
7648.000000;0.948251
7647.000000;0.948409
7646.000000;0.948427
7645.000000;0.948484
7644.000000;0.948685
7643.000000;0.949016
7642.000000;0.949388
7641.000000;0.949703
7640.000000;0.949950
7639.000000;0.950219
7638.000000;0.950588
7637.000000;0.950974
7636.000000;0.951191
7635.000000;0.951171
7634.000000;0.951104
7633.000000;0.951253
7632.000000;0.951692
7631.000000;0.952256
7630.000000;0.952754
7629.000000;0.953123
7628.000000;0.953379
7627.000000;0.953534
7626.000000;0.953642
7625.000000;0.953824
7624.000000;0.954129
7623.000000;0.954402
7622.000000;0.954436
7621.000000;0.954278
7620.000000;0.954260
7619.000000;0.954652
7618.000000;0.955367
7617.000000;0.956100
7616.000000;0.956647
7615.000000;0.956973
7614.000000;0.957046
7613.000000;0.956812
7612.000000;0.956415
7611.000000;0.956240
7610.000000;0.956569
7609.000000;0.957253
7608.000000;0.957847
7607.000000;0.958089
7606.000000;0.958120
7605.000000;0.958219
7604.000000;0.958459
7603.000000;0.958713
7602.000000;0.958906
7601.000000;0.959109
7600.000000;0.959378
7599.000000;0.959640
7598.000000;0.959806
7597.000000;0.959935
7596.000000;0.960204
7595.000000;0.960702
7594.000000;0.961338
7593.000000;0.961933
7592.000000;0.962379
7591.000000;0.962706
7590.000000;0.963047
7589.000000;0.963529
7588.000000;0.964147
7587.000000;0.964724
7586.000000;0.965046
7585.000000;0.965076
7584.000000;0.965014
7583.000000;0.965095
7582.000000;0.965400
7581.000000;0.965862
7580.000000;0.966383
7579.000000;0.966866
7578.000000;0.967196
7577.000000;0.967312
7576.000000;0.967295
7575.000000;0.967287
7574.000000;0.967354
7573.000000;0.967488
7572.000000;0.967730
7571.000000;0.968136
7570.000000;0.968621
7569.000000;0.968997
7568.000000;0.969224
7567.000000;0.969492
7566.000000;0.969958
7565.000000;0.970529
7564.000000;0.971012
7563.000000;0.971377
7562.000000;0.971741
7561.000000;0.972164
7560.000000;0.972592
7559.000000;0.972968
7558.000000;0.973262
7557.000000;0.973428
7556.000000;0.973485
7555.000000;0.973611
7554.000000;0.973977
7553.000000;0.974481
7552.000000;0.974806
7551.000000;0.974808
7550.000000;0.974722
7549.000000;0.974885
7548.000000;0.975361
7547.000000;0.975935
7546.000000;0.976394
7545.000000;0.976711
7544.000000;0.976986
7543.000000;0.977293
7542.000000;0.977629
7541.000000;0.977969
7540.000000;0.978345
7539.000000;0.978832
7538.000000;0.979401
7537.000000;0.979868
7536.000000;0.980079
7535.000000;0.980137
7534.000000;0.980312
7533.000000;0.980729
7532.000000;0.981252
7531.000000;0.981714
7530.000000;0.982103
7529.000000;0.982469
7528.000000;0.982769
7527.000000;0.982942
7526.000000;0.983052
7525.000000;0.983229
7524.000000;0.983526
7523.000000;0.983939
7522.000000;0.984509
7521.000000;0.985291
7520.000000;0.986225
7519.000000;0.987148
7518.000000;0.987925
7517.000000;0.988497
7516.000000;0.988826
7515.000000;0.988911
7514.000000;0.988854
7513.000000;0.988836
7512.000000;0.988983
7511.000000;0.989313
7510.000000;0.989794
7509.000000;0.990388
7508.000000;0.991010
7507.000000;0.991503
7506.000000;0.991710
7505.000000;0.991600
7504.000000;0.991349
7503.000000;0.991282
7502.000000;0.991637
7501.000000;0.992367
7500.000000;0.993200
7499.000000;0.993952
7498.000000;0.994677
7497.000000;0.995458
7496.000000;0.996160
7495.000000;0.996530
7494.000000;0.996523
7493.000000;0.996415
7492.000000;0.996524
7491.000000;0.996976
7490.000000;0.997630
7489.000000;0.998235
7488.000000;0.998641
7487.000000;0.998881
7486.000000;0.999111
7485.000000;0.999427
7484.000000;0.999792
7483.000000;1.000138
7482.000000;1.000481
7481.000000;1.000857
7480.000000;1.001237
7479.000000;1.001607
7478.000000;1.002053
7477.000000;1.002622
7476.000000;1.003156
7475.000000;1.003435
7474.000000;1.003502
7473.000000;1.003662
7472.000000;1.004112
7471.000000;1.004732
7470.000000;1.005309
7469.000000;1.005829
7468.000000;1.006446
7467.000000;1.007253
7466.000000;1.008168
7465.000000;1.009000
7464.000000;1.009547
7463.000000;1.009713
7462.000000;1.009632
7461.000000;1.009614
7460.000000;1.009892
7459.000000;1.010424
7458.000000;1.010988
7457.000000;1.011428
7456.000000;1.011741
7455.000000;1.011976
7454.000000;1.012137
7453.000000;1.012208
7452.000000;1.012236
7451.000000;1.012358
7450.000000;1.012728
7449.000000;1.013376
7448.000000;1.014138
7447.000000;1.014789
7446.000000;1.015245
7445.000000;1.015598
7444.000000;1.015954
7443.000000;1.016339
7442.000000;1.016784
7441.000000;1.017355
7440.000000;1.018007
7439.000000;1.018493
7438.000000;1.018594
7437.000000;1.018435
7436.000000;1.018443
7435.000000;1.018934
7434.000000;1.019814
7433.000000;1.020700
7432.000000;1.021287
7431.000000;1.021555
7430.000000;1.021674
7429.000000;1.021816
7428.000000;1.022071
7427.000000;1.022461
7426.000000;1.022940
7425.000000;1.023379
7424.000000;1.023649
7423.000000;1.023770
7422.000000;1.023960
7421.000000;1.024418
7420.000000;1.025072
7419.000000;1.025605
7418.000000;1.025778
7417.000000;1.025683
7416.000000;1.025663
7415.000000;1.026017
7414.000000;1.026793
7413.000000;1.027788
7412.000000;1.028709
7411.000000;1.029349
7410.000000;1.029683
7409.000000;1.029804
7408.000000;1.029822
7407.000000;1.029839
7406.000000;1.029972
7405.000000;1.030294
7404.000000;1.030761
7403.000000;1.031258
7402.000000;1.031731
7401.000000;1.032188
7400.000000;1.032618
7399.000000;1.032986
7398.000000;1.033323
7397.000000;1.033682
7396.000000;1.033998
7395.000000;1.034140
7394.000000;1.034158
7393.000000;1.034332
7392.000000;1.034883
7391.000000;1.035716
7390.000000;1.036528
7389.000000;1.037111
7388.000000;1.037471
7387.000000;1.037723
7386.000000;1.037979
7385.000000;1.038289
7384.000000;1.038586
7383.000000;1.038728
7382.000000;1.038682
7381.000000;1.038628
7380.000000;1.038765
7379.000000;1.039024
7378.000000;1.039154
7377.000000;1.039097
7376.000000;1.039145
7375.000000;1.039657
7374.000000;1.040678
7373.000000;1.041866
7372.000000;1.042769
7371.000000;1.043173
7370.000000;1.043289
7369.000000;1.043562
7368.000000;1.044226
7367.000000;1.045061
7366.000000;1.045669
7365.000000;1.045913
7364.000000;1.045970
7363.000000;1.046025
7362.000000;1.046158
7361.000000;1.046476
7360.000000;1.047104
7359.000000;1.047915
7358.000000;1.048523
7357.000000;1.048722
7356.000000;1.048774
7355.000000;1.049086
7354.000000;1.049711
7353.000000;1.050329
7352.000000;1.050648
7351.000000;1.050684
7350.000000;1.050703
7349.000000;1.051013
7348.000000;1.051731
7347.000000;1.052630
7346.000000;1.053297
7345.000000;1.053518
7344.000000;1.053451
7343.000000;1.053334
7342.000000;1.053235
7341.000000;1.053193
7340.000000;1.053456
7339.000000;1.054269
7338.000000;1.055485
7337.000000;1.056651
7336.000000;1.057509
7335.000000;1.058166
7334.000000;1.058788
7333.000000;1.059378
7332.000000;1.059872
7331.000000;1.060252
7330.000000;1.060534
7329.000000;1.060805
7328.000000;1.061264
7327.000000;1.062022
7326.000000;1.062856
7325.000000;1.063390
7324.000000;1.063589
7323.000000;1.063873
7322.000000;1.064634
7321.000000;1.065783
7320.000000;1.066885
7319.000000;1.067649
7318.000000;1.068136
7317.000000;1.068578
7316.000000;1.069118
7315.000000;1.069718
7314.000000;1.070217
7313.000000;1.070510
7312.000000;1.070713
7311.000000;1.071034
7310.000000;1.071446
7309.000000;1.071710
7308.000000;1.071822
7307.000000;1.072221
7306.000000;1.073326
7305.000000;1.074963
7304.000000;1.076492
7303.000000;1.077474
7302.000000;1.078036
7301.000000;1.078588
7300.000000;1.079386
7299.000000;1.080382
7298.000000;1.081290
7297.000000;1.081793
7296.000000;1.081869
7295.000000;1.081986
7294.000000;1.082762
7293.000000;1.084285
7292.000000;1.085947
7291.000000;1.087083
7290.000000;1.087620
7289.000000;1.088011
7288.000000;1.088693
7287.000000;1.089763
7286.000000;1.091049
7285.000000;1.092298
7284.000000;1.093324
7283.000000;1.094122
7282.000000;1.094905
7281.000000;1.095919
7280.000000;1.097200
7279.000000;1.098564
7278.000000;1.099792
7277.000000;1.100746
7276.000000;1.101407
7275.000000;1.101949
7274.000000;1.102694
7273.000000;1.103829
7272.000000;1.105168
7271.000000;1.106341
7270.000000;1.107238
7269.000000;1.108133
7268.000000;1.109333
7267.000000;1.110841
7266.000000;1.112396
7265.000000;1.113743
7264.000000;1.114846
7263.000000;1.115943
7262.000000;1.117400
7261.000000;1.119358
7260.000000;1.121488
7259.000000;1.123254
7258.000000;1.124463
7257.000000;1.125397
7256.000000;1.126385
7255.000000;1.127455
7254.000000;1.128502
7253.000000;1.129603
7252.000000;1.130941
7251.000000;1.132528
7250.000000;1.134204
7249.000000;1.135913
7248.000000;1.137804
7247.000000;1.139960
7246.000000;1.142168
7245.000000;1.144097
7244.000000;1.145688
7243.000000;1.147262
7242.000000;1.149185
7241.000000;1.151440
7240.000000;1.153620
7239.000000;1.155418
7238.000000;1.157005
7237.000000;1.158774
7236.000000;1.160769
7235.000000;1.162604
7234.000000;1.164044
7233.000000;1.165475
7232.000000;1.167603
7231.000000;1.170678
7230.000000;1.174169
7229.000000;1.177253
7228.000000;1.179546
7227.000000;1.181325
7226.000000;1.183187
7225.000000;1.185567
7224.000000;1.188442
7223.000000;1.191399
7222.000000;1.194050
7221.000000;1.196410
7220.000000;1.198793
7219.000000;1.201446
7218.000000;1.204369
7217.000000;1.207429
7216.000000;1.210494
7215.000000;1.213480
7214.000000;1.216417
7213.000000;1.219457
7212.000000;1.222670
7211.000000;1.225869
7210.000000;1.228821
7209.000000;1.231599
7208.000000;1.234534
7207.000000;1.237785
7206.000000;1.241148
7205.000000;1.244400
7204.000000;1.247648
7203.000000;1.251136
7202.000000;1.254827
7201.000000;1.258429
7200.000000;1.261812
7199.000000;1.265189
7198.000000;1.268855
7197.000000;1.272862
7196.000000;1.277010
7195.000000;1.281087
7194.000000;1.285048
7193.000000;1.289005
7192.000000;1.293082
7191.000000;1.297292
7190.000000;1.301472
7189.000000;1.305364
7188.000000;1.308826
7187.000000;1.312015
7186.000000;1.315290
7185.000000;1.318878
7184.000000;1.322685
7183.000000;1.326554
7182.000000;1.330640
7181.000000;1.335325
7180.000000;1.340685
7179.000000;1.346222
7178.000000;1.351340
7177.000000;1.355969
7176.000000;1.360526
7175.000000;1.365301
7174.000000;1.370113
7173.000000;1.374638
7172.000000;1.378872
7171.000000;1.383101
7170.000000;1.387515
7169.000000;1.392047
7168.000000;1.396624
7167.000000;1.401405
7166.000000;1.406633
7165.000000;1.412242
7164.000000;1.417762
7163.000000;1.422760
7162.000000;1.427300
7161.000000;1.431861
7160.000000;1.436814
7159.000000;1.442062
7158.000000;1.447214
7157.000000;1.452031
7156.000000;1.456635
7155.000000;1.461382
7154.000000;1.466611
7153.000000;1.472396
7152.000000;1.478427
7151.000000;1.484176
7150.000000;1.489310
7149.000000;1.493949
7148.000000;1.498505
7147.000000;1.503332
7146.000000;1.508556
7145.000000;1.514098
7144.000000;1.519717
7143.000000;1.525079
7142.000000;1.529979
7141.000000;1.534558
7140.000000;1.539186
7139.000000;1.544096
7138.000000;1.549217
7137.000000;1.554340
7136.000000;1.559275
7135.000000;1.563867
7134.000000;1.568104
7133.000000;1.572322
7132.000000;1.577097
7131.000000;1.582765
7130.000000;1.589117
7129.000000;1.595591
7128.000000;1.601659
7127.000000;1.607028
7126.000000;1.611711
7125.000000;1.616037
7124.000000;1.620467
7123.000000;1.625239
7122.000000;1.630196
7121.000000;1.635011
7120.000000;1.639520
7119.000000;1.643839
7118.000000;1.648307
7117.000000;1.653356
7116.000000;1.659190
7115.000000;1.665442
7114.000000;1.671350
7113.000000;1.676388
7112.000000;1.680625
7111.000000;1.684524
7110.000000;1.688592
7109.000000;1.693246
7108.000000;1.698619
7107.000000;1.704234
7106.000000;1.709165
7105.000000;1.712916
7104.000000;1.715941
7103.000000;1.718992
7102.000000;1.722246
7101.000000;1.725512
7100.000000;1.729026
7099.000000;1.733389
7098.000000;1.738682
7097.000000;1.744234
7096.000000;1.749452
7095.000000;1.754391
7094.000000;1.759215
7093.000000;1.763581
7092.000000;1.767021
7091.000000;1.769694
7090.000000;1.772298
7089.000000;1.775354
7088.000000;1.778826
7087.000000;1.782407
7086.000000;1.785989
7085.000000;1.789839
7084.000000;1.794285
7083.000000;1.799186
7082.000000;1.803785
7081.000000;1.807386
7080.000000;1.810196
7079.000000;1.813112
7078.000000;1.816603
7077.000000;1.820203
7076.000000;1.823295
7075.000000;1.826059
7074.000000;1.829184
7073.000000;1.832791
7072.000000;1.836211
7071.000000;1.838952
7070.000000;1.841478
7069.000000;1.844636
7068.000000;1.848483
7067.000000;1.852045
7066.000000;1.854382
7065.000000;1.855752
7064.000000;1.857483
7063.000000;1.860622
7062.000000;1.864907
7061.000000;1.869146
7060.000000;1.872505
7059.000000;1.875201
7058.000000;1.877909
7057.000000;1.880848
7056.000000;1.883596
7055.000000;1.885556
7054.000000;1.886401
7053.000000;1.886341
7052.000000;1.886269
7051.000000;1.887350
7050.000000;1.890014
7049.000000;1.893422
7048.000000;1.896303
7047.000000;1.898365
7046.000000;1.900459
7045.000000;1.903247
7044.000000;1.906245
7043.000000;1.908590
7042.000000;1.910366
7041.000000;1.912477
7040.000000;1.915381
7039.000000;1.918514
7038.000000;1.921048
7037.000000;1.922915
7036.000000;1.924787
7035.000000;1.927174
7034.000000;1.929858
7033.000000;1.932257
7032.000000;1.934150
7031.000000;1.935805
7030.000000;1.937339
7029.000000;1.938284
7028.000000;1.938180
7027.000000;1.937583
7026.000000;1.937952
7025.000000;1.940234
7024.000000;1.943823
7023.000000;1.947172
7022.000000;1.949238
7021.000000;1.950033
7020.000000;1.950050
7019.000000;1.949788
7018.000000;1.949861
7017.000000;1.950877
7016.000000;1.952854
7015.000000;1.955131
7014.000000;1.957152
7013.000000;1.959014
7012.000000;1.961003
7011.000000;1.962919
7010.000000;1.964228
7009.000000;1.964775
7008.000000;1.964991
7007.000000;1.965382
7006.000000;1.966053
7005.000000;1.966714
7004.000000;1.967025
7003.000000;1.966939
7002.000000;1.966762
7001.000000;1.966810
7000.000000;1.966991
6999.000000;1.966919
6998.000000;1.966558
6997.000000;1.966553
6996.000000;1.967662
6995.000000;1.969887
6994.000000;1.972271
6993.000000;1.973583
6992.000000;1.973363
6991.000000;1.972505
6990.000000;1.972703
6989.000000;1.974929
6988.000000;1.978284
6987.000000;1.980644
6986.000000;1.980766
6985.000000;1.979454
6984.000000;1.978348
6983.000000;1.978066
6982.000000;1.978092
6981.000000;1.978101
6980.000000;1.978674
6979.000000;1.980526
6978.000000;1.983514
6977.000000;1.986680
6976.000000;1.989020
6975.000000;1.990070
6974.000000;1.989973
6973.000000;1.989195
6972.000000;1.988146
6971.000000;1.986997
6970.000000;1.985822
6969.000000;1.984852
6968.000000;1.984502
6967.000000;1.985135
6966.000000;1.986725
6965.000000;1.988634
6964.000000;1.989828
6963.000000;1.989688
6962.000000;1.988658
6961.000000;1.987746
6960.000000;1.987385
6959.000000;1.987273
6958.000000;1.987457
6957.000000;1.988751
6956.000000;1.991475
6955.000000;1.994305
6954.000000;1.995229
6953.000000;1.993620
6952.000000;1.990670
6951.000000;1.987986
6950.000000;1.986574
6949.000000;1.986924
6948.000000;1.988902
6947.000000;1.991299
6946.000000;1.992504
6945.000000;1.992237
6944.000000;1.991875
6943.000000;1.992529
6942.000000;1.993567
6941.000000;1.993659
6940.000000;1.992680
6939.000000;1.991694
6938.000000;1.991353
6937.000000;1.991277
6936.000000;1.991013
6935.000000;1.990757
6934.000000;1.990813
6933.000000;1.990970
6932.000000;1.990836
6931.000000;1.990458
6930.000000;1.990201
6929.000000;1.990170
6928.000000;1.990095
6927.000000;1.989741
6926.000000;1.989194
6925.000000;1.988697
6924.000000;1.988348
6923.000000;1.988036
6922.000000;1.987659
6921.000000;1.987335
6920.000000;1.987342
6919.000000;1.987753
6918.000000;1.988150
6917.000000;1.987908
6916.000000;1.986951
6915.000000;1.986055
6914.000000;1.986073
6913.000000;1.986927
6912.000000;1.987708
6911.000000;1.987869
6910.000000;1.987869
6909.000000;1.988297
6908.000000;1.988791
6907.000000;1.988500
6906.000000;1.987412
6905.000000;1.986415
6904.000000;1.985998
6903.000000;1.985634
6902.000000;1.984741
6901.000000;1.983605
6900.000000;1.983007
6899.000000;1.983444
6898.000000;1.985045
6897.000000;1.987586
6896.000000;1.990101
6895.000000;1.991115
6894.000000;1.990101
6893.000000;1.988285
6892.000000;1.987157
6891.000000;1.986639
6890.000000;1.985630
6889.000000;1.983970
6888.000000;1.982678
6887.000000;1.982325
6886.000000;1.982347
6885.000000;1.982161
6884.000000;1.981932
6883.000000;1.981866
6882.000000;1.981699
6881.000000;1.981404
6880.000000;1.981548
6879.000000;1.982363
6878.000000;1.983111
6877.000000;1.983034
6876.000000;1.982395
6875.000000;1.981915
6874.000000;1.981579
6873.000000;1.980781
6872.000000;1.979383
6871.000000;1.977880
6870.000000;1.976626
6869.000000;1.975538
6868.000000;1.974512
6867.000000;1.973652
6866.000000;1.973147
6865.000000;1.973282
6864.000000;1.974387
6863.000000;1.976254
6862.000000;1.977771
6861.000000;1.977720
6860.000000;1.975977
6859.000000;1.973474
6858.000000;1.971166
6857.000000;1.969523
6856.000000;1.968792
6855.000000;1.969098
6854.000000;1.970140
6853.000000;1.971203
6852.000000;1.971710
6851.000000;1.971519
6850.000000;1.970656
6849.000000;1.969271
6848.000000;1.967988
6847.000000;1.967690
6846.000000;1.968506
6845.000000;1.969371
6844.000000;1.969032
6843.000000;1.967360
6842.000000;1.965346
6841.000000;1.963958
6840.000000;1.963315
6839.000000;1.962820
6838.000000;1.961826
6837.000000;1.960177
6836.000000;1.958277
6835.000000;1.956601
6834.000000;1.955089
6833.000000;1.953184
6832.000000;1.950622
6831.000000;1.948016
6830.000000;1.946351
6829.000000;1.945956
6828.000000;1.946204
6827.000000;1.946184
6826.000000;1.945446
6825.000000;1.944168
6824.000000;1.942861
6823.000000;1.941912
6822.000000;1.941215
6821.000000;1.940191
6820.000000;1.938398
6819.000000;1.936222
6818.000000;1.934657
6817.000000;1.934168
6816.000000;1.934038
6815.000000;1.933181
6814.000000;1.931467
6813.000000;1.929746
6812.000000;1.928526
6811.000000;1.927213
6810.000000;1.925000
6809.000000;1.922139
6808.000000;1.919743
6807.000000;1.918375
6806.000000;1.917376
6805.000000;1.915769
6804.000000;1.913447
6803.000000;1.911123
6802.000000;1.909350
6801.000000;1.908027
6800.000000;1.906863
6799.000000;1.905863
6798.000000;1.905124
6797.000000;1.904343
6796.000000;1.902919
6795.000000;1.900666
6794.000000;1.898224
6793.000000;1.896490
6792.000000;1.895595
6791.000000;1.894639
6790.000000;1.892594
6789.000000;1.889356
6788.000000;1.885771
6787.000000;1.882770
6786.000000;1.880742
6785.000000;1.879646
6784.000000;1.879232
6783.000000;1.878881
6782.000000;1.877617
6781.000000;1.874863
6780.000000;1.871214
6779.000000;1.868024
6778.000000;1.866081
6777.000000;1.864948
6776.000000;1.863670
6775.000000;1.861843
6774.000000;1.859765
6773.000000;1.857803
6772.000000;1.856052
6771.000000;1.854545
6770.000000;1.853292
6769.000000;1.851971
6768.000000;1.850000
6767.000000;1.847222
6766.000000;1.844264
6765.000000;1.841862
6764.000000;1.839953
6763.000000;1.837798
6762.000000;1.834991
6761.000000;1.832038
6760.000000;1.829716
6759.000000;1.828098
6758.000000;1.826487
6757.000000;1.824297
6756.000000;1.821758
6755.000000;1.819600
6754.000000;1.818137
6753.000000;1.816898
6752.000000;1.815282
6751.000000;1.813334
6750.000000;1.811610
6749.000000;1.810328
6748.000000;1.809035
6747.000000;1.807282
6746.000000;1.805334
6745.000000;1.803789
6744.000000;1.802577
6743.000000;1.800822
6742.000000;1.797901
6741.000000;1.794317
6740.000000;1.791245
6739.000000;1.789349
6738.000000;1.788239
6737.000000;1.786931
6736.000000;1.784702
6735.000000;1.781625
6734.000000;1.778451
6733.000000;1.775951
6732.000000;1.774240
6731.000000;1.772809
6730.000000;1.771208
6729.000000;1.769484
6728.000000;1.767847
6727.000000;1.766245
6726.000000;1.764533
6725.000000;1.762866
6724.000000;1.761458
6723.000000;1.760027
6722.000000;1.757927
6721.000000;1.755010
6720.000000;1.751946
6719.000000;1.749459
6718.000000;1.747519
6717.000000;1.745570
6716.000000;1.743364
6715.000000;1.741242
6714.000000;1.739572
6713.000000;1.738233
6712.000000;1.736761
6711.000000;1.734857
6710.000000;1.732635
6709.000000;1.730402
6708.000000;1.728320
6707.000000;1.726337
6706.000000;1.724370
6705.000000;1.722409
6704.000000;1.720412
6703.000000;1.718243
6702.000000;1.715852
6701.000000;1.713489
6700.000000;1.711496
6699.000000;1.709906
6698.000000;1.708243
6697.000000;1.705961
6696.000000;1.703161
6695.000000;1.700381
6694.000000;1.698170
6693.000000;1.696685
6692.000000;1.695718
6691.000000;1.694864
6690.000000;1.693681
6689.000000;1.691904
6688.000000;1.689615
6687.000000;1.687174
6686.000000;1.684910
6685.000000;1.682879
6684.000000;1.680939
6683.000000;1.678965
6682.000000;1.676918
6681.000000;1.674772
6680.000000;1.672543
6679.000000;1.670391
6678.000000;1.668548
6677.000000;1.666997
6676.000000;1.665340
6675.000000;1.663126
6674.000000;1.660351
6673.000000;1.657535
6672.000000;1.655240
6671.000000;1.653570
6670.000000;1.652166
6669.000000;1.650640
6668.000000;1.648951
6667.000000;1.647359
6666.000000;1.646047
6665.000000;1.644853
6664.000000;1.643406
6663.000000;1.641510
6662.000000;1.639329
6661.000000;1.637204
6660.000000;1.635353
6659.000000;1.633798
6658.000000;1.632452
6657.000000;1.631183
6656.000000;1.629825
6655.000000;1.628263
6654.000000;1.626489
6653.000000;1.624509
6652.000000;1.622259
6651.000000;1.619760
6650.000000;1.617315
6649.000000;1.615350
6648.000000;1.614019
6647.000000;1.613084
6646.000000;1.612173
6645.000000;1.611037
6644.000000;1.609556
6643.000000;1.607729
6642.000000;1.605745
6641.000000;1.603873
6640.000000;1.602143
6639.000000;1.600297
6638.000000;1.598195
6637.000000;1.596075
6636.000000;1.594236
6635.000000;1.592648
6634.000000;1.591091
6633.000000;1.589549
6632.000000;1.588158
6631.000000;1.586822
6630.000000;1.585188
6629.000000;1.583093
6628.000000;1.580805
6627.000000;1.578694
6626.000000;1.576816
6625.000000;1.574972
6624.000000;1.573067
6623.000000;1.571272
6622.000000;1.569813
6621.000000;1.568678
6620.000000;1.567555
6619.000000;1.566114
6618.000000;1.564338
6617.000000;1.562505
6616.000000;1.560814
6615.000000;1.559129
6614.000000;1.557193
6613.000000;1.555001
6612.000000;1.552828
6611.000000;1.550936
6610.000000;1.549395
6609.000000;1.548183
6608.000000;1.547285
6607.000000;1.546608
6606.000000;1.545930
6605.000000;1.545008
6604.000000;1.543727
6603.000000;1.542160
6602.000000;1.540504
6601.000000;1.538952
6600.000000;1.537540
6599.000000;1.536144
6598.000000;1.534665
6597.000000;1.533157
6596.000000;1.531697
6595.000000;1.530202
6594.000000;1.528525
6593.000000;1.526687
6592.000000;1.524870
6591.000000;1.523214
6590.000000;1.521758
6589.000000;1.520502
6588.000000;1.519355
6587.000000;1.518065
6586.000000;1.516431
6585.000000;1.514621
6584.000000;1.513035
6583.000000;1.511794
6582.000000;1.510573
6581.000000;1.509064
6580.000000;1.507376
6579.000000;1.505825
6578.000000;1.504509
6577.000000;1.503288
6576.000000;1.502069
6575.000000;1.500877
6574.000000;1.499668
6573.000000;1.498277
6572.000000;1.496618
6571.000000;1.494816
6570.000000;1.493099
6569.000000;1.491627
6568.000000;1.490435
6567.000000;1.489469
6566.000000;1.488618
6565.000000;1.487728
6564.000000;1.486644
6563.000000;1.485299
6562.000000;1.483807
6561.000000;1.482415
6560.000000;1.481297
6559.000000;1.480380
6558.000000;1.479435
6557.000000;1.478292
6556.000000;1.476914
6555.000000;1.475311
6554.000000;1.473560
6553.000000;1.471883
6552.000000;1.470503
6551.000000;1.469372
6550.000000;1.468202
6549.000000;1.466830
6548.000000;1.465384
6547.000000;1.464016
6546.000000;1.462686
6545.000000;1.461354
6544.000000;1.460160
6543.000000;1.459176
6542.000000;1.458133
6541.000000;1.456675
6540.000000;1.454840
6539.000000;1.453050
6538.000000;1.451628
6537.000000;1.450542
6536.000000;1.449592
6535.000000;1.448632
6534.000000;1.447567
6533.000000;1.446354
6532.000000;1.445122
6531.000000;1.444133
6530.000000;1.443504
6529.000000;1.443044
6528.000000;1.442430
6527.000000;1.441465
6526.000000;1.440164
6525.000000;1.438726
6524.000000;1.437449
6523.000000;1.436510
6522.000000;1.435749
6521.000000;1.434769
6520.000000;1.433368
6519.000000;1.431763
6518.000000;1.430311
6517.000000;1.429143
6516.000000;1.428167
6515.000000;1.427301
6514.000000;1.426512
6513.000000;1.425675
6512.000000;1.424604
6511.000000;1.423273
6510.000000;1.421890
6509.000000;1.420666
6508.000000;1.419614
6507.000000;1.418592
6506.000000;1.417485
6505.000000;1.416283
6504.000000;1.415025
6503.000000;1.413764
6502.000000;1.412573
6501.000000;1.411517
6500.000000;1.410569
6499.000000;1.409592
6498.000000;1.408458
6497.000000;1.407187
6496.000000;1.405949
6495.000000;1.404918
6494.000000;1.404148
6493.000000;1.403571
6492.000000;1.403056
6491.000000;1.402448
6490.000000;1.401623
6489.000000;1.400582
6488.000000;1.399451
6487.000000;1.398348
6486.000000;1.397276
6485.000000;1.396216
6484.000000;1.395260
6483.000000;1.394524
6482.000000;1.393951
6481.000000;1.393304
6480.000000;1.392400
6479.000000;1.391255
6478.000000;1.389974
6477.000000;1.388635
6476.000000;1.387318
6475.000000;1.386128
6474.000000;1.385073
6473.000000;1.384026
6472.000000;1.382918
6471.000000;1.381918
6470.000000;1.381257
6469.000000;1.380907
6468.000000;1.380545
6467.000000;1.379882
6466.000000;1.378923
6465.000000;1.377871
6464.000000;1.376860
6463.000000;1.375874
6462.000000;1.374866
6461.000000;1.373873
6460.000000;1.372984
6459.000000;1.372228
6458.000000;1.371543
6457.000000;1.370847
6456.000000;1.370123
6455.000000;1.369385
6454.000000;1.368606
6453.000000;1.367723
6452.000000;1.366729
6451.000000;1.365675
6450.000000;1.364576
6449.000000;1.363415
6448.000000;1.362255
6447.000000;1.361259
6446.000000;1.360501
6445.000000;1.359836
6444.000000;1.359055
6443.000000;1.358124
6442.000000;1.357147
6441.000000;1.356175
6440.000000;1.355196
6439.000000;1.354280
6438.000000;1.353572
6437.000000;1.353084
6436.000000;1.352636
6435.000000;1.352069
6434.000000;1.351386
6433.000000;1.350655
6432.000000;1.349903
6431.000000;1.349166
6430.000000;1.348520
6429.000000;1.347936
6428.000000;1.347218
6427.000000;1.346223
6426.000000;1.345071
6425.000000;1.344008
6424.000000;1.343105
6423.000000;1.342257
6422.000000;1.341407
6421.000000;1.340633
6420.000000;1.339983
6419.000000;1.339406
6418.000000;1.338867
6417.000000;1.338421
6416.000000;1.338075
6415.000000;1.337685
6414.000000;1.337086
6413.000000;1.336266
6412.000000;1.335338
6411.000000;1.334393
6410.000000;1.333439
6409.000000;1.332448
6408.000000;1.331406
6407.000000;1.330322
6406.000000;1.329267
6405.000000;1.328372
6404.000000;1.327722
6403.000000;1.327254
6402.000000;1.326812
6401.000000;1.326308
6400.000000;1.325804
6399.000000;1.325387
6398.000000;1.325019
6397.000000;1.324555
6396.000000;1.323900
6395.000000;1.323135
6394.000000;1.322437
6393.000000;1.321876
6392.000000;1.321301
6391.000000;1.320481
6390.000000;1.319368
6389.000000;1.318206
6388.000000;1.317332
6387.000000;1.316873
6386.000000;1.316639
6385.000000;1.316314
6384.000000;1.315723
6383.000000;1.314928
6382.000000;1.314107
6381.000000;1.313384
6380.000000;1.312765
6379.000000;1.312179
6378.000000;1.311553
6377.000000;1.310833
6376.000000;1.310013
6375.000000;1.309148
6374.000000;1.308358
6373.000000;1.307770
6372.000000;1.307419
6371.000000;1.307191
6370.000000;1.306881
6369.000000;1.306335
6368.000000;1.305562
6367.000000;1.304721
6366.000000;1.303982
6365.000000;1.303392
6364.000000;1.302868
6363.000000;1.302298
6362.000000;1.301654
6361.000000;1.301011
6360.000000;1.300465
6359.000000;1.300047
6358.000000;1.299678
6357.000000;1.299239
6356.000000;1.298687
6355.000000;1.298098
6354.000000;1.297555
6353.000000;1.297029
6352.000000;1.296404
6351.000000;1.295643
6350.000000;1.294851
6349.000000;1.294138
6348.000000;1.293489
6347.000000;1.292809
6346.000000;1.292082
6345.000000;1.291383
6344.000000;1.290750
6343.000000;1.290128
6342.000000;1.289455
6341.000000;1.288752
6340.000000;1.288089
6339.000000;1.287524
6338.000000;1.287077
6337.000000;1.286745
6336.000000;1.286466
6335.000000;1.286124
6334.000000;1.285645
6333.000000;1.285083
6332.000000;1.284564
6331.000000;1.284136
6330.000000;1.283723
6329.000000;1.283229
6328.000000;1.282671
6327.000000;1.282163
6326.000000;1.281786
6325.000000;1.281499
6324.000000;1.281184
6323.000000;1.280758
6322.000000;1.280219
6321.000000;1.279603
6320.000000;1.278943
6319.000000;1.278285
6318.000000;1.277682
6317.000000;1.277155
6316.000000;1.276649
6315.000000;1.276078
6314.000000;1.275412
6313.000000;1.274714
6312.000000;1.274073
6311.000000;1.273535
6310.000000;1.273092
6309.000000;1.272713
6308.000000;1.272368
6307.000000;1.272037
6306.000000;1.271724
6305.000000;1.271443
6304.000000;1.271188
6303.000000;1.270918
6302.000000;1.270588
6301.000000;1.270178
6300.000000;1.269691
6299.000000;1.269145
6298.000000;1.268580
6297.000000;1.268066
6296.000000;1.267662
6295.000000;1.267364
6294.000000;1.267089
6293.000000;1.266736
6292.000000;1.266246
6291.000000;1.265635
6290.000000;1.264968
6289.000000;1.264321
6288.000000;1.263769
6287.000000;1.263371
6286.000000;1.263143
6285.000000;1.263012
6284.000000;1.262824
6283.000000;1.262441
6282.000000;1.261861
6281.000000;1.261229
6280.000000;1.260703
6279.000000;1.260317
6278.000000;1.259991
6277.000000;1.259636
6276.000000;1.259236
6275.000000;1.258831
6274.000000;1.258466
6273.000000;1.258170
6272.000000;1.257932
6271.000000;1.257696
6270.000000;1.257386
6269.000000;1.256973
6268.000000;1.256483
6267.000000;1.255939
6266.000000;1.255345
6265.000000;1.254767
6264.000000;1.254368
6263.000000;1.254277
6262.000000;1.254405
6261.000000;1.254459
6260.000000;1.254185
6259.000000;1.253578
6258.000000;1.252850
6257.000000;1.252224
6256.000000;1.251794
6255.000000;1.251535
6254.000000;1.251374
6253.000000;1.251225
6252.000000;1.250994
6251.000000;1.250597
6250.000000;1.250027
6249.000000;1.249392
6248.000000;1.248868
6247.000000;1.248548
6246.000000;1.248354
6245.000000;1.248124
6244.000000;1.247788
6243.000000;1.247397
6242.000000;1.246988
6241.000000;1.246524
6240.000000;1.246017
6239.000000;1.245600
6238.000000;1.245399
6237.000000;1.245358
6236.000000;1.245291
6235.000000;1.245081
6234.000000;1.244755
6233.000000;1.244378
6232.000000;1.244006
6231.000000;1.243701
6230.000000;1.243496
6229.000000;1.243306
6228.000000;1.242989
6227.000000;1.242540
6226.000000;1.242112
6225.000000;1.241809
6224.000000;1.241532
6223.000000;1.241119
6222.000000;1.240571
6221.000000;1.240060
6220.000000;1.239745
6219.000000;1.239630
6218.000000;1.239584
6217.000000;1.239431
6216.000000;1.239089
6215.000000;1.238668
6214.000000;1.238392
6213.000000;1.238364
6212.000000;1.238426
6211.000000;1.238319
6210.000000;1.237942
6209.000000;1.237418
6208.000000;1.236933
6207.000000;1.236597
6206.000000;1.236437
6205.000000;1.236412
6204.000000;1.236408
6203.000000;1.236291
6202.000000;1.236008
6201.000000;1.235615
6200.000000;1.235197
6199.000000;1.234797
6198.000000;1.234411
6197.000000;1.234036
6196.000000;1.233705
6195.000000;1.233487
6194.000000;1.233432
6193.000000;1.233478
6192.000000;1.233465
6191.000000;1.233271
6190.000000;1.232918
6189.000000;1.232498
6188.000000;1.232044
6187.000000;1.231533
6186.000000;1.231013
6185.000000;1.230609
6184.000000;1.230404
6183.000000;1.230360
6182.000000;1.230377
6181.000000;1.230370
6180.000000;1.230288
6179.000000;1.230113
6178.000000;1.229864
6177.000000;1.229570
6176.000000;1.229228
6175.000000;1.228836
6174.000000;1.228447
6173.000000;1.228139
6172.000000;1.227918
6171.000000;1.227709
6170.000000;1.227480
6169.000000;1.227287
6168.000000;1.227169
6167.000000;1.227054
6166.000000;1.226821
6165.000000;1.226453
6164.000000;1.226063
6163.000000;1.225763
6162.000000;1.225549
6161.000000;1.225343
6160.000000;1.225126
6159.000000;1.224994
6158.000000;1.225038
6157.000000;1.225188
6156.000000;1.225236
6155.000000;1.225051
6154.000000;1.224707
6153.000000;1.224363
6152.000000;1.224072
6151.000000;1.223782
6150.000000;1.223489
6149.000000;1.223264
6148.000000;1.223139
6147.000000;1.223044
6146.000000;1.222912
6145.000000;1.222756
6144.000000;1.222624
6143.000000;1.222548
6142.000000;1.222550
6141.000000;1.222621
6140.000000;1.222639
6139.000000;1.222424
6138.000000;1.221932
6137.000000;1.221362
6136.000000;1.220964
6135.000000;1.220788
6134.000000;1.220688
6133.000000;1.220539
6132.000000;1.220359
6131.000000;1.220222
6130.000000;1.220137
6129.000000;1.220062
6128.000000;1.219987
6127.000000;1.219936
6126.000000;1.219909
6125.000000;1.219848
6124.000000;1.219699
6123.000000;1.219479
6122.000000;1.219271
6121.000000;1.219125
6120.000000;1.219002
6119.000000;1.218828
6118.000000;1.218589
6117.000000;1.218328
6116.000000;1.218061
6115.000000;1.217750
6114.000000;1.217382
6113.000000;1.217009
6112.000000;1.216695
6111.000000;1.216474
6110.000000;1.216367
6109.000000;1.216394
6108.000000;1.216516
6107.000000;1.216617
6106.000000;1.216589
6105.000000;1.216443
6104.000000;1.216282
6103.000000;1.216187
6102.000000;1.216167
6101.000000;1.216184
6100.000000;1.216191
6099.000000;1.216132
6098.000000;1.215981
6097.000000;1.215767
6096.000000;1.215563
6095.000000;1.215420
6094.000000;1.215342
6093.000000;1.215292
6092.000000;1.215209
6091.000000;1.215025
6090.000000;1.214722
6089.000000;1.214371
6088.000000;1.214077
6087.000000;1.213881
6086.000000;1.213732
6085.000000;1.213577
6084.000000;1.213437
6083.000000;1.213382
6082.000000;1.213421
6081.000000;1.213458
6080.000000;1.213369
6079.000000;1.213136
6078.000000;1.212877
6077.000000;1.212740
6076.000000;1.212764
6075.000000;1.212851
6074.000000;1.212869
6073.000000;1.212755
6072.000000;1.212562
6071.000000;1.212405
6070.000000;1.212362
6069.000000;1.212411
6068.000000;1.212465
6067.000000;1.212474
6066.000000;1.212461
6065.000000;1.212447
6064.000000;1.212368
6063.000000;1.212149
6062.000000;1.211842
6061.000000;1.211612
6060.000000;1.211560
6059.000000;1.211611
6058.000000;1.211628
6057.000000;1.211578
6056.000000;1.211531
6055.000000;1.211542
6054.000000;1.211580
6053.000000;1.211581
6052.000000;1.211516
6051.000000;1.211403
6050.000000;1.211295
6049.000000;1.211242
6048.000000;1.211250
6047.000000;1.211263
6046.000000;1.211204
6045.000000;1.211036
6044.000000;1.210793
6043.000000;1.210548
6042.000000;1.210362
6041.000000;1.210259
6040.000000;1.210240
6039.000000;1.210306
6038.000000;1.210448
6037.000000;1.210619
6036.000000;1.210737
6035.000000;1.210762
6034.000000;1.210734
6033.000000;1.210712
6032.000000;1.210699
6031.000000;1.210663
6030.000000;1.210627
6029.000000;1.210646
6028.000000;1.210699
6027.000000;1.210697
6026.000000;1.210615
6025.000000;1.210546
6024.000000;1.210571
6023.000000;1.210644
6022.000000;1.210672
6021.000000;1.210664
6020.000000;1.210684
6019.000000;1.210713
6018.000000;1.210650
6017.000000;1.210472
6016.000000;1.210280
6015.000000;1.210166
6014.000000;1.210100
6013.000000;1.210004
6012.000000;1.209873
6011.000000;1.209777
6010.000000;1.209752
6009.000000;1.209751
6008.000000;1.209714
6007.000000;1.209629
6006.000000;1.209545
6005.000000;1.209534
6004.000000;1.209648
6003.000000;1.209893
6002.000000;1.210204
6001.000000;1.210462
6000.000000;1.210574
5999.000000;1.210545
5998.000000;1.210491
5997.000000;1.210545
5996.000000;1.210749
5995.000000;1.211015
5994.000000;1.211210
5993.000000;1.211284
5992.000000;1.211306
5991.000000;1.211389
5990.000000;1.211578
5989.000000;1.211822
5988.000000;1.212038
5987.000000;1.212186
5986.000000;1.212272
5985.000000;1.212294
5984.000000;1.212243
5983.000000;1.212163
5982.000000;1.212169
5981.000000;1.212352
5980.000000;1.212677
5979.000000;1.213009
5978.000000;1.213256
5977.000000;1.213429
5976.000000;1.213576
5975.000000;1.213695
5974.000000;1.213756
5973.000000;1.213789
5972.000000;1.213883
5971.000000;1.214101
5970.000000;1.214403
5969.000000;1.214675
5968.000000;1.214836
5967.000000;1.214920
5966.000000;1.215024
5965.000000;1.215194
5964.000000;1.215375
5963.000000;1.215504
5962.000000;1.215614
5961.000000;1.215792
5960.000000;1.216062
5959.000000;1.216355
5958.000000;1.216602
5957.000000;1.216795
5956.000000;1.216933
5955.000000;1.216981
5954.000000;1.216927
5953.000000;1.216853
5952.000000;1.216885
5951.000000;1.217091
5950.000000;1.217459
5949.000000;1.217938
5948.000000;1.218450
5947.000000;1.218890
5946.000000;1.219179
5945.000000;1.219329
5944.000000;1.219438
5943.000000;1.219595
5942.000000;1.219814
5941.000000;1.220050
5940.000000;1.220248
5939.000000;1.220394
5938.000000;1.220526
5937.000000;1.220703
5936.000000;1.220946
5935.000000;1.221218
5934.000000;1.221487
5933.000000;1.221763
5932.000000;1.222063
5931.000000;1.222337
5930.000000;1.222495
5929.000000;1.222517
5928.000000;1.222507
5927.000000;1.222606
5926.000000;1.222881
5925.000000;1.223285
5924.000000;1.223708
5923.000000;1.224042
5922.000000;1.224241
5921.000000;1.224338
5920.000000;1.224418
5919.000000;1.224543
5918.000000;1.224708
5917.000000;1.224856
5916.000000;1.224954
5915.000000;1.225058
5914.000000;1.225259
5913.000000;1.225572
5912.000000;1.225876
5911.000000;1.226030
5910.000000;1.226030
5909.000000;1.226019
5908.000000;1.226122
5907.000000;1.226308
5906.000000;1.226449
5905.000000;1.226474
5904.000000;1.226422
5903.000000;1.226360
5902.000000;1.226312
5901.000000;1.226273
5900.000000;1.226251
5899.000000;1.226270
5898.000000;1.226361
5897.000000;1.226548
5896.000000;1.226839
5895.000000;1.227208
5894.000000;1.227598
5893.000000;1.227929
5892.000000;1.228119
5891.000000;1.228133
5890.000000;1.228013
5889.000000;1.227867
5888.000000;1.227781
5887.000000;1.227768
5886.000000;1.227796
5885.000000;1.227849
5884.000000;1.227939
5883.000000;1.228070
5882.000000;1.228230
5881.000000;1.228408
5880.000000;1.228596
5879.000000;1.228768
5878.000000;1.228905
5877.000000;1.229029
5876.000000;1.229195
5875.000000;1.229428
5874.000000;1.229693
5873.000000;1.229941
5872.000000;1.230160
5871.000000;1.230375
5870.000000;1.230594
5869.000000;1.230792
5868.000000;1.230951
5867.000000;1.231103
5866.000000;1.231322
5865.000000;1.231658
5864.000000;1.232084
5863.000000;1.232517
5862.000000;1.232887
5861.000000;1.233173
5860.000000;1.233384
5859.000000;1.233539
5858.000000;1.233678
5857.000000;1.233860
5856.000000;1.234120
5855.000000;1.234441
5854.000000;1.234789
5853.000000;1.235165
5852.000000;1.235593
5851.000000;1.236084
5850.000000;1.236615
5849.000000;1.237152
5848.000000;1.237649
5847.000000;1.238054
5846.000000;1.238343
5845.000000;1.238556
5844.000000;1.238771
5843.000000;1.239044
5842.000000;1.239385
5841.000000;1.239782
5840.000000;1.240220
5839.000000;1.240667
5838.000000;1.241082
5837.000000;1.241464
5836.000000;1.241878
5835.000000;1.242399
5834.000000;1.243022
5833.000000;1.243623
5832.000000;1.244061
5831.000000;1.244334
5830.000000;1.244611
5829.000000;1.245055
5828.000000;1.245615
5827.000000;1.246084
5826.000000;1.246375
5825.000000;1.246654
5824.000000;1.247143
5823.000000;1.247842
5822.000000;1.248565
5821.000000;1.249186
5820.000000;1.249744
5819.000000;1.250285
5818.000000;1.250746
5817.000000;1.251058
5816.000000;1.251281
5815.000000;1.251555
5814.000000;1.251954
5813.000000;1.252452
5812.000000;1.252986
5811.000000;1.253504
5810.000000;1.253966
5809.000000;1.254391
5808.000000;1.254870
5807.000000;1.255483
5806.000000;1.256183
5805.000000;1.256831
5804.000000;1.257349
5803.000000;1.257791
5802.000000;1.258259
5801.000000;1.258792
5800.000000;1.259367
5799.000000;1.259971
5798.000000;1.260616
5797.000000;1.261316
5796.000000;1.262041
5795.000000;1.262714
5794.000000;1.263238
5793.000000;1.263579
5792.000000;1.263826
5791.000000;1.264158
5790.000000;1.264704
5789.000000;1.265438
5788.000000;1.266209
5787.000000;1.266863
5786.000000;1.267345
5785.000000;1.267713
5784.000000;1.268086
5783.000000;1.268560
5782.000000;1.269139
5781.000000;1.269745
5780.000000;1.270287
5779.000000;1.270742
5778.000000;1.271175
5777.000000;1.271663
5776.000000;1.272229
5775.000000;1.272837
5774.000000;1.273435
5773.000000;1.274008
5772.000000;1.274569
5771.000000;1.275130
5770.000000;1.275702
5769.000000;1.276310
5768.000000;1.276985
5767.000000;1.277701
5766.000000;1.278344
5765.000000;1.278809
5764.000000;1.279127
5763.000000;1.279466
5762.000000;1.279968
5761.000000;1.280610
5760.000000;1.281254
5759.000000;1.281807
5758.000000;1.282298
5757.000000;1.282819
5756.000000;1.283431
5755.000000;1.284123
5754.000000;1.284821
5753.000000;1.285434
5752.000000;1.285925
5751.000000;1.286364
5750.000000;1.286871
5749.000000;1.287499
5748.000000;1.288193
5747.000000;1.288859
5746.000000;1.289432
5745.000000;1.289881
5744.000000;1.290219
5743.000000;1.290546
5742.000000;1.291024
5741.000000;1.291742
5740.000000;1.292623
5739.000000;1.293498
5738.000000;1.294266
5737.000000;1.294912
5736.000000;1.295428
5735.000000;1.295791
5734.000000;1.296043
5733.000000;1.296305
5732.000000;1.296661
5731.000000;1.297093
5730.000000;1.297540
5729.000000;1.297997
5728.000000;1.298511
5727.000000;1.299108
5726.000000;1.299795
5725.000000;1.300594
5724.000000;1.301508
5723.000000;1.302454
5722.000000;1.303297
5721.000000;1.303974
5720.000000;1.304569
5719.000000;1.305216
5718.000000;1.305965
5717.000000;1.306770
5716.000000;1.307568
5715.000000;1.308324
5714.000000;1.309006
5713.000000;1.309577
5712.000000;1.310042
5711.000000;1.310487
5710.000000;1.311018
5709.000000;1.311677
5708.000000;1.312424
5707.000000;1.313187
5706.000000;1.313909
5705.000000;1.314549
5704.000000;1.315109
5703.000000;1.315649
5702.000000;1.316245
5701.000000;1.316900
5700.000000;1.317535
5699.000000;1.318092
5698.000000;1.318617
5697.000000;1.319201
5696.000000;1.319860
5695.000000;1.320535
5694.000000;1.321167
5693.000000;1.321785
5692.000000;1.322383
5691.000000;1.322941
5690.000000;1.323476
5689.000000;1.324062
5688.000000;1.324740
5687.000000;1.325450
5686.000000;1.326113
5685.000000;1.326753
5684.000000;1.327481
5683.000000;1.328339
5682.000000;1.329224
5681.000000;1.329993
5680.000000;1.330625
5679.000000;1.331228
5678.000000;1.331897
5677.000000;1.332602
5676.000000;1.333241
5675.000000;1.333769
5674.000000;1.334241
5673.000000;1.334740
5672.000000;1.335300
5671.000000;1.335925
5670.000000;1.336619
5669.000000;1.337370
5668.000000;1.338113
5667.000000;1.338785
5666.000000;1.339424
5665.000000;1.340146
5664.000000;1.340980
5663.000000;1.341775
5662.000000;1.342331
5661.000000;1.342627
5660.000000;1.342876
5659.000000;1.343327
5658.000000;1.344053
5657.000000;1.344933
5656.000000;1.345798
5655.000000;1.346544
5654.000000;1.347123
5653.000000;1.347513
5652.000000;1.347749
5651.000000;1.347964
5650.000000;1.348319
5649.000000;1.348880
5648.000000;1.349568
5647.000000;1.350251
5646.000000;1.350867
5645.000000;1.351456
5644.000000;1.352081
5643.000000;1.352752
5642.000000;1.353407
5641.000000;1.353961
5640.000000;1.354389
5639.000000;1.354752
5638.000000;1.355138
5637.000000;1.355581
5636.000000;1.356044
5635.000000;1.356496
5634.000000;1.356942
5633.000000;1.357400
5632.000000;1.357878
5631.000000;1.358407
5630.000000;1.359025
5629.000000;1.359698
5628.000000;1.360300
5627.000000;1.360751
5626.000000;1.361123
5625.000000;1.361534
5624.000000;1.361978
5623.000000;1.362351
5622.000000;1.362648
5621.000000;1.362983
5620.000000;1.363412
5619.000000;1.363823
5618.000000;1.364110
5617.000000;1.364347
5616.000000;1.364712
5615.000000;1.365280
5614.000000;1.365955
5613.000000;1.366597
5612.000000;1.367114
5611.000000;1.367467
5610.000000;1.367678
5609.000000;1.367851
5608.000000;1.368125
5607.000000;1.368551
5606.000000;1.369048
5605.000000;1.369485
5604.000000;1.369788
5603.000000;1.369972
5602.000000;1.370099
5601.000000;1.370228
5600.000000;1.370401
5599.000000;1.370646
5598.000000;1.370994
5597.000000;1.371454
5596.000000;1.371989
5595.000000;1.372520
5594.000000;1.372983
5593.000000;1.373343
5592.000000;1.373577
5591.000000;1.373668
5590.000000;1.373652
5589.000000;1.373628
5588.000000;1.373678
5587.000000;1.373812
5586.000000;1.374003
5585.000000;1.374239
5584.000000;1.374488
5583.000000;1.374667
5582.000000;1.374707
5581.000000;1.374660
5580.000000;1.374678
5579.000000;1.374856
5578.000000;1.375148
5577.000000;1.375441
5576.000000;1.375679
5575.000000;1.375885
5574.000000;1.376098
5573.000000;1.376308
5572.000000;1.376449
5571.000000;1.376475
5570.000000;1.376423
5569.000000;1.376389
5568.000000;1.376439
5567.000000;1.376573
5566.000000;1.376784
5565.000000;1.377074
5564.000000;1.377386
5563.000000;1.377573
5562.000000;1.377521
5561.000000;1.377286
5560.000000;1.377035
5559.000000;1.376877
5558.000000;1.376796
5557.000000;1.376743
5556.000000;1.376719
5555.000000;1.376755
5554.000000;1.376882
5553.000000;1.377121
5552.000000;1.377423
5551.000000;1.377643
5550.000000;1.377649
5549.000000;1.377501
5548.000000;1.377408
5547.000000;1.377482
5546.000000;1.377614
5545.000000;1.377633
5544.000000;1.377536
5543.000000;1.377460
5542.000000;1.377500
5541.000000;1.377635
5540.000000;1.377822
5539.000000;1.378037
5538.000000;1.378239
5537.000000;1.378340
5536.000000;1.378298
5535.000000;1.378190
5534.000000;1.378168
5533.000000;1.378328
5532.000000;1.378612
5531.000000;1.378832
5530.000000;1.378816
5529.000000;1.378579
5528.000000;1.378333
5527.000000;1.378277
5526.000000;1.378392
5525.000000;1.378493
5524.000000;1.378469
5523.000000;1.378406
5522.000000;1.378448
5521.000000;1.378618
5520.000000;1.378821
5519.000000;1.378988
5518.000000;1.379125
5517.000000;1.379250
5516.000000;1.379345
5515.000000;1.379383
5514.000000;1.379361
5513.000000;1.379291
5512.000000;1.379194
5511.000000;1.379091
5510.000000;1.378993
5509.000000;1.378895
5508.000000;1.378809
5507.000000;1.378779
5506.000000;1.378841
5505.000000;1.378988
5504.000000;1.379208
5503.000000;1.379524
5502.000000;1.379932
5501.000000;1.380317
5500.000000;1.380515
5499.000000;1.380508
5498.000000;1.380471
5497.000000;1.380552
5496.000000;1.380676
5495.000000;1.380683
5494.000000;1.380583
5493.000000;1.380559
5492.000000;1.380702
5491.000000;1.380867
5490.000000;1.380905
5489.000000;1.380897
5488.000000;1.381053
5487.000000;1.381426
5486.000000;1.381868
5485.000000;1.382234
5484.000000;1.382540
5483.000000;1.382878
5482.000000;1.383288
5481.000000;1.383770
5480.000000;1.384311
5479.000000;1.384843
5478.000000;1.385267
5477.000000;1.385558
5476.000000;1.385832
5475.000000;1.386222
5474.000000;1.386667
5473.000000;1.386969
5472.000000;1.387069
5471.000000;1.387152
5470.000000;1.387415
5469.000000;1.387847
5468.000000;1.388298
5467.000000;1.388696
5466.000000;1.389104
5465.000000;1.389579
5464.000000;1.390069
5463.000000;1.390476
5462.000000;1.390798
5461.000000;1.391163
5460.000000;1.391682
5459.000000;1.392313
5458.000000;1.392938
5457.000000;1.393517
5456.000000;1.394108
5455.000000;1.394757
5454.000000;1.395413
5453.000000;1.395992
5452.000000;1.396505
5451.000000;1.397070
5450.000000;1.397753
5449.000000;1.398444
5448.000000;1.398980
5447.000000;1.399401
5446.000000;1.399968
5445.000000;1.400821
5444.000000;1.401764
5443.000000;1.402565
5442.000000;1.403357
5441.000000;1.404522
5440.000000;1.406116
5439.000000;1.407642
5438.000000;1.408576
5437.000000;1.408970
5436.000000;1.409343
5435.000000;1.410113
5434.000000;1.411205
5433.000000;1.412219
5432.000000;1.412913
5431.000000;1.413477
5430.000000;1.414315
5429.000000;1.415622
5428.000000;1.417206
5427.000000;1.418710
5426.000000;1.420005
5425.000000;1.421303
5424.000000;1.422878
5423.000000;1.424733
5422.000000;1.426609
5421.000000;1.428272
5420.000000;1.429739
5419.000000;1.431188
5418.000000;1.432686
5417.000000;1.434099
5416.000000;1.435334
5415.000000;1.436561
5414.000000;1.438059
5413.000000;1.439860
5412.000000;1.441723
5411.000000;1.443527
5410.000000;1.445483
5409.000000;1.447827
5408.000000;1.450470
5407.000000;1.453147
5406.000000;1.455755
5405.000000;1.458330
5404.000000;1.460791
5403.000000;1.462974
5402.000000;1.464927
5401.000000;1.466940
5400.000000;1.469283
5399.000000;1.472010
5398.000000;1.474989
5397.000000;1.478038
5396.000000;1.481031
5395.000000;1.483949
5394.000000;1.486934
5393.000000;1.490146
5392.000000;1.493539
5391.000000;1.496907
5390.000000;1.500155
5389.000000;1.503407
5388.000000;1.506832
5387.000000;1.510500
5386.000000;1.514388
5385.000000;1.518422
5384.000000;1.522529
5383.000000;1.526745
5382.000000;1.531228
5381.000000;1.536034
5380.000000;1.540909
5379.000000;1.545522
5378.000000;1.549879
5377.000000;1.554348
5376.000000;1.559214
5375.000000;1.564377
5374.000000;1.569599
5373.000000;1.574871
5372.000000;1.580359
5371.000000;1.586098
5370.000000;1.591974
5369.000000;1.597954
5368.000000;1.604096
5367.000000;1.610383
5366.000000;1.616711
5365.000000;1.623076
5364.000000;1.629656
5363.000000;1.636651
5362.000000;1.644060
5361.000000;1.651682
5360.000000;1.659403
5359.000000;1.667366
5358.000000;1.675789
5357.000000;1.684650
5356.000000;1.693677
5355.000000;1.702698
5354.000000;1.711848
5353.000000;1.721320
5352.000000;1.731034
5351.000000;1.740804
5350.000000;1.750719
5349.000000;1.761022
5348.000000;1.771709
5347.000000;1.782611
5346.000000;1.793822
5345.000000;1.805661
5344.000000;1.818131
5343.000000;1.830699
5342.000000;1.842899
5341.000000;1.855008
5340.000000;1.867882
5339.000000;1.882142
5338.000000;1.897623
5337.000000;1.913505
5336.000000;1.928984
5335.000000;1.943933
5334.000000;1.958940
5333.000000;1.974622
5332.000000;1.990971
5331.000000;2.007517
5330.000000;2.024005
5329.000000;2.040644
5328.000000;2.057758
5327.000000;2.075507
5326.000000;2.093978
5325.000000;2.113282
5324.000000;2.133427
5323.000000;2.154227
5322.000000;2.175416
5321.000000;2.196744
5320.000000;2.217964
5319.000000;2.238945
5318.000000;2.259810
5317.000000;2.280842
5316.000000;2.302223
5315.000000;2.323987
5314.000000;2.346116
5313.000000;2.368525
5312.000000;2.391018
5311.000000;2.413417
5310.000000;2.435576
5309.000000;2.457146
5308.000000;2.477879
5307.000000;2.498522
5306.000000;2.520706
5305.000000;2.545257
5304.000000;2.570930
5303.000000;2.595375
5302.000000;2.617303
5301.000000;2.637315
5300.000000;2.656719
5299.000000;2.676222
5298.000000;2.695721
5297.000000;2.714646
5296.000000;2.732525
5295.000000;2.749572
5294.000000;2.766084
5293.000000;2.781664
5292.000000;2.796144
5291.000000;2.810394
5290.000000;2.824744
5289.000000;2.837326
5288.000000;2.846554
5287.000000;2.855196
5286.000000;2.868333
5285.000000;2.886385
5284.000000;2.902887
5283.000000;2.911567
5282.000000;2.914211
5281.000000;2.917558
5280.000000;2.924440
5279.000000;2.931832
5278.000000;2.936341
5277.000000;2.938492
5276.000000;2.941124
5275.000000;2.945782
5274.000000;2.951365
5273.000000;2.955331
5272.000000;2.956197
5271.000000;2.955173
5270.000000;2.954834
5269.000000;2.956184
5268.000000;2.958028
5267.000000;2.959322
5266.000000;2.960375
5265.000000;2.961233
5264.000000;2.960927
5263.000000;2.959543
5262.000000;2.959310
5261.000000;2.961664
5260.000000;2.965194
5259.000000;2.967880
5258.000000;2.969021
5257.000000;2.968318
5256.000000;2.964927
5255.000000;2.958970
5254.000000;2.953119
5253.000000;2.950334
5252.000000;2.950844
5251.000000;2.953148
5250.000000;2.956551
5249.000000;2.960785
5248.000000;2.964992
5247.000000;2.968730
5246.000000;2.971818
5245.000000;2.972868
5244.000000;2.970310
5243.000000;2.965695
5242.000000;2.963608
5241.000000;2.966600
5240.000000;2.971889
5239.000000;2.974454
5238.000000;2.972797
5237.000000;2.969697
5236.000000;2.967644
5235.000000;2.966291
5234.000000;2.964298
5233.000000;2.961645
5232.000000;2.959743
5231.000000;2.959838
5230.000000;2.961477
5229.000000;2.962721
5228.000000;2.962300
5227.000000;2.961350
5226.000000;2.962085
5225.000000;2.964957
5224.000000;2.968095
5223.000000;2.969354
5222.000000;2.967441
5221.000000;2.961197
5220.000000;2.950831
5219.000000;2.940351
5218.000000;2.935495
5217.000000;2.938317
5216.000000;2.945584
5215.000000;2.953230
5214.000000;2.960778
5213.000000;2.969588
5212.000000;2.978331
5211.000000;2.982863
5210.000000;2.980415
5209.000000;2.971731
5208.000000;2.959640
5207.000000;2.948311
5206.000000;2.942217
5205.000000;2.943024
5204.000000;2.948376
5203.000000;2.954522
5202.000000;2.958746
5201.000000;2.958778
5200.000000;2.953048
5199.000000;2.943840
5198.000000;2.937387
5197.000000;2.938145
5196.000000;2.943938
5195.000000;2.948428
5194.000000;2.948165
5193.000000;2.944837
5192.000000;2.941169
5191.000000;2.938464
5190.000000;2.938378
5189.000000;2.942967
5188.000000;2.951339
5187.000000;2.959143
5186.000000;2.963092
5185.000000;2.964415
5184.000000;2.966254
5183.000000;2.969194
5182.000000;2.971212
5181.000000;2.970899
5180.000000;2.968870
5179.000000;2.966260
5178.000000;2.963453
5177.000000;2.960708
5176.000000;2.958566
5175.000000;2.956675
5174.000000;2.953790
5173.000000;2.949958
5172.000000;2.947211
5171.000000;2.947573
5170.000000;2.951117
5169.000000;2.955878
5168.000000;2.959397
5167.000000;2.959874
5166.000000;2.956517
5165.000000;2.950014
5164.000000;2.942849
5163.000000;2.938967
5162.000000;2.941571
5161.000000;2.950464
5160.000000;2.962120
5159.000000;2.971710
5158.000000;2.974774
5157.000000;2.969287
5156.000000;2.958459
5155.000000;2.950065
5154.000000;2.950367
5153.000000;2.958283
5152.000000;2.966362
5151.000000;2.968414
5150.000000;2.964917
5149.000000;2.959563
5148.000000;2.954005
5147.000000;2.948911
5146.000000;2.947364
5145.000000;2.953127
5144.000000;2.965109
5143.000000;2.975604
5142.000000;2.976292
5141.000000;2.966597
5140.000000;2.954107
5139.000000;2.946754
5138.000000;2.946436
5137.000000;2.949257
5136.000000;2.950650
5135.000000;2.950107
5134.000000;2.950556
5133.000000;2.954160
5132.000000;2.960169
5131.000000;2.966103
5130.000000;2.969400
5129.000000;2.967752
5128.000000;2.960178
5127.000000;2.949242
5126.000000;2.940254
5125.000000;2.937132
5124.000000;2.939620
5123.000000;2.944350
5122.000000;2.948074
5121.000000;2.949820
5120.000000;2.950553
5119.000000;2.951515
5118.000000;2.952718
5117.000000;2.952745
5116.000000;2.950622
5115.000000;2.947886
5114.000000;2.947562
5113.000000;2.950912
5112.000000;2.956324
5111.000000;2.961563
5110.000000;2.965697
5109.000000;2.968003
5108.000000;2.966722
5107.000000;2.960725
5106.000000;2.951425
5105.000000;2.941681
5104.000000;2.933908
5103.000000;2.930000
5102.000000;2.931158
5101.000000;2.936072
5100.000000;2.940631
5099.000000;2.941778
5098.000000;2.941283
5097.000000;2.943733
5096.000000;2.951421
5095.000000;2.962599
5094.000000;2.973701
5093.000000;2.981276
5092.000000;2.982415
5091.000000;2.976306
5090.000000;2.965787
5089.000000;2.955528
5088.000000;2.948400
5087.000000;2.944091
5086.000000;2.940732
5085.000000;2.937011
5084.000000;2.933083
5083.000000;2.930237
5082.000000;2.929624
5081.000000;2.931496
5080.000000;2.935379
5079.000000;2.940514
5078.000000;2.946102
5077.000000;2.950725
5076.000000;2.953005
5075.000000;2.954061
5074.000000;2.956525
5073.000000;2.960488
5072.000000;2.962820
5071.000000;2.961330
5070.000000;2.958261
5069.000000;2.957254
5068.000000;2.957939
5067.000000;2.956716
5066.000000;2.952423
5065.000000;2.947835
5064.000000;2.945372
5063.000000;2.944604
5062.000000;2.944219
5061.000000;2.943587
5060.000000;2.941779
5059.000000;2.937618
5058.000000;2.931932
5057.000000;2.927974
5056.000000;2.928090
5055.000000;2.930784
5054.000000;2.932312
5053.000000;2.931024
5052.000000;2.928602
5051.000000;2.927155
5050.000000;2.927033
5049.000000;2.927326
5048.000000;2.927246
5047.000000;2.926564
5046.000000;2.925023
5045.000000;2.922341
5044.000000;2.919373
5043.000000;2.918665
5042.000000;2.922829
5041.000000;2.931532
5040.000000;2.940050
5039.000000;2.942105
5038.000000;2.935520
5037.000000;2.924288
5036.000000;2.914245
5035.000000;2.908216
5034.000000;2.905532
5033.000000;2.904293
5032.000000;2.903519
5031.000000;2.904050
5030.000000;2.907338
5029.000000;2.913015
5028.000000;2.918160
5027.000000;2.919452
5026.000000;2.916154
5025.000000;2.910863
5024.000000;2.907391
5023.000000;2.908309
5022.000000;2.913676
5021.000000;2.920484
5020.000000;2.923812
5019.000000;2.920620
5018.000000;2.912848
5017.000000;2.905412
5016.000000;2.901069
5015.000000;2.898360
5014.000000;2.894582
5013.000000;2.889679
5012.000000;2.886227
5011.000000;2.886390
5010.000000;2.890004
5009.000000;2.894815
5008.000000;2.897970
5007.000000;2.897925
5006.000000;2.895447
5005.000000;2.892634
5004.000000;2.890767
5003.000000;2.889242
5002.000000;2.886707
5001.000000;2.883032
5000.000000;2.879535
4999.000000;2.877814
4998.000000;2.878295
4997.000000;2.879220
4996.000000;2.877911
4995.000000;2.873361
4994.000000;2.867303
4993.000000;2.862695
4992.000000;2.860824
4991.000000;2.859996
4990.000000;2.857464
4989.000000;2.852682
4988.000000;2.848122
4987.000000;2.846635
4986.000000;2.848484
4985.000000;2.851176
4984.000000;2.851998
4983.000000;2.850363
4982.000000;2.847428
4981.000000;2.843796
4980.000000;2.838581
4979.000000;2.831286
4978.000000;2.823624
4977.000000;2.818482
4976.000000;2.817329
4975.000000;2.818760
4974.000000;2.819571
4973.000000;2.817443
4972.000000;2.812661
4971.000000;2.807343
4970.000000;2.803358
4969.000000;2.801225
4968.000000;2.800499
4967.000000;2.800514
4966.000000;2.800515
4965.000000;2.799418
4964.000000;2.796347
4963.000000;2.791791
4962.000000;2.787694
4961.000000;2.785714
4960.000000;2.785440
4959.000000;2.784649
4958.000000;2.781659
4957.000000;2.777047
4956.000000;2.772578
4955.000000;2.769197
4954.000000;2.766688
4953.000000;2.764617
4952.000000;2.762648
4951.000000;2.759920
4950.000000;2.755072
4949.000000;2.747766
4948.000000;2.739817
4947.000000;2.734084
4946.000000;2.732201
4945.000000;2.733589
4944.000000;2.736391
4943.000000;2.738801
4942.000000;2.739496
4941.000000;2.737671
4940.000000;2.733528
4939.000000;2.728598
4938.000000;2.724794
4937.000000;2.722689
4936.000000;2.721072
4935.000000;2.718287
4934.000000;2.713473
4933.000000;2.706788
4932.000000;2.699436
4931.000000;2.693610
4930.000000;2.691385
4929.000000;2.692646
4928.000000;2.694228
4927.000000;2.692220
4926.000000;2.685606
4925.000000;2.676887
4924.000000;2.669134
4923.000000;2.663471
4922.000000;2.659570
4921.000000;2.657451
4920.000000;2.657312
4919.000000;2.657715
4918.000000;2.655720
4917.000000;2.650063
4916.000000;2.643453
4915.000000;2.640252
4914.000000;2.641947
4913.000000;2.645588
4912.000000;2.646811
4911.000000;2.644072
4910.000000;2.639189
4909.000000;2.634177
4908.000000;2.629021
4907.000000;2.622808
4906.000000;2.615960
4905.000000;2.610436
4904.000000;2.607737
4903.000000;2.607350
4902.000000;2.607343
4901.000000;2.605998
4900.000000;2.602758
4899.000000;2.598223
4898.000000;2.593526
4897.000000;2.589326
4896.000000;2.585395
4895.000000;2.581364
4894.000000;2.577617
4893.000000;2.574997
4892.000000;2.573546
4891.000000;2.572080
4890.000000;2.569465
4889.000000;2.565857
4888.000000;2.562136
4887.000000;2.558542
4886.000000;2.554619
4885.000000;2.550125
4884.000000;2.545317
4883.000000;2.540569
4882.000000;2.536245
4881.000000;2.532999
4880.000000;2.531455
4879.000000;2.531163
4878.000000;2.530634
4877.000000;2.528875
4876.000000;2.526206
4875.000000;2.523178
4874.000000;2.519584
4873.000000;2.515176
4872.000000;2.510594
4871.000000;2.506678
4870.000000;2.503361
4869.000000;2.500165
4868.000000;2.497359
4867.000000;2.495428
4866.000000;2.493694
4865.000000;2.490815
4864.000000;2.486781
4863.000000;2.483140
4862.000000;2.480848
4861.000000;2.478968
4860.000000;2.476065
4859.000000;2.472084
4858.000000;2.468125
4857.000000;2.464954
4856.000000;2.462503
4855.000000;2.460350
4854.000000;2.457955
4853.000000;2.454789
4852.000000;2.450903
4851.000000;2.447179
4850.000000;2.444512
4849.000000;2.442736
4848.000000;2.440667
4847.000000;2.437270
4846.000000;2.432637
4845.000000;2.427866
4844.000000;2.424136
4843.000000;2.421689
4842.000000;2.419596
4841.000000;2.416727
4840.000000;2.412974
4839.000000;2.409150
4838.000000;2.405738
4837.000000;2.402452
4836.000000;2.399319
4835.000000;2.397251
4834.000000;2.396789
4833.000000;2.396856
4832.000000;2.395604
4831.000000;2.392325
4830.000000;2.387764
4829.000000;2.382851
4828.000000;2.378145
4827.000000;2.374364
4826.000000;2.372305
4825.000000;2.371833
4824.000000;2.371618
4823.000000;2.370229
4822.000000;2.367127
4821.000000;2.362472
4820.000000;2.356663
4819.000000;2.350442
4818.000000;2.344857
4817.000000;2.340612
4816.000000;2.337683
4815.000000;2.335736
4814.000000;2.334426
4813.000000;2.333045
4812.000000;2.330578
4811.000000;2.326783
4810.000000;2.322815
4809.000000;2.320020
4808.000000;2.318309
4807.000000;2.316364
4806.000000;2.313457
4805.000000;2.310386
4804.000000;2.308273
4803.000000;2.306893
4802.000000;2.304810
4801.000000;2.301041
4800.000000;2.296127
4799.000000;2.291455
4798.000000;2.287851
4797.000000;2.285070
4796.000000;2.282449
4795.000000;2.279735
4794.000000;2.277187
4793.000000;2.275071
4792.000000;2.273236
4791.000000;2.271175
4790.000000;2.268464
4789.000000;2.265152
4788.000000;2.261717
4787.000000;2.258620
4786.000000;2.255948
4785.000000;2.253571
4784.000000;2.251520
4783.000000;2.249932
4782.000000;2.248560
4781.000000;2.246676
4780.000000;2.243730
4779.000000;2.239974
4778.000000;2.236197
4777.000000;2.232912
4776.000000;2.229987
4775.000000;2.227008
4774.000000;2.223767
4773.000000;2.220413
4772.000000;2.217322
4771.000000;2.214777
4770.000000;2.212590
4769.000000;2.210106
4768.000000;2.206755
4767.000000;2.202615
4766.000000;2.198311
4765.000000;2.194390
4764.000000;2.190972
4763.000000;2.187960
4762.000000;2.185354
4761.000000;2.183216
4760.000000;2.181457
4759.000000;2.179741
4758.000000;2.177671
4757.000000;2.175153
4756.000000;2.172542
4755.000000;2.170303
4754.000000;2.168449
4753.000000;2.166468
4752.000000;2.163919
4751.000000;2.160919
4750.000000;2.157883
4749.000000;2.154973
4748.000000;2.152037
4747.000000;2.148958
4746.000000;2.145832
4745.000000;2.142927
4744.000000;2.140609
4743.000000;2.139099
4742.000000;2.137993
4741.000000;2.136225
4740.000000;2.132960
4739.000000;2.128565
4738.000000;2.124348
4737.000000;2.121328
4736.000000;2.119503
4735.000000;2.118209
4734.000000;2.116760
4733.000000;2.114699
4732.000000;2.111856
4731.000000;2.108454
4730.000000;2.105046
4729.000000;2.102178
4728.000000;2.100115
4727.000000;2.098816
4726.000000;2.097878
4725.000000;2.096609
4724.000000;2.094525
4723.000000;2.091870
4722.000000;2.089285
4721.000000;2.087014
4720.000000;2.084803
4719.000000;2.082580
4718.000000;2.080675
4717.000000;2.079131
4716.000000;2.077307
4715.000000;2.074641
4714.000000;2.071495
4713.000000;2.068661
4712.000000;2.066239
4711.000000;2.063624
4710.000000;2.060624
4709.000000;2.057994
4708.000000;2.056537
4707.000000;2.056049
4706.000000;2.055530
4705.000000;2.054304
4704.000000;2.052570
4703.000000;2.050877
4702.000000;2.049369
4701.000000;2.047709
4700.000000;2.045554
4699.000000;2.042886
4698.000000;2.039934
4697.000000;2.036990
4696.000000;2.034357
4695.000000;2.032224
4694.000000;2.030467
4693.000000;2.028706
4692.000000;2.026717
4691.000000;2.024682
4690.000000;2.022898
4689.000000;2.021346
4688.000000;2.019751
4687.000000;2.017973
4686.000000;2.016108
4685.000000;2.014215
4684.000000;2.012197
4683.000000;2.010001
4682.000000;2.007703
4681.000000;2.005404
4680.000000;2.003246
4679.000000;2.001535
4678.000000;2.000509
4677.000000;1.999880
4676.000000;1.998892
4675.000000;1.997059
4674.000000;1.994698
4673.000000;1.992560
4672.000000;1.991064
4671.000000;1.989999
4670.000000;1.988749
4669.000000;1.986697
4668.000000;1.983724
4667.000000;1.980545
4666.000000;1.978326
4665.000000;1.977631
4664.000000;1.977781
4663.000000;1.977457
4662.000000;1.975959
4661.000000;1.973673
4660.000000;1.971389
4659.000000;1.969477
4658.000000;1.967749
4657.000000;1.965853
4656.000000;1.963717
4655.000000;1.961677
4654.000000;1.960195
4653.000000;1.959342
4652.000000;1.958663
4651.000000;1.957665
4650.000000;1.956354
4649.000000;1.955033
4648.000000;1.953670
4647.000000;1.951833
4646.000000;1.949337
4645.000000;1.946679
4644.000000;1.944610
4643.000000;1.943411
4642.000000;1.942687
4641.000000;1.941801
4640.000000;1.940428
4639.000000;1.938773
4638.000000;1.937326
4637.000000;1.936377
4636.000000;1.935757
4635.000000;1.935080
4634.000000;1.934187
4633.000000;1.933243
4632.000000;1.932426
4631.000000;1.931683
4630.000000;1.930789
4629.000000;1.929503
4628.000000;1.927665
4627.000000;1.925359
4626.000000;1.922982
4625.000000;1.920970
4624.000000;1.919370
4623.000000;1.917892
4622.000000;1.916457
4621.000000;1.915424
4620.000000;1.915073
4619.000000;1.915070
4618.000000;1.914725
4617.000000;1.913703
4616.000000;1.912240
4615.000000;1.910682
4614.000000;1.909096
4613.000000;1.907420
4612.000000;1.905729
4611.000000;1.904204
4610.000000;1.902905
4609.000000;1.901692
4608.000000;1.900349
4607.000000;1.898813
4606.000000;1.897329
4605.000000;1.896337
4604.000000;1.896055
4603.000000;1.896143
4602.000000;1.895914
4601.000000;1.894973
4600.000000;1.893543
4599.000000;1.892083
4598.000000;1.890768
4597.000000;1.889487
4596.000000;1.888249
4595.000000;1.887327
4594.000000;1.886911
4593.000000;1.886785
4592.000000;1.886478
4591.000000;1.885725
4590.000000;1.884688
4589.000000;1.883725
4588.000000;1.882979
4587.000000;1.882263
4586.000000;1.881317
4585.000000;1.880123
4584.000000;1.878858
4583.000000;1.877592
4582.000000;1.876196
4581.000000;1.874672
4580.000000;1.873403
4579.000000;1.872817
4578.000000;1.872795
4577.000000;1.872643
4576.000000;1.871785
4575.000000;1.870351
4574.000000;1.868917
4573.000000;1.867834
4572.000000;1.867035
4571.000000;1.866412
4570.000000;1.866078
4569.000000;1.866117
4568.000000;1.866296
4567.000000;1.866205
4566.000000;1.865658
4565.000000;1.864824
4564.000000;1.863954
4563.000000;1.863096
4562.000000;1.862117
4561.000000;1.860989
4560.000000;1.859978
4559.000000;1.859446
4558.000000;1.859421
4557.000000;1.859413
4556.000000;1.858793
4555.000000;1.857406
4554.000000;1.855715
4553.000000;1.854346
4552.000000;1.853630
4551.000000;1.853590
4550.000000;1.854110
4549.000000;1.854861
4548.000000;1.855231
4547.000000;1.854707
4546.000000;1.853410
4545.000000;1.851978
4544.000000;1.850828
4543.000000;1.849779
4542.000000;1.848581
4541.000000;1.847570
4540.000000;1.847386
4539.000000;1.848106
4538.000000;1.848963
4537.000000;1.849104
4536.000000;1.848424
4535.000000;1.847466
4534.000000;1.846692
4533.000000;1.846138
4532.000000;1.845691
4531.000000;1.845374
4530.000000;1.845210
4529.000000;1.845055
4528.000000;1.844735
4527.000000;1.844255
4526.000000;1.843711
4525.000000;1.843072
4524.000000;1.842209
4523.000000;1.841134
4522.000000;1.840095
4521.000000;1.839384
4520.000000;1.839120
4519.000000;1.839195
4518.000000;1.839366
4517.000000;1.839391
4516.000000;1.839225
4515.000000;1.839087
4514.000000;1.839264
4513.000000;1.839791
4512.000000;1.840417
4511.000000;1.840879
4510.000000;1.841140
4509.000000;1.841300
4508.000000;1.841320
4507.000000;1.840942
4506.000000;1.839941
4505.000000;1.838484
4504.000000;1.837225
4503.000000;1.836896
4502.000000;1.837680
4501.000000;1.838972
4500.000000;1.839873
4499.000000;1.839957
4498.000000;1.839486
4497.000000;1.838906
4496.000000;1.838344
4495.000000;1.837701
4494.000000;1.837017
4493.000000;1.836529
4492.000000;1.836418
4491.000000;1.836711
4490.000000;1.837396
4489.000000;1.838471
4488.000000;1.839780
4487.000000;1.840938
4486.000000;1.841534
4485.000000;1.841442
4484.000000;1.840903
4483.000000;1.840325
4482.000000;1.839973
4481.000000;1.839820
4480.000000;1.839721
4479.000000;1.839746
4478.000000;1.840241
4477.000000;1.841395
4476.000000;1.842783
4475.000000;1.843598
4474.000000;1.843464
4473.000000;1.842883
4472.000000;1.842703
4471.000000;1.843276
4470.000000;1.844299
4469.000000;1.845338
4468.000000;1.846213
4467.000000;1.846870
4466.000000;1.847217
4465.000000;1.847338
4464.000000;1.847666
4463.000000;1.848594
4462.000000;1.849941
4461.000000;1.851134
4460.000000;1.851935
4459.000000;1.852682
4458.000000;1.853666
4457.000000;1.854615
4456.000000;1.855139
4455.000000;1.855467
4454.000000;1.856325
4453.000000;1.858014
4452.000000;1.859925
4451.000000;1.861156
4450.000000;1.861461
4449.000000;1.861471
4448.000000;1.862089
4447.000000;1.863761
4446.000000;1.866174
4445.000000;1.868509
4444.000000;1.870003
4443.000000;1.870412
4442.000000;1.870052
4441.000000;1.869558
4440.000000;1.869687
4439.000000;1.871078
4438.000000;1.873764
4437.000000;1.876871
4436.000000;1.879179
4435.000000;1.880305
4434.000000;1.881112
4433.000000;1.882720
4432.000000;1.885260
4431.000000;1.887827
4430.000000;1.889540
4429.000000;1.890478
4428.000000;1.891555
4427.000000;1.893604
4426.000000;1.896591
4425.000000;1.899656
4424.000000;1.902002
4423.000000;1.903717
4422.000000;1.905519
4421.000000;1.907726
4420.000000;1.909930
4419.000000;1.911810
4418.000000;1.913736
4417.000000;1.916133
4416.000000;1.918665
4415.000000;1.920670
4414.000000;1.922145
4413.000000;1.923695
4412.000000;1.925578
4411.000000;1.927467
4410.000000;1.929214
4409.000000;1.931225
4408.000000;1.933837
4407.000000;1.936850
4406.000000;1.939928
4405.000000;1.942957
4404.000000;1.945734
4403.000000;1.947828
4402.000000;1.949136
4401.000000;1.950210
4400.000000;1.951690
4399.000000;1.953719
4398.000000;1.956203
4397.000000;1.959218
4396.000000;1.962698
4395.000000;1.965991
4394.000000;1.968362
4393.000000;1.969939
4392.000000;1.971587
4391.000000;1.973915
4390.000000;1.976879
4389.000000;1.980182
4388.000000;1.983455
4387.000000;1.985972
4386.000000;1.986919
4385.000000;1.986422
4384.000000;1.985918
4383.000000;1.987009
4382.000000;1.990063
4381.000000;1.994121
4380.000000;1.997974
4379.000000;2.001062
4378.000000;2.003476
4377.000000;2.005564
4376.000000;2.007715
4375.000000;2.010266
4374.000000;2.013289
4373.000000;2.016381
4372.000000;2.018813
4371.000000;2.020096
4370.000000;2.020469
4369.000000;2.020795
4368.000000;2.021903
4367.000000;2.024031
4366.000000;2.026873
4365.000000;2.029983
4364.000000;2.033071
4363.000000;2.036052
4362.000000;2.038988
4361.000000;2.041929
4360.000000;2.044678
4359.000000;2.046777
4358.000000;2.047946
4357.000000;2.048566
4356.000000;2.049449
4355.000000;2.050960
4354.000000;2.052575
4353.000000;2.053526
4352.000000;2.053852
4351.000000;2.054604
4350.000000;2.056868
4349.000000;2.060734
4348.000000;2.065436
4347.000000;2.070245
4346.000000;2.074710
4345.000000;2.078190
4344.000000;2.079989
4343.000000;2.080400
4342.000000;2.080902
4341.000000;2.082548
4340.000000;2.084556
4339.000000;2.085429
4338.000000;2.085239
4337.000000;2.085688
4336.000000;2.087923
4335.000000;2.091450
4334.000000;2.095446
4333.000000;2.099774
4332.000000;2.103776
4331.000000;2.105471
4330.000000;2.103763
4329.000000;2.100812
4328.000000;2.100386
4327.000000;2.104046
4326.000000;2.110051
4325.000000;2.115630
4324.000000;2.119124
4323.000000;2.120038
4322.000000;2.118757
4321.000000;2.116947
4320.000000;2.116896
4319.000000;2.119310
4318.000000;2.122458
4317.000000;2.124463
4316.000000;2.125759
4315.000000;2.128132
4314.000000;2.131874
4313.000000;2.135188
4312.000000;2.136382
4311.000000;2.135686
4310.000000;2.134750
4309.000000;2.135223
4308.000000;2.138045
4307.000000;2.143225
4306.000000;2.149655
4305.000000;2.155394
4304.000000;2.158558
4303.000000;2.158341
4302.000000;2.155726
4301.000000;2.153210
4300.000000;2.153236
4299.000000;2.156432
4298.000000;2.161337
4297.000000;2.165921
4296.000000;2.169283
4295.000000;2.172057
4294.000000;2.175651
4293.000000;2.181129
4292.000000;2.187972
4291.000000;2.193480
4290.000000;2.194613
4289.000000;2.191471
4288.000000;2.187958
4287.000000;2.188298
4286.000000;2.193552
4285.000000;2.201683
4284.000000;2.209973
4283.000000;2.216470
4282.000000;2.219870
4281.000000;2.219872
4280.000000;2.218006
4279.000000;2.216746
4278.000000;2.217594
4277.000000;2.221040
4276.000000;2.227727
4275.000000;2.237638
4274.000000;2.247853
4273.000000;2.253410
4272.000000;2.252528
4271.000000;2.249683
4270.000000;2.251298
4269.000000;2.259351
4268.000000;2.270178
4267.000000;2.278545
4266.000000;2.281923
4265.000000;2.280850
4264.000000;2.276935
4263.000000;2.272165
4262.000000;2.269464
4261.000000;2.271992
4260.000000;2.280670
4259.000000;2.292449
4258.000000;2.301967
4257.000000;2.305744
4256.000000;2.304292
4255.000000;2.300000
4254.000000;2.294904
4253.000000;2.291427
4252.000000;2.292869
4251.000000;2.300308
4250.000000;2.309990
4249.000000;2.316650
4248.000000;2.319399
4247.000000;2.322245
4246.000000;2.328370
4245.000000;2.336157
4244.000000;2.341833
4243.000000;2.343528
4242.000000;2.341465
4241.000000;2.337562
4240.000000;2.336146
4239.000000;2.341726
4238.000000;2.353472
4237.000000;2.364207
4236.000000;2.367934
4235.000000;2.366827
4234.000000;2.367186
4233.000000;2.371091
4232.000000;2.376546
4231.000000;2.382456
4230.000000;2.387952
4229.000000;2.390420
4228.000000;2.389265
4227.000000;2.389460
4226.000000;2.397659
4225.000000;2.414427
4224.000000;2.433060
4223.000000;2.447497
4222.000000;2.457748
4221.000000;2.464877
4220.000000;2.465504
4219.000000;2.456821
4218.000000;2.444646
4217.000000;2.438807
4216.000000;2.442411
4215.000000;2.449742
4214.000000;2.453362
4213.000000;2.451659
4212.000000;2.447900
4211.000000;2.444307
4210.000000;2.439857
4209.000000;2.432736
4208.000000;2.423100
4207.000000;2.413713
4206.000000;2.409349
4205.000000;2.414270
4204.000000;2.429413
4203.000000;2.451326
4202.000000;2.472582
4201.000000;2.486140
4200.000000;2.490352
4199.000000;2.487836
4198.000000;2.482137
4197.000000;2.478028
4196.000000;2.482190
4195.000000;2.497885
4194.000000;2.516326
4193.000000;2.518827
4192.000000;2.497622
4191.000000;2.467400
4190.000000;2.448655
4189.000000;2.448829
4188.000000;2.459098
4187.000000;2.465651
4186.000000;2.464199
4185.000000;2.461136
4184.000000;2.463956
4183.000000;2.477033
4182.000000;2.502072
4181.000000;2.534706
4180.000000;2.561257
4179.000000;2.569057
4178.000000;2.562596
4177.000000;2.558049
4176.000000;2.564553
4175.000000;2.577408
4174.000000;2.582900
4173.000000;2.569323
4172.000000;2.539434
4171.000000;2.507345
4170.000000;2.485746
4169.000000;2.479409
4168.000000;2.484374
4167.000000;2.491627
4166.000000;2.495047
4165.000000;2.495518
4164.000000;2.496692
4163.000000;2.503531
4162.000000;2.521583
4161.000000;2.548735
4160.000000;2.570446
4159.000000;2.567449
4158.000000;2.540203
4157.000000;2.512887
4156.000000;2.506125
4155.000000;2.523501
4154.000000;2.552716
4153.000000;2.566744
4152.000000;2.542158
4151.000000;2.497690
4150.000000;2.466899
4149.000000;2.461922
4148.000000;2.477436
4147.000000;2.497247
4146.000000;2.505811
4145.000000;2.505059
4144.000000;2.511544
4143.000000;2.537701
4142.000000;2.582211
4141.000000;2.627556
4140.000000;2.645104
4139.000000;2.620940
4138.000000;2.571325
4137.000000;2.523081
4136.000000;2.492476
4135.000000;2.482640
4134.000000;2.489956
4133.000000;2.513091
4132.000000;2.563514
4131.000000;2.659986
4130.000000;2.797551
4129.000000;2.905186
4128.000000;2.905390
4127.000000;2.845949
4126.000000;2.780218
4125.000000;2.700603
4124.000000;2.598211
4123.000000;2.505819
4122.000000;2.461137
4121.000000;2.472028
4120.000000;2.524976
4119.000000;2.599958
4118.000000;2.671137
4117.000000;2.699774
4116.000000;2.674598
4115.000000;2.625287
4114.000000;2.576267
4113.000000;2.537432
4112.000000;2.518556
4111.000000;2.528451
4110.000000;2.561491
4109.000000;2.591903
4108.000000;2.584362
4107.000000;2.541724
4106.000000;2.505436
4105.000000;2.508325
4104.000000;2.563626
4103.000000;2.665267
4102.000000;2.769363
4101.000000;2.788357
4100.000000;2.757398
4099.000000;2.776410
4098.000000;2.836597
4097.000000;2.851942
4096.000000;2.773410
4095.000000;2.652697
4094.000000;2.560534
4093.000000;2.513837
4092.000000;2.500769
4091.000000;2.522107
4090.000000;2.597388
4089.000000;2.738209
4088.000000;2.883056
4087.000000;2.872183
4086.000000;2.721606
4085.000000;2.576435
4084.000000;2.486389
4083.000000;2.444686
4082.000000;2.434476
4081.000000;2.445351
4080.000000;2.479437
4079.000000;2.541040
4078.000000;2.611944
4077.000000;2.632760
4076.000000;2.567221
4075.000000;2.472610
4074.000000;2.411484
4073.000000;2.393873
4072.000000;2.393124
4071.000000;2.387598
4070.000000;2.394712
4069.000000;2.448102
4068.000000;2.552758
4067.000000;2.652740
4066.000000;2.657666
4065.000000;2.573503
4064.000000;2.494190
4063.000000;2.466876
4062.000000;2.491325
4061.000000;2.556025
4060.000000;2.657738
4059.000000;2.783091
4058.000000;2.877364
4057.000000;2.870202
4056.000000;2.685323
4055.000000;2.479930
4054.000000;2.358346
4053.000000;2.308337
4052.000000;2.313058
4051.000000;2.369916
4050.000000;2.490549
4049.000000;2.676887
4048.000000;2.868288
4047.000000;2.942385
4046.000000;2.853268
4045.000000;2.709725
4044.000000;2.579899
4043.000000;2.473799
4042.000000;2.414311
4041.000000;2.419188
4040.000000;2.487521
4039.000000;2.620346
4038.000000;2.866737
4037.000000;2.958461
4036.000000;2.815191
4035.000000;2.766804
4034.000000;2.624675
4033.000000;2.443389
4032.000000;2.340535
4031.000000;2.317889
4030.000000;2.350149
4029.000000;2.409844
4028.000000;2.519106
4027.000000;2.647943
4026.000000;2.645972
4025.000000;2.661818
4024.000000;2.869720
4023.000000;2.855758
4022.000000;2.641813
4021.000000;2.602679
4020.000000;2.665916
4019.000000;2.784357
4018.000000;2.857878
4017.000000;2.744942
4016.000000;2.560246
4015.000000;2.450019
4014.000000;2.433414
4013.000000;2.500728
4012.000000;2.627104
4011.000000;2.724840
4010.000000;2.676131
4009.000000;2.562191
4008.000000;2.501306
4007.000000;2.514252
4006.000000;2.572383
4005.000000;2.615065
4004.000000;2.595011
4003.000000;2.514498
4002.000000;2.405361
4001.000000;2.312938
4000.000000;2.267507
3999.000000;2.268673
3998.000000;2.299537
3997.000000;2.341872
3996.000000;2.387295
3995.000000;2.441263
3994.000000;2.494194
3993.000000;2.528167
3992.000000;2.556765
3991.000000;2.614530
3990.000000;2.726120
3989.000000;2.862864
3988.000000;2.917368
3987.000000;2.901702
3986.000000;2.892561
3985.000000;2.840626
3984.000000;2.716361
3983.000000;2.590313
3982.000000;2.525083
3981.000000;2.546140
3980.000000;2.662464
3979.000000;2.822612
3978.000000;2.822373
3977.000000;2.682468
3976.000000;2.566676
3975.000000;2.498875
3974.000000;2.464357
3973.000000;2.452421
3972.000000;2.462063
3971.000000;2.493723
3970.000000;2.538471
3969.000000;2.586937
3968.000000;2.628215
3967.000000;2.621470
3966.000000;2.588565
3965.000000;2.590352
3964.000000;2.623733
3963.000000;2.642556
3962.000000;2.635250
3961.000000;2.629280
3960.000000;2.624956
3959.000000;2.629395
3958.000000;2.685971
3957.000000;2.845134
3956.000000;3.063256
3955.000000;3.152987
3954.000000;3.172449
3953.000000;3.045867
3952.000000;2.867805
3951.000000;2.782153
3950.000000;2.816344
3949.000000;3.069749
3948.000000;3.479481
3947.000000;3.327112
3946.000000;3.563968
3945.000000;3.528668
3944.000000;3.165634
3943.000000;3.115189
3942.000000;3.104561
3941.000000;3.147039
3940.000000;3.030383
3939.000000;2.789695
3938.000000;2.695086
3937.000000;2.784003
3936.000000;2.939017
3935.000000;2.867224
3934.000000;2.653592
3933.000000;2.504192
3932.000000;2.459706
3931.000000;2.504339
3930.000000;2.588562
3929.000000;2.660463
3928.000000;2.729449
3927.000000;2.862272
3926.000000;3.190175
3925.000000;3.317984
3924.000000;2.963261
3923.000000;2.824824
3922.000000;2.749442
3921.000000;2.752626
3920.000000;2.823203
3919.000000;3.053192
3918.000000;3.424157
3917.000000;2.914955
3916.000000;2.619934
3915.000000;2.531674
3914.000000;2.533267
3913.000000;2.608488
3912.000000;2.744730
3911.000000;2.898439
3910.000000;3.059609
3909.000000;3.316842
3908.000000;3.431680
3907.000000;3.567605
3906.000000;3.566864
3905.000000;3.083584
3904.000000;2.804854
3903.000000;2.615814
3902.000000;2.486027
3901.000000;2.446717
3900.000000;2.563232
3899.000000;2.866517
3898.000000;3.022351
3897.000000;3.090095
3896.000000;2.973444
3895.000000;2.780352
3894.000000;2.799310
3893.000000;3.103694
3892.000000;3.480422
3891.000000;3.141073
3890.000000;3.127204
3889.000000;3.269627
3888.000000;3.108225
3887.000000;2.944491
3886.000000;2.928812
3885.000000;2.967444
3884.000000;3.006805
3883.000000;2.913947
3882.000000;2.746006
3881.000000;2.687415
3880.000000;2.811584
3879.000000;3.033727
3878.000000;3.127654
3877.000000;3.038519
3876.000000;2.778511
3875.000000;2.595199
3874.000000;2.573197
3873.000000;2.684565
3872.000000;2.804348
3871.000000;2.874947
3870.000000;2.906408
3869.000000;2.756702
3868.000000;2.676863
3867.000000;2.703977
3866.000000;2.692118
3865.000000;2.646616
3864.000000;2.667615
3863.000000;2.786330
3862.000000;2.903839
3861.000000;2.952750
3860.000000;2.947829
3859.000000;2.834145
3858.000000;2.732945
3857.000000;2.773326
3856.000000;3.004671
3855.000000;3.198948
3854.000000;3.074866
3853.000000;3.078593
3852.000000;3.143832
3851.000000;3.062754
3850.000000;3.023352
3849.000000;3.033728
3848.000000;2.919859
3847.000000;2.874980
3846.000000;2.988382
3845.000000;3.108053
3844.000000;3.126734
3843.000000;3.131767
3842.000000;3.215815
3841.000000;3.405810
3840.000000;3.524289
3839.000000;3.398647
3838.000000;3.217408
3837.000000;3.087856
3836.000000;3.081180
3835.000000;3.112264
3834.000000;3.143556
3833.000000;2.994617
3832.000000;2.770325
3831.000000;2.699878
3830.000000;2.847843
3829.000000;3.229262
3828.000000;3.147084
3827.000000;2.940201
3826.000000;3.001052
3825.000000;3.256627
3824.000000;3.236817
3823.000000;3.046423
3822.000000;2.982660
3821.000000;3.032889
3820.000000;3.177419
3819.000000;3.415622
3818.000000;3.839780
3817.000000;3.317113
3816.000000;3.073008
3815.000000;3.317684
3814.000000;3.310819
3813.000000;3.019819
3812.000000;2.908162
3811.000000;3.069174
3810.000000;3.552269
3809.000000;3.277464
3808.000000;3.104013
3807.000000;3.118380
3806.000000;3.368250
3805.000000;3.515768
3804.000000;3.119778
3803.000000;2.988423
3802.000000;2.945174
3801.000000;2.889817
3800.000000;2.943789
3799.000000;3.093563
3798.000000;3.343238
3797.000000;3.186954
3796.000000;2.818791
3795.000000;2.732118
3794.000000;2.841019
3793.000000;2.893135
3792.000000;2.804021
3791.000000;2.823097
3790.000000;3.064558
3789.000000;3.401721
3788.000000;3.585432
3787.000000;3.882124
3786.000000;3.562413
3785.000000;3.253145
3784.000000;3.174737
3783.000000;3.147011
3782.000000;3.081200
3781.000000;2.978809
3780.000000;2.959534
3779.000000;3.123253
3778.000000;3.158725
3777.000000;2.971760
3776.000000;2.934193
3775.000000;3.027150
3774.000000;3.227908
3773.000000;3.443692
3772.000000;3.385592
3771.000000;3.217049
3770.000000;3.086979
3769.000000;2.994900
3768.000000;2.922015
3767.000000;2.823229
3766.000000;2.699553
3765.000000;2.658450
3764.000000;2.773883
3763.000000;3.169861
3762.000000;3.500226
3761.000000;3.049005
3760.000000;2.903049
3759.000000;2.841446
3758.000000;2.834015
3757.000000;2.993974
3756.000000;3.408002
3755.000000;3.189969
3754.000000;2.875061
3753.000000;2.825675
3752.000000;2.795010
3751.000000;2.763747
3750.000000;2.768792
3749.000000;2.802090
3748.000000;2.817263
3747.000000;2.806155
3746.000000;2.838198
3745.000000;2.968371
3744.000000;2.997653
3743.000000;2.876294
3742.000000;2.791575
3741.000000;2.888211
3740.000000;3.092062
3739.000000;2.962276
3738.000000;2.906384
3737.000000;2.856528
3736.000000;2.777064
3735.000000;2.742414
3734.000000;2.738737
3733.000000;2.725597
3732.000000;2.662928
3731.000000;2.629179
3730.000000;2.688193
3729.000000;2.770563
3728.000000;2.818489
3727.000000;3.067521
3726.000000;3.499732
3725.000000;3.194774
3724.000000;3.090159
3723.000000;3.181691
3722.000000;3.187685
3721.000000;3.266158
3720.000000;3.196481
3719.000000;2.978339
3718.000000;2.848934
3717.000000;2.909139
3716.000000;3.343924
3715.000000;3.237032
3714.000000;2.885191
3713.000000;2.799267
3712.000000;2.831530
3711.000000;2.975298
3710.000000;3.262921
3709.000000;3.406574
3708.000000;3.144883
3707.000000;3.071403
3706.000000;3.225547
3705.000000;3.708722
3704.000000;3.721159
3703.000000;3.404969
3702.000000;3.625359
3701.000000;3.483646
3700.000000;3.057987
3699.000000;2.833697
3698.000000;2.716330
3697.000000;2.709367
3696.000000;2.827324
3695.000000;3.067493
3694.000000;3.374798
3693.000000;3.612264
3692.000000;3.937608
3691.000000;4.316013
3690.000000;3.971841
3689.000000;3.648598
3688.000000;3.474623
3687.000000;3.411158
3686.000000;3.371044
3685.000000;3.388824
3684.000000;3.513061
3683.000000;3.499852
3682.000000;3.459925
3681.000000;3.505209
3680.000000;3.780397
3679.000000;4.247378
3678.000000;3.548067
3677.000000;3.340700
3676.000000;3.316893
3675.000000;3.300813
3674.000000;3.304718
3673.000000;3.190244
3672.000000;2.871695
3671.000000;2.653497
3670.000000;2.707732
3669.000000;2.903677
3668.000000;2.873737
3667.000000;2.788980
3666.000000;2.767843
3665.000000;2.877172
3664.000000;3.219991
3663.000000;3.404027
3662.000000;3.190607
3661.000000;3.110552
3660.000000;3.099840
3659.000000;3.187009
3658.000000;3.321922
3657.000000;3.277788
3656.000000;3.148577
3655.000000;3.086060
3654.000000;3.068723
3653.000000;3.160872
3652.000000;3.521059
3651.000000;3.309273
3650.000000;2.984107
3649.000000;2.924431
3648.000000;2.870093
3647.000000;2.797083
3646.000000;2.708030
3645.000000;2.598453
3644.000000;2.527282
3643.000000;2.550357
3642.000000;2.682069
3641.000000;2.864101
3640.000000;3.007893
3639.000000;3.090363
3638.000000;3.167141
3637.000000;3.254360
3636.000000;3.369397
3635.000000;3.544718
3634.000000;3.399385
3633.000000;3.058567
3632.000000;2.930365
3631.000000;2.946508
3630.000000;3.216370
3629.000000;3.590110
3628.000000;2.961480
3627.000000;2.700689
3626.000000;2.598003
3625.000000;2.606955
3624.000000;2.800569
3623.000000;3.141652
3622.000000;3.567692
3621.000000;3.929723
3620.000000;3.799470
3619.000000;3.355528
3618.000000;3.137226
3617.000000;3.055583
3616.000000;3.048649
3615.000000;3.143651
3614.000000;3.354924
3613.000000;3.364453
3612.000000;3.124373
3611.000000;2.892816
3610.000000;2.719410
3609.000000;2.668296
3608.000000;2.871138
3607.000000;3.091922
3606.000000;2.952869
3605.000000;3.012030
3604.000000;3.198859
3603.000000;3.203346
3602.000000;3.079863
3601.000000;2.985969
3600.000000;3.296812
3599.000000;3.853874
3598.000000;3.103476
3597.000000;3.001183
3596.000000;3.130809
3595.000000;3.626662
3594.000000;3.963434
3593.000000;3.454204
3592.000000;3.599628
3591.000000;3.428366
3590.000000;3.192257
3589.000000;3.037990
3588.000000;3.136477
3587.000000;3.491396
3586.000000;2.991800
3585.000000;2.722995
3584.000000;2.663015
3583.000000;2.704188
3582.000000;2.830835
3581.000000;2.820202
3580.000000;2.786868
3579.000000;2.879934
3578.000000;3.133500
3577.000000;3.324994
3576.000000;3.172591
3575.000000;3.100702
3574.000000;3.038719
3573.000000;2.922883
3572.000000;2.835578
3571.000000;2.832538
3570.000000;2.934988
3569.000000;3.169415
3568.000000;3.552964
3567.000000;3.484766
3566.000000;3.102517
3565.000000;2.939303
3564.000000;2.896609
3563.000000;2.971504
3562.000000;3.391534
3561.000000;3.601185
3560.000000;3.251995
3559.000000;3.274392
3558.000000;3.386128
3557.000000;3.462273
3556.000000;3.752460
3555.000000;4.131595
3554.000000;3.367905
3553.000000;2.981673
3552.000000;2.825631
3551.000000;2.814717
3550.000000;2.901050
3549.000000;2.963471
3548.000000;2.949123
3547.000000;2.934162
3546.000000;2.898083
3545.000000;2.807619
3544.000000;2.741320
3543.000000;2.755186
3542.000000;2.866672
3541.000000;3.059408
3540.000000;3.240869
3539.000000;3.262648
3538.000000;3.153186
3537.000000;3.065882
3536.000000;3.092807
3535.000000;3.257450
3534.000000;3.393656
3533.000000;3.238689
3532.000000;3.043073
3531.000000;2.971259
3530.000000;3.028747
3529.000000;3.075502
3528.000000;3.011208
3527.000000;2.971513
3526.000000;3.041518
3525.000000;3.254799
3524.000000;3.243752
3523.000000;3.013040
3522.000000;2.940828
3521.000000;2.987235
3520.000000;3.028918
3519.000000;2.945806
3518.000000;2.871158
3517.000000;2.914783
3516.000000;3.106139
3515.000000;3.486484
3514.000000;3.464945
3513.000000;3.273782
3512.000000;3.353580
3511.000000;3.279131
3510.000000;3.072878
3509.000000;3.011964
3508.000000;3.256895
3507.000000;3.547968
3506.000000;3.142076
3505.000000;3.030623
3504.000000;3.231003
3503.000000;3.743493
3502.000000;3.657647
3501.000000;3.163985
3500.000000;2.945619
3499.000000;2.857728
3498.000000;2.869867
3497.000000;2.929011
3496.000000;3.108960
3495.000000;3.474019
3494.000000;3.186760
3493.000000;2.889159
3492.000000;2.808733
3491.000000;2.837432
3490.000000;2.887941
3489.000000;2.819712
3488.000000;2.696312
3487.000000;2.645181
3486.000000;2.700795
3485.000000;2.949642
3484.000000;3.323741
3483.000000;3.022105
3482.000000;2.852427
3481.000000;2.899776
3480.000000;3.179586
3479.000000;3.718334
3478.000000;3.446928
3477.000000;3.649062
3476.000000;3.319982
3475.000000;2.915726
3474.000000;2.797190
3473.000000;2.774322
3472.000000;2.831837
3471.000000;2.919051
3470.000000;2.940313
3469.000000;2.944332
3468.000000;2.972539
3467.000000;2.854956
3466.000000;2.724351
3465.000000;2.716231
3464.000000;2.822079
3463.000000;3.011083
3462.000000;3.086671
3461.000000;2.977678
3460.000000;2.890633
3459.000000;2.874918
3458.000000;2.971542
3457.000000;3.035490
3456.000000;2.887067
3455.000000;2.776968
3454.000000;2.779232
3453.000000;2.874384
3452.000000;3.031947
3451.000000;3.105192
3450.000000;3.207455
3449.000000;3.385426
3448.000000;3.241018
3447.000000;3.104014
3446.000000;3.124822
3445.000000;3.213164
3444.000000;3.076593
3443.000000;2.840671
3442.000000;2.750046
3441.000000;2.790882
3440.000000;2.971401
3439.000000;3.232845
3438.000000;3.116306
3437.000000;2.929344
3436.000000;2.912907
3435.000000;2.998055
3434.000000;3.015600
3433.000000;2.913912
3432.000000;2.904155
3431.000000;3.019686
3430.000000;3.293148
3429.000000;3.711252
3428.000000;3.426185
3427.000000;3.278608
3426.000000;3.385090
3425.000000;3.373661
3424.000000;3.302761
3423.000000;3.117389
3422.000000;2.910069
3421.000000;2.813286
3420.000000;2.906498
3419.000000;3.200306
3418.000000;3.122271
3417.000000;2.919538
3416.000000;2.896222
3415.000000;2.896514
3414.000000;2.811712
3413.000000;2.746626
3412.000000;2.746835
3411.000000;2.769155
3410.000000;2.763259
3409.000000;2.735836
3408.000000;2.749845
3407.000000;2.819855
3406.000000;3.162174
3405.000000;3.526283
3404.000000;2.953167
3403.000000;2.797742
3402.000000;2.821503
3401.000000;3.004590
3400.000000;3.541445
3399.000000;3.386463
3398.000000;3.010820
3397.000000;2.867231
3396.000000;2.779439
3395.000000;2.885792
3394.000000;3.442968
3393.000000;3.250788
3392.000000;2.914751
3391.000000;2.863319
3390.000000;2.876990
3389.000000;2.918776
3388.000000;2.964359
3387.000000;3.068272
3386.000000;3.167331
3385.000000;3.225004
3384.000000;3.288059
3383.000000;3.353252
3382.000000;3.433037
3381.000000;3.416378
3380.000000;3.241674
3379.000000;3.116464
3378.000000;3.005410
3377.000000;2.929285
3376.000000;2.927396
3375.000000;3.066197
3374.000000;3.559761
3373.000000;3.406546
3372.000000;3.022881
3371.000000;2.868967
3370.000000;2.780183
3369.000000;2.771927
3368.000000;2.832674
3367.000000;2.928133
3366.000000;3.129332
3365.000000;3.685858
3364.000000;3.505198
3363.000000;3.142378
3362.000000;3.057557
3361.000000;3.085373
3360.000000;3.212927
3359.000000;3.438973
3358.000000;3.346887
3357.000000;3.068990
3356.000000;3.010951
3355.000000;3.232978
3354.000000;3.648049
3353.000000;3.447961
3352.000000;3.460952
3351.000000;3.447524
3350.000000;3.218866
3349.000000;3.153012
3348.000000;3.146318
3347.000000;3.134397
3346.000000;3.195390
3345.000000;3.393265
3344.000000;3.265325
3343.000000;3.065200
3342.000000;3.084814
3341.000000;3.299856
3340.000000;3.657839
3339.000000;3.676254
3338.000000;3.655767
3337.000000;3.631534
3336.000000;3.371825
3335.000000;3.182368
3334.000000;3.128288
3333.000000;3.103463
3332.000000;3.279793
3331.000000;3.757134
3330.000000;3.231389
3329.000000;3.010297
3328.000000;3.081029
3327.000000;3.562717
3326.000000;3.967168
3325.000000;3.447287
3324.000000;3.606924
3323.000000;3.494627
3322.000000;3.201728
3321.000000;3.027047
3320.000000;2.946411
3319.000000;3.018529
3318.000000;3.285766
3317.000000;3.657624
3316.000000;3.687817
3315.000000;3.227019
3314.000000;2.985362
3313.000000;2.984270
3312.000000;3.054518
3311.000000;3.033242
3310.000000;2.958351
3309.000000;2.886640
3308.000000;2.874564
3307.000000;2.974763
3306.000000;3.215489
3305.000000;3.686296
3304.000000;3.840166
3303.000000;3.369634
3302.000000;3.135227
3301.000000;2.990798
3300.000000;2.886509
3299.000000;2.810568
3298.000000;2.799556
3297.000000;2.875616
3296.000000;3.087324
3295.000000;3.557118
3294.000000;3.894491
3293.000000;3.342682
3292.000000;3.252473
3291.000000;3.806821
3290.000000;3.260513
3289.000000;2.928949
3288.000000;3.007991
3287.000000;3.411249
3286.000000;3.386959
3285.000000;3.093170
3284.000000;2.973193
3283.000000;2.905835
3282.000000;2.968864
3281.000000;3.252719
3280.000000;3.567531
3279.000000;3.610303
3278.000000;3.968474
3277.000000;3.852543
3276.000000;3.239149
3275.000000;2.901534
3274.000000;2.812719
3273.000000;2.867875
3272.000000;2.957742
3271.000000;2.993799
3270.000000;2.963657
3269.000000;2.914731
3268.000000;2.871565
3267.000000;2.872595
3266.000000;2.973798
3265.000000;3.091531
3264.000000;3.106303
3263.000000;3.276794
3262.000000;3.441155
3261.000000;3.199370
3260.000000;3.064022
3259.000000;3.071939
3258.000000;3.217625
3257.000000;3.587878
3256.000000;4.253291
3255.000000;3.607869
3254.000000;3.256826
3253.000000;3.081119
3252.000000;3.121243
3251.000000;3.278469
3250.000000;3.017849
3249.000000;2.841024
3248.000000;2.836254
3247.000000;2.849133
3246.000000;2.806537
3245.000000;2.818797
3244.000000;3.024161
3243.000000;3.331000
3242.000000;3.104682
3241.000000;2.876146
3240.000000;2.803830
3239.000000;2.816267
3238.000000;2.909960
3237.000000;3.083636
3236.000000;3.244296
3235.000000;3.109971
3234.000000;2.986700
3233.000000;3.015086
3232.000000;3.206470
3231.000000;3.553912
3230.000000;3.313310
3229.000000;3.105692
3228.000000;3.083355
3227.000000;3.114609
3226.000000;3.094869
3225.000000;3.116163
3224.000000;3.352727
3223.000000;3.398289
3222.000000;3.193081
3221.000000;3.359898
3220.000000;3.515009
3219.000000;3.292253
3218.000000;3.380169
3217.000000;3.753822
3216.000000;3.939051
3215.000000;3.525625
3214.000000;3.225754
3213.000000;3.056958
3212.000000;2.978164
3211.000000;2.978147
3210.000000;3.166038
3209.000000;3.915463
3208.000000;3.571943
3207.000000;3.319716
3206.000000;3.232388
3205.000000;3.087024
3204.000000;3.041754
3203.000000;3.182951
3202.000000;3.570468
3201.000000;3.408677
3200.000000;3.235543
3199.000000;3.404589
3198.000000;3.860887
3197.000000;3.294016
3196.000000;3.059152
3195.000000;2.983762
3194.000000;2.918839
3193.000000;2.823776
3192.000000;2.751573
3191.000000;2.774765
3190.000000;3.019298
3189.000000;3.513706
3188.000000;3.175196
3187.000000;2.932450
3186.000000;2.863747
3185.000000;2.840130
3184.000000;2.879715
3183.000000;2.962026
3182.000000;3.022698
3181.000000;3.139409
3180.000000;3.517266
3179.000000;3.165758
3178.000000;2.944855
3177.000000;3.005854
3176.000000;3.334693
3175.000000;3.781914
3174.000000;3.334999
3173.000000;3.204562
3172.000000;3.050601
3171.000000;2.854113
3170.000000;2.754735
3169.000000;2.779132
3168.000000;3.001640
3167.000000;3.194933
3166.000000;2.950870
3165.000000;2.836565
3164.000000;2.816130
3163.000000;2.832032
3162.000000;2.884115
3161.000000;2.967652
3160.000000;3.116200
3159.000000;3.488342
3158.000000;3.488507
3157.000000;3.202310
3156.000000;3.185718
3155.000000;3.474468
3154.000000;3.503852
3153.000000;3.058785
3152.000000;2.850561
3151.000000;2.785233
3150.000000;2.835544
3149.000000;2.984471
3148.000000;3.203419
3147.000000;3.664593
3146.000000;3.361643
3145.000000;3.000763
3144.000000;2.983323
3143.000000;3.231555
3142.000000;3.144663
3141.000000;2.848156
3140.000000;2.803967
3139.000000;2.907281
3138.000000;3.148112
3137.000000;3.438418
3136.000000;3.739880
3135.000000;3.577593
3134.000000;3.093849
3133.000000;2.871986
3132.000000;2.795956
3131.000000;2.803090
3130.000000;2.851009
3129.000000;2.914157
3128.000000;2.971424
3127.000000;3.013672
3126.000000;3.040640
3125.000000;3.144901
3124.000000;3.328338
3123.000000;3.112887
3122.000000;2.969571
3121.000000;3.045890
3120.000000;3.296191
3119.000000;3.327582
3118.000000;3.222162
3117.000000;3.112069
3116.000000;2.969826
3115.000000;2.955793
3114.000000;3.264348
3113.000000;3.617932
3112.000000;3.107517
3111.000000;3.071461
3110.000000;3.167431
3109.000000;3.383315
3108.000000;3.544514
3107.000000;3.209809
3106.000000;2.948916
3105.000000;2.847691
3104.000000;2.872609
3103.000000;3.012019
3102.000000;3.268267
3101.000000;3.806158
3100.000000;3.530215
3099.000000;3.110663
3098.000000;2.888083
3097.000000;2.737659
3096.000000;2.653023
3095.000000;2.640010
3094.000000;2.682808
3093.000000;2.743867
3092.000000;2.856421
3091.000000;3.070506
3090.000000;3.005014
3089.000000;2.827173
3088.000000;2.837415
3087.000000;3.128293
3086.000000;3.671481
3085.000000;3.244801
3084.000000;3.207697
3083.000000;3.125413
3082.000000;2.894309
3081.000000;2.765914
3080.000000;2.746711
3079.000000;2.825641
3078.000000;3.032093
3077.000000;3.264964
3076.000000;3.222705
3075.000000;3.263267
3074.000000;3.966114
3073.000000;3.254375
3072.000000;2.891201
3071.000000;2.799929
3070.000000;2.823629
3069.000000;2.923151
3068.000000;3.030762
3067.000000;3.130181
3066.000000;3.279495
3065.000000;3.295637
3064.000000;3.058321
3063.000000;2.969600
3062.000000;3.032974
3061.000000;3.197504
3060.000000;3.339078
3059.000000;3.254780
3058.000000;3.139515
3057.000000;3.141206
3056.000000;3.428851
3055.000000;3.514169
3054.000000;3.128161
3053.000000;3.044533
3052.000000;3.073784
3051.000000;3.150112
3050.000000;3.178444
3049.000000;3.102989
3048.000000;3.054674
3047.000000;3.232645
3046.000000;3.741412
3045.000000;3.275520
3044.000000;3.207504
3043.000000;3.642367
3042.000000;3.330038
3041.000000;3.072749
3040.000000;3.041712
3039.000000;3.112704
3038.000000;3.314292
3037.000000;3.587969
3036.000000;3.102363
3035.000000;2.865022
3034.000000;2.787317
3033.000000;2.818439
3032.000000;2.929854
3031.000000;3.040727
3030.000000;2.994267
3029.000000;2.908055
3028.000000;2.918965
3027.000000;3.029881
3026.000000;3.189991
3025.000000;3.357849
3024.000000;3.301700
3023.000000;3.025278
3022.000000;2.855281
3021.000000;2.808500
3020.000000;2.856678
3019.000000;2.994118
3018.000000;3.254790
3017.000000;3.571479
3016.000000;3.764260
3015.000000;3.394704
3014.000000;3.130250
3013.000000;3.110265
3012.000000;3.394661
3011.000000;4.141486
3010.000000;3.396609
3009.000000;3.459905
3008.000000;3.809657
3007.000000;4.082354
3006.000000;4.289805
3005.000000;3.964090
3004.000000;3.962004
3003.000000;4.152872
3002.000000;3.391182
3001.000000;3.097656
3000.000000;2.975847
2999.000000;3.070308
2998.000000;3.535833
2997.000000;3.246676
2996.000000;3.024035
2995.000000;3.190452
2994.000000;3.304812
2993.000000;3.181181
2992.000000;3.142038
2991.000000;3.187184
2990.000000;3.219712
2989.000000;3.305766
2988.000000;3.608048
2987.000000;3.540746
2986.000000;3.345374
2985.000000;3.438650
2984.000000;3.910803
2983.000000;3.440928
2982.000000;3.200149
2981.000000;3.218678
2980.000000;3.271333
2979.000000;3.142709
2978.000000;3.081544
2977.000000;3.079963
2976.000000;3.021138
2975.000000;2.911343
2974.000000;2.828951
2973.000000;2.787481
2972.000000;2.768689
2971.000000;2.778498
2970.000000;2.853232
2969.000000;3.022904
2968.000000;3.236594
2967.000000;3.294780
2966.000000;3.128701
2965.000000;3.022628
2964.000000;3.064759
2963.000000;3.271673
2962.000000;3.555366
2961.000000;3.212676
2960.000000;3.058835
2959.000000;3.051132
2958.000000;3.090652
2957.000000;3.142895
2956.000000;3.300077
2955.000000;3.757969
2954.000000;3.390663
2953.000000;3.062081
2952.000000;2.999215
2951.000000;3.167859
2950.000000;3.200910
2949.000000;2.903009
2948.000000;2.835039
2947.000000;2.965384
2946.000000;3.376598
2945.000000;3.293145
2944.000000;3.094560
2943.000000;3.218781
2942.000000;3.484755
2941.000000;3.722938
2940.000000;3.656161
2939.000000;3.230400
2938.000000;2.986960
2937.000000;2.948413
2936.000000;3.077916
2935.000000;3.471245
2934.000000;3.297258
2933.000000;3.070154
2932.000000;3.067773
2931.000000;3.297793
2930.000000;3.569823
2929.000000;3.382840
2928.000000;3.644713
2927.000000;3.754228
2926.000000;3.745710
2925.000000;3.616441
2924.000000;3.065479
2923.000000;3.016197
2922.000000;3.404227
2921.000000;3.592155
2920.000000;3.125164
2919.000000;3.248204
2918.000000;3.315937
2917.000000;3.473375
2916.000000;3.677257
2915.000000;3.100665
2914.000000;2.823022
2913.000000;2.742499
2912.000000;2.718398
2911.000000;2.713184
2910.000000;2.770705
2909.000000;2.958554
2908.000000;3.364247
2907.000000;4.212779
2906.000000;4.372165
2905.000000;3.666106
2904.000000;3.250503
2903.000000;3.093865
2902.000000;3.072513
2901.000000;3.111918
2900.000000;3.063370
2899.000000;2.901502
2898.000000;2.765130
2897.000000;2.687518
2896.000000;2.710935
2895.000000;2.802065
2894.000000;3.349425
2893.000000;3.281580
2892.000000;2.695474
2891.000000;2.622499
2890.000000;2.710119
2889.000000;2.839620
2888.000000;2.728603
2887.000000;2.693929
2886.000000;2.805531
2885.000000;2.940606
2884.000000;2.960396
2883.000000;2.998706
2882.000000;3.183783
2881.000000;3.556477
2880.000000;3.603194
2879.000000;3.388153
2878.000000;3.241656
2877.000000;3.155807
2876.000000;3.055665
2875.000000;3.046626
2874.000000;3.114051
2873.000000;2.983993
2872.000000;2.889822
2871.000000;2.999668
2870.000000;3.225657
2869.000000;3.104998
2868.000000;2.997570
2867.000000;3.054797
2866.000000;3.505255
2865.000000;3.498590
2864.000000;3.056435
2863.000000;3.015811
2862.000000;3.248994
2861.000000;3.593043
2860.000000;3.140498
2859.000000;3.003277
2858.000000;3.090884
2857.000000;3.335700
2856.000000;3.605582
2855.000000;3.494548
2854.000000;3.324313
2853.000000;3.120205
2852.000000;3.058218
2851.000000;3.189062
2850.000000;2.999021
2849.000000;2.789914
2848.000000;2.774432
2847.000000;2.884506
2846.000000;3.013366
2845.000000;3.056725
2844.000000;3.105824
2843.000000;3.138571
2842.000000;3.037813
2841.000000;2.998610
2840.000000;3.058654
2839.000000;3.105717
2838.000000;3.102796
2837.000000;3.089748
2836.000000;3.052908
2835.000000;3.024794
2834.000000;3.033401
2833.000000;3.046849
2832.000000;3.053080
2831.000000;3.091121
2830.000000;3.151032
2829.000000;3.171364
2828.000000;3.230675
2827.000000;3.288019
2826.000000;3.169967
2825.000000;3.149398
2824.000000;3.362785
2823.000000;4.038839
2822.000000;3.265311
2821.000000;3.097500
2820.000000;3.032897
2819.000000;2.999466
2818.000000;3.010367
2817.000000;3.098598
2816.000000;3.152978
2815.000000;3.181186
2814.000000;3.195732
2813.000000;3.058300
2812.000000;2.913450
2811.000000;2.816017
2810.000000;2.816436
2809.000000;2.949008
2808.000000;3.404244
2807.000000;3.267682
2806.000000;2.868212
2805.000000;2.686762
2804.000000;2.604996
2803.000000;2.607066
2802.000000;2.675040
2801.000000;2.814346
2800.000000;3.016922
2799.000000;3.147426
2798.000000;3.029855
2797.000000;2.909642
2796.000000;2.893253
2795.000000;3.002497
2794.000000;3.217819
2793.000000;3.226098
2792.000000;3.097203
2791.000000;3.077345
2790.000000;3.118472
2789.000000;3.222079
2788.000000;3.387318
2787.000000;3.306632
2786.000000;3.106995
2785.000000;3.021643
2784.000000;2.983890
2783.000000;2.968493
2782.000000;2.970611
2781.000000;2.980873
2780.000000;3.012891
2779.000000;3.131110
2778.000000;3.581619
2777.000000;3.198913
2776.000000;2.985462
2775.000000;3.030289
2774.000000;3.155477
2773.000000;3.064482
2772.000000;2.853010
2771.000000;2.704382
2770.000000;2.636868
2769.000000;2.665811
2768.000000;2.825993
2767.000000;2.960348
2766.000000;2.760334
2765.000000;2.667568
2764.000000;2.722435
2763.000000;2.916869
2762.000000;3.395403
2761.000000;3.519103
2760.000000;3.045673
2759.000000;2.970254
2758.000000;2.963465
2757.000000;2.998820
2756.000000;3.022438
2755.000000;3.089566
2754.000000;3.291803
2753.000000;3.445138
2752.000000;3.206542
2751.000000;3.038791
2750.000000;3.009852
2749.000000;3.100312
2748.000000;3.169906
2747.000000;2.993210
2746.000000;2.825119
2745.000000;2.752771
2744.000000;2.772267
2743.000000;2.858672
2742.000000;2.928577
2741.000000;2.881215
2740.000000;2.779159
2739.000000;2.723038
2738.000000;2.734020
2737.000000;2.789044
2736.000000;2.839338
2735.000000;2.863286
2734.000000;2.909017
2733.000000;3.035232
2732.000000;3.317521
2731.000000;3.545914
2730.000000;3.475297
2729.000000;3.224137
2728.000000;2.948344
2727.000000;2.845320
2726.000000;2.865843
2725.000000;2.940147
2724.000000;3.086444
2723.000000;3.171397
2722.000000;3.040176
2721.000000;2.939542
2720.000000;2.900959
2719.000000;2.917150
2718.000000;2.975142
2717.000000;2.990247
2716.000000;2.935188
2715.000000;2.918288
2714.000000;3.058860
2713.000000;3.498536
2712.000000;3.295903
2711.000000;3.024971
2710.000000;2.994008
2709.000000;3.041399
2708.000000;3.146615
2707.000000;3.294289
2706.000000;3.509248
2705.000000;3.438610
2704.000000;3.118868
2703.000000;2.962736
2702.000000;2.936388
2701.000000;2.997461
2700.000000;2.978216
2699.000000;2.863921
2698.000000;2.817742
2697.000000;2.883141
2696.000000;3.083387
2695.000000;3.358647
2694.000000;3.111680
2693.000000;2.948859
2692.000000;2.982465
2691.000000;3.255565
2690.000000;3.472464
2689.000000;3.200722
2688.000000;3.260236
2687.000000;3.434705
2686.000000;3.349469
2685.000000;3.510460
2684.000000;4.040198
2683.000000;3.313604
2682.000000;3.085773
2681.000000;3.089349
2680.000000;3.215156
2679.000000;3.046858
2678.000000;2.871968
2677.000000;2.860722
2676.000000;2.887796
2675.000000;2.896257
2674.000000;2.977876
2673.000000;3.258851
2672.000000;3.884308
2671.000000;3.436722
2670.000000;3.140879
2669.000000;3.064308
2668.000000;3.080549
2667.000000;3.237684
2666.000000;3.730797
2665.000000;3.602577
2664.000000;3.723807
2663.000000;3.230819
2662.000000;2.895723
2661.000000;2.726948
2660.000000;2.654272
2659.000000;2.657063
2658.000000;2.710947
2657.000000;2.786424
2656.000000;2.862080
2655.000000;2.932118
2654.000000;2.975046
2653.000000;2.972630
2652.000000;2.990985
2651.000000;3.109703
2650.000000;3.325438
2649.000000;3.601896
2648.000000;3.553884
2647.000000;3.148916
2646.000000;2.916384
2645.000000;2.869392
2644.000000;2.940138
2643.000000;2.933619
2642.000000;2.889502
2641.000000;2.974233
2640.000000;3.273197
2639.000000;3.458724
2638.000000;3.113532
2637.000000;2.948731
2636.000000;2.912944
2635.000000;2.912007
2634.000000;2.924754
2633.000000;3.043431
2632.000000;3.362204
2631.000000;3.348093
2630.000000;3.006323
2629.000000;2.870264
2628.000000;2.834872
2627.000000;2.877988
2626.000000;2.970854
2625.000000;3.078543
2624.000000;3.137404
2623.000000;3.139974
2622.000000;3.252380
2621.000000;3.514050
2620.000000;3.238346
2619.000000;3.057391
2618.000000;3.532123
2617.000000;3.401353
2616.000000;3.091739
2615.000000;3.604825
2614.000000;3.261436
2613.000000;2.946113
2612.000000;2.931878
2611.000000;2.944780
2610.000000;2.908440
2609.000000;2.922734
2608.000000;3.009159
2607.000000;3.125512
2606.000000;3.251878
2605.000000;3.137709
2604.000000;2.964389
2603.000000;2.911527
2602.000000;2.950191
2601.000000;3.068820
2600.000000;3.271790
2599.000000;3.277883
2598.000000;3.043506
2597.000000;2.981327
2596.000000;3.051358
2595.000000;3.041700
2594.000000;2.930622
2593.000000;2.872072
2592.000000;2.895612
2591.000000;3.046430
2590.000000;3.304571
2589.000000;3.146525
2588.000000;3.000358
2587.000000;3.039164
2586.000000;3.201080
2585.000000;3.202596
2584.000000;3.020591
2583.000000;2.970199
2582.000000;3.065870
2581.000000;3.255532
2580.000000;3.309629
2579.000000;3.132944
2578.000000;2.968645
2577.000000;2.874716
2576.000000;2.857334
2575.000000;2.914618
2574.000000;3.009615
2573.000000;3.050079
2572.000000;2.979447
2571.000000;2.866824
2570.000000;2.792518
2569.000000;2.795760
2568.000000;2.873882
2567.000000;2.930088
2566.000000;2.921791
2565.000000;2.955224
2564.000000;3.077516
2563.000000;3.249044
2562.000000;3.283154
2561.000000;3.230746
2560.000000;3.197614
2559.000000;3.129666
2558.000000;3.116447
2557.000000;3.264932
2556.000000;3.615886
2555.000000;3.910109
2554.000000;3.904644
2553.000000;3.496905
2552.000000;3.138455
2551.000000;2.955333
2550.000000;2.909327
2549.000000;2.933950
2548.000000;2.932303
2547.000000;2.888396
2546.000000;2.884845
2545.000000;3.028686
2544.000000;3.436839
2543.000000;3.539432
2542.000000;3.501472
2541.000000;3.332164
2540.000000;2.978189
2539.000000;2.833354
2538.000000;2.801876
2537.000000;2.841982
2536.000000;2.916518
2535.000000;3.004133
2534.000000;3.090833
2533.000000;3.169765
2532.000000;3.269806
2531.000000;3.593062
2530.000000;3.511909
2529.000000;2.963833
2528.000000;2.732441
2527.000000;2.646505
2526.000000;2.624247
2525.000000;2.617970
2524.000000;2.635904
2523.000000;2.712282
2522.000000;2.862581
2521.000000;3.106833
2520.000000;3.436234
2519.000000;3.442015
2518.000000;3.140265
2517.000000;2.895966
2516.000000;2.728881
2515.000000;2.664432
2514.000000;2.703609
2513.000000;2.818198
2512.000000;2.932181
2511.000000;2.998619
2510.000000;3.229754
2509.000000;3.413453
2508.000000;3.011053
2507.000000;2.823280
2506.000000;2.786445
2505.000000;2.815871
2504.000000;2.894988
2503.000000;2.938299
2502.000000;2.885902
2501.000000;2.828829
2500.000000;2.829627
2499.000000;2.894143
2498.000000;3.053575
2497.000000;3.462311
2496.000000;3.257406
2495.000000;2.823778
2494.000000;2.711742
2493.000000;2.762055
2492.000000;3.048036
2491.000000;3.303481
2490.000000;2.998745
2489.000000;2.910904
2488.000000;3.010558
2487.000000;3.191454
2486.000000;3.601381
2485.000000;3.645008
2484.000000;3.201503
2483.000000;3.105667
2482.000000;3.075377
2481.000000;2.970064
2480.000000;2.884645
2479.000000;2.856216
2478.000000;2.939458
2477.000000;3.071861
2476.000000;2.976458
2475.000000;2.935280
2474.000000;3.171719
2473.000000;3.628659
2472.000000;3.363058
2471.000000;3.199492
2470.000000;3.033083
2469.000000;2.921049
2468.000000;2.881724
2467.000000;2.861621
2466.000000;2.873846
2465.000000;2.909147
2464.000000;2.921884
2463.000000;2.881889
2462.000000;2.833391
2461.000000;2.837953
2460.000000;2.927427
2459.000000;3.136999
2458.000000;3.416519
2457.000000;3.606175
2456.000000;3.714016
2455.000000;3.409471
2454.000000;3.190318
2453.000000;3.004563
2452.000000;2.823357
2451.000000;2.744683
2450.000000;2.788874
2449.000000;2.973048
2448.000000;3.325470
2447.000000;3.711953
2446.000000;3.510680
2445.000000;3.230344
2444.000000;3.116735
2443.000000;3.111464
2442.000000;3.093889
2441.000000;3.051538
2440.000000;3.039267
2439.000000;2.976021
2438.000000;2.890555
2437.000000;2.847891
2436.000000;2.811406
2435.000000;2.764900
2434.000000;2.730971
2433.000000;2.729798
2432.000000;2.770504
2431.000000;2.827823
2430.000000;2.857924
2429.000000;2.873264
2428.000000;2.915316
2427.000000;2.988808
2426.000000;3.130858
2425.000000;3.425379
2424.000000;3.840929
2423.000000;3.819131
2422.000000;3.436377
2421.000000;3.186886
2420.000000;3.041863
2419.000000;2.970326
2418.000000;3.064234
2417.000000;3.302540
2416.000000;3.103676
2415.000000;2.888402
2414.000000;2.847014
2413.000000;2.945389
2412.000000;3.211229
2411.000000;3.214051
2410.000000;2.987197
2409.000000;2.916478
2408.000000;2.945810
2407.000000;3.068882
2406.000000;3.251990
2405.000000;3.370502
2404.000000;3.445661
2403.000000;3.537835
2402.000000;3.517969
2401.000000;3.212422
2400.000000;2.984953
2399.000000;2.906267
2398.000000;3.028483
2397.000000;3.559060
2396.000000;3.338977
2395.000000;3.011371
2394.000000;2.916658
2393.000000;2.894348
2392.000000;2.951981
2391.000000;3.050087
2390.000000;3.030260
2389.000000;2.929561
2388.000000;3.068519
2387.000000;3.098138
2386.000000;2.813175
2385.000000;2.777004
2384.000000;2.908770
2383.000000;3.113590
2382.000000;3.249219
2381.000000;3.282880
2380.000000;3.377193
2379.000000;3.535684
2378.000000;4.014439
2377.000000;4.075268
2376.000000;3.662327
2375.000000;3.526838
2374.000000;3.499080
2373.000000;3.506642
2372.000000;3.548627
2371.000000;3.600517
2370.000000;3.569884
2369.000000;3.602051
2368.000000;3.950211
2367.000000;4.598536
2366.000000;4.148826
2365.000000;3.897824
2364.000000;3.762992
2363.000000;3.711956
2362.000000;3.714429
2361.000000;3.777052
2360.000000;3.929524
2359.000000;4.400606
2358.000000;4.488001
2357.000000;3.979406
2356.000000;3.870711
2355.000000;3.781607
2354.000000;3.711348
2353.000000;3.719397
2352.000000;3.906708
2351.000000;4.521180
2350.000000;4.575764
2349.000000;4.451022
2348.000000;4.549244
2347.000000;4.543183
2346.000000;4.379528
2345.000000;4.405083
2344.000000;4.356830
2343.000000;3.963639
2342.000000;3.942652
2341.000000;4.148060
2340.000000;4.177856
2339.000000;4.084798
2338.000000;4.092682
2337.000000;4.082772
2336.000000;3.867799
2335.000000;3.865666
2334.000000;4.213384
2333.000000;4.081203
2332.000000;3.800748
2331.000000;3.879336
2330.000000;3.989585
2329.000000;3.907790
2328.000000;3.873955
2327.000000;3.928064
2326.000000;3.794650
2325.000000;3.608158
2324.000000;3.522044
2323.000000;3.453938
2322.000000;3.404340
2321.000000;3.427331
2320.000000;3.541328
2319.000000;3.661328
2318.000000;3.605262
2317.000000;3.440028
2316.000000;3.326796
2315.000000;3.302090
2314.000000;3.351616
2313.000000;3.445195
2312.000000;3.542524
2311.000000;3.654645
2310.000000;3.892492
2309.000000;3.987962
2308.000000;3.710650
2307.000000;3.611214
2306.000000;3.765851
2305.000000;4.125672
2304.000000;3.750873
2303.000000;3.434238
2302.000000;3.302535
2301.000000;3.221017
2300.000000;3.195695
2299.000000;3.242281
2298.000000;3.357614
2297.000000;3.421292
2296.000000;3.405134
2295.000000;3.495074
2294.000000;3.583676
2293.000000;3.422509
2292.000000;3.280283
2291.000000;3.292585
2290.000000;3.426128
2289.000000;3.368423
2288.000000;3.245646
2287.000000;3.277557
2286.000000;3.282628
2285.000000;3.142651
2284.000000;2.956628
2283.000000;2.831243
2282.000000;2.869816
2281.000000;3.177742
2280.000000;3.306546
2279.000000;3.137992
2278.000000;3.144894
2277.000000;3.000591
2276.000000;2.935348
2275.000000;3.058410
2274.000000;3.284566
2273.000000;3.424003
2272.000000;3.337729
2271.000000;3.406727
2270.000000;3.847532
2269.000000;3.387756
2268.000000;3.042388
2267.000000;2.981703
2266.000000;3.036303
2265.000000;3.146730
2264.000000;3.104810
2263.000000;3.016228
2262.000000;3.021093
2261.000000;3.088736
2260.000000;3.161946
2259.000000;3.147273
2258.000000;3.045045
2257.000000;2.975667
2256.000000;3.016757
2255.000000;3.232372
2254.000000;3.552497
2253.000000;3.669935
2252.000000;3.986987
2251.000000;4.094287
2250.000000;3.538080
2249.000000;3.228656
2248.000000;3.099311
2247.000000;3.097390
2246.000000;3.125370
2245.000000;3.098075
2244.000000;3.028347
2243.000000;2.988524
2242.000000;3.024763
2241.000000;3.101469
2240.000000;3.099922
2239.000000;3.042803
2238.000000;2.964615
2237.000000;2.853738
2236.000000;2.782445
2235.000000;2.782566
2234.000000;2.825512
2233.000000;2.887042
2232.000000;2.987868
2231.000000;3.350746
2230.000000;3.438483
2229.000000;3.002736
2228.000000;2.974651
2227.000000;3.183824
2226.000000;3.511124
2225.000000;3.422009
2224.000000;3.178988
2223.000000;3.050950
2222.000000;2.988761
2221.000000;2.996265
2220.000000;3.126621
2219.000000;3.696907
2218.000000;3.644742
2217.000000;3.377550
2216.000000;3.198825
2215.000000;2.871997
2214.000000;2.745294
2213.000000;2.756204
2212.000000;2.815619
2211.000000;2.856001
2210.000000;2.848040
2209.000000;2.904007
2208.000000;3.062579
2207.000000;3.376106
2206.000000;4.003363
2205.000000;3.402743
2204.000000;3.079708
2203.000000;3.026862
2202.000000;3.084965
2201.000000;3.308090
2200.000000;3.389402
2199.000000;3.071662
2198.000000;2.903266
2197.000000;2.878109
2196.000000;2.939413
2195.000000;2.978011
2194.000000;2.945881
2193.000000;2.932661
2192.000000;3.004450
2191.000000;3.138661
2190.000000;3.318258
2189.000000;4.070192
2188.000000;3.538724
2187.000000;3.044692
2186.000000;2.911566
2185.000000;2.923938
2184.000000;3.121959
2183.000000;3.238613
2182.000000;3.146915
2181.000000;3.130179
2180.000000;3.058260
2179.000000;2.949776
2178.000000;2.914278
2177.000000;2.960532
2176.000000;3.080107
2175.000000;3.485551
2174.000000;3.556894
2173.000000;3.066805
2172.000000;2.987720
2171.000000;3.105542
2170.000000;3.217422
2169.000000;3.129318
2168.000000;3.099219
2167.000000;3.232675
2166.000000;3.335401
2165.000000;3.258529
2164.000000;3.083621
2163.000000;2.958677
2162.000000;2.934686
2161.000000;3.012595
2160.000000;3.084983
2159.000000;3.078967
2158.000000;3.024800
2157.000000;2.942460
2156.000000;2.853901
2155.000000;2.825210
2154.000000;2.838208
2153.000000;2.753513
2152.000000;2.665552
2151.000000;2.712756
2150.000000;2.990820
2149.000000;3.190943
2148.000000;2.980964
2147.000000;3.014969
2146.000000;3.140712
2145.000000;3.112725
2144.000000;3.017575
2143.000000;2.983391
2142.000000;3.068827
2141.000000;3.167442
2140.000000;3.259586
2139.000000;3.324733
2138.000000;3.418934
2137.000000;3.832078
2136.000000;3.728133
2135.000000;3.661519
2134.000000;3.782903
2133.000000;3.194551
2132.000000;2.917266
2131.000000;2.823590
2130.000000;2.809761
2129.000000;2.801395
2128.000000;2.808563
2127.000000;2.877366
2126.000000;2.874439
2125.000000;2.810225
2124.000000;2.802396
2123.000000;2.881097
2122.000000;3.033497
2121.000000;3.216272
2120.000000;3.440713
2119.000000;3.455019
2118.000000;3.359237
2117.000000;3.306008
2116.000000;3.143795
2115.000000;3.018299
2114.000000;2.962663
2113.000000;2.942494
2112.000000;2.897691
2111.000000;2.812587
2110.000000;2.762749
2109.000000;2.804087
2108.000000;2.942881
2107.000000;3.096679
2106.000000;3.141765
2105.000000;3.157287
2104.000000;3.176647
2103.000000;3.245095
2102.000000;3.218566
2101.000000;3.359401
2100.000000;4.287042
2099.000000;3.408745
2098.000000;3.316833
2097.000000;3.408835
2096.000000;2.992408
2095.000000;2.790303
2094.000000;2.749669
2093.000000;2.877057
2092.000000;3.078668
2091.000000;3.010137
2090.000000;2.931547
2089.000000;2.993080
2088.000000;3.154968
2087.000000;3.391073
2086.000000;3.640677
2085.000000;3.680198
2084.000000;3.327579
2083.000000;3.069574
2082.000000;2.964633
2081.000000;2.951648
2080.000000;2.957783
2079.000000;2.952125
2078.000000;2.968147
2077.000000;3.003703
2076.000000;3.065320
2075.000000;3.186718
2074.000000;3.323312
2073.000000;3.379719
2072.000000;3.366357
2071.000000;3.327998
2070.000000;3.273141
2069.000000;3.201903
2068.000000;3.152340
2067.000000;3.021933
2066.000000;2.844241
2065.000000;2.775832
2064.000000;2.847366
2063.000000;3.092977
2062.000000;3.505914
2061.000000;3.823807
2060.000000;3.690512
2059.000000;3.281169
2058.000000;3.088749
2057.000000;3.013617
2056.000000;2.928116
2055.000000;2.903735
2054.000000;3.007118
2053.000000;3.226238
2052.000000;3.454537
2051.000000;3.527264
2050.000000;3.422319
2049.000000;3.284226
2048.000000;3.122177
2047.000000;3.096755
2046.000000;3.167022
2045.000000;2.982002
2044.000000;2.799324
2043.000000;2.738646
2042.000000;2.741818
2041.000000;2.788006
2040.000000;2.862422
2039.000000;2.940793
2038.000000;2.990585
2037.000000;3.042344
2036.000000;3.139310
2035.000000;3.198834
2034.000000;3.123288
2033.000000;3.021653
2032.000000;2.970561
2031.000000;2.972813
2030.000000;3.020046
2029.000000;3.114945
2028.000000;3.190606
2027.000000;3.149690
2026.000000;3.039354
2025.000000;2.923624
2024.000000;2.861106
2023.000000;2.898930
2022.000000;3.048966
2021.000000;3.342901
2020.000000;3.776857
2019.000000;3.776974
2018.000000;3.461328
2017.000000;3.231110
2016.000000;3.146701
2015.000000;3.253264
2014.000000;3.332392
2013.000000;3.202899
2012.000000;3.262898
2011.000000;3.444889
2010.000000;3.526878
2009.000000;3.372042
2008.000000;3.029956
2007.000000;2.877696
2006.000000;2.904803
2005.000000;3.169864
2004.000000;3.560337
2003.000000;3.353444
2002.000000;3.067563
2001.000000;2.907727
2000.000000;2.835764
1999.000000;2.958693
1998.000000;3.419989
1997.000000;3.120751
1996.000000;2.877325
1995.000000;2.905891
1994.000000;2.903817
1993.000000;2.838204
1992.000000;2.778839
1991.000000;2.742417
1990.000000;2.690548
1989.000000;2.644863
1988.000000;2.677298
1987.000000;2.827647
1986.000000;3.169243
1985.000000;3.809957
1984.000000;3.465652
1983.000000;3.218772
1982.000000;3.225545
1981.000000;3.353949
1980.000000;3.814937
1979.000000;3.484580
1978.000000;3.112254
1977.000000;3.026886
1976.000000;2.990169
1975.000000;2.986716
1974.000000;3.075200
1973.000000;3.406371
1972.000000;3.792305
1971.000000;3.763902
1970.000000;3.601041
1969.000000;3.193987
1968.000000;3.047051
1967.000000;3.057739
1966.000000;3.173738
1965.000000;3.539585
1964.000000;3.494289
1963.000000;3.173727
1962.000000;3.116483
1961.000000;3.130976
1960.000000;3.085076
1959.000000;3.008852
1958.000000;2.986970
1957.000000;3.041903
1956.000000;3.141637
1955.000000;3.236769
1954.000000;3.341346
1953.000000;3.756349
1952.000000;3.767121
1951.000000;3.363347
1950.000000;3.494283
1949.000000;3.327750
1948.000000;3.043353
1947.000000;2.970168
1946.000000;3.144390
1945.000000;3.675616
1944.000000;3.222836
1943.000000;2.998460
1942.000000;3.074515
1941.000000;3.127519
1940.000000;3.179713
1939.000000;3.336226
1938.000000;3.189944
1937.000000;2.979047
1936.000000;2.930038
1935.000000;2.948226
1934.000000;3.093706
1933.000000;3.474858
1932.000000;3.330497
1931.000000;3.124774
1930.000000;3.331624
1929.000000;3.181942
1928.000000;2.839174
1927.000000;2.744125
1926.000000;2.746564
1925.000000;2.777995
1924.000000;2.830340
1923.000000;2.936811
1922.000000;3.087962
1921.000000;3.332067
1920.000000;3.614358
1919.000000;3.166334
1918.000000;2.885043
1917.000000;2.796105
1916.000000;2.820766
1915.000000;2.980682
1914.000000;2.929575
1913.000000;2.795294
1912.000000;2.787430
1911.000000;3.011898
1910.000000;3.723262
1909.000000;3.194000
1908.000000;2.999785
1907.000000;3.108071
1906.000000;3.462365
1905.000000;3.400731
1904.000000;3.040452
1903.000000;3.003387
1902.000000;3.169948
1901.000000;3.691650
1900.000000;3.688789
1899.000000;3.292264
1898.000000;3.190350
1897.000000;3.212755
1896.000000;3.226170
1895.000000;3.142732
1894.000000;3.166800
1893.000000;3.356218
1892.000000;3.552356
1891.000000;3.608228
1890.000000;3.388974
1889.000000;3.116718
1888.000000;2.948699
1887.000000;2.966399
1886.000000;3.281896
1885.000000;3.279644
1884.000000;3.019472
1883.000000;3.075772
1882.000000;3.377191
1881.000000;3.335929
1880.000000;3.040120
1879.000000;3.136547
1878.000000;3.408131
1877.000000;2.942536
1876.000000;2.730447
1875.000000;2.718714
1874.000000;2.846979
1873.000000;3.066851
1872.000000;3.029345
1871.000000;2.938497
1870.000000;3.063264
1869.000000;3.516115
1868.000000;5.173636
1867.000000;3.655644
1866.000000;3.145686
1865.000000;2.997624
1864.000000;3.066729
1863.000000;3.169972
1862.000000;3.095026
1861.000000;2.975871
1860.000000;2.870786
1859.000000;2.815379
1858.000000;2.851535
1857.000000;2.999079
1856.000000;3.199087
1855.000000;3.228146
1854.000000;3.249830
1853.000000;3.138900
1852.000000;2.841316
1851.000000;2.693305
1850.000000;2.713310
1849.000000;2.944425
1848.000000;3.478450
1847.000000;3.574448
1846.000000;3.367801
1845.000000;3.358875
1844.000000;3.297721
1843.000000;3.338035
1842.000000;3.553354
1841.000000;3.544089
1840.000000;3.304937
1839.000000;3.128342
1838.000000;3.086194
1837.000000;3.334372
1836.000000;3.583265
1835.000000;3.167639
1834.000000;2.942512
1833.000000;2.837104
1832.000000;2.792165
1831.000000;2.817413
1830.000000;2.889997
1829.000000;2.955375
1828.000000;2.965610
1827.000000;2.977843
1826.000000;2.997058
1825.000000;2.948817
1824.000000;2.902989
1823.000000;2.936143
1822.000000;3.236413
1821.000000;3.797905
1820.000000;3.347007
1819.000000;3.179312
1818.000000;3.129911
1817.000000;3.211715
1816.000000;3.335961
1815.000000;3.262883
1814.000000;3.132133
1813.000000;2.995031
1812.000000;2.894254
1811.000000;2.880090
1810.000000;2.964836
1809.000000;3.166388
1808.000000;3.552342
1807.000000;3.523758
1806.000000;3.321850
1805.000000;3.279481
1804.000000;3.226563
1803.000000;3.174086
1802.000000;3.110624
1801.000000;3.052457
1800.000000;3.062719
1799.000000;3.342293
1798.000000;3.562519
1797.000000;3.069038
1796.000000;2.996053
1795.000000;3.134679
1794.000000;3.374248
1793.000000;3.302861
1792.000000;3.088764
1791.000000;3.003903
1790.000000;3.053473
1789.000000;3.315548
1788.000000;3.472961
1787.000000;3.275399
1786.000000;3.096884
1785.000000;2.958116
1784.000000;2.891300
1783.000000;2.908983
1782.000000;2.986544
1781.000000;2.995521
1780.000000;2.937373
1779.000000;2.950703
1778.000000;3.074897
1777.000000;3.259629
1776.000000;3.306544
1775.000000;3.242064
1774.000000;3.156819
1773.000000;3.107419
1772.000000;3.123329
1771.000000;3.097023
1770.000000;3.003171
1769.000000;2.992347
1768.000000;3.083391
1767.000000;3.162818
1766.000000;3.148958
1765.000000;3.099391
1764.000000;3.032334
1763.000000;2.931458
1762.000000;2.865869
1761.000000;2.902759
1760.000000;3.067530
1759.000000;3.298636
1758.000000;3.318914
1757.000000;3.193431
1756.000000;3.191408
1755.000000;3.437734
1754.000000;3.624986
1753.000000;3.316251
1752.000000;3.046948
1751.000000;2.901080
1750.000000;2.877218
1749.000000;2.962691
1748.000000;3.231767
1747.000000;3.511641
1746.000000;3.138185
1745.000000;3.003748
1744.000000;3.046811
1743.000000;3.147650
1742.000000;3.126100
1741.000000;3.115918
1740.000000;3.315159
1739.000000;3.153086
1738.000000;2.891252
1737.000000;2.878315
1736.000000;3.089504
1735.000000;3.534211
1734.000000;3.304992
1733.000000;3.022560
1732.000000;2.901303
1731.000000;2.845211
1730.000000;2.899556
1729.000000;3.038773
1728.000000;3.130112
1727.000000;3.070454
1726.000000;3.013457
1725.000000;3.107300
1724.000000;3.278296
1723.000000;3.175179
1722.000000;3.072659
1721.000000;3.027103
1720.000000;2.948689
1719.000000;2.878919
1718.000000;2.908245
1717.000000;3.123964
1716.000000;3.517996
1715.000000;3.439730
1714.000000;3.401049
1713.000000;3.739051
1712.000000;3.335659
1711.000000;3.085868
1710.000000;3.012239
1709.000000;2.971985
1708.000000;3.004405
1707.000000;3.167396
1706.000000;3.216360
1705.000000;3.015877
1704.000000;2.924873
1703.000000;2.962094
1702.000000;3.090453
1701.000000;3.072382
1700.000000;2.899247
1699.000000;2.892981
1698.000000;3.043030
1697.000000;2.956898
1696.000000;2.961031
1695.000000;3.066453
1694.000000;3.082754
1693.000000;3.006557
1692.000000;2.918701
1691.000000;2.936508
1690.000000;3.051419
1689.000000;3.069068
1688.000000;2.925712
1687.000000;2.810784
1686.000000;2.829054
1685.000000;2.968638
1684.000000;3.175663
1683.000000;3.509071
1682.000000;3.442192
1681.000000;3.073697
1680.000000;2.957626
1679.000000;2.942629
1678.000000;2.982688
1677.000000;3.042952
1676.000000;3.034319
1675.000000;3.012937
1674.000000;3.082518
1673.000000;3.074969
1672.000000;2.921439
1671.000000;2.801237
1670.000000;2.762773
1669.000000;2.811382
1668.000000;2.944709
1667.000000;3.013619
1666.000000;2.942150
1665.000000;2.892488
1664.000000;2.903647
1663.000000;3.019613
1662.000000;3.165532
1661.000000;3.059365
1660.000000;2.851097
1659.000000;2.681618
1658.000000;2.604605
1657.000000;2.600226
1656.000000;2.633195
1655.000000;2.702067
1654.000000;2.820490
1653.000000;2.981213
1652.000000;3.086720
1651.000000;3.086257
1650.000000;3.314275
1649.000000;3.647892
1648.000000;3.156894
1647.000000;3.030133
1646.000000;3.286063
1645.000000;3.558659
1644.000000;3.091926
1643.000000;3.049690
1642.000000;3.162211
1641.000000;3.070111
1640.000000;2.984745
1639.000000;2.971707
1638.000000;2.992480
1637.000000;2.945829
1636.000000;2.838999
1635.000000;2.772654
1634.000000;2.884736
1633.000000;3.141676
1632.000000;2.934773
1631.000000;2.854558
1630.000000;2.988642
1629.000000;3.335838
1628.000000;3.266541
1627.000000;2.960531
1626.000000;2.855340
1625.000000;2.803181
1624.000000;2.807700
1623.000000;2.886512
1622.000000;2.964194
1621.000000;2.865800
1620.000000;2.865174
1619.000000;3.203681
1618.000000;3.403201
1617.000000;3.067177
1616.000000;2.954344
1615.000000;2.934120
1614.000000;3.045096
1613.000000;3.697027
1612.000000;3.041061
1611.000000;2.791194
1610.000000;2.784659
1609.000000;2.970682
1608.000000;3.381826
1607.000000;3.388296
1606.000000;3.526383
1605.000000;3.849347
1604.000000;3.169175
1603.000000;2.995285
1602.000000;2.958869
1601.000000;2.983549
1600.000000;3.024123
1599.000000;3.222997
1598.000000;3.549898
1597.000000;3.229770
1596.000000;3.097504
1595.000000;3.355901
1594.000000;3.488807
1593.000000;3.197981
1592.000000;3.092324
1591.000000;2.954508
1590.000000;2.776632
1589.000000;2.688078
1588.000000;2.705688
1587.000000;2.838324
1586.000000;3.140588
1585.000000;3.169309
1584.000000;2.865572
1583.000000;2.761796
1582.000000;2.763997
1581.000000;2.820356
1580.000000;2.852042
1579.000000;2.815824
1578.000000;2.784924
1577.000000;2.817259
1576.000000;2.862328
1575.000000;2.852786
1574.000000;2.814965
1573.000000;2.825143
1572.000000;2.912435
1571.000000;3.064230
1570.000000;3.118523
1569.000000;2.975511
1568.000000;2.890981
1567.000000;2.985494
1566.000000;3.236614
1565.000000;3.312238
1564.000000;3.287763
1563.000000;3.031918
1562.000000;2.851265
1561.000000;2.813855
1560.000000;2.826336
1559.000000;2.816155
1558.000000;2.868974
1557.000000;3.065525
1556.000000;3.431492
1555.000000;3.202490
1554.000000;3.307896
1553.000000;3.528958
1552.000000;3.306765
1551.000000;3.262603
1550.000000;3.314182
1549.000000;3.200774
1548.000000;3.118421
1547.000000;3.144402
1546.000000;3.492311
1545.000000;3.360341
1544.000000;2.986578
1543.000000;2.892216
1542.000000;2.939391
1541.000000;3.169050
1540.000000;2.936830
1539.000000;2.794552
1538.000000;2.896039
1537.000000;3.524640
1536.000000;3.276892
1535.000000;2.942587
1534.000000;2.851486
1533.000000;2.926808
1532.000000;3.325726
1531.000000;3.127638
1530.000000;2.867839
1529.000000;2.813884
1528.000000;2.764241
1527.000000;2.749773
1526.000000;2.831718
1525.000000;3.052981
1524.000000;3.304301
1523.000000;3.078698
1522.000000;2.912327
1521.000000;2.883235
1520.000000;2.885284
1519.000000;2.912378
1518.000000;3.056645
1517.000000;3.381737
1516.000000;3.269867
1515.000000;3.038425
1514.000000;2.982897
1513.000000;3.107529
1512.000000;3.465267
1511.000000;3.873064
1510.000000;3.576911
1509.000000;3.281511
1508.000000;3.178044
1507.000000;3.180103
1506.000000;3.181519
1505.000000;3.136945
1504.000000;3.280263
1503.000000;3.837693
1502.000000;3.704250
1501.000000;3.410200
1500.000000;3.364213
1499.000000;3.260660
1498.000000;3.085864
1497.000000;3.033327
1496.000000;3.121689
1495.000000;3.306950
1494.000000;3.570746
1493.000000;3.951338
1492.000000;3.478651
1491.000000;3.054373
1490.000000;2.881841
1489.000000;2.828562
1488.000000;2.825029
1487.000000;2.835525
1486.000000;2.844441
1485.000000;2.836182
1484.000000;2.832368
1483.000000;2.828646
1482.000000;2.820869
1481.000000;2.862964
1480.000000;3.032578
1479.000000;3.570933
1478.000000;3.480136
1477.000000;3.168901
1476.000000;3.119606
1475.000000;3.208142
1474.000000;3.414836
1473.000000;3.541267
1472.000000;3.465554
1471.000000;3.291122
1470.000000;3.053162
1469.000000;2.955924
1468.000000;3.005444
1467.000000;3.111041
1466.000000;3.219295
1465.000000;3.270604
1464.000000;3.457376
1463.000000;3.493471
1462.000000;3.123873
1461.000000;3.008126
1460.000000;3.070784
1459.000000;3.198642
1458.000000;3.134380
1457.000000;3.037961
1456.000000;2.985881
1455.000000;2.889169
1454.000000;2.794983
1453.000000;2.764939
1452.000000;2.830307
1451.000000;2.999590
1450.000000;3.071338
1449.000000;2.921730
1448.000000;2.841511
1447.000000;2.873123
1446.000000;3.041027
1445.000000;3.465630
1444.000000;3.616705
1443.000000;3.289763
1442.000000;3.625280
1441.000000;3.575447
1440.000000;3.177301
1439.000000;3.321736
1438.000000;3.732138
1437.000000;3.387025
1436.000000;3.225388
1435.000000;3.393944
1434.000000;3.804818
1433.000000;3.354076
1432.000000;3.081888
1431.000000;2.997252
1430.000000;2.968037
1429.000000;2.938809
1428.000000;2.930200
1427.000000;3.041968
1426.000000;3.324628
1425.000000;3.636532
1424.000000;3.512861
1423.000000;3.326512
1422.000000;3.288933
1421.000000;3.351647
1420.000000;3.411846
1419.000000;3.436933
1418.000000;3.535923
1417.000000;3.628105
1416.000000;3.668611
1415.000000;3.766515
1414.000000;3.341845
1413.000000;3.100209
1412.000000;3.129004
1411.000000;3.216034
1410.000000;3.135287
1409.000000;3.104325
1408.000000;3.322198
1407.000000;3.760573
1406.000000;3.263290
1405.000000;3.057884
1404.000000;3.060805
1403.000000;3.123772
1402.000000;3.147703
1401.000000;3.094051
1400.000000;3.053655
1399.000000;3.047005
1398.000000;3.026104
1397.000000;2.995326
1396.000000;3.017544
1395.000000;3.130334
1394.000000;3.222084
1393.000000;3.084507
1392.000000;2.937034
1391.000000;2.923071
1390.000000;3.022108
1389.000000;3.056888
1388.000000;3.035123
1387.000000;3.156533
1386.000000;3.367625
1385.000000;3.236802
1384.000000;3.137072
1383.000000;3.394625
1382.000000;3.454219
1381.000000;3.331102
1380.000000;3.256049
1379.000000;3.218991
1378.000000;3.394878
1377.000000;3.445524
1376.000000;3.475552
1375.000000;3.845611
1374.000000;3.721468
1373.000000;3.301223
1372.000000;3.064973
1371.000000;3.032155
1370.000000;3.205094
1369.000000;3.562145
1368.000000;3.838353
1367.000000;3.398273
1366.000000;3.026965
1365.000000;2.890653
1364.000000;2.915774
1363.000000;3.028010
1362.000000;3.141289
1361.000000;3.227548
1360.000000;3.636396
1359.000000;3.879428
1358.000000;3.270158
1357.000000;3.098616
1356.000000;3.050661
1355.000000;3.220473
1354.000000;3.612934
1353.000000;3.464248
1352.000000;3.217038
1351.000000;3.088812
1350.000000;3.097213
1349.000000;3.270567
1348.000000;3.477113
1347.000000;3.591801
1346.000000;3.583998
1345.000000;3.560096
1344.000000;3.419655
1343.000000;3.211688
1342.000000;3.093412
1341.000000;3.142476
1340.000000;3.331280
1339.000000;3.339976
1338.000000;3.234352
1337.000000;3.212760
1336.000000;3.255041
1335.000000;3.350339
1334.000000;3.265419
1333.000000;3.001394
1332.000000;2.805643
1331.000000;2.760778
1330.000000;2.837517
1329.000000;3.412534
1328.000000;3.394453
1327.000000;2.992851
1326.000000;3.076165
1325.000000;3.347228
1324.000000;3.899921
1323.000000;3.589796
1322.000000;3.334917
1321.000000;3.432742
1320.000000;3.895723
1319.000000;3.459191
1318.000000;3.168159
1317.000000;3.011154
1316.000000;2.974336
1315.000000;3.000721
1314.000000;2.989291
1313.000000;2.959151
1312.000000;3.013335
1311.000000;3.087308
1310.000000;2.967868
1309.000000;2.846709
1308.000000;2.856272
1307.000000;2.980664
1306.000000;3.275344
1305.000000;3.513741
1304.000000;3.157531
1303.000000;2.989321
1302.000000;3.016848
1301.000000;3.395832
1300.000000;3.389390
1299.000000;3.034324
1298.000000;2.961867
1297.000000;3.061480
1296.000000;3.352080
1295.000000;3.435047
1294.000000;3.202872
1293.000000;2.984131
1292.000000;2.896487
1291.000000;3.001380
1290.000000;3.457582
1289.000000;3.274820
1288.000000;3.072531
1287.000000;3.215120
1286.000000;3.387121
1285.000000;3.150769
1284.000000;3.101000
1283.000000;3.129440
1282.000000;3.338786
1281.000000;3.768925
1280.000000;3.312765
1279.000000;3.115912
1278.000000;3.182197
1277.000000;3.613081
1276.000000;3.879687
1275.000000;3.537180
1274.000000;3.517216
1273.000000;3.426174
1272.000000;3.397856
1271.000000;3.526769
1270.000000;3.809762
1269.000000;3.900237
1268.000000;3.593675
1267.000000;3.266092
1266.000000;3.152090
1265.000000;3.275138
1264.000000;3.392586
1263.000000;3.082756
1262.000000;2.955576
1261.000000;2.968368
1260.000000;3.058235
1259.000000;3.124645
1258.000000;3.109498
1257.000000;3.130442
1256.000000;3.283697
1255.000000;3.743666
1254.000000;3.963292
1253.000000;3.421068
1252.000000;3.133497
1251.000000;2.940836
1250.000000;2.880324
1249.000000;2.914632
1248.000000;3.020466
1247.000000;3.271077
1246.000000;3.375355
1245.000000;3.115318
1244.000000;2.994501
1243.000000;3.030541
1242.000000;3.180248
1241.000000;3.243583
1240.000000;3.209734
1239.000000;3.264270
1238.000000;3.218693
1237.000000;3.027837
1236.000000;2.957762
1235.000000;3.030122
1234.000000;3.220199
1233.000000;3.449755
1232.000000;3.572383
1231.000000;3.684248
1230.000000;3.567432
1229.000000;3.288481
1228.000000;3.121117
1227.000000;3.026661
1226.000000;3.016296
1225.000000;3.133899
1224.000000;3.416287
1223.000000;4.164397
1222.000000;3.913541
1221.000000;3.395093
1220.000000;3.273168
1219.000000;3.309412
1218.000000;3.276495
1217.000000;3.020823
1216.000000;2.828187
1215.000000;2.748978
1214.000000;2.765911
1213.000000;2.892017
1212.000000;3.365219
1211.000000;3.173286
1210.000000;2.781534
1209.000000;2.693511
1208.000000;2.772883
1207.000000;3.002288
1206.000000;3.404656
1205.000000;3.303612
1204.000000;2.940849
1203.000000;2.805911
1202.000000;2.797160
1201.000000;2.902003
1200.000000;3.082131
